Dividing Wavelength (nm)	Counts (n)	Blue Motor Position (mm): 0.000000	Red Motor Position (mm): 36.600000	
326.493990	1992.193424
326.888308	1992.193424
327.282561	1992.193424
327.676750	1967.426235
328.070874	1969.127624
328.464933	1977.168265
328.858929	1984.057002
329.252859	1997.650473
329.646726	2011.947185
330.040528	2024.963444
330.434265	2046.859696
330.827938	2066.116904
331.221547	2085.845459
331.615091	2105.047214
332.008571	2126.885493
332.401986	2148.469193
332.795338	2168.669097
333.188625	2186.091324
333.581847	2207.039839
333.975006	2224.298229
334.368100	2241.251630
334.761129	2257.897520
335.154095	2273.089037
335.546996	2298.415794
335.939833	2338.898780
336.332606	2353.503002
336.725315	2365.911803
337.117960	2373.796167
337.510540	2381.350336
337.903056	2391.064640
338.295508	2395.556308
338.687896	2404.411094
339.080220	2411.055335
339.472480	2418.405337
339.864676	2420.061357
340.256807	2424.474887
340.648875	2425.135278
341.040879	2426.294743
341.432818	2425.306677
341.824694	2431.920671
342.216506	2430.720876
342.608253	2432.790270
342.999937	2426.362799
343.391557	2428.427151
343.783113	2427.202151
344.174605	2424.888261
344.566033	2421.729978
344.957397	2421.626635
345.348697	2420.162180
345.739934	2421.919022
346.131106	2416.270409
346.522215	2416.988773
346.913260	2415.683114
347.304241	2411.957702
347.695159	2411.740932
348.086012	2410.571384
348.476802	2408.968298
348.867528	2407.196332
349.258191	2408.512073
349.648789	2407.193811
350.039324	2403.344890
350.429796	2402.997051
350.820203	2404.958060
351.210548	2403.216341
351.600828	2401.572925
351.991045	2403.753224
352.381198	2402.530744
352.771288	2398.896072
353.161314	2402.127452
353.551276	2404.247257
353.941175	2403.720456
354.331010	2403.236506
354.720782	2403.362534
355.110490	2404.799263
355.500135	2402.109808
355.889717	2405.353790
356.279235	2403.314643
356.668689	2403.536454
357.058080	2405.724315
357.447408	2401.759447
357.836672	2403.080230
358.225873	2403.828841
358.615010	2402.765158
359.004084	2409.495098
359.393095	2409.452248
359.782043	2410.485685
360.170927	2411.342681
360.559748	2414.158165
360.948505	2414.072466
361.337199	2413.401992
361.725830	2414.861406
362.114398	2415.778896
362.502903	2419.552200
362.891344	2416.794689
363.279722	2419.237128
363.668037	2419.854669
364.056289	2418.284350
364.444478	2419.653023
364.832603	2422.413055
365.220665	2421.790472
365.608665	2420.971285
365.996601	2424.419434
366.384474	2421.742581
366.772284	2428.873293
367.160031	2428.533016
367.547715	2426.445978
367.935336	2431.013263
368.322893	2429.435382
368.710388	2431.824889
369.097820	2434.350507
369.485189	2432.747420
369.872495	2438.015426
370.259738	2435.908224
370.646918	2439.396702
371.034035	2443.215376
371.421090	2445.002465
371.808081	2449.859617
372.195010	2452.803651
372.581875	2459.122737
372.968678	2465.146916
373.355418	2473.520272
373.742096	2485.079638
374.128710	2495.484580
374.515262	2507.318688
374.901751	2523.548683
375.288177	2541.233051
375.674540	2561.737944
376.060841	2582.885585
376.447079	2605.467433
376.833254	2633.619757
377.219367	2661.401556
377.605417	2693.221319
377.991404	2721.971019
378.377329	2762.229674
378.763191	2795.183697
379.148991	2848.579598
379.534727	2894.854870
379.920402	2944.946295
380.306013	2993.031341
380.691563	3058.014335
381.077049	3116.219497
381.462474	3174.971624
381.847835	3249.515166
382.233134	3322.352278
382.618371	3381.117008
383.003545	3472.308961
383.388657	3555.777865
383.773706	3641.810197
384.158693	3719.711147
384.543618	3812.954849
384.928480	3897.179927
385.313280	4006.457019
385.698017	4110.103142
386.082692	4233.896237
386.467305	4301.757729
386.851856	4423.844393
387.236344	4585.539403
387.620770	4648.503414
388.005133	4774.605357
388.389435	4923.120270
388.773674	5009.321480
389.157851	5137.825533
389.541965	5280.654024
389.926018	5300.596829
390.310008	5480.618953
390.693936	5610.380774
391.077802	5730.377879
391.461606	5866.637747
391.845348	5979.781404
392.229027	6104.408810
392.612645	6329.967677
392.996200	6446.221726
393.379694	6631.804243
393.763125	6855.318922
394.146494	6954.692667
394.529801	7090.788697
394.913047	7338.362283
395.296230	7336.239958
395.679351	7398.561222
396.062410	7660.365985
396.445408	7555.406642
396.828343	7719.115592
397.211217	7856.000563
397.594028	7735.544713
397.976778	7944.510622
398.359466	8112.892722
398.742092	8080.692352
399.124656	8236.776557
399.507158	8426.054240
399.889598	8447.096016
400.271977	8656.629055
400.654294	8696.300416
401.036549	8899.721056
401.418742	8917.047501
401.800874	9233.059792
402.182944	9312.299169
402.564952	9683.118884
402.946898	9497.632149
403.328783	9560.099607
403.710606	9765.347665
404.092367	10016.571046
404.474067	10386.727850
404.855705	10181.701602
405.237282	10123.829156
405.618797	10558.321165
406.000250	10819.568881
406.381642	11185.695282
406.762972	11133.176541
407.144240	10934.292939
407.525447	11192.944461
407.906593	11132.420368
408.287677	11388.332022
408.668700	11548.607947
409.049661	11517.740962
409.430560	11686.564163
409.811399	11648.269038
410.192176	11820.152219
410.572891	11895.822459
410.953545	12395.922565
411.334138	11854.190090
411.714669	12475.754277
412.095139	11764.533169
412.475547	12282.602467
412.855894	12124.574897
413.236180	12458.954632
413.616405	12138.627114
413.996568	12415.139443
414.376670	12381.668702
414.756711	12259.559353
415.136691	12547.106769
415.516609	12735.444276
415.896466	12809.067808
416.276262	13096.811828
416.655997	13543.858831
417.035670	13577.808481
417.415283	14231.479777
417.794834	14325.792204
418.174324	14073.033791
418.553753	13962.577069
418.933121	14472.058762
419.312428	14279.022899
419.691674	14188.609805
420.070859	14652.509384
420.449983	14300.437720
420.829045	14858.584192
421.208047	14602.783443
421.586988	15065.354679
421.965867	15333.465925
422.344686	15328.754967
422.723444	15887.428239
423.102141	14555.625969
423.480777	15768.830054
423.859352	15273.095587
424.237866	16395.624438
424.616319	16084.786892
424.994712	16765.183865
425.373044	16553.394909
425.751314	17241.784632
426.129524	16348.865215
426.507673	17463.431563
426.885762	17155.623751
427.263789	17350.696240
427.641756	17515.935181
428.019662	17582.851457
428.397508	17627.974825
428.775292	17936.843800
429.153016	17881.864977
429.530679	17982.733424
429.908282	18004.962392
430.285824	17717.130151
430.663305	18439.537580
431.040726	18027.400568
431.418086	17848.285851
431.795385	18518.454322
432.172624	18921.499614
432.549802	18488.847626
432.926920	18663.810952
433.303977	18556.630981
433.680974	18823.832299
434.057910	19106.318396
434.434786	19120.693246
434.811601	19033.574546
435.188355	20102.082392
435.565050	19736.699561
435.941683	19693.998467
436.318257	20576.311296
436.694770	20378.829135
437.071222	20986.905715
437.447614	20046.518794
437.823946	20078.585574
438.200218	20240.517518
438.576429	20008.596714
438.952580	20282.250710
439.328670	20235.196580
439.704700	20657.816671
440.080670	20225.131916
440.456580	20829.205820
440.832429	21011.940085
441.208218	19978.758125
441.583947	20426.089952
441.959616	20540.604803
442.335224	20774.922675
442.710773	20916.853841
443.086261	21452.413423
443.461689	20812.817028
443.837057	20937.436872
444.212365	21581.913103
444.587612	21586.939134
444.962800	21152.492495
445.337927	21582.901169
445.712995	20302.412804
446.088002	22184.376358
446.462949	22377.233260
446.837837	22554.210528
447.212664	22501.868227
447.587431	25383.059050
447.962139	28332.454163
448.336786	30737.303838
448.711374	29184.212558
449.085901	25446.718741
449.460369	25396.397943
449.834776	25308.875950
450.209124	27820.890474
450.583412	27351.359925
450.957640	27882.846254
451.331808	26524.842587
451.705917	25130.212417
452.079965	25172.074158
452.453954	25539.052514
452.827883	25423.907519
453.201752	25214.591250
453.575562	25383.535439
453.949311	26532.611005
454.323001	26565.438999
454.696632	26334.385274
455.070202	27900.891065
455.443713	28032.404686
455.817164	28634.981367
456.190556	29169.142029
456.563888	28612.717111
456.937160	29054.637260
457.310373	27369.918933
457.683526	27839.540222
458.056619	27818.004413
458.429653	27740.637825
458.802628	28328.156579
459.175542	28443.593961
459.548398	29745.809699
459.921194	31335.272904
460.293930	32001.867198
460.666607	34043.045514
461.039224	35807.666129
461.411782	36213.995732
461.784280	35023.691089
462.156719	34550.533430
462.529099	33981.359435
462.901419	32690.725747
463.273680	31611.497888
463.645882	31696.199355
464.018024	31685.154187
464.390106	32515.475075
464.762130	35221.821038
465.134094	39294.236514
465.505999	44604.300630
465.877845	49212.636130
466.249631	50403.439848
466.621358	48715.137260
466.993026	46618.445758
467.364634	44543.647988
467.736184	42557.009915
468.107674	41304.333596
468.479105	40499.722592
468.850477	39798.452722
469.221790	38343.038839
469.593043	36592.281396
469.964238	35722.785702
470.335373	35636.329913
470.706449	37349.041768
471.077467	39941.969331
471.448425	44514.605900
471.819324	47340.926283
472.190164	45500.428741
472.560945	41922.868049
472.931667	38816.294800
473.302330	37686.627676
473.672934	36864.508745
474.043479	37368.248564
474.413965	36570.770793
474.784393	36183.095980
475.154761	37097.531041
475.525070	37111.190047
475.895321	36661.141037
476.265513	37251.409741
476.635645	38213.047646
477.005719	38034.227837
477.375734	38516.406640
477.745691	39213.404133
478.115588	40559.419936
478.485427	42531.854557
478.855207	45904.522592
479.224928	48505.977267
479.594591	50157.839874
479.964194	49157.470784
480.333739	49323.145784
480.703226	49356.500579
481.072653	49998.859525
481.442022	50448.437187
481.811333	50744.466344
482.180584	49441.872519
482.549777	48926.139796
482.918912	48380.744923
483.287988	48087.755582
483.657005	47264.575488
484.025964	46632.581154
484.394864	46653.491860
484.763706	46208.307564
485.132489	45331.529922
485.501213	45152.924362
485.869879	45322.705382
486.238487	44910.800263
486.607036	45094.000835
486.975527	44552.704420
487.343959	44751.492240
487.712333	44836.082802
488.080648	44754.973157
488.448905	45219.268467
488.817104	45021.317479
489.185244	45971.224619
489.553326	47659.007968
489.921350	50359.664988
490.289315	53225.908790
490.657222	53820.210417
491.025070	54095.618733
491.392861	53212.133837
491.760593	51988.633195
492.128267	50306.891669
492.495883	48797.255136
492.863440	47398.728153
493.230939	46039.426389
493.598380	44943.169512
493.965763	44606.022184
494.333088	43784.639262
494.700354	43292.731031
495.067563	42996.631298
495.434713	42876.518246
495.801805	42937.995117
496.168839	42550.350551
496.535815	42213.072153
496.902733	42219.313101
497.269593	41825.130159
497.636395	41767.277877
498.003139	42149.099911
498.369825	41599.415016
498.736453	41919.064499
499.103023	41448.462705
499.469535	41300.028451
499.835989	41402.028637
500.202385	41077.012846
500.568723	41097.343819
500.935003	41289.252984
501.301226	41071.018914
501.667390	41691.146372
502.033497	41962.234420
502.399546	41372.613504
502.765537	40685.852075
503.131470	41063.719323
503.497345	41427.166351
503.863163	40093.501374
504.228923	40700.857069
504.594625	41096.796854
504.960269	40401.026882
505.325856	41078.396642
505.691385	40443.438110
506.056856	40575.869221
506.422270	41022.644001
506.787625	40609.445826
507.152924	40776.812134
507.518164	40893.293035
507.883347	40084.018964
508.248472	40357.246982
508.613540	40822.356438
508.978550	41129.100568
509.343503	40861.853879
509.708398	41069.186454
510.073236	41593.892432
510.438016	41603.732764
510.802738	41048.646273
511.167403	41672.395800
511.532010	41895.005592
511.896561	42186.830427
512.261053	43041.174933
512.625488	42564.198601
512.989866	42443.899026
513.354186	42293.781026
513.718449	42281.447843
514.082655	42961.398674
514.446803	42617.261786
514.810894	43144.001869
515.174927	43065.117894
515.538904	42975.171106
515.902822	43628.149243
516.266684	43057.306626
516.630488	43495.939942
516.994235	43329.050024
517.357925	43907.202314
517.721558	44078.921658
518.085133	44374.643305
518.448651	44504.876473
518.812112	44249.773924
519.175516	44360.921284
519.538863	44684.071848
519.902152	44654.528166
520.265385	45088.725268
520.628560	45120.071162
520.991678	44909.053503
521.354739	45156.067521
521.717743	45446.160719
522.080690	45344.215986
522.443580	45871.969341
522.806413	45906.009732
523.169189	45844.048910
523.531908	46003.631676
523.894569	45867.200409
524.257174	46013.774478
524.619722	46301.004301
524.982213	46267.420134
525.344647	46180.545929
525.707025	46203.871348
526.069345	46564.722182
526.431608	46480.194635
526.793815	46783.190666
527.155964	46298.032540
527.518057	46425.339319
527.880093	46198.172324
528.242072	46699.462142
528.603995	46386.479585
528.965860	46380.765437
529.327669	46462.230483
529.689421	46329.779207
530.051117	46253.055366
530.412755	46365.944444
530.774337	46392.730615
531.135862	46180.515682
531.497331	46359.345574
531.858743	46240.490290
532.220098	46543.607309
532.581396	46225.591160
532.942638	45863.573299
533.303824	46110.819210
533.664953	46036.794907
534.026025	45725.775879
534.387040	46151.014850
534.747999	46078.444920
535.108902	46193.637806
535.469748	45686.296083
535.830537	45749.502070
536.191270	45903.539567
536.551947	45497.948493
536.912567	45781.054652
537.273131	45841.016656
537.633638	45299.599254
537.994089	45599.870541
538.354483	45148.891439
538.714821	45658.710889
539.075103	45945.083716
539.435328	45654.872050
539.795497	45489.111350
540.155609	45416.574187
540.515665	45816.206617
540.875665	45243.579432
541.235609	45482.257902
541.595496	45412.301810
541.955328	46004.549166
542.315102	45327.648234
542.674821	45054.319393
543.034483	45025.400814
543.394090	44923.783755
543.753640	44823.764742
544.113134	45721.924438
544.472571	44703.066916
544.831953	45839.963055
545.191278	45000.789901
545.550548	44656.370708
545.909761	45022.504671
546.268918	45144.258618
546.628019	45358.532863
546.987064	44859.388056
547.346053	44093.248618
547.704986	44851.559144
548.063863	44326.608670
548.422684	44446.026043
548.781449	44226.367847
549.140158	44512.115570
549.498811	44278.800888
549.857408	43635.484122
550.215949	44343.246999
550.574434	44168.780226
550.932864	43871.952046
551.291237	44451.576354
551.649555	43973.478364
552.007817	44104.376965
552.366022	43667.427393
552.724173	43733.403494
553.082267	44012.012944
553.440305	44171.694013
553.798288	43412.980194
554.156215	43595.361579
554.514086	43689.265672
554.871902	43340.236344
555.229661	43257.637038
555.587365	42963.979745
555.945014	42936.717185
556.302606	42733.737646
556.660143	42840.801671
557.017625	42800.346411
557.375050	42472.124446
557.732421	42659.136130
558.089735	42511.702545
558.446994	42333.757376
558.804197	42624.203455
559.161345	42426.799432
559.518437	41643.336069
559.875474	41752.310691
560.232455	41772.636624
560.589381	41798.349029
560.946251	41383.134392
561.303065	41845.191430
561.659825	41532.556713
562.016528	41102.261465
562.373177	40708.466691
562.729770	40977.946611
563.086307	40409.841340
563.442789	40649.051652
563.799216	40558.124360
564.155587	40205.387263
564.511904	40065.449874
564.868164	39980.118263
565.224370	40019.716526
565.580520	39636.286364
565.936615	39660.282257
566.292654	39237.273996
566.648638	39267.833471
567.004567	39061.879651
567.360441	38933.849467
567.716260	38628.259762
568.072023	38678.673821
568.427732	38489.917897
568.783385	37939.055893
569.138982	38071.481964
569.494525	37849.716565
569.850013	37483.060843
570.205445	37273.031250
570.560823	37044.528349
570.916145	36761.734742
571.271412	36601.665504
571.626625	36219.046968
571.981782	36073.811326
572.336884	35632.203729
572.691931	35685.645001
573.046923	35170.396228
573.401860	34872.620311
573.756743	34675.853994
574.111570	34551.972680
574.466342	34246.841720
574.821059	34123.527535
575.175722	33566.495158
575.530330	33390.357243
575.884882	32977.774089
576.239380	32759.320728
576.593823	32543.166133
576.948211	32270.013733
577.302544	31736.468092
577.656823	31545.799051
578.011047	31503.206342
578.365216	31098.792377
578.719330	30755.527609
579.073389	30445.665526
579.427394	30304.495574
579.781344	30059.949201
580.135239	29632.872730
580.489080	29478.467229
580.842866	28941.601988
581.196597	29025.973259
581.550273	28764.856614
581.903895	28468.862745
582.257463	28521.361321
582.610975	27908.117559
582.964434	27871.987609
583.317837	27428.839939
583.671186	27133.627449
584.024481	27058.912508
584.377721	26582.825939
584.730906	26533.173094
585.084037	26344.795257
585.437113	25967.981610
585.790135	25782.913291
586.143103	25351.720717
586.496016	25214.480345
586.848874	25031.418404
587.201679	24833.336346
587.554428	24327.675848
587.907124	24227.495518
588.259765	23891.036308
588.612352	23829.340146
588.964884	23297.576553
589.317362	23246.807093
589.669786	23011.909488
590.022155	22685.779602
590.374470	22711.723900
590.726731	22278.918158
591.078937	21835.775529
591.431090	21680.865912
591.783188	21338.848829
592.135232	20981.743573
592.487222	20906.514434
592.839157	20755.083214
593.191038	20410.139742
593.542866	20113.523290
593.894639	19652.915584
594.246358	19587.176417
594.598022	19405.987266
594.949633	19046.394200
595.301190	18837.067848
595.652692	18580.573941
596.004141	18542.480462
596.355535	17952.126058
596.706876	17741.249552
597.058162	17486.583062
597.409395	17517.392074
597.760573	17369.923201
598.111698	17028.836211
598.462768	16862.102568
598.813785	16706.202365
599.164748	16327.412585
599.515657	16296.941331
599.866511	15946.127435
600.217312	16009.156981
600.568060	15476.266690
600.918753	15575.433748
601.269392	15403.727007
601.619978	15124.071518
601.970510	15038.467685
602.320988	14940.472695
602.671412	14891.311363
603.021783	14650.344209
603.372100	14386.202871
603.722363	14267.529068
604.072572	14143.015089
604.422728	13997.401360
604.772830	13790.905616
605.122878	13669.693592
605.472872	13510.075538
605.822813	13440.321092
606.172701	13241.135022
606.522534	13179.615301
606.872314	13107.340278
607.222041	12886.658727
607.571714	12852.446937
607.921333	12550.565000
608.270899	12498.663801
608.620411	12449.671347
608.969870	12257.275711
609.319276	12131.425825
609.668627	12015.491890
610.017926	12002.223573
610.367171	11911.586147
610.716362	11811.741054
611.065500	11672.217039
611.414585	11584.006929
611.763616	11535.972295
612.112594	11386.305478
612.461518	11318.254943
612.810389	11262.993814
613.159207	11110.125865
613.507971	11015.301761
613.856682	10999.011272
614.205340	10858.310148
614.553945	10886.505321
614.902496	10661.942082
615.250994	10639.579524
615.599439	10539.636128
615.947830	10478.837292
616.296169	10377.031190
616.644454	10294.086565
616.992686	10223.701975
617.340864	10214.239730
617.688990	10066.513757
618.037063	10074.972813
618.385082	9972.786104
618.733048	9925.837839
619.080961	9830.915432
619.428821	9737.384384
619.776628	9657.613166
620.124382	9529.628352
620.472083	9449.244633
620.819731	9373.304692
621.167326	9216.620589
621.514868	9119.066701
621.862357	8950.951782
622.209793	8858.612967
622.557176	8715.411430
622.904506	8578.440759
623.251783	8443.904966
623.599007	8318.760842
623.946179	8200.202986
624.293297	8111.302238
624.640363	7946.973226
624.987376	7864.535237
625.334336	7747.663647
625.681243	7631.066799
626.028097	7541.699744
626.374899	7449.960827
626.721647	7376.503653
627.068343	7289.589120
627.414987	7195.964811
627.761577	7106.254957
628.108115	7079.269661
628.454600	6955.998326
628.801032	6909.614669
629.147412	6845.012283
629.493739	6793.368182
629.840014	6690.977307
630.186236	6671.941910
630.532405	6573.896508
630.878521	6541.791920
631.224585	6480.446119
631.570597	6395.883284
631.916556	6363.582091
632.262462	6305.397093
632.608316	6259.789774
632.954117	6199.863058
633.299866	6150.245501
633.645562	6087.273928
633.991206	5986.917158
634.336797	5893.224793
634.682336	5840.890054
635.027823	5768.120998
635.373257	5704.844435
635.718639	5633.466738
636.063968	5574.646555
636.409245	5473.846163
636.754470	5431.419812
637.099642	5368.251634
637.444762	5285.884221
637.789829	5256.625364
638.134845	5189.010888
638.479808	5144.379033
638.824719	5102.819761
639.169577	5032.432650
639.514383	4998.051981
639.859137	4932.345582
640.203839	4919.659518
640.548489	4856.942523
640.893086	4823.139066
641.237632	4773.461015
641.582125	4747.151233
641.926566	4710.325604
642.270955	4674.130120
642.615292	4644.893948
642.959576	4610.465388
643.303809	4583.895987
643.647990	4558.564188
643.992118	4525.627810
644.336195	4495.713603
644.680219	4470.086897
645.024192	4461.867296
645.368112	4461.337975
645.711981	4437.271506
646.055797	4460.029795
646.399562	4436.860652
646.743274	4465.665805
647.086935	4470.825426
647.430544	4440.220581
647.774101	4421.250719
648.117606	4403.359664
648.461059	4390.865165
648.804460	4348.988300
649.147810	4285.147127
649.491108	4241.357144
649.834354	4193.866955
650.177548	4127.487561
650.520690	4078.182556
650.863781	4050.902352
651.206820	4025.381511
651.549807	3978.836537
651.892742	3936.291719
652.235626	3904.010691
652.578458	3874.812328
652.921238	3827.707786
653.263967	3818.081703
653.606644	3790.098258
653.949269	3768.723766
654.291843	3732.215729
654.634365	3727.098958
654.976836	3693.645861
655.319255	3678.179601
655.661622	3655.441477
656.003938	3629.431644
656.346203	3604.971965
656.688416	3592.500151
657.030577	3571.206317
657.372687	3549.350394
657.714746	3539.245401
658.056753	3528.018752
658.398708	3491.485510
658.740612	3477.768530
659.082465	3469.367447
659.424266	3452.237607
659.766016	3438.460133
660.107715	3426.381528
660.449362	3416.810898
660.790958	3402.720873
661.132503	3390.027248
661.473996	3378.679610
661.815438	3364.430789
662.156829	3355.376877
662.498168	3335.378619
662.839456	3325.230777
663.180693	3315.589570
663.521879	3303.921819
663.863013	3293.602577
664.204097	3279.605814
664.545129	3279.200001
664.886110	3267.260028
665.227040	3257.144953
665.567918	3249.799992
665.908746	3241.247674
666.249522	3236.975296
666.590248	3224.243862
666.930922	3220.911659
667.271545	3209.246429
667.612118	3203.512117
667.952639	3185.910928
668.293109	3176.494053
668.633528	3167.379647
668.973896	3153.009838
669.314213	3146.393323
669.654480	3126.914305
669.994695	3117.431894
670.334859	3108.103239
670.674973	3096.329624
671.015035	3090.731423
671.355047	3082.423602
671.695008	3075.270204
672.034918	3064.114131
672.374777	3061.006259
672.714585	3049.835063
673.054342	3051.990156
673.394049	3039.241078
673.733705	3037.315357
674.073310	3027.371681
674.412864	3021.143335
674.752368	3002.412928
675.091820	3001.838237
675.431223	2989.484889
675.770574	2981.459372
676.109875	2964.251394
676.449125	2957.118161
676.788324	2949.700103
677.127473	2934.954728
677.466571	2925.701690
677.805619	2920.635331
678.144616	2916.090730
678.483562	2910.023702
678.822458	2901.274779
679.161303	2896.402504
679.500098	2892.205743
679.838842	2884.041595
680.177535	2880.996738
680.516179	2881.135370
680.854771	2882.372973
681.193314	2890.811864
681.531805	2900.662279
681.870247	2906.643608
682.208638	2914.399423
682.546978	2914.628796
682.885268	2914.049063
683.223508	2902.895510
683.561697	2894.524674
683.899836	2890.030486
684.237925	2881.281563
684.575963	2873.082126
684.913951	2864.827237
685.251889	2866.190869
685.589776	2859.947400
685.927614	2860.078470
686.265401	2856.426154
686.603137	2857.021010
686.940824	2857.817512
687.278460	2865.711959
687.616046	2863.057792
687.953582	2868.371168
688.291068	2869.419728
688.628504	2866.768081
688.965889	2865.202803
689.303224	2856.577389
689.640510	2849.502129
689.977745	2840.536437
690.314930	2830.189469
690.652065	2821.942141
690.989150	2808.986376
691.326185	2797.500107
691.663170	2784.478806
692.000105	2773.801642
692.336990	2766.285282
692.673825	2759.671288
693.010610	2750.728281
693.347345	2738.934502
693.684030	2732.133985
694.020665	2727.559138
694.357251	2718.419526
694.693786	2718.457335
695.030272	2715.384752
695.366707	2705.907382
695.703093	2701.894624
696.039429	2700.828420
696.375716	2699.706763
696.711952	2697.448326
697.048139	2695.126875
697.384276	2689.521112
697.720363	2689.190916
698.056400	2685.911646
698.392388	2683.343178
698.728326	2684.356450
699.064214	2677.626509
699.400053	2677.606345
699.735842	2673.863288
700.071581	2670.515962
700.407270	2665.303409
700.742910	2663.818789
701.078501	2657.098931
701.414042	2655.528612
701.749533	2650.676501
702.084974	2646.908238
702.420366	2648.501243
702.755709	2643.258443
703.091002	2636.974645
703.426246	2637.463637
703.761440	2635.409367
704.096584	2634.769140
704.431679	2631.930970
704.766725	2630.506844
705.101721	2626.662965
705.436668	2631.855353
705.771565	2627.709004
706.106413	2628.860908
706.441212	2626.705814
706.775961	2629.697739
707.110661	2624.649024
707.445311	2629.821247
707.779913	2627.754374
708.114465	2629.186062
708.448967	2631.358799
708.783421	2639.417084
709.117825	2637.173770
709.452180	2642.197280
709.786485	2642.865233
710.120742	2650.837818
710.454949	2648.569299
710.789107	2652.486275
711.123216	2656.229332
711.457275	2660.249652
711.791286	2664.383398
712.125247	2665.895744
712.459159	2664.093532
712.793023	2669.946312
713.126837	2660.216885
713.460602	2664.189314
713.794318	2659.301915
714.127985	2655.969712
714.461602	2646.255409
714.795171	2644.952271
715.128691	2635.618574
715.462162	2630.650517
715.795584	2621.667181
716.128957	2621.921759
716.462281	2617.319186
716.795556	2614.846500
717.128782	2611.040429
717.461960	2607.836776
717.795088	2604.663369
718.128167	2601.605909
718.461198	2595.536360
718.794180	2595.125506
719.127113	2589.464290
719.459997	2588.080494
719.792833	2585.595205
720.125619	2584.476069
720.458357	2579.908783
720.791046	2579.926427
721.123686	2576.596745
721.456278	2573.330077
721.788821	2572.997361
722.121315	2571.888307
722.453761	2572.858730
722.786158	2571.560632
723.118506	2568.336815
723.450805	2570.514593
723.783056	2567.189952
724.115259	2569.939902
724.447412	2567.598286
724.779518	2567.827658
725.111574	2569.708008
725.443582	2572.215982
725.775542	2571.956363
726.107453	2574.481981
726.439315	2573.526682
726.771129	2580.712847
727.102895	2580.004565
727.434612	2584.833991
727.766281	2583.964392
728.097901	2585.484299
728.429473	2585.209557
728.760996	2587.160483
729.092471	2582.610842
729.423897	2588.103179
729.755276	2585.106213
730.086606	2588.032603
730.417887	2591.901688
730.749120	2595.508634
731.080305	2595.604416
731.411442	2599.889397
731.742530	2598.959304
732.073570	2602.508276
732.404562	2605.474995
732.735506	2601.996599
733.066401	2599.274376
733.397249	2597.555342
733.728048	2590.825402
734.058798	2584.347519
734.389501	2574.297979
734.720156	2572.273956
735.050762	2566.098542
735.381320	2564.510579
735.711831	2559.134188
736.042293	2557.463046
736.372707	2557.231153
736.703073	2556.227963
737.033391	2555.958261
737.363661	2555.892726
737.693883	2555.065977
738.024056	2560.792728
738.354182	2560.386915
738.684260	2563.832544
739.014290	2564.679457
739.344272	2567.931002
739.674207	2569.556774
740.004093	2572.866291
740.333931	2573.592217
740.663722	2574.260170
740.993464	2570.045766
741.323159	2571.336301
741.652806	2568.581311
741.982405	2565.755744
742.311956	2563.623336
742.641460	2562.022769
742.970915	2555.565051
743.300323	2554.080432
743.629683	2553.848538
743.958996	2553.029351
744.288260	2547.821839
744.617477	2544.570295
744.946647	2541.590973
745.275768	2539.773637
745.604842	2535.042514
745.933869	2534.656866
746.262847	2533.326001
746.591778	2539.665252
746.920662	2537.220292
747.249498	2539.082999
747.578286	2538.054603
747.907027	2537.590817
748.235720	2543.536858
748.564365	2539.146013
748.892963	2541.313709
749.221514	2543.151210
749.550017	2541.255736
749.878473	2540.645757
750.206881	2532.037986
750.535242	2536.552340
750.863555	2534.266176
751.191821	2534.883718
751.520039	2532.496731
751.848210	2533.454551
752.176334	2536.748945
752.504411	2535.329860
752.832440	2532.080836
753.160421	2532.279962
753.488356	2529.449354
753.816243	2530.139992
754.144082	2529.512368
754.471875	2531.435568
754.799620	2530.530681
755.127318	2531.271731
755.454969	2526.699404
755.782572	2529.779549
756.110129	2527.591689
756.437638	2528.141174
756.765100	2529.431710
757.092515	2528.514220
757.419882	2527.989940
757.747203	2527.105217
758.074477	2529.950949
758.401703	2530.026566
758.728882	2529.940866
759.056014	2531.223840
759.383099	2532.756351
759.710138	2534.188038
760.037129	2536.696012
760.364073	2536.348173
760.690970	2535.188708
761.017820	2532.877338
761.344623	2537.621064
761.671379	2539.970242
761.998088	2544.091385
762.324751	2562.610064
762.651366	2588.267016
762.977935	2625.795886
763.304456	2644.493526
763.630931	2659.848880
763.957359	2647.261119
764.283740	2632.445168
764.610074	2612.189812
764.936362	2592.612491
765.262602	2577.073134
765.588796	2559.988664
765.914943	2548.351160
766.241044	2537.144675
766.567097	2529.981196
766.893104	2523.084897
767.219064	2519.717406
767.544978	2517.811850
767.870845	2511.580984
768.196665	2512.402692
768.522438	2506.247443
768.848165	2506.534789
769.173846	2505.279542
769.499479	2505.685355
769.825066	2501.659993
770.150607	2500.041783
770.476101	2499.323418
770.801548	2501.317195
771.126949	2495.638335
771.452303	2497.362410
771.777611	2491.912922
772.102872	2496.276041
772.428087	2491.197078
772.753256	2493.284116
773.078378	2491.181955
773.403453	2489.404948
773.728482	2488.910915
774.053465	2490.748416
774.378401	2486.997797
774.703291	2487.128867
775.028135	2485.722385
775.352932	2486.660040
775.677683	2483.504278
776.002388	2486.281953
776.327046	2481.931438
776.651658	2481.722230
776.976224	2480.242651
777.300743	2482.546458
777.625216	2480.696355
777.949643	2482.198619
778.274024	2479.362970
778.598359	2476.587815
778.922647	2474.130252
779.246889	2478.561426
779.571086	2476.542444
779.895236	2478.493371
780.219339	2476.539924
780.543397	2478.601756
780.867409	2477.240644
781.191374	2479.869606
781.515294	2478.949595
781.839167	2479.176447
782.162995	2480.106540
782.486776	2479.068062
782.810511	2476.129070
783.134201	2478.871457
783.457844	2478.437918
783.781441	2478.027064
784.104993	2475.932465
784.428498	2475.256950
784.751958	2474.780561
785.075372	2476.996148
785.398739	2477.346508
785.722061	2475.372897
786.045337	2477.558237
786.368568	2476.728967
786.691752	2478.417753
787.014891	2481.409678
787.337983	2484.275574
787.661030	2490.362767
787.984031	2495.272851
788.306987	2496.578510
788.629897	2497.826196
788.952760	2497.664879
789.275579	2495.769405
789.598351	2494.783859
789.921078	2490.065339
790.243759	2487.017962
790.566395	2486.110554
790.888984	2485.160297
791.211529	2480.540079
791.534027	2478.296766
791.856480	2475.448514
792.178888	2475.645119
792.501249	2477.023874
792.823566	2473.500108
793.145836	2474.009264
793.468062	2476.388689
793.790241	2472.993472
794.112375	2473.679069
794.434464	2475.115798
794.756507	2473.772330
795.078505	2477.464975
795.400457	2476.539924
795.722364	2480.275419
796.044226	2484.535194
796.366042	2487.620380
796.687812	2487.746409
797.009538	2487.968219
797.331218	2485.934114
797.652852	2489.420072
797.974442	2485.429998
798.295986	2485.072077
798.617484	2481.608804
798.938938	2481.570995
799.260346	2479.431025
799.581709	2480.381283
799.903026	2480.804740
800.224299	2475.803915
800.545526	2474.309213
800.866708	2474.921713
801.187845	2475.219141
801.508936	2474.331898
801.829983	2472.018009
802.150984	2473.845427
802.471940	2471.690334
802.792851	2471.435755
803.113717	2472.088585
803.434538	2472.015488
803.755314	2471.435755
804.076045	2470.629171
804.396731	2466.195476
804.717372	2469.152113
805.037967	2470.389716
805.358518	2470.377113
805.679024	2471.569346
805.999485	2469.678913
806.319901	2472.605303
806.640272	2473.732001
806.960598	2470.543471
807.280879	2473.051445
807.601115	2474.185705
807.921306	2471.728142
808.241453	2472.832155
808.561554	2472.754017
808.881611	2471.506332
809.201623	2469.900724
809.521590	2472.882567
809.841513	2471.644963
810.161390	2472.431383
810.481223	2469.598255
810.801011	2469.394088
811.120755	2473.666466
811.440453	2475.012454
811.760107	2471.395426
812.079716	2468.433748
812.399281	2464.894858
812.718801	2467.959880
813.038276	2465.986268
813.357707	2467.483491
813.677093	2468.310240
813.996434	2468.630353
814.315731	2467.627164
814.634983	2467.337297
814.954191	2468.869808
815.273354	2469.467185
815.592473	2470.704788
815.911547	2474.425160
816.230577	2472.537247
816.549562	2473.127063
816.868502	2476.686117
817.187399	2478.311889
817.506250	2481.616366
817.825058	2480.345995
818.143821	2481.659215
818.462539	2486.019813
818.781213	2489.599033
819.099843	2496.616319
819.418429	2510.645850
819.736970	2518.507529
820.055466	2531.065044
820.373919	2547.514329
820.692327	2571.474933
821.010691	2620.248096
821.329011	2722.185268
821.647286	2868.880325
821.965517	3037.201931
822.283704	3134.407980
822.601847	3166.328566
822.919945	3100.632249
823.237999	3017.312058
823.556010	2941.929164
823.873976	2862.717514
824.191897	2793.094138
824.509775	2741.727301
824.827609	2696.533357
825.145398	2669.059068
825.463144	2652.355205
825.780845	2656.710762
826.098502	2677.084585
826.416116	2711.510625
826.733685	2748.696696
827.051210	2759.988881
827.368692	2738.846282
827.686129	2698.559901
828.003522	2656.748571
828.320872	2617.891357
828.638177	2590.575865
828.955439	2563.910682
829.272656	2543.420912
829.589830	2527.967255
829.906960	2517.050636
830.224046	2510.968484
830.541088	2501.428100
830.858086	2496.276041
831.175041	2492.898468
831.491952	2491.668426
831.808819	2490.614825
832.125642	2496.094559
832.442421	2504.382216
832.759157	2527.611853
833.075849	2559.766853
833.392497	2593.807244
833.709101	2613.051849
834.025662	2611.758793
834.342179	2594.412183
834.658653	2569.186249
834.975083	2552.167314
835.291469	2535.944881
835.607811	2517.942920
835.924110	2506.910355
836.240366	2499.850219
836.556578	2487.953096
836.872746	2483.955461
837.188871	2474.730149
837.504952	2469.673872
837.820990	2470.125055
838.136984	2470.213276
838.452935	2464.695733
838.768842	2465.547688
839.084706	2471.198821
839.400526	2487.451501
839.716303	2502.569922
840.032037	2514.903104
840.347727	2512.571571
840.663373	2504.407422
840.978977	2490.105669
841.294537	2482.415388
841.610054	2474.220993
841.925527	2469.772175
842.240957	2461.686164
842.556344	2460.753550
842.871687	2459.415124
843.186987	2453.973198
843.502244	2449.819288
843.817458	2449.610080
844.132629	2447.752415
844.447756	2447.666715
844.762840	2441.831579
845.077881	2443.744697
845.392879	2439.850406
845.707833	2443.074224
846.022745	2437.501228
846.337613	2439.731939
846.652438	2440.256219
846.967221	2441.206476
847.281960	2441.345108
847.596656	2440.813266
847.911309	2439.091712
848.225919	2439.505087
848.540485	2441.420725
848.855009	2442.214707
849.169490	2438.592638
849.483928	2438.922834
849.798323	2438.393513
850.112675	2438.799325
850.426984	2438.365786
850.741251	2440.256219
851.055474	2438.264963
851.369654	2436.944181
851.683792	2440.225972
851.997887	2439.343770
852.311938	2438.005344
852.625947	2439.220262
852.939914	2441.992896
853.253837	2438.988369
853.567718	2437.856630
853.881555	2440.432659
854.195350	2438.683379
854.509103	2440.616661
854.822812	2437.934768
855.136479	2437.801177
855.450103	2436.553491
855.763685	2439.784871
856.077224	2440.377207
856.390720	2438.832093
856.704173	2438.315375
857.017584	2437.760848
857.330953	2437.854109
857.644278	2439.210179
857.957561	2440.820828
858.270802	2441.168668
858.584000	2438.975766
858.897155	2440.699840
859.210268	2439.855447
859.523339	2440.737649
859.836367	2436.608944
860.149352	2442.136569
860.462295	2440.152875
860.775195	2439.724377
861.088054	2435.106680
861.400869	2439.089192
861.713642	2435.262956
862.026373	2437.947370
862.339062	2436.787905
862.651708	2438.597679
862.964312	2438.718667
863.276873	2442.444080
863.589392	2440.924172
863.901869	2442.469285
864.214303	2441.955088
864.526696	2443.827876
864.839045	2441.405602
865.151353	2443.888370
865.463619	2445.793926
865.775842	2446.497167
866.088023	2442.512135
866.400162	2444.931889
866.712258	2445.854420
867.024313	2443.676642
867.336325	2444.243772
867.648296	2446.290480
867.960224	2447.124791
868.272110	2445.443566
868.583954	2444.193360
868.895755	2446.172013
869.207515	2446.449276
869.519233	2448.269133
869.830909	2445.408278
870.142542	2448.972374
870.454134	2445.244441
870.765684	2448.236365
871.077191	2446.391303
871.388657	2452.118054
871.700081	2447.288628
872.011463	2448.748042
872.322803	2450.595625
872.634101	2449.844493
872.945357	2449.481530
873.256571	2450.504885
873.567744	2449.831891
873.878874	2452.002107
874.189963	2453.219546
874.501010	2457.101234
874.812015	2450.182251
875.122979	2454.008487
875.433900	2455.359516
875.744780	2455.803137
876.055618	2455.730041
876.366415	2455.770370
876.677169	2455.684670
876.987882	2456.622325
877.298554	2453.741305
877.609183	2454.764660
877.919771	2458.616101
878.230317	2463.816051
878.540822	2469.273100
878.851285	2474.105046
879.161707	2479.688124
879.472087	2496.384426
879.782425	2513.103413
880.092722	2551.413661
880.402977	2605.800149
880.713191	2668.570077
881.023363	2725.406566
881.333494	2760.757657
881.643583	2779.495626
881.953631	2772.919441
882.263637	2755.769435
882.573602	2732.522154
882.883526	2704.944522
883.193408	2686.251924
883.503248	2657.547594
883.813048	2635.328708
884.122806	2609.258381
884.432522	2587.732654
884.742197	2564.442523
885.051831	2546.627086
885.361424	2534.384643
885.670975	2520.236645
885.980485	2508.984790
886.289954	2501.430621
886.599382	2494.640187
886.908768	2487.859835
887.218113	2481.450007
887.527417	2476.781899
887.836680	2469.583131
888.145901	2467.662452
888.455082	2466.419807
888.764221	2462.921247
889.073319	2459.500824
889.382376	2461.297995
889.691392	2459.957048
890.000366	2461.933180
890.309300	2458.265741
890.618193	2461.582820
890.927044	2459.296657
891.235855	2462.402008
891.544625	2461.749178
891.853353	2463.591720
892.162041	2463.211113
892.470687	2464.852008
892.779293	2470.709829
893.087858	2473.800057
893.396381	2484.116778
893.704864	2497.843840
894.013306	2514.187261
894.321707	2539.090561
894.630068	2547.806716
894.938387	2554.130843
895.246665	2547.534493
895.554903	2538.541075
895.863100	2527.170752
896.171256	2520.108096
896.479371	2509.788854
896.787446	2504.094871
897.095480	2496.719663
897.403473	2492.338900
897.711425	2485.828250
898.019336	2480.305666
898.327207	2476.764255
898.635038	2474.314254
898.942827	2468.277472
899.250576	2466.881073
899.558284	2462.008798
899.865952	2460.655248
900.173579	2457.045782
900.481165	2456.758436
900.788711	2456.259362
901.096216	2455.772890
901.403681	2449.970522
901.711105	2453.985801
902.018489	2454.870524
902.325832	2458.122068
902.633135	2457.219702
902.940397	2465.398974
903.247619	2479.267188
903.554800	2505.042608
903.861941	2538.319264
904.169041	2565.244067
904.476101	2576.395099
904.783121	2565.412945
905.090100	2553.941800
905.397039	2538.533513
905.703938	2527.856349
906.010796	2515.936541
906.317614	2504.909017
906.624391	2495.537512
906.931129	2487.239773
907.237826	2481.409678
907.544483	2473.361476
907.851099	2467.601958
908.157675	2462.747327
908.464211	2456.503858
908.770707	2447.853238
909.077163	2444.843669
909.383578	2440.354521
909.689954	2440.893925
909.996289	2437.087854
910.302584	2443.172526
910.608839	2438.743873
910.915054	2441.859306
911.221229	2439.197577
911.527363	2439.608431
911.833458	2440.488112
912.139513	2439.754624
912.445527	2441.672783
912.751502	2443.623710
913.057436	2446.270315
913.363331	2449.446242
913.669186	2453.441357
913.975000	2458.628704
914.280775	2463.289251
914.586510	2474.488174
914.892205	2487.597695
915.197859	2510.605521
915.503475	2532.446320
915.809050	2553.155380
916.114585	2565.047462
916.420081	2570.068451
916.725536	2568.288924
917.030952	2558.995557
917.336328	2551.466593
917.641665	2541.233051
917.946961	2532.562266
918.252218	2528.247039
918.557435	2515.263547
918.862612	2511.344050
919.167750	2502.723677
919.472848	2493.395022
919.777906	2486.677684
920.082925	2479.904894
920.387904	2474.614203
920.692843	2468.242184
920.997743	2464.010136
921.302603	2460.753550
921.607423	2457.927984
921.912204	2455.334310
922.216946	2452.234000
922.521647	2448.329627
922.826310	2447.467589
923.130932	2450.222580
923.435516	2445.272167
923.740059	2445.677980
924.044564	2442.504573
924.349028	2438.567432
924.653454	2436.079623
924.957840	2436.298913
925.262186	2432.455033
925.566493	2435.124324
925.870761	2433.037287
926.174989	2432.961669
926.479178	2433.334715
926.783328	2431.456885
927.087438	2432.550815
927.391509	2432.311360
927.695541	2430.496545
927.999533	2426.763571
928.303486	2429.261462
928.607400	2430.370516
928.911275	2429.538726
929.215110	2428.263314
929.518906	2429.546288
929.822663	2430.153747
930.126381	2424.384146
930.430060	2428.500248
930.733699	2427.759198
931.037299	2429.967224
931.340861	2429.720207
931.644383	2431.267842
931.947866	2430.272214
932.251309	2430.075609
932.554714	2427.824733
932.858080	2428.316246
933.161407	2428.288520
933.464694	2427.575196
933.767943	2427.620567
934.071153	2424.956317
934.374323	2426.692994
934.677455	2426.105700
934.980548	2429.120310
935.283602	2428.263314
935.586617	2428.810279
935.889593	2425.062181
936.192530	2426.884558
936.495428	2428.137285
936.798287	2429.062337
937.101108	2429.238777
937.403890	2429.301792
937.706632	2429.949580
938.009336	2433.178439
938.312002	2435.850250
938.614628	2437.476022
938.917216	2437.057607
939.219765	2436.470312
939.522275	2436.077102
939.824747	2438.423759
940.127179	2434.864705
940.429573	2433.309509
940.731929	2438.007864
941.034246	2429.644590
941.336524	2436.124993
941.638763	2436.460230
941.940964	2436.951742
942.243126	2437.597010
942.545250	2435.567946
942.847335	2434.461412
943.149381	2435.076433
943.451389	2430.841864
943.753359	2432.402101
944.055290	2432.785229
944.357182	2429.614343
944.659036	2431.542584
944.960851	2429.659713
945.262628	2432.860846
945.564367	2430.685588
945.866067	2433.228850
946.167729	2429.606781
946.469352	2431.741710
946.770937	2431.885383
947.072484	2428.747265
947.373992	2428.880855
947.675462	2428.245670
947.976893	2426.980340
948.278286	2428.379260
948.579641	2427.907913
948.880958	2430.088212
949.182236	2430.572162
949.483476	2428.898499
949.784678	2428.772470
950.085841	2430.005033
950.386967	2427.267686
950.688054	2430.514189
950.989103	2429.233736
951.290114	2429.173242
951.591087	2428.676688
951.892021	2430.557039
952.192917	2432.891093
952.493776	2433.163315
952.794596	2433.654828
953.095378	2432.727256
953.396122	2430.408325
953.696828	2431.376226
953.997496	2432.505445
954.298126	2431.645928
954.598718	2430.695671
954.899272	2432.666762
955.199788	2431.338418
955.500266	2427.197110
955.800706	2426.982861
956.101108	2424.222829
956.401472	2424.744588
956.701798	2419.489186
957.002087	2420.688980
957.302337	2423.748961
957.602550	2420.010945
957.902724	2420.762077
958.202861	2421.530853
958.502960	2423.456574
958.803022	2418.410379
959.103045	2422.965061
959.403031	2419.539597
959.702979	2420.169741
960.002889	2421.399783
960.302762	2416.804771
960.602596	2419.032961
960.902393	2419.106058
961.202153	2416.875347
961.501875	2418.871644
961.801559	2417.354257
962.101205	2416.376273
962.400814	2418.617066
962.700385	2418.107909
962.999918	2418.843918
963.299414	2417.634041
963.598873	2418.130595
963.898293	2417.392066
964.197677	2418.420461
964.497022	2419.332910
964.796331	2418.347364
965.095601	2417.160173
965.394835	2418.284350
965.694030	2415.703279
965.993189	2417.555903
966.292309	2417.011458
966.591393	2416.696386
966.890439	2417.240831
967.189447	2416.540111
967.488419	2417.187899
967.787353	2416.134298
968.086249	2416.572878
968.385108	2415.824267
968.683930	2416.300656
968.982714	2413.046591
969.281462	2420.522622
969.580172	2415.673032
969.878844	2417.127405
970.177480	2414.387538
970.476078	2417.162693
970.774639	2419.345513
971.073162	2417.886099
971.371649	2415.123546
971.670098	2415.962898
971.968510	2414.632034
972.266885	2413.071797
972.565223	2416.439287
972.863524	2417.810481
973.161788	2418.750657
973.460014	2416.474576
973.758204	2416.998856
974.056356	2417.326531
974.354471	2419.277457
974.652550	2417.356777
974.950591	2419.796696
975.248595	2419.577406
975.546563	2417.260996
975.844493	2416.996335
976.142386	2416.348547
976.440243	2416.877868
976.738062	2416.436767
977.035845	2414.886612
977.333590	2416.557755
977.631299	2417.293763
977.928971	2416.751839
978.226606	2418.377611
978.524204	2416.167065
978.821765	2415.589853
979.119290	2417.084555
979.416777	2417.669329
979.714228	2415.204205
980.011642	2417.525656
980.309020	2420.872982
980.606360	2418.178486
980.903664	2416.855183
981.200931	2419.254772
981.498162	2421.079670
981.795356	2420.421799
982.092513	2423.902716
982.389633	2428.285999
982.686717	2429.329518
982.983764	2430.652821
983.280775	2432.497883
983.577749	2432.104673
983.874686	2431.386309
984.171587	2431.776998
984.468451	2431.373706
984.765279	2427.739034
985.062070	2427.923036
985.358824	2424.550504
985.655543	2422.987746
985.952224	2424.048909
986.248869	2416.535069
986.545478	2415.476427
986.842050	2416.555234
987.138586	2412.091292
987.435086	2413.407033
987.731549	2410.594070
988.027975	2416.323341
988.324366	2413.500295
988.620719	2415.751170
988.917037	2412.537434
989.213318	2415.584812
989.509563	2415.201684
989.805772	2414.448032
990.101944	2412.013154
990.398080	2412.476941
990.694180	2413.089441
990.990244	2413.467527
991.286271	2412.945768
991.582262	2414.206056
991.878217	2409.941240
992.174136	2411.403175
992.470019	2412.703792
992.765865	2415.438618
993.061676	2413.185223
993.357450	2413.878381
993.653188	2413.475089
993.948890	2414.125398
994.244556	2413.323854
994.540186	2415.310069
994.835780	2414.856365
995.131337	2415.483989
995.426859	2417.954154
995.722345	2420.986408
996.017795	2419.426171
996.313208	2422.213929
996.608586	2422.342479
996.903928	2424.338776
997.199234	2420.956161
997.494504	2420.073959
997.789738	2421.311563
998.084936	2420.779721
998.380099	2419.579926
998.675225	2418.579257
998.970316	2415.746129
999.265371	2417.634041
999.560390	2418.284350
999.855373	2415.489030
1000.150320	2414.695048
1000.445232	2412.814698
1000.740108	2411.325037
1001.034948	2411.425860
1001.329752	2410.170613
1001.624521	2412.038360
1001.919254	2407.213976
1002.213951	2410.009296
1002.508613	2409.187588
1002.803239	2407.150962
1003.097829	2405.613410
1003.392384	2409.003586
1003.686903	2409.870664
1003.981386	2410.261353
1004.275834	2411.630027
1004.570246	2409.878226
1004.864623	2406.914027
1005.158964	2409.842938
1005.453270	2407.980231
1005.747540	2409.832855
1006.041775	2407.728174
1006.335974	2408.345715
1006.630138	2409.263205
1006.924266	2411.072979
1007.218359	2408.159192
1007.512416	2409.684141
1007.806438	2409.532907
1008.100425	2409.553071
1008.394376	2409.553071
1008.688292	2407.886970
1008.982172	2408.207083
1009.276017	2409.195149
1009.569827	2408.199522
1009.863602	2411.277146
1010.157341	2407.319840
1010.451045	2409.152300
1010.744714	2410.755387
1011.038347	2410.289080
1011.331945	2406.672052
1011.625508	2409.563154
1011.919036	2410.208421
1012.212528	2408.265057
1012.505986	2408.484347
1012.799408	2408.927968
1013.092795	2409.091806
1013.386147	2407.914696
1013.679464	2408.980900
1013.972745	2408.852351
1014.265992	2407.360169
1014.559204	2409.875705
1014.852380	2410.694893
1015.145521	2407.198852
1015.438628	2407.392937
1015.731699	2410.150448
1016.024736	2410.089954
1016.317737	2407.836558
1016.610703	2409.464851
1016.903635	2407.604665
1017.196531	2403.841444
1017.489393	2407.579460
1017.782219	2404.897566
1018.075011	2409.240520
1018.367768	2406.596435
1018.660490	2408.698596
1018.953177	2408.698596
1019.245829	2408.698596
