Dividing Wavelength (nm)	Counts (n)	Blue Motor Position (mm): 0.000000	Red Motor Position (mm): 12.400000	
326.493990	1980.036681
326.888308	1980.036681
327.282561	1980.036681
327.676750	1956.285285
328.070874	1956.464246
328.464933	1963.703343
328.858929	1971.554940
329.252859	1983.915849
329.646726	1999.578714
330.040528	2012.978101
330.434265	2033.619106
330.827938	2052.210881
331.221547	2074.026474
331.615091	2091.993147
332.008571	2113.682711
332.401986	2134.686678
332.795338	2152.754174
333.188625	2177.055056
333.581847	2192.533919
333.975006	2212.214583
334.368100	2229.351986
334.761129	2244.987125
335.154095	2260.065216
335.546996	2278.722526
335.939833	2290.854063
336.332606	2302.670528
336.725315	2316.233752
337.117960	2325.827068
337.510540	2329.320587
337.903056	2341.734429
338.295508	2346.160562
338.687896	2352.741788
339.080220	2360.300998
339.472480	2365.044724
339.864676	2370.254757
340.256807	2372.430014
340.648875	2373.803729
341.040879	2376.102495
341.432818	2375.285828
341.824694	2379.999307
342.216506	2376.904038
342.608253	2379.737167
342.999937	2377.377907
343.391557	2376.707433
343.783113	2373.032432
344.174605	2371.492360
344.566033	2369.692668
344.957397	2369.823738
345.348697	2367.270393
345.739934	2368.770137
346.131106	2364.273428
346.522215	2363.577748
346.913260	2358.213961
347.304241	2359.486852
347.695159	2357.309073
348.086012	2359.814527
348.476802	2351.451253
348.867528	2352.358660
349.258191	2352.335975
349.648789	2350.997549
350.039324	2350.198526
350.429796	2352.303208
350.820203	2351.516788
351.210548	2348.194667
351.600828	2349.354133
351.991045	2346.707527
352.381198	2346.299193
352.771288	2347.940089
353.161314	2347.587208
353.551276	2349.165089
353.941175	2347.471262
354.331010	2349.202898
354.720782	2347.418330
355.110490	2349.190295
355.500135	2347.776252
355.889717	2347.098216
356.279235	2347.667867
356.668689	2349.946468
357.058080	2349.701972
357.447408	2347.977898
357.836672	2348.282888
358.225873	2350.437981
358.615010	2348.484534
359.004084	2355.108610
359.393095	2355.020390
359.782043	2355.905112
360.170927	2353.946624
360.559748	2357.636748
360.948505	2355.685822
361.337199	2357.311594
361.725830	2357.699763
362.114398	2360.416945
362.502903	2359.058354
362.891344	2363.194621
363.279722	2362.604806
363.668037	2360.595906
364.056289	2361.276462
364.444478	2361.652027
364.832603	2362.657738
365.220665	2366.678058
365.608665	2363.759230
365.996601	2364.389374
366.384474	2363.650845
366.772284	2370.164016
367.160031	2364.228057
367.547715	2369.740559
367.935336	2368.263501
368.322893	2368.041690
368.710388	2367.308202
369.097820	2370.698378
369.485189	2373.796167
369.872495	2375.358925
370.259738	2373.927237
370.646918	2376.094933
371.034035	2378.297918
371.421090	2380.064842
371.808081	2384.470810
372.195010	2385.968033
372.581875	2393.688560
372.968678	2398.772564
373.355418	2404.348080
373.742096	2415.894843
374.128710	2425.818354
374.515262	2437.561722
374.901751	2450.063784
375.288177	2467.753192
375.674540	2485.107365
376.060841	2503.326095
376.447079	2528.451205
376.833254	2553.185627
377.219367	2577.705799
377.605417	2613.036726
377.991404	2638.250057
378.377329	2675.940243
378.763191	2710.857796
379.148991	2754.879672
379.534727	2805.754996
379.920402	2847.604135
380.306013	2895.847977
380.691563	2956.498099
381.077049	3009.349556
381.462474	3064.789645
381.847835	3135.542240
382.233134	3207.534958
382.618371	3267.620470
383.003545	3348.740198
383.388657	3430.172476
383.773706	3515.551978
384.158693	3588.729367
384.543618	3682.610776
384.928480	3759.327055
385.313280	3861.032334
385.698017	3965.132161
386.082692	4084.050459
386.467305	4139.825785
386.851856	4267.934108
387.236344	4418.457920
387.620770	4481.618537
388.005133	4599.881485
388.389435	4740.489348
388.773674	4829.327082
389.157851	4955.118994
389.541965	5082.566925
389.926018	5107.674392
390.310008	5281.760558
390.693936	5400.520060
391.077802	5511.826216
391.461606	5638.885978
391.845348	5752.410242
392.229027	5871.636051
392.612645	6086.875677
392.996200	6197.975146
393.379694	6363.725763
393.763125	6573.982208
394.146494	6659.575959
394.529801	6783.419465
394.913047	7005.552868
395.296230	6994.832855
395.679351	7026.186311
396.062410	7261.880418
396.445408	7138.266284
396.828343	7264.925275
397.211217	7368.074844
397.594028	7235.479895
397.976778	7390.830613
398.359466	7514.565734
398.742092	7461.996582
399.124656	7553.314563
399.507158	7681.919439
399.889598	7657.396746
400.271977	7789.598485
400.654294	7764.362469
401.036549	7879.623410
401.418742	7849.018565
401.800874	8039.382617
402.182944	8035.014457
402.564952	8269.980117
402.946898	8042.215745
403.328783	8012.362032
403.710606	8078.348215
404.092367	8197.702574
404.474067	8382.163434
404.855705	8127.295299
405.237282	7993.157757
405.618797	8202.403450
406.000250	8271.237885
406.381642	8415.805574
406.762972	8255.832119
407.144240	8008.727360
407.525447	8056.779639
407.906593	7891.273517
408.287677	7933.778005
408.668700	7896.407932
409.049661	7743.978563
409.430560	7711.057308
409.811399	7554.224491
410.192176	7514.444746
410.572891	7415.030672
410.953545	7523.060078
411.334138	7114.721575
411.714669	7271.972808
412.095139	6796.778523
412.475547	6892.968779
412.855894	6691.010074
413.236180	6689.447316
413.616405	6418.427324
413.996568	6391.857922
414.376670	6240.310756
414.756711	6062.579836
415.136691	6026.424680
415.516609	5948.523730
415.896466	5840.539694
416.276262	5795.202077
416.655997	5792.989010
417.035670	5677.269324
417.415283	5720.265325
417.794834	5601.394917
418.174324	5404.278240
418.553753	5241.176748
418.933121	5222.620261
419.312428	5048.584507
419.691674	4904.437754
420.070859	4873.505234
420.449983	4686.969939
420.829045	4668.151311
421.208047	4505.269110
421.586988	4470.147391
421.965867	4393.998242
422.344686	4288.373466
422.723444	4253.897015
423.102141	3984.505315
423.480777	4031.899723
423.859352	3880.413050
424.237866	3906.115372
424.616319	3783.723719
424.994712	3755.059718
425.373044	3654.597084
425.751314	3623.067187
426.129524	3477.045125
426.507673	3477.803818
426.885762	3386.599263
427.263789	3325.913853
427.641756	3271.774381
428.019662	3213.680124
428.397508	3157.763646
428.775292	3112.778909
429.153016	3057.885785
429.530679	3012.885925
429.908282	2965.436065
430.285824	2913.892787
430.663305	2897.922412
431.040726	2848.841738
431.418086	2810.745738
431.795385	2794.543470
432.172624	2772.634615
432.549802	2739.030284
432.926920	2715.745194
433.303977	2687.791996
433.680974	2672.592917
434.057910	2656.914929
434.434786	2639.865747
434.811601	2621.364712
435.188355	2616.966305
435.565050	2604.948194
435.941683	2589.310535
436.318257	2586.144691
436.694770	2566.327915
437.071222	2564.891186
437.447614	2547.030378
437.823946	2544.769420
438.200218	2537.333718
438.576429	2528.468849
438.952580	2528.224353
439.328670	2523.105062
439.704700	2514.804802
440.080670	2508.957063
440.456580	2510.378669
440.832429	2507.318688
441.208218	2497.589262
441.583947	2496.565907
441.959616	2492.482573
442.335224	2494.504075
442.710773	2491.731441
443.086261	2493.349651
443.461689	2487.207005
443.837057	2485.563589
444.212365	2485.074597
444.587612	2482.526294
444.962800	2483.065697
445.337927	2481.376911
445.712995	2471.536578
446.088002	2478.697537
446.462949	2477.159986
446.837837	2480.010758
447.212664	2476.295428
447.587431	2486.455873
447.962139	2492.878303
448.336786	2503.563029
448.711374	2494.854436
449.085901	2480.716520
449.460369	2479.264667
449.834776	2478.195943
450.209124	2484.109216
450.583412	2486.014772
450.957640	2486.392859
451.331808	2480.812302
451.705917	2474.281487
452.079965	2474.205869
452.453954	2478.022023
452.827883	2472.159161
453.201752	2473.016157
453.575562	2470.984572
453.949311	2474.536065
454.323001	2475.269553
454.696632	2474.810808
455.070202	2480.857672
455.443713	2482.332209
455.817164	2478.150572
456.190556	2479.645274
456.563888	2477.964050
456.937160	2477.686786
457.310373	2476.378607
457.683526	2477.001189
458.056619	2475.178812
458.429653	2475.987917
458.802628	2479.652836
459.175542	2476.814667
459.548398	2482.233907
459.921194	2486.682725
460.293930	2487.030565
460.666607	2492.686739
461.039224	2496.762512
461.411782	2500.936588
461.784280	2498.905003
462.156719	2491.159270
462.529099	2493.420227
462.901419	2489.674650
463.273680	2485.303970
463.645882	2483.942858
464.018024	2485.170379
464.390106	2485.351861
464.762130	2494.526761
465.134094	2505.559326
465.505999	2524.962727
465.877845	2533.935981
466.249631	2540.320602
466.621358	2536.524613
466.993026	2529.454395
467.364634	2523.982222
467.736184	2512.682476
468.107674	2509.211642
468.479105	2509.251971
468.850477	2504.225941
469.221790	2502.779129
469.593043	2497.077584
469.964238	2493.538694
470.335373	2491.013076
470.706449	2498.698315
471.077467	2502.958090
471.448425	2517.398476
471.819324	2524.231760
472.190164	2520.332427
472.560945	2508.717609
472.931667	2498.539519
473.302330	2498.635301
473.672934	2494.829230
474.043479	2496.477687
474.413965	2493.563900
474.784393	2488.421923
475.154761	2496.167656
475.525070	2491.756647
475.895321	2494.173880
476.265513	2488.865545
476.635645	2498.305105
477.005719	2495.338386
477.375734	2497.881648
477.745691	2498.098418
478.115588	2500.951711
478.485427	2506.784326
478.855207	2520.060205
479.224928	2526.094466
479.594591	2532.605116
479.964194	2526.611184
480.333739	2524.703107
480.703226	2526.933818
481.072653	2529.739220
481.442022	2533.265507
481.811333	2532.141330
482.180584	2527.362316
482.549777	2528.829292
482.918912	2524.705628
483.287988	2525.035824
483.657005	2522.999197
484.025964	2520.244207
484.394864	2518.220184
484.763706	2520.108096
485.132489	2514.885460
485.501213	2517.126253
485.869879	2514.134328
486.238487	2515.276150
486.607036	2516.080214
486.975527	2514.111643
487.343959	2516.531397
487.712333	2518.247910
488.080648	2515.089627
488.448905	2517.269926
488.817104	2514.920748
489.185244	2520.846625
489.553326	2522.404341
489.921350	2530.507996
490.289315	2539.438400
490.657222	2540.444110
491.025070	2545.419729
491.392861	2539.645088
491.760593	2534.019160
492.128267	2532.665610
492.495883	2524.347706
492.863440	2524.677902
493.230939	2517.557272
493.598380	2515.192971
493.965763	2509.909842
494.333088	2510.718947
494.700354	2508.934378
495.067563	2508.984790
495.434713	2505.675272
495.801805	2510.464368
496.168839	2508.326919
496.535815	2508.828514
496.902733	2510.071158
497.269593	2509.924965
497.636395	2509.478823
498.003139	2513.690707
498.369825	2509.224245
498.736453	2512.690038
499.103023	2509.541837
499.469535	2512.828670
499.835989	2512.488392
500.202385	2509.274656
500.568723	2511.107116
500.935003	2512.959740
501.301226	2516.987622
501.667390	2519.125071
502.033497	2522.106913
502.399546	2519.364526
502.765537	2520.256810
503.131470	2520.710514
503.497345	2522.903416
503.863163	2519.288908
504.228923	2522.333765
504.594625	2523.573889
504.960269	2522.391738
505.325856	2530.180321
505.691385	2530.266021
506.056856	2533.028573
506.422270	2536.048224
506.787625	2536.144006
507.152924	2535.372710
507.518164	2540.232382
507.883347	2540.015612
508.248472	2545.631458
508.613540	2548.038609
508.978550	2552.757129
509.343503	2554.377860
509.708398	2555.615463
510.073236	2561.155691
510.438016	2564.573593
510.802738	2562.310115
511.167403	2567.399160
511.532010	2569.208934
511.896561	2573.443503
512.261053	2580.798547
512.625488	2576.120356
512.989866	2577.231931
513.354186	2581.279977
513.718449	2580.327199
514.082655	2588.763570
514.446803	2588.844228
514.810894	2591.465628
515.174927	2594.374374
515.538904	2596.083325
515.902822	2599.914602
516.266684	2599.143306
516.630488	2597.124324
516.994235	2601.767226
517.357925	2603.312340
517.721558	2604.582711
518.085133	2610.853906
518.448651	2607.872064
518.812112	2610.707713
519.175516	2610.392641
519.538863	2612.525049
519.902152	2610.306941
520.265385	2614.861623
520.628560	2613.561006
520.991678	2614.143259
521.354739	2613.089658
521.717743	2613.906325
522.080690	2614.445728
522.443580	2618.060236
522.806413	2615.025461
523.169189	2616.817591
523.531908	2617.034361
523.894569	2612.184771
524.257174	2614.367590
524.619722	2616.114350
524.982213	2614.687704
525.344647	2611.156375
525.707025	2609.263422
526.069345	2608.920624
526.431608	2607.625047
526.793815	2609.099585
527.155964	2601.953749
527.518057	2604.043307
527.880093	2600.385950
528.242072	2598.248501
528.603995	2597.235229
528.965860	2595.347317
529.327669	2591.614343
529.689421	2589.134095
530.051117	2587.901533
530.412755	2582.946078
530.774337	2584.347519
531.135862	2577.534400
531.497331	2572.079871
531.858743	2565.763306
532.220098	2567.268090
532.581396	2564.427400
532.942638	2560.117213
533.303824	2559.151832
533.664953	2560.502862
534.026025	2555.275185
534.387040	2555.706204
534.747999	2550.165976
535.108902	2547.426108
535.469748	2542.296734
535.830537	2539.221631
536.191270	2535.564273
536.551947	2532.905065
536.912567	2532.037986
537.273131	2533.492359
537.633638	2523.773015
537.994089	2524.771163
538.354483	2518.401665
538.714821	2519.883764
539.075103	2515.936541
539.435328	2514.782117
539.795497	2511.339009
540.155609	2511.822959
540.515665	2505.559326
540.875665	2504.505725
541.235609	2504.994717
541.595496	2500.384581
541.955328	2497.304436
542.315102	2496.583551
542.674821	2495.202275
543.034483	2491.106338
543.394090	2490.708087
543.753640	2490.808910
544.113134	2489.246152
544.472571	2487.355719
544.831953	2488.797489
545.191278	2482.571664
545.550548	2484.353712
545.909761	2480.693834
546.268918	2481.117291
546.628019	2480.174596
546.987064	2476.393730
547.346053	2477.782568
547.704986	2478.816005
548.063863	2475.675366
548.422684	2476.378607
548.781449	2472.678400
549.140158	2475.577063
549.498811	2473.273256
549.857408	2470.077164
550.215949	2471.574387
550.574434	2471.133286
550.932864	2470.238481
551.291237	2467.995168
551.649555	2469.512555
552.007817	2471.334932
552.366022	2468.970631
552.724173	2469.938533
553.082267	2469.429376
553.440305	2467.889304
553.798288	2468.373254
554.156215	2467.521299
554.514086	2469.444500
554.871902	2470.230920
555.229661	2468.680765
555.587365	2467.395271
555.945014	2467.077678
556.302606	2468.358131
556.660143	2468.337966
557.017625	2466.870991
557.375050	2467.105404
557.732421	2468.108594
558.089735	2466.046762
558.446994	2464.541978
558.804197	2468.068265
559.161345	2465.557770
559.518437	2464.118521
559.875474	2466.220682
560.232455	2465.207410
560.589381	2463.972327
560.946251	2465.043572
561.303065	2467.445682
561.659825	2467.415435
562.016528	2464.985599
562.373177	2465.308233
562.729770	2465.020887
563.086307	2467.503655
563.442789	2462.722121
563.799216	2464.426031
564.155587	2463.995012
564.511904	2465.628346
564.868164	2462.472584
565.224370	2466.644139
565.580520	2464.788994
565.936615	2465.504838
566.292654	2463.019549
566.648638	2462.764971
567.004567	2462.649024
567.360441	2461.020732
567.716260	2465.847636
568.072023	2461.512244
568.427732	2461.282872
568.783385	2460.226750
569.138982	2458.580813
569.494525	2461.323201
569.850013	2457.806996
570.205445	2463.138016
570.560823	2460.249435
570.916145	2462.555763
571.271412	2461.056020
571.626625	2460.188941
571.981782	2460.854373
572.336884	2460.277161
572.691931	2463.170784
573.046923	2460.907306
573.401860	2461.023252
573.756743	2458.815227
574.111570	2461.913016
574.466342	2460.730865
574.821059	2458.593416
575.175722	2460.937552
575.530330	2458.230453
575.884882	2459.959569
576.239380	2457.325566
576.593823	2458.817747
576.948211	2459.112655
577.302544	2456.816409
577.656823	2456.740792
578.011047	2457.375977
578.365216	2455.162911
578.719330	2454.663837
579.073389	2455.883796
579.427394	2456.287088
579.781344	2456.854218
580.135239	2456.476131
580.489080	2457.333128
580.842866	2454.459670
581.196597	2455.399845
581.550273	2455.520833
581.903895	2455.886316
582.257463	2452.329782
582.610975	2452.687704
582.964434	2454.036213
583.317837	2455.193158
583.671186	2455.480503
584.024481	2456.057716
584.377721	2453.113682
584.730906	2453.398507
585.084037	2453.700976
585.437113	2453.176696
585.790135	2454.973868
586.143103	2452.062601
586.496016	2449.607559
586.848874	2447.439863
587.201679	2451.613938
587.554428	2453.370781
587.907124	2452.302056
588.259765	2446.701334
588.612352	2450.066304
588.964884	2451.576130
589.317362	2454.373970
589.669786	2450.686366
590.022155	2449.269802
590.374470	2452.143260
590.726731	2451.538321
591.078937	2453.695935
591.431090	2451.180399
591.783188	2448.720316
592.135232	2450.351129
592.487222	2451.971860
592.839157	2450.845162
593.191038	2451.394648
593.542866	2448.798454
593.894639	2446.910542
594.246358	2445.584718
594.598022	2447.694441
594.949633	2447.777620
595.301190	2446.872733
595.652692	2446.161931
596.004141	2447.593618
596.355535	2446.529935
596.706876	2444.253854
597.058162	2444.763010
597.409395	2446.769390
597.760573	2448.032199
598.111698	2445.617486
598.462768	2447.192847
598.813785	2443.679162
599.164748	2443.835438
599.515657	2445.226797
599.866511	2449.171499
600.217312	2445.635130
600.568060	2446.151848
600.918753	2447.218052
601.269392	2446.020778
601.619978	2444.851231
601.970510	2446.474482
602.320988	2445.166303
602.671412	2444.475665
603.021783	2445.849379
603.372100	2446.487085
603.722363	2446.030861
604.072572	2447.102106
604.422728	2448.001952
604.772830	2442.360901
605.122878	2440.198246
605.472872	2444.518514
605.822813	2439.558019
606.172701	2445.443566
606.522534	2446.106478
606.872314	2444.624379
607.222041	2443.260747
607.571714	2444.841148
607.921333	2440.372165
608.270899	2446.902980
608.620411	2443.112032
608.969870	2444.412650
609.319276	2445.231838
609.668627	2443.117074
610.017926	2443.051539
610.367171	2445.047836
610.716362	2445.277208
611.065500	2445.609924
611.414585	2444.004317
611.763616	2447.296190
612.112594	2443.631271
612.461518	2444.243772
612.810389	2445.234358
613.159207	2446.189657
613.507971	2442.781837
613.856682	2448.395162
614.205340	2443.764862
614.553945	2445.191508
614.902496	2442.625561
615.250994	2443.981632
615.599439	2445.078083
615.947830	2443.969029
616.296169	2445.836776
616.644454	2446.136725
616.992686	2445.854420
617.340864	2443.749738
617.688990	2441.566919
618.037063	2445.209153
618.385082	2444.977259
618.733048	2445.768721
619.080961	2444.737805
619.428821	2445.879626
619.776628	2444.412650
620.124382	2442.249995
620.472083	2443.457352
620.819731	2445.491457
621.167326	2441.849223
621.514868	2443.941302
621.862357	2442.600355
622.209793	2443.774944
622.557176	2445.410799
622.904506	2438.617844
623.251783	2440.783019
623.599007	2441.312341
623.946179	2437.745724
624.293297	2438.970725
624.640363	2440.997268
624.987376	2441.445931
625.334336	2442.628082
625.681243	2443.356528
626.028097	2439.235385
626.374899	2440.218410
626.721647	2438.201949
627.068343	2439.762186
627.414987	2437.604572
627.761577	2438.695982
628.108115	2437.778492
628.454600	2438.390992
628.801032	2435.817483
629.147412	2438.552309
629.493739	2437.390323
629.840014	2438.995930
630.186236	2440.309151
630.532405	2438.320416
630.878521	2438.312854
631.224585	2442.403750
631.570597	2436.682041
631.916556	2436.961825
632.262462	2438.670776
632.608316	2435.426793
632.954117	2440.415015
633.299866	2438.975766
633.645562	2435.832606
633.991206	2436.374530
634.336797	2437.617175
634.682336	2435.434355
635.027823	2437.375199
635.373257	2436.636670
635.718639	2434.935281
636.063968	2434.690785
636.409245	2435.320929
636.754470	2437.309664
637.099642	2435.343614
637.444762	2434.547112
637.789829	2432.293716
638.134845	2434.063161
638.479808	2433.271700
638.824719	2432.258428
639.169577	2433.490990
639.514383	2432.729776
639.859137	2432.142482
640.203839	2432.145002
640.548489	2432.139961
640.893086	2430.892276
641.237632	2429.949580
641.582125	2429.395053
641.926566	2428.467481
642.270955	2432.119797
642.615292	2430.685588
642.959576	2433.498552
643.303809	2431.676175
643.647990	2429.894127
643.992118	2431.862698
644.336195	2431.640887
644.680219	2432.792791
645.024192	2428.265834
645.368112	2431.908068
645.711981	2433.168357
646.055797	2431.953438
646.399562	2433.622060
646.743274	2435.081474
647.086935	2433.569128
647.430544	2432.220620
647.774101	2434.499221
648.117606	2432.941505
648.461059	2435.154571
648.804460	2437.289500
649.147810	2433.634663
649.491108	2433.284303
649.834354	2430.998140
650.177548	2431.424117
650.520690	2430.294899
650.863781	2429.962183
651.206820	2431.726587
651.549807	2430.362954
651.892742	2433.763213
652.235626	2429.044693
652.578458	2431.043510
652.921238	2427.935639
653.263967	2429.208530
653.606644	2427.751637
653.949269	2428.797676
654.291843	2425.513364
654.634365	2429.395053
654.976836	2428.021338
655.319255	2429.611822
655.661622	2428.280958
656.003938	2425.062181
656.346203	2428.492686
656.688416	2427.403797
657.030577	2426.740885
657.372687	2429.246339
657.714746	2430.090732
658.056753	2427.214754
658.398708	2422.539084
658.740612	2426.554363
659.082465	2421.455236
659.424266	2426.614857
659.766016	2421.452715
660.107715	2428.137285
660.449362	2427.335742
660.790958	2428.412028
661.132503	2426.337593
661.473996	2428.011256
661.815438	2426.171235
662.156829	2429.377409
662.498168	2427.325659
662.839456	2430.753644
663.180693	2426.423293
663.521879	2428.031421
663.863013	2427.386153
664.204097	2429.568973
664.545129	2427.552511
664.886110	2427.187027
665.227040	2429.568973
665.567918	2424.154773
665.908746	2425.830957
666.249522	2429.269024
666.590248	2431.265321
666.930922	2427.358427
667.271545	2427.461770
667.612118	2430.267173
667.952639	2430.219282
668.293109	2426.723241
668.633528	2428.086873
668.973896	2430.148705
669.314213	2429.979827
669.654480	2430.385640
669.994695	2426.347675
670.334859	2427.693663
670.674973	2425.687284
671.015035	2425.954465
671.355047	2425.006728
671.695008	2428.152408
672.034918	2426.665268
672.374777	2428.099476
672.714585	2425.989753
673.054342	2428.046544
673.394049	2425.339445
673.733705	2425.387336
674.073310	2431.416556
674.412864	2424.936152
674.752368	2427.025711
675.091820	2424.633683
675.431223	2423.023034
675.770574	2428.946390
676.109875	2420.149577
676.449125	2424.386667
676.788324	2421.503127
677.127473	2423.615370
677.466571	2421.603950
677.805619	2425.523447
678.144616	2426.191400
678.483562	2426.695515
678.822458	2423.479259
679.161303	2424.210226
679.500098	2423.902716
679.838842	2425.588982
680.177535	2422.350040
680.516179	2421.780390
680.854771	2425.508323
681.193314	2424.016142
681.531805	2425.241142
681.870247	2427.068560
682.208638	2425.919177
682.546978	2427.439085
682.885268	2429.813469
683.223508	2429.528643
683.561697	2426.440937
683.899836	2427.776843
684.237925	2426.965217
684.575963	2423.990936
684.913951	2425.863725
685.251889	2425.871286
685.589776	2425.440268
685.927614	2426.317428
686.265401	2424.948755
686.603137	2424.043868
686.940824	2425.682243
687.278460	2427.418921
687.616046	2425.561255
687.953582	2426.831626
688.291068	2425.299115
688.628504	2426.128385
688.965889	2424.666451
689.303224	2429.188366
689.640510	2429.420259
689.977745	2425.848601
690.314930	2422.589495
690.652065	2426.342634
690.989150	2424.905905
691.326185	2423.751481
691.663170	2422.312232
692.000105	2423.201995
692.336990	2423.834660
692.673825	2421.326686
693.010610	2424.071594
693.347345	2417.656726
693.684030	2416.320820
694.020665	2422.455905
694.357251	2417.006417
694.693786	2421.770308
695.030272	2419.209402
695.366707	2418.014648
695.703093	2418.077663
696.039429	2418.324679
696.375716	2417.654206
696.711952	2419.353074
697.048139	2418.503640
697.384276	2418.627148
697.720363	2417.162693
698.056400	2420.104206
698.392388	2420.343661
698.728326	2418.460790
699.064214	2416.535069
699.400053	2417.853331
699.735842	2418.733012
700.071581	2417.860893
700.407270	2419.368198
700.742910	2419.610173
701.078501	2417.727302
701.414042	2414.357291
701.749533	2416.638413
702.084974	2414.783268
702.420366	2417.429874
702.755709	2412.686148
703.091002	2415.889802
703.426246	2417.109761
703.761440	2415.950296
704.096584	2415.942734
704.431679	2414.972312
704.766725	2417.208063
705.101721	2414.599266
705.436668	2416.610687
705.771565	2415.753691
706.106413	2418.198650
706.441212	2414.536252
706.775961	2414.904256
707.110661	2413.840573
707.445311	2415.645306
707.779913	2417.185378
708.114465	2416.416602
708.448967	2414.357291
708.783421	2420.933476
709.117825	2415.259657
709.452180	2422.108065
709.786485	2418.909453
710.120742	2417.500450
710.454949	2417.956675
710.789107	2418.102868
711.123216	2413.056673
711.457275	2418.596901
711.791286	2417.908784
712.125247	2418.995153
712.459159	2418.405338
712.793023	2420.711665
713.126837	2419.630338
713.460602	2421.810637
713.794318	2418.632189
714.127985	2419.499268
714.461602	2417.850811
714.795171	2419.582447
715.128691	2416.424164
715.462162	2418.357447
715.795584	2416.842580
716.128957	2416.313259
716.462281	2417.578588
716.795556	2415.915008
717.128782	2416.792168
717.461960	2414.861406
717.795088	2414.775707
718.128167	2413.764955
718.461198	2414.926941
718.794180	2414.808474
719.127113	2411.559451
719.459997	2414.208577
719.792833	2412.938206
720.125619	2412.297980
720.458357	2412.630696
720.791046	2413.651529
721.123686	2409.341343
721.456278	2412.182033
721.788821	2410.072310
722.121315	2413.591036
722.453761	2412.086251
722.786158	2413.651529
723.118506	2409.487536
723.450805	2412.691190
723.783056	2412.219842
724.115259	2412.479461
724.447412	2412.308062
724.779518	2411.935017
725.111574	2415.620100
725.443582	2414.679925
725.775542	2412.111457
726.107453	2410.964594
726.439315	2413.369225
726.771129	2418.052457
727.102895	2412.585325
727.434612	2414.800912
727.766281	2413.250758
728.097901	2413.883422
728.429473	2413.197826
728.760996	2412.161868
729.092471	2409.595921
729.423897	2413.850655
729.755276	2410.780592
730.086606	2413.921231
730.417887	2416.451890
730.749120	2416.048598
731.080305	2414.591705
731.411442	2417.613876
731.742530	2415.917528
732.073570	2414.629513
732.404562	2416.214956
732.735506	2417.442477
733.066401	2416.204874
733.397249	2417.321489
733.728048	2414.047260
734.058798	2416.524987
734.389501	2412.194636
734.720156	2413.401992
735.050762	2414.468196
735.381320	2412.875192
735.711831	2414.349729
736.042293	2412.756725
736.372707	2412.476941
736.703073	2415.184040
737.033391	2411.723288
737.363661	2412.232445
737.693883	2412.635737
738.024056	2414.773186
738.354182	2411.844276
738.684260	2411.176323
739.014290	2411.919893
739.344272	2414.649678
739.674207	2412.739081
740.004093	2412.673546
740.333931	2414.896694
740.663722	2411.977866
740.993464	2414.538772
741.323159	2414.206056
741.652806	2411.410737
741.982405	2411.446025
742.311956	2412.368556
742.641460	2410.679769
742.970915	2409.913514
743.300323	2411.080541
743.629683	2414.006931
743.958996	2410.919224
744.288260	2413.028947
744.617477	2410.415109
744.946647	2407.571898
745.275768	2408.033163
745.604842	2407.271949
745.933869	2406.548544
746.262847	2406.964439
746.591778	2411.998031
746.920662	2409.757238
747.249498	2409.905952
747.578286	2411.244378
747.907027	2411.093144
748.235720	2411.582136
748.564365	2409.348905
748.892963	2411.529204
749.221514	2410.284039
749.550017	2410.309244
749.878473	2413.210428
750.206881	2410.084913
750.535242	2412.058525
750.863555	2407.897052
751.191821	2410.243709
751.520039	2410.137845
751.848210	2409.537948
752.176334	2409.676580
752.504411	2409.207752
752.832440	2410.324368
753.160421	2411.763617
753.488356	2410.639440
753.816243	2411.811508
754.144082	2406.926630
754.471875	2405.384037
754.799620	2410.974677
755.127318	2410.694893
755.454969	2406.533420
755.782572	2409.575757
756.110129	2407.521486
756.437638	2408.922927
756.765100	2408.343194
757.092515	2409.916034
757.419882	2405.626013
757.747203	2410.599111
758.074477	2411.400654
758.401703	2411.337640
758.728882	2409.338822
759.056014	2410.606673
759.383099	2408.323030
759.710138	2410.243709
760.037129	2410.780592
760.364073	2408.501991
760.690970	2410.533576
761.017820	2410.493247
761.344623	2410.031981
761.671379	2412.325706
761.998088	2403.884294
762.324751	2412.108936
762.651366	2413.674215
762.977935	2418.677560
763.304456	2420.220153
763.630931	2424.986564
763.957359	2421.666964
764.283740	2422.511357
764.610074	2420.257962
764.936362	2415.995666
765.262602	2415.083217
765.588796	2415.841911
765.914943	2413.049112
766.241044	2411.524163
766.567097	2407.221538
766.893104	2407.869326
767.219064	2408.302865
767.544978	2409.028791
767.870845	2408.499470
768.196665	2408.275139
768.522438	2409.220355
768.848165	2406.014181
769.173846	2408.063410
769.499479	2406.036867
769.825066	2404.133831
770.150607	2406.276321
770.476101	2406.556105
770.801548	2406.465365
771.126949	2406.551064
771.452303	2404.693399
771.777611	2407.256826
772.102872	2405.089130
772.428087	2403.493604
772.753256	2405.326064
773.078378	2404.910169
773.403453	2405.653739
773.728482	2405.991496
774.053465	2404.673234
774.378401	2406.198183
774.703291	2403.357493
775.028135	2405.734397
775.352932	2404.128790
775.677683	2401.217523
776.002388	2403.400343
776.327046	2405.023595
776.651658	2403.972514
776.976224	2403.768347
777.300743	2404.890004
777.625216	2404.600138
777.949643	2403.901938
778.274024	2403.407905
778.598359	2399.833727
778.922647	2399.498490
779.246889	2399.952194
779.571086	2399.059910
779.895236	2402.170302
780.219339	2401.124262
780.543397	2403.523851
780.867409	2402.775240
781.191374	2401.978738
781.515294	2404.090981
781.839167	2403.755744
782.162995	2406.432597
782.486776	2402.661814
782.810511	2401.850188
783.134201	2403.319685
783.457844	2402.419839
783.781441	2401.386402
784.104993	2403.037380
784.428498	2404.401012
784.751958	2402.692061
785.075372	2402.787843
785.398739	2402.306413
785.722061	2399.218706
786.045337	2401.693912
786.368568	2401.023439
786.691752	2400.801628
787.014891	2404.781619
787.337983	2404.184243
787.661030	2405.131979
787.984031	2405.583163
788.306987	2404.693399
788.629897	2405.933523
788.952760	2406.553585
789.275579	2408.191960
789.598351	2406.699778
789.921078	2403.168450
790.243759	2404.683317
790.566395	2403.768347
790.888984	2403.133162
791.211529	2405.023595
791.534027	2404.398492
791.856480	2403.486043
792.178888	2400.761299
792.501249	2406.679614
792.823566	2405.583163
793.145836	2403.591907
793.468062	2402.061917
793.790241	2403.748183
794.112375	2403.997720
794.434464	2406.339336
794.756507	2401.605692
795.078505	2407.060221
795.400457	2402.049314
795.722364	2402.452606
796.044226	2399.919426
796.366042	2400.627708
796.687812	2403.833882
797.009538	2402.671896
797.331218	2405.053842
797.652852	2405.217679
797.974442	2403.112997
798.295986	2403.428069
798.617484	2404.413615
798.938938	2402.316495
799.260346	2405.106774
799.581709	2403.337329
799.903026	2405.683986
800.224299	2402.571073
800.545526	2404.756413
800.866708	2403.481002
801.187845	2401.315826
801.508936	2402.959242
801.829983	2403.128121
802.150984	2398.744838
802.471940	2403.022257
802.792851	2402.392112
803.113717	2402.399674
803.434538	2401.167112
803.755314	2400.345404
804.076045	2402.190466
804.396731	2399.977400
804.717372	2401.583007
805.037967	2403.710374
805.358518	2401.537637
805.679024	2401.270456
805.999485	2398.843140
806.319901	2402.790363
806.640272	2400.574776
806.960598	2403.077709
807.280879	2402.810528
807.601115	2402.485374
807.921306	2403.501166
808.241453	2402.185425
808.561554	2402.470250
808.881611	2402.966804
809.201623	2404.655590
809.521590	2403.286917
809.841513	2404.529562
810.161390	2402.881104
810.481223	2402.543347
810.801011	2403.864129
811.120755	2402.414798
811.440453	2400.441186
811.760107	2400.761299
812.079716	2401.588048
812.399281	2397.071174
812.718801	2400.158881
813.038276	2400.015208
813.357707	2401.865312
813.677093	2401.257853
813.996434	2400.128634
814.315731	2396.675444
814.634983	2404.358162
814.954191	2401.686351
815.273354	2404.101063
815.592473	2402.341701
815.911547	2404.499315
816.230577	2402.593758
816.549562	2400.678120
816.868502	2403.919582
817.187399	2405.683986
817.506250	2402.450086
817.825058	2401.938408
818.143821	2403.317164
818.462539	2404.907648
818.781213	2407.501322
819.099843	2406.934192
819.418429	2407.531569
819.736970	2409.548030
820.055466	2409.232958
820.373919	2412.418967
820.692327	2413.850655
821.010691	2425.155443
821.329011	2436.603903
821.647286	2466.324025
821.965517	2487.849752
822.283704	2501.163440
822.601847	2500.956752
822.919945	2493.823520
823.237999	2482.168372
823.556010	2469.303347
823.873976	2457.391101
824.191897	2448.034719
824.509775	2439.971394
824.827609	2434.237081
825.145398	2431.421597
825.463144	2428.356575
825.780845	2426.869435
826.098502	2431.265321
826.416116	2435.646084
826.733685	2440.916610
827.051210	2440.674635
827.368692	2441.403081
827.686129	2433.548964
828.003522	2428.714497
828.320872	2415.415933
828.638177	2415.972981
828.955439	2412.708834
829.272656	2408.217166
829.589830	2406.782957
829.906960	2410.946950
830.224046	2407.221538
830.541088	2405.704150
830.858086	2404.590055
831.175041	2404.569891
831.491952	2404.955539
831.808819	2404.413615
832.125642	2407.365211
832.442421	2407.130797
832.759157	2407.541651
833.075849	2414.652198
833.392497	2419.315266
833.709101	2421.349371
834.025662	2420.739392
834.342179	2421.220822
834.658653	2413.268402
834.975083	2415.103382
835.291469	2416.663619
835.607811	2408.776734
835.924110	2406.218348
836.240366	2407.801270
836.556578	2406.722463
836.872746	2405.021074
837.188871	2401.799777
837.504952	2403.228944
837.820990	2400.617626
838.136984	2401.676268
838.452935	2401.134344
838.768842	2399.639642
839.084706	2399.642163
839.400526	2402.843296
839.716303	2404.199366
840.032037	2407.849161
840.347727	2409.253123
840.663373	2406.238513
840.978977	2404.406053
841.294537	2402.382030
841.610054	2402.024108
841.925527	2401.842627
842.240957	2401.267935
842.556344	2400.012688
842.871687	2401.784653
843.186987	2398.097049
843.502244	2398.442368
843.817458	2396.723335
844.132629	2398.694426
844.447756	2396.357851
844.762840	2394.071688
845.077881	2396.531771
845.392879	2395.231153
845.707833	2397.471946
846.022745	2392.629918
846.337613	2398.893552
846.652438	2397.681154
846.967221	2400.098387
847.281960	2397.666031
847.596656	2396.194014
847.911309	2396.650238
848.225919	2396.821637
848.540485	2396.105793
848.855009	2400.000085
849.169490	2395.082439
849.483928	2394.265772
849.798323	2397.716442
850.112675	2397.900444
850.426984	2395.578993
850.741251	2398.006308
851.055474	2397.429096
851.369654	2396.057902
851.683792	2396.619991
851.997887	2393.928015
852.311938	2397.565207
852.625947	2398.028994
852.939914	2396.060423
853.253837	2397.832389
853.567718	2396.325084
853.881555	2395.034548
854.195350	2396.309960
854.509103	2397.547563
854.822812	2396.322563
855.136479	2396.511606
855.450103	2394.868190
855.763685	2397.590413
856.077224	2396.357851
856.390720	2396.085629
856.704173	2396.282234
857.017584	2396.216699
857.330953	2395.972203
857.644278	2398.719632
857.957561	2398.507903
858.270802	2398.177708
858.584000	2396.917419
858.897155	2396.380536
859.210268	2398.979251
859.523339	2398.008829
859.836367	2393.973385
860.149352	2399.004457
860.462295	2396.448592
860.775195	2391.631769
861.088054	2392.309805
861.400869	2397.101421
861.713642	2390.976419
862.026373	2401.061248
862.339062	2395.452964
862.651708	2395.216030
862.964312	2397.615619
863.276873	2396.975393
863.589392	2397.434137
863.901869	2398.076885
864.214303	2396.022614
864.526696	2397.605537
864.839045	2396.037738
865.151353	2395.069836
865.463619	2395.241236
865.775842	2396.877090
866.088023	2397.023283
866.400162	2398.855743
866.712258	2400.181566
867.024313	2395.662172
867.336325	2399.526216
867.648296	2396.748541
867.960224	2395.727707
868.272110	2396.551936
868.583954	2395.541184
868.895755	2398.601165
869.207515	2393.368447
869.519233	2398.838099
869.830909	2395.427758
870.142542	2397.814745
870.454134	2397.769374
870.765684	2398.906154
871.077191	2397.461864
871.388657	2397.290465
871.700081	2400.423542
872.011463	2395.621843
872.322803	2397.527399
872.634101	2399.284241
872.945357	2397.580331
873.256571	2397.587893
873.567744	2398.936401
873.878874	2397.078736
874.189963	2398.137378
874.501010	2398.419683
874.812015	2399.604354
875.122979	2399.306926
875.433900	2394.656462
875.744780	2400.567215
876.055618	2400.196690
876.366415	2401.676268
876.677169	2396.330125
876.987882	2395.768036
877.298554	2394.169990
877.609183	2398.621329
877.919771	2396.161246
878.230317	2396.675444
878.540822	2400.007647
878.851285	2401.187277
879.161707	2402.190466
879.472087	2404.922772
879.782425	2407.743297
880.092722	2411.199008
880.402977	2423.842222
880.713191	2434.290013
881.023363	2440.513318
881.333494	2446.761828
881.643583	2449.002621
881.953631	2449.345419
882.263637	2446.847527
882.573602	2442.681014
882.883526	2433.790939
883.193408	2431.729107
883.503248	2427.469332
883.813048	2424.958837
884.122806	2423.136460
884.432522	2418.939700
884.742197	2415.115985
885.051831	2411.037691
885.361424	2409.101888
885.670975	2405.749521
885.980485	2403.823800
886.289954	2404.247257
886.599382	2404.053173
886.908768	2404.469068
887.218113	2401.081412
887.527417	2401.948491
887.836680	2398.918757
888.145901	2399.440517
888.455082	2400.917575
888.764221	2401.146947
889.073319	2398.152502
889.382376	2399.352297
889.691392	2395.518499
890.000366	2398.263407
890.309300	2399.218706
890.618193	2399.760630
890.927044	2400.478994
891.235855	2397.250135
891.544625	2400.605023
891.853353	2400.970507
892.162041	2400.050496
892.470687	2400.804149
892.779293	2399.201062
893.087858	2398.530588
893.396381	2396.990516
893.704864	2401.449417
894.013306	2403.632236
894.321707	2409.663977
894.630068	2411.042732
894.938387	2412.602969
895.246665	2414.987435
895.554903	2410.024419
895.863100	2407.642474
896.171256	2408.806981
896.479371	2408.202042
896.787446	2404.418656
897.095480	2405.656259
897.403473	2400.418501
897.711425	2402.702143
898.019336	2401.719118
898.327207	2399.863974
898.635038	2400.962945
898.942827	2397.771895
899.250576	2401.144427
899.558284	2397.537481
899.865952	2400.962945
900.173579	2398.391957
900.481165	2398.162584
900.788711	2397.552605
901.096216	2398.767523
901.403681	2399.579148
901.711105	2398.301216
902.018489	2397.053530
902.325832	2400.476474
902.633135	2396.529250
902.940397	2400.184087
903.247619	2400.116031
903.554800	2407.077865
903.861941	2410.735222
904.169041	2412.716395
904.476101	2415.662950
904.783121	2416.472055
905.090100	2411.108267
905.397039	2410.276477
905.703938	2406.561147
906.010796	2406.787998
906.317614	2405.741959
906.624391	2404.161557
906.931129	2402.906310
907.237826	2402.608882
907.544483	2401.754406
907.851099	2400.509241
908.157675	2399.780795
908.464211	2398.210475
908.770707	2394.336348
909.077163	2394.532953
909.383578	2392.866852
909.689954	2394.084291
909.996289	2389.186810
910.302584	2396.118396
910.608839	2397.396329
910.915054	2398.906154
911.221229	2397.688716
911.527363	2396.675444
911.833458	2396.655279
912.139513	2394.222923
912.445527	2394.437172
912.751502	2399.533778
913.057436	2397.343397
913.363331	2396.362892
913.669186	2396.312481
913.975000	2400.327760
914.280775	2398.981772
914.586510	2399.521175
914.892205	2402.986968
915.197859	2404.700961
915.503475	2408.922927
915.809050	2412.802095
916.114585	2415.050450
916.420081	2416.280491
916.725536	2414.846283
917.030952	2415.060532
917.336328	2412.973494
917.641665	2413.679256
917.946961	2409.598442
918.252218	2412.136663
918.557435	2408.373441
918.862612	2406.598955
919.167750	2404.988307
919.472848	2402.523182
919.777906	2402.785322
920.082925	2401.852709
920.387904	2397.971020
920.692843	2401.182235
920.997743	2401.149468
921.302603	2399.894221
921.607423	2399.092677
921.912204	2395.911709
922.216946	2395.203427
922.521647	2395.853736
922.826310	2395.410114
923.130932	2395.256359
923.435516	2395.654610
923.740059	2394.180073
924.044564	2396.625032
924.349028	2394.036400
924.653454	2391.783004
924.957840	2394.411966
925.262186	2391.218395
925.566493	2392.158570
925.870761	2390.197561
926.174989	2394.051523
926.479178	2394.308622
926.783328	2393.978427
927.087438	2394.664023
927.391509	2394.280896
927.695541	2397.101421
927.999533	2396.995557
928.303486	2393.738972
928.607400	2393.827192
928.911275	2392.135885
929.215110	2393.018087
929.518906	2394.152346
929.822663	2392.317366
930.126381	2393.491955
930.430060	2392.203940
930.733699	2391.848539
931.037299	2394.835423
931.340861	2393.688560
931.644383	2391.321738
931.947866	2393.323077
932.251309	2396.667882
932.554714	2391.619167
932.858080	2393.565052
933.161407	2393.592778
933.464694	2393.207130
933.767943	2391.551111
934.071153	2391.757798
934.374323	2394.207799
934.677455	2395.316853
934.980548	2395.064795
935.283602	2395.160577
935.586617	2394.704353
935.889593	2396.433468
936.192530	2394.076729
936.495428	2392.037582
936.798287	2393.338200
937.101108	2395.316853
937.403890	2393.781822
937.706632	2394.525392
938.009336	2393.456667
938.312002	2397.323232
938.614628	2392.793755
938.917216	2394.492624
939.219765	2394.835423
939.522275	2393.292830
939.824747	2396.499003
940.127179	2392.082953
940.429573	2390.210164
940.731929	2393.933056
941.034246	2389.569937
941.336524	2395.818448
941.638763	2393.867521
941.940964	2397.345917
942.243126	2394.999260
942.545250	2392.826523
942.847335	2392.713097
943.149381	2394.124620
943.451389	2393.373488
943.753359	2394.719476
944.055290	2394.709394
944.357182	2394.364075
944.659036	2395.722666
944.960851	2392.201420
945.262628	2393.320556
945.564367	2394.480021
945.866067	2394.747203
946.167729	2392.526574
946.469352	2393.131513
946.770937	2392.965155
947.072484	2395.150495
947.373992	2392.612274
947.675462	2391.359547
947.976893	2391.979609
948.278286	2391.634290
948.579641	2392.720659
948.880958	2394.530433
949.182236	2392.019938
949.483476	2394.366595
949.784678	2392.861811
950.085841	2393.481873
950.386967	2397.744168
950.688054	2395.168139
950.989103	2394.217881
951.290114	2392.687891
951.591087	2393.310474
951.892021	2393.494476
952.192917	2395.362223
952.493776	2392.687891
952.794596	2396.466236
953.095378	2393.502037
953.396122	2391.959444
953.696828	2393.880124
953.997496	2391.296533
954.298126	2395.901627
954.598718	2392.944990
954.899272	2395.198386
955.199788	2396.378016
955.500266	2393.696122
955.800706	2391.767881
956.101108	2389.212016
956.401472	2390.580689
956.701798	2385.816798
957.002087	2390.777294
957.302337	2391.016749
957.602550	2393.433982
957.902724	2393.242418
958.202861	2394.873231
958.502960	2393.496996
958.803022	2393.486914
959.103045	2390.729403
959.403031	2391.893909
959.702979	2391.714948
960.002889	2392.413148
960.302762	2390.031203
960.602596	2391.415000
960.902393	2391.901471
961.202153	2392.398025
961.501875	2391.417520
961.801559	2390.694115
962.101205	2391.064640
962.400814	2391.137736
962.700385	2391.006666
962.999918	2389.900133
963.299414	2390.961296
963.598873	2391.909033
963.898293	2393.320556
964.197677	2392.592109
964.497022	2389.038096
964.796331	2391.079763
965.095601	2389.610267
965.394835	2390.472304
965.694030	2391.508261
965.993189	2390.817623
966.292309	2390.880638
966.591393	2389.809392
966.890439	2391.057078
967.189447	2391.863662
967.488419	2392.821482
967.787353	2393.149157
968.086249	2389.993394
968.385108	2391.319218
968.683930	2389.706049
968.982714	2391.152860
969.281462	2390.701677
969.580172	2390.323590
969.878844	2392.592109
970.177480	2391.241080
970.476078	2392.927346
970.774639	2390.880638
971.073162	2390.114382
971.371649	2390.149670
971.670098	2386.751933
971.968510	2388.758312
972.266885	2385.867210
972.565223	2392.145967
972.863524	2388.317211
973.161788	2392.345093
973.460014	2388.899464
973.758204	2389.557335
974.056356	2391.989691
974.354471	2390.983981
974.652550	2393.892727
974.950591	2389.895092
975.248595	2391.982130
975.546563	2391.941800
975.844493	2392.826523
976.142386	2390.719321
976.440243	2390.462222
976.738062	2391.659496
977.035845	2391.339383
977.333590	2391.430123
977.631299	2392.932387
977.928971	2390.721841
978.226606	2387.495503
978.524204	2389.814433
978.821765	2389.781666
979.119290	2390.353837
979.416777	2390.563045
979.714228	2390.711759
980.011642	2393.630587
980.309020	2393.489435
980.606360	2387.976933
980.903664	2391.893909
981.200931	2392.546739
981.498162	2393.955741
981.795356	2390.958775
982.092513	2392.884496
982.389633	2391.122613
982.686717	2390.840308
982.983764	2392.917264
983.280775	2392.438354
983.577749	2391.881307
983.874686	2393.181924
984.171587	2393.305433
984.468451	2389.872407
984.765279	2389.398538
985.062070	2393.058416
985.358824	2390.447098
985.655543	2393.086142
985.952224	2390.689074
986.248869	2391.984650
986.545478	2388.266799
986.842050	2389.453991
987.138586	2385.385780
987.435086	2389.080946
987.731549	2386.572972
988.027975	2390.943652
988.324366	2387.689587
988.620719	2391.659496
988.917037	2390.323590
989.213318	2390.759650
989.509563	2392.947511
989.805772	2391.639331
990.101944	2389.751419
990.398080	2388.975081
990.694180	2390.711759
990.990244	2391.742675
991.286271	2393.179404
991.582262	2389.048178
991.878217	2390.923487
992.174136	2388.077756
992.470019	2388.292005
992.765865	2391.155380
993.061676	2391.896430
993.357450	2389.920298
993.653188	2390.989022
993.948890	2393.265103
994.244556	2388.617159
994.540186	2393.123951
994.835780	2388.896943
995.131337	2391.609084
995.426859	2386.905688
995.722345	2392.395504
996.017795	2392.428272
996.313208	2393.499517
996.608586	2391.558673
996.903928	2391.750237
997.199234	2391.165463
997.494504	2389.975750
997.789738	2392.077912
998.084936	2391.457850
998.380099	2389.035575
998.675225	2388.044988
998.970316	2390.943652
999.265371	2390.807541
999.560390	2390.230329
999.855373	2390.958775
1000.150320	2388.654968
1000.445232	2388.954917
1000.740108	2392.151008
1001.034948	2390.442057
1001.329752	2389.554814
1001.624521	2390.689074
1001.919254	2386.872920
1002.213951	2387.787890
1002.508613	2385.768908
1002.803239	2388.786038
1003.097829	2385.327807
1003.392384	2388.788559
1003.686903	2389.683363
1003.981386	2389.345606
1004.275834	2388.569268
1004.570246	2390.111862
1004.864623	2389.585061
1005.158964	2390.646224
1005.453270	2386.346120
1005.747540	2388.370143
1006.041775	2389.872407
1006.335974	2389.607746
1006.630138	2390.409290
1006.924266	2391.422562
1007.218359	2389.257386
1007.512416	2390.376522
1007.806438	2388.206305
1008.100425	2390.706718
1008.394376	2388.418034
1008.688292	2388.828888
1008.982172	2388.982643
1009.276017	2389.161604
1009.569827	2389.350647
1009.863602	2390.242932
1010.157341	2390.404248
1010.451045	2390.923487
1010.744714	2389.307797
1011.038347	2389.764022
1011.331945	2389.499361
1011.625508	2389.653117
1011.919036	2387.697149
1012.212528	2390.469783
1012.505986	2389.948024
1012.799408	2391.291492
1013.092795	2388.007180
1013.386147	2390.371481
1013.679464	2391.218395
1013.972745	2390.568086
1014.265992	2390.888199
1014.559204	2388.607077
1014.852380	2387.961809
1015.145521	2390.250493
1015.438628	2389.138919
1015.731699	2390.885679
1016.024736	2390.225288
1016.317737	2388.206305
1016.610703	2391.304094
1016.903635	2388.231511
1017.196531	2386.928373
1017.489393	2385.771428
1017.782219	2382.819832
1018.075011	2390.189999
1018.367768	2389.184289
1018.660490	2390.789897
1018.953177	2390.789897
1019.245829	2390.789897
