Dividing Wavelength (nm)	Counts (n)	Blue Motor Position (mm): 0.000000	Red Motor Position (mm): 29.800000	
326.493990	1989.924905
326.888308	1989.924905
327.282561	1989.924905
327.676750	1966.390278
328.070874	1967.448920
328.464933	1971.922944
328.858929	1983.857876
329.252859	1996.097797
329.646726	2010.828049
330.040528	2024.577796
330.434265	2044.916331
330.827938	2061.247149
331.221547	2082.876220
331.615091	2103.139138
332.008571	2123.485235
332.401986	2145.318472
332.795338	2164.759682
333.188625	2187.407065
333.581847	2203.662266
333.975006	2220.998794
334.368100	2237.140569
334.761129	2255.792838
335.154095	2271.342277
335.546996	2291.199382
335.939833	2322.217602
336.332606	2336.017760
336.725315	2347.483865
337.117960	2357.172962
337.510540	2360.555577
337.903056	2373.571836
338.295508	2377.632485
338.687896	2385.884854
339.080220	2394.119579
339.472480	2397.746689
339.864676	2403.796074
340.256807	2404.920251
340.648875	2405.825138
341.040879	2411.277146
341.432818	2411.751014
341.824694	2410.740263
342.216506	2409.714388
342.608253	2409.495098
342.999937	2406.215828
343.391557	2409.802608
343.783113	2407.385375
344.174605	2405.520148
344.566033	2406.276321
344.957397	2402.515621
345.348697	2401.111659
345.739934	2398.026473
346.131106	2399.112842
346.522215	2396.277193
346.913260	2395.110166
347.304241	2394.767367
347.695159	2391.543549
348.086012	2392.854249
348.476802	2388.660009
348.867528	2388.793600
349.258191	2384.422919
349.648789	2384.354864
350.039324	2386.215050
350.429796	2383.099617
350.820203	2382.600542
351.210548	2381.524256
351.600828	2382.683721
351.991045	2381.725902
352.381198	2380.747918
352.771288	2380.684904
353.161314	2381.544421
353.551276	2379.873278
353.941175	2382.406458
354.331010	2383.762528
354.720782	2381.471324
355.110490	2383.099617
355.500135	2383.797816
355.889717	2386.356202
356.279235	2384.400234
356.668689	2388.113044
357.058080	2384.730430
357.447408	2385.189175
357.836672	2381.604914
358.225873	2385.957951
358.615010	2383.036602
359.004084	2386.585574
359.393095	2389.774104
359.782043	2389.635472
360.170927	2389.685884
360.559748	2389.509444
360.948505	2390.555483
361.337199	2394.979096
361.725830	2393.207130
362.114398	2396.294837
362.502903	2394.767367
362.891344	2397.466905
363.279722	2396.539333
363.668037	2399.742986
364.056289	2398.490259
364.444478	2401.187277
364.832603	2400.269787
365.220665	2402.321536
365.608665	2400.126114
365.996601	2404.900086
366.384474	2403.475960
366.772284	2404.804304
367.160031	2408.829666
367.547715	2407.105591
367.935336	2406.888822
368.322893	2407.564336
368.710388	2408.416291
369.097820	2414.201015
369.485189	2411.509039
369.872495	2413.326375
370.259738	2417.639082
370.646918	2418.980029
371.034035	2420.202509
371.421090	2421.856007
371.808081	2428.417069
372.195010	2432.669282
372.581875	2437.977617
372.968678	2442.343257
373.355418	2448.838783
373.742096	2463.495938
374.128710	2469.104222
374.515262	2483.486634
374.901751	2500.941629
375.288177	2516.342354
375.674540	2535.526465
376.060841	2558.562017
376.447079	2580.780903
376.833254	2607.370469
377.219367	2633.040024
377.605417	2670.442865
377.991404	2693.526309
378.377329	2734.221023
378.763191	2770.890376
379.148991	2817.153045
379.534727	2869.213041
379.920402	2916.799013
380.306013	2965.509162
380.691563	3029.133564
381.077049	3084.727409
381.462474	3141.548774
381.847835	3215.527707
382.233134	3291.223153
382.618371	3350.897811
383.003545	3438.359310
383.388657	3516.905528
383.773706	3611.485136
384.158693	3684.397865
384.543618	3781.566105
384.928480	3861.097869
385.313280	3966.412614
385.698017	4069.027821
386.082692	4196.195968
386.467305	4259.701903
386.851856	4386.363414
387.236344	4544.663207
387.620770	4604.511785
388.005133	4727.347060
388.389435	4875.196541
388.773674	4964.866065
389.157851	5099.091827
389.541965	5230.678546
389.926018	5254.250981
390.310008	5435.949289
390.693936	5560.659873
391.077802	5683.089336
391.461606	5814.655889
391.845348	5933.614517
392.229027	6051.547270
392.612645	6276.725530
392.996200	6396.306741
393.379694	6570.211425
393.763125	6796.143338
394.146494	6892.184880
394.529801	7035.053701
394.913047	7271.138497
395.296230	7271.284690
395.679351	7332.517066
396.062410	7596.464319
396.445408	7493.241653
396.828343	7646.986763
397.211217	7783.569265
397.594028	7663.486460
397.976778	7877.246506
398.359466	8039.589304
398.742092	8013.632403
399.124656	8164.267121
399.507158	8353.607818
399.889598	8372.625571
400.271977	8587.267820
400.654294	8622.303839
401.036549	8816.698293
401.418742	8841.785595
401.800874	9150.843614
402.182944	9227.264986
402.564952	9598.170400
402.946898	9420.043750
403.328783	9481.329057
403.710606	9678.077730
404.092367	9939.275034
404.474067	10301.945724
404.855705	10087.999155
405.237282	10040.448471
405.618797	10470.544594
406.000250	10719.852337
406.381642	11095.080541
406.762972	11045.904085
407.144240	10840.303146
407.525447	11092.350756
407.906593	11035.645337
408.287677	11298.327261
408.668700	11451.976589
409.049661	11426.054976
409.430560	11590.053793
409.811399	11550.579038
410.192176	11717.279913
410.572891	11797.903087
410.953545	12281.843774
411.334138	11755.963207
411.714669	12361.458717
412.095139	11655.666931
412.475547	12166.913028
412.855894	12016.379133
413.236180	12339.358298
413.616405	12036.291691
413.996568	12300.533852
414.376670	12285.372582
414.756711	12154.264773
415.136691	12442.331427
415.516609	12609.496089
415.896466	12682.824713
416.276262	12987.761588
416.655997	13422.510696
417.035670	13456.598978
417.415283	14105.055200
417.794834	14208.960943
418.174324	13950.261530
418.553753	13853.536911
418.933121	14346.753321
419.312428	14147.902487
419.691674	14062.522985
420.070859	14520.121123
420.449983	14172.160520
420.829045	14726.465632
421.208047	14473.518176
421.586988	14935.073619
421.965867	15179.448593
422.344686	15177.603531
422.723444	15746.220479
423.102141	14429.813893
423.480777	15624.592560
423.859352	15126.423216
424.237866	16247.845533
424.616319	15939.052175
424.994712	16606.465656
425.373044	16397.025879
425.751314	17076.855722
426.129524	16203.836260
426.507673	17295.954350
426.885762	16980.935167
427.263789	17187.655242
427.641756	17354.421652
428.019662	17412.876352
428.397508	17453.671889
428.775292	17765.953726
429.153016	17723.403867
429.530679	17808.614491
429.908282	17827.511256
430.285824	17544.626908
430.663305	18269.018030
431.040726	17856.402108
431.418086	17671.739602
431.795385	18342.611315
432.172624	18752.943594
432.549802	18302.841652
432.926920	18489.321494
433.303977	18378.902581
433.680974	18636.800450
434.057910	18909.065608
434.434786	18949.407441
434.811601	18859.420325
435.188355	19904.136445
435.565050	19546.355674
435.941683	19497.383385
436.318257	20388.760208
436.694770	20195.517658
437.071222	20802.651542
437.447614	19866.504231
437.823946	19890.517768
438.200218	20051.375946
438.576429	19820.140739
438.952580	20090.434806
439.328670	20049.298990
439.704700	20470.522682
440.080670	20038.266425
440.456580	20634.675254
440.832429	20809.121863
441.208218	19798.075609
441.583947	20239.221941
441.959616	20344.753456
442.335224	20586.799416
442.710773	20717.143490
443.086261	21254.843042
443.461689	20620.025661
443.837057	20747.055177
444.212365	21393.699104
444.587612	21375.256043
444.962800	20953.573606
445.337927	21382.737115
445.712995	20105.782599
446.088002	21969.771918
446.462949	22143.149802
446.837837	22331.958658
447.212664	22285.171709
447.587431	25121.682785
447.962139	28068.269975
448.336786	30472.653343
448.711374	28914.165508
449.085901	25218.785490
449.460369	25153.008515
449.834776	25066.749331
450.209124	27545.905614
450.583412	27089.955933
450.957640	27619.025030
451.331808	26269.366993
451.705917	24898.158023
452.079965	24932.213538
452.453954	25290.705111
452.827883	25167.542161
453.201752	24972.603263
453.575562	25132.806091
453.949311	26259.612360
454.323001	26309.078682
454.696632	26068.698823
455.070202	27632.981464
455.443713	27761.614066
455.817164	28362.875006
456.190556	28895.079700
456.563888	28325.701538
456.937160	28766.948693
457.310373	27103.967821
457.683526	27544.705819
458.056619	27525.690587
458.429653	27460.458056
458.802628	28047.870946
459.175542	28153.029415
459.548398	29447.101169
459.921194	31011.272905
460.293930	31677.216890
460.666607	33705.081519
461.039224	35458.936750
461.411782	35855.242019
461.784280	34670.172614
462.156719	34196.944379
462.529099	33630.127123
462.901419	32327.480366
463.273680	31267.920568
463.645882	31346.754132
464.018024	31327.743941
464.390106	32160.388801
464.762130	34827.862427
465.134094	38859.931028
465.505999	44129.121468
465.877845	48733.625692
466.249631	49918.785838
466.621358	48221.666272
466.993026	46095.395800
467.364634	44023.652968
467.736184	42050.608367
468.107674	40797.579167
468.479105	39990.548410
468.850477	39294.947317
469.221790	37854.351906
469.593043	36107.443384
469.964238	35230.232203
470.335373	35117.005367
470.706449	36801.814435
471.077467	39346.782981
471.448425	43872.499011
471.819324	46687.418825
472.190164	44871.023039
472.560945	41295.995527
472.931667	38190.853966
473.302330	37065.055927
473.672934	36224.945118
474.043479	36705.808181
474.413965	35887.404580
474.784393	35493.201473
475.154761	36346.676381
475.525070	36353.572679
475.895321	35882.126492
476.265513	36442.564168
476.635645	37370.627988
477.005719	37148.706314
477.375734	37576.508712
477.745691	38212.374652
478.115588	39486.770782
478.485427	41366.508667
478.855207	44588.095841
479.224928	47094.781865
479.594591	48678.331796
479.964194	47647.642686
480.333739	47746.832429
480.703226	47697.900470
481.072653	48229.795133
481.442022	48615.584554
481.811333	48814.579061
482.180584	47443.743137
482.549777	46838.718976
482.918912	46203.561317
483.287988	45832.965933
483.657005	44920.307879
484.025964	44201.830030
484.394864	44127.997291
484.763706	43594.272689
485.132489	42633.229641
485.501213	42361.846685
485.869879	42373.862275
486.238487	41852.755682
486.607036	41915.661720
486.975527	41260.178129
487.343959	41316.744917
487.712333	41245.261355
488.080648	41012.508762
488.448905	41278.059102
488.817104	40957.487088
489.185244	41659.324088
489.553326	42994.791277
489.921350	45331.807186
490.289315	47936.558775
490.657222	48350.256024
491.025070	48434.400444
491.392861	47348.656893
491.760593	45918.494150
492.128267	44121.710972
492.495883	42484.263545
492.863440	41028.761442
493.230939	39583.099671
493.598380	38400.155112
493.965763	37883.235197
494.333088	36953.928732
494.700354	36320.986661
495.067563	35835.241241
495.434713	35484.434907
495.801805	35314.585831
496.168839	34753.601189
496.535815	34228.113833
496.902733	34019.894015
497.269593	33436.103193
497.636395	33131.241935
498.003139	33192.302911
498.369825	32505.213807
498.736453	32485.003821
499.103023	31872.397764
499.469535	31495.886586
499.835989	31311.140901
500.202385	30777.033171
500.568723	30527.929595
500.935003	30394.094522
501.301226	29960.192328
501.667390	30135.304369
502.033497	30032.656394
502.399546	29343.520581
502.765537	28566.640965
503.131470	28558.020592
503.497345	28501.794083
503.863163	27286.369370
504.228923	27410.149861
504.594625	27390.751501
504.960269	26605.947191
505.325856	26762.918639
505.691385	26051.334568
506.056856	25841.801529
506.422270	25814.392776
506.787625	25242.678039
507.152924	25054.645521
507.518164	24809.683253
507.883347	24026.855075
508.248472	23879.590368
508.613540	23837.297608
508.978550	23699.855589
509.343503	23235.880392
509.708398	23031.020503
510.073236	23000.433302
510.438016	22699.829298
510.802738	22083.366759
511.167403	22113.220472
511.532010	21904.327659
511.896561	21745.611972
512.261053	21855.100792
512.625488	21307.588634
512.989866	20920.382649
513.354186	20532.541477
513.718449	20215.457942
514.082655	20213.350739
514.446803	19772.784140
514.810894	19686.497230
515.174927	19340.805147
515.538904	18989.837495
515.902822	18971.336461
516.266684	18435.774358
516.630488	18308.742322
516.994235	17940.710365
517.357925	17865.052728
517.721558	17634.374570
518.085133	17456.812528
518.448651	17210.368161
518.812112	16828.881364
519.175516	16597.152125
519.538863	16422.922286
519.902152	16142.029194
520.265385	16012.718556
520.628560	15750.921355
520.991678	15415.971970
521.354739	15230.018928
521.717743	15064.827878
522.080690	14780.768941
522.443580	14682.426112
522.806413	14438.744297
523.169189	14178.968598
523.531908	13980.158093
523.894569	13701.954456
524.257174	13501.684537
524.619722	13348.491434
524.982213	13106.200977
525.344647	12854.949869
525.707025	12626.520065
526.069345	12499.104902
526.431608	12263.967842
526.793815	12117.822272
527.155964	11799.251596
527.518057	11627.726336
527.880093	11380.062009
528.242072	11291.113370
528.603995	11037.550893
528.965860	10851.194559
529.327669	10679.664258
529.689421	10473.791097
530.051117	10286.547520
530.412755	10128.088931
530.774337	9979.344646
531.135862	9764.964537
531.497331	9631.189958
531.858743	9455.319224
532.220098	9343.990382
532.581396	9144.113673
532.942638	8948.254764
533.303824	8833.850819
533.664953	8683.863889
534.026025	8500.368410
534.387040	8428.327801
534.747999	8285.862272
535.108902	8171.377668
535.469748	7979.332392
535.830537	7862.856532
536.191270	7760.488342
536.551947	7596.572704
536.912567	7508.349991
537.273131	7405.598673
537.633638	7232.596355
537.994089	7154.932339
538.354483	7008.789289
538.714821	6959.050745
539.075103	6887.743623
539.435328	6765.462875
539.795497	6653.912223
540.155609	6552.433796
540.515665	6498.879098
540.875665	6355.201172
541.235609	6286.888497
541.595496	6200.294076
541.955328	6162.301420
542.315102	6021.438979
542.674821	5918.745634
543.034483	5840.564900
543.394090	5757.678248
543.753640	5673.448129
544.113134	5668.843035
544.472571	5527.428587
544.831953	5536.248086
545.191278	5410.955248
545.550548	5317.787163
545.909761	5278.690495
546.268918	5224.883739
546.628019	5172.604453
546.987064	5087.071196
547.346053	4980.937263
547.704986	4965.322289
548.063863	4881.442531
548.422684	4833.002083
548.781449	4764.013893
549.140158	4730.676742
549.498811	4666.548224
549.857408	4587.525617
550.215949	4570.569696
550.574434	4515.411912
550.932864	4458.058704
551.291237	4434.337555
551.649555	4378.423597
552.007817	4340.514120
552.366022	4279.001961
552.724173	4241.163060
553.082267	4214.790264
553.440305	4186.300183
553.798288	4117.982466
554.156215	4086.981890
554.514086	4060.974577
554.871902	4009.890045
555.229661	3977.520796
555.587365	3935.301133
555.945014	3903.602357
556.302606	3868.921739
556.660143	3844.116742
557.017625	3814.963749
557.375050	3779.988224
557.732421	3759.750512
558.089735	3730.942838
558.446994	3697.552756
558.804197	3686.479861
559.161345	3658.834173
559.518437	3613.776340
559.875474	3593.440326
560.232455	3574.316709
560.589381	3557.088565
560.946251	3530.428423
561.303065	3517.147503
561.659825	3494.573217
562.016528	3466.761171
562.373177	3444.880042
562.729770	3435.379988
563.086307	3406.320257
563.442789	3397.049575
563.799216	3380.985938
564.155587	3365.154194
564.511904	3348.379755
564.868164	3332.152281
565.224370	3325.107268
565.580520	3306.122283
565.936615	3295.815644
566.292654	3278.320319
566.648638	3270.849329
567.004567	3258.112854
567.360441	3248.421236
567.716260	3234.863053
568.072023	3226.361147
568.427732	3212.651729
568.783385	3200.651262
569.138982	3192.998791
569.494525	3183.670135
569.850013	3171.336952
570.205445	3168.634894
570.560823	3155.953872
570.916145	3149.372645
571.271412	3141.097591
571.626625	3132.653658
571.981782	3124.164355
572.336884	3111.871502
572.691931	3109.711367
573.046923	3095.817947
573.401860	3087.280753
573.756743	3082.645412
574.111570	3077.785740
574.466342	3072.185018
574.821059	3064.794687
575.175722	3054.863613
575.530330	3045.676111
575.884882	3039.772919
576.239380	3033.335366
576.593823	3029.685571
576.948211	3021.425640
577.302544	3011.227386
577.656823	3008.605986
578.011047	3004.986437
578.365216	2996.083760
578.719330	2986.223263
579.073389	2983.513643
579.427394	2982.951554
579.781344	2976.450986
580.135239	2968.364975
580.489080	2963.880869
580.842866	2954.418623
581.196597	2954.514405
581.550273	2950.829322
581.903895	2944.094340
582.257463	2944.742128
582.610975	2934.364913
582.964434	2935.206786
583.317837	2925.222781
583.671186	2920.942841
584.024481	2919.249013
584.377721	2912.793816
584.730906	2908.859195
585.084037	2912.413209
585.437113	2900.435427
585.790135	2898.532392
586.143103	2892.553583
586.496016	2889.544014
586.848874	2884.601163
587.201679	2882.551934
587.554428	2871.201776
587.907124	2873.755120
588.259765	2866.873945
588.612352	2869.533154
588.964884	2858.266175
589.317362	2856.862214
589.669786	2855.722913
590.022155	2850.462469
590.374470	2851.029599
590.726731	2843.538444
591.078937	2838.083916
591.431090	2831.684171
591.783188	2828.775425
592.135232	2822.539518
592.487222	2821.806030
592.839157	2821.569096
593.191038	2810.844041
593.542866	2810.894452
593.894639	2799.042700
594.246358	2802.016981
594.598022	2800.827268
594.949633	2792.637914
595.301190	2791.808644
595.652692	2786.989301
596.004141	2789.018365
596.355535	2777.262395
596.706876	2774.184770
597.058162	2772.811056
597.409395	2771.538164
597.760573	2771.162598
598.111698	2765.113214
598.462768	2764.205806
598.813785	2760.981988
599.164748	2755.159456
599.515657	2755.966040
599.866511	2747.683424
600.217312	2751.565113
600.568060	2742.309554
600.918753	2746.264340
601.269392	2743.600090
601.619978	2740.308216
601.970510	2739.625140
602.320988	2734.604151
602.671412	2740.303175
603.021783	2735.143554
603.372100	2726.613922
603.722363	2729.215157
604.072572	2725.693911
604.422728	2725.232646
604.772830	2717.423898
605.122878	2716.171172
605.472872	2716.256871
605.822813	2714.716799
606.172701	2712.753269
606.522534	2715.672097
606.872314	2715.334340
607.222041	2711.528269
607.571714	2712.150852
607.921333	2706.655994
608.270899	2707.356714
608.620411	2709.073227
608.969870	2703.520396
609.319276	2701.982844
609.668627	2702.567618
610.017926	2702.302957
610.367171	2701.231712
610.716362	2700.964531
611.065500	2701.156095
611.414585	2702.373534
611.763616	2698.582586
612.112594	2697.496217
612.461518	2698.091073
612.810389	2698.086032
613.159207	2696.419931
613.507971	2693.085208
613.856682	2696.946732
614.205340	2697.269365
614.553945	2698.527133
614.902496	2690.811647
615.250994	2692.613860
615.599439	2692.427337
615.947830	2693.123016
616.296169	2690.904909
616.644454	2690.892306
616.992686	2692.898685
617.340864	2696.329190
617.688990	2690.572192
618.037063	2690.998170
618.385082	2691.023376
618.733048	2692.971782
619.080961	2690.103365
619.428821	2689.700073
619.776628	2691.512368
620.124382	2686.740916
620.472083	2684.669001
620.819731	2686.972809
621.167326	2686.728313
621.514868	2684.041378
621.862357	2679.164061
622.209793	2679.451407
622.557176	2674.916889
622.904506	2671.496466
623.251783	2663.544046
623.599007	2669.691733
623.946179	2662.248470
624.293297	2662.624036
624.640363	2660.209323
624.987376	2660.161432
625.334336	2657.426606
625.681243	2653.875113
626.028097	2654.643889
626.374899	2654.157418
626.721647	2654.381749
627.068343	2651.765390
627.414987	2649.995945
627.761577	2647.019144
628.108115	2648.652478
628.454600	2646.567961
628.801032	2643.931437
629.147412	2645.045532
629.493739	2644.034781
629.840014	2640.286683
630.186236	2644.770789
630.532405	2639.895993
630.878521	2640.805922
631.224585	2639.666621
631.570597	2635.759727
631.916556	2637.201497
632.262462	2640.269039
632.608316	2637.859367
632.954117	2637.093112
633.299866	2635.094294
633.645562	2633.244191
633.991206	2630.466515
634.336797	2627.220012
634.682336	2628.261010
635.027823	2627.794704
635.373257	2625.566514
635.718639	2622.133488
636.063968	2623.340844
636.409245	2619.108796
636.754470	2620.348919
637.099642	2616.920935
637.444762	2613.984463
637.789829	2612.741818
638.134845	2613.676952
638.479808	2610.077568
638.824719	2609.676797
639.169577	2605.487598
639.514383	2608.620675
639.859137	2604.983482
640.203839	2608.219903
640.548489	2604.605396
640.893086	2601.197576
641.237632	2597.416711
641.582125	2601.313522
641.926566	2598.961824
642.270955	2601.731938
642.615292	2600.585076
642.959576	2598.785384
643.303809	2599.478542
643.647990	2599.745724
643.992118	2600.902668
644.336195	2598.765219
644.680219	2598.500559
645.024192	2602.195724
645.368112	2602.828389
645.711981	2600.270004
646.055797	2605.963987
646.399562	2604.779316
646.743274	2608.552619
647.086935	2613.187960
647.430544	2609.573453
647.774101	2609.134873
648.117606	2613.865996
648.461059	2613.757611
648.804460	2612.724174
649.147810	2606.619337
649.491108	2605.255705
649.834354	2604.859974
650.177548	2599.483584
650.520690	2596.310177
650.863781	2598.387133
651.206820	2597.905702
651.549807	2593.930753
651.892742	2592.531832
652.235626	2591.203488
652.578458	2590.878334
652.921238	2587.750298
653.263967	2590.008735
653.606644	2585.988415
653.949269	2588.188878
654.291843	2583.687128
654.634365	2587.422623
654.976836	2586.031265
655.319255	2584.808785
655.661622	2586.326172
656.003938	2583.964392
656.346203	2581.348033
656.688416	2582.348702
657.030577	2581.925245
657.372687	2580.546489
657.714746	2580.029771
658.056753	2581.153948
658.398708	2574.451734
658.740612	2575.656570
659.082465	2577.536920
659.424266	2574.731518
659.766016	2577.201684
660.107715	2577.141190
660.449362	2576.218659
660.790958	2577.063052
661.132503	2578.640933
661.473996	2579.508012
661.815438	2579.230748
662.156829	2578.477096
662.498168	2579.155131
662.839456	2577.171437
663.180693	2579.087075
663.521879	2580.722930
663.863013	2575.931313
664.204097	2577.436097
664.545129	2578.900553
664.886110	2582.003383
665.227040	2577.093299
665.567918	2581.348033
665.908746	2579.412230
666.249522	2580.170923
666.590248	2581.849628
666.930922	2582.636047
667.271545	2581.718558
667.612118	2580.896849
667.952639	2581.216963
668.293109	2580.473392
668.633528	2580.967426
668.973896	2578.396437
669.314213	2578.782085
669.654480	2577.146231
669.994695	2577.310068
670.334859	2577.206725
670.674973	2577.163875
671.015035	2578.429205
671.355047	2577.325192
671.695008	2577.065572
672.034918	2577.599935
672.374777	2576.339646
672.714585	2574.789492
673.054342	2579.581108
673.394049	2576.044739
673.733705	2579.686973
674.073310	2578.028433
674.412864	2576.143041
674.752368	2572.672207
675.091820	2573.337639
675.431223	2574.434090
675.770574	2573.216652
676.109875	2566.930333
676.449125	2568.253636
676.788324	2563.575445
677.127473	2569.299675
677.466571	2564.573593
677.805619	2567.678944
678.144616	2567.588203
678.483562	2562.383212
678.822458	2560.122254
679.161303	2562.763819
679.500098	2560.933880
679.838842	2562.415979
680.177535	2562.839436
680.516179	2563.532595
680.854771	2564.281206
681.193314	2568.253636
681.531805	2571.800087
681.870247	2574.938206
682.208638	2579.802919
682.546978	2580.443146
682.885268	2576.448031
683.223508	2579.366859
683.561697	2578.489698
683.899836	2580.410378
684.237925	2574.993658
684.575963	2572.248750
684.913951	2571.517783
685.251889	2574.320664
685.589776	2573.385530
685.927614	2571.046435
686.265401	2577.047928
686.603137	2571.795046
686.940824	2576.390058
687.278460	2576.785788
687.616046	2576.538772
687.953582	2583.876171
688.291068	2581.721078
688.628504	2583.344330
688.965889	2583.520770
689.303224	2580.889288
689.640510	2580.657395
689.977745	2575.502815
690.314930	2573.022567
690.652065	2570.038204
690.989150	2565.415466
691.326185	2564.006463
691.663170	2560.560835
692.000105	2557.216029
692.336990	2553.707386
692.673825	2551.219577
693.010610	2549.414844
693.347345	2542.901673
693.684030	2539.677855
694.020665	2541.222969
694.357251	2534.883718
694.693786	2539.521579
695.030272	2538.503266
695.366707	2534.283820
695.703093	2534.480425
696.039429	2533.895652
696.375716	2533.701567
696.711952	2532.710980
697.048139	2532.045548
697.384276	2533.983872
697.720363	2531.155784
698.056400	2530.928933
698.392388	2531.884231
698.728326	2529.623274
699.064214	2527.947090
699.400053	2526.452388
699.735842	2528.426000
700.071581	2522.391738
700.407270	2522.737057
700.742910	2523.432737
701.078501	2520.483662
701.414042	2520.919722
701.749533	2519.097344
702.084974	2516.533918
702.420366	2520.140863
702.755709	2520.949968
703.091002	2514.109123
703.426246	2516.024761
703.761440	2516.334792
704.096584	2514.522497
704.431679	2513.897394
704.766725	2512.304390
705.101721	2511.636437
705.436668	2513.168947
705.771565	2511.026457
706.106413	2512.218690
706.441212	2511.374297
706.775961	2514.051149
707.110661	2513.002589
707.445311	2515.571057
707.779913	2514.799761
708.114465	2517.877385
708.448967	2516.370080
708.783421	2523.246214
709.117825	2521.902747
709.452180	2525.610515
709.786485	2523.911646
710.120742	2529.441792
710.454949	2531.168387
710.789107	2528.428520
711.123216	2531.891793
711.457275	2537.031249
711.791286	2535.927237
712.125247	2537.583256
712.459159	2539.322454
712.793023	2545.225645
713.126837	2537.976466
713.460602	2542.694986
713.794318	2537.202648
714.127985	2534.767771
714.461602	2531.150743
714.795171	2531.710311
715.128691	2527.062368
715.462162	2525.844929
715.795584	2523.059691
716.128957	2521.123888
716.462281	2521.360822
716.795556	2517.290091
717.128782	2514.774555
717.461960	2509.811539
717.795088	2514.076355
718.128167	2509.325068
718.461198	2510.136693
718.794180	2506.355828
719.127113	2507.744666
719.459997	2504.672083
719.792833	2504.493122
720.125619	2503.353821
720.458357	2500.729900
720.791046	2502.509428
721.123686	2497.606906
721.456278	2498.509272
721.788821	2498.113542
722.121315	2498.695795
722.453761	2498.665548
722.786158	2500.233347
723.118506	2499.802328
723.450805	2496.611278
723.783056	2499.073881
724.115259	2498.373161
724.447412	2495.353510
724.779518	2495.270331
725.111574	2501.095384
725.443582	2497.720332
725.775542	2500.868532
726.107453	2502.335508
726.439315	2502.239726
726.771129	2509.249450
727.102895	2506.136538
727.434612	2505.327433
727.766281	2509.214162
728.097901	2508.374810
728.429473	2506.512104
728.760996	2508.581497
729.092471	2504.425066
729.423897	2510.000582
729.755276	2508.568895
730.086606	2510.330778
730.417887	2512.528721
730.749120	2514.787158
731.080305	2515.651716
731.411442	2521.451563
731.742530	2519.324196
732.073570	2520.392921
732.404562	2520.455935
732.735506	2521.365864
733.066401	2519.087262
733.397249	2517.274967
733.728048	2512.977384
734.058798	2511.540655
734.389501	2505.095540
734.720156	2503.706702
735.050762	2499.514982
735.381320	2500.457678
735.711831	2495.754282
736.042293	2496.886021
736.372707	2496.986844
736.703073	2494.196565
737.033391	2495.696308
737.363661	2497.833757
737.693883	2495.086329
738.024056	2498.952894
738.354182	2496.835609
738.684260	2501.218892
739.014290	2500.321567
739.344272	2503.343739
739.674207	2502.970693
740.004093	2506.769203
740.333931	2506.789367
740.663722	2505.312309
740.993464	2504.777947
741.323159	2504.102432
741.652806	2502.645539
741.982405	2503.134531
742.311956	2498.433655
742.641460	2502.015395
742.970915	2498.645383
743.300323	2496.321411
743.629683	2495.857625
743.958996	2492.185145
744.288260	2492.069198
744.617477	2489.331852
744.946647	2486.662561
745.275768	2489.291522
745.604842	2484.023517
745.933869	2485.230873
746.262847	2483.516881
746.591778	2484.290698
746.920662	2483.864720
747.249498	2485.188023
747.578286	2487.297746
747.907027	2490.473673
748.235720	2489.654485
748.564365	2490.072901
748.892963	2490.012407
749.221514	2487.668271
749.550017	2487.650627
749.878473	2487.582571
750.206881	2487.953096
750.535242	2485.359422
750.863555	2487.207005
751.191821	2486.985194
751.520039	2483.501757
751.848210	2485.805564
752.176334	2485.881182
752.504411	2482.546458
752.832440	2484.512508
753.160421	2488.333703
753.488356	2485.225832
753.816243	2483.756335
754.144082	2485.838332
754.471875	2483.093424
754.799620	2480.935810
755.127318	2482.712817
755.454969	2482.228866
755.782572	2483.476551
756.110129	2482.357415
756.437638	2481.573516
756.765100	2481.359267
757.092515	2481.941520
757.419882	2482.962354
757.747203	2483.330358
758.074477	2483.340440
758.401703	2484.406644
758.728882	2483.189206
759.056014	2485.359422
759.383099	2484.709113
759.710138	2488.457211
760.037129	2485.346819
760.364073	2487.862355
760.690970	2486.077787
761.017820	2488.565596
761.344623	2485.435040
761.671379	2492.185145
761.998088	2494.158756
762.324751	2500.674448
762.651366	2521.144053
762.977935	2546.891746
763.304456	2560.354147
763.630931	2567.873028
763.957359	2564.782801
764.283740	2552.626059
764.610074	2538.682227
764.936362	2524.322500
765.262602	2514.378824
765.588796	2504.331805
765.914943	2495.744199
766.241044	2489.087356
766.567097	2484.003352
766.893104	2481.669298
767.219064	2477.109574
767.544978	2474.548668
767.870845	2472.958184
768.196665	2471.544140
768.522438	2467.929633
768.848165	2470.727473
769.173846	2470.596403
769.499479	2469.610858
769.825066	2462.394446
770.150607	2465.419138
770.476101	2465.151957
770.801548	2466.981896
771.126949	2460.914867
771.452303	2461.025773
771.777611	2460.962758
772.102872	2461.504682
772.428087	2460.168777
772.753256	2459.402521
773.078378	2455.974537
773.403453	2458.737089
773.728482	2457.161728
774.053465	2454.971347
774.378401	2453.297684
774.703291	2457.015535
775.028135	2454.361367
775.352932	2454.189968
775.677683	2456.060236
776.002388	2455.593929
776.327046	2454.547890
776.651658	2451.571089
776.976224	2451.210646
777.300743	2452.889350
777.625216	2451.671912
777.949643	2451.966819
778.274024	2450.875409
778.598359	2447.593618
778.922647	2447.838114
779.246889	2448.054884
779.571086	2446.527414
779.895236	2450.149483
780.219339	2451.492951
780.543397	2450.751901
780.867409	2449.579833
781.191374	2449.668053
781.515294	2451.250975
781.839167	2453.706017
782.162995	2449.683177
782.486776	2452.823815
782.810511	2448.874071
783.134201	2449.927672
783.457844	2451.200564
783.781441	2449.857096
784.104993	2449.352981
784.428498	2450.479679
784.751958	2448.120419
785.075372	2447.535645
785.398739	2447.381890
785.722061	2449.219390
786.045337	2448.125460
786.368568	2450.451953
786.691752	2450.426747
787.014891	2450.078907
787.337983	2456.776080
787.661030	2459.518468
787.984031	2460.768674
788.306987	2464.015177
788.629897	2464.131123
788.952760	2465.943418
789.275579	2463.435444
789.598351	2463.818572
789.921078	2458.023766
790.243759	2454.747016
790.566395	2455.283898
790.888984	2453.690894
791.211529	2450.283074
791.534027	2452.738116
791.856480	2449.317693
792.178888	2449.625203
792.501249	2450.204936
792.823566	2449.093362
793.145836	2448.291818
793.468062	2448.901798
793.790241	2446.182095
794.112375	2449.660491
794.434464	2446.973556
794.756507	2448.329627
795.078505	2450.855245
795.400457	2448.750563
795.722364	2447.817950
796.044226	2454.162242
796.366042	2454.144598
796.687812	2455.833384
797.009538	2458.313632
797.331218	2458.104424
797.652852	2455.934207
797.974442	2455.845987
798.295986	2454.767180
798.617484	2455.581327
798.938938	2451.878599
799.260346	2453.073352
799.581709	2450.275512
799.903026	2450.411623
800.224299	2449.025306
800.545526	2448.763166
800.866708	2446.766869
801.187845	2446.338371
801.508936	2444.452979
801.829983	2448.024637
802.150984	2442.938113
802.471940	2446.545058
802.792851	2441.947526
803.113717	2443.522887
803.434538	2442.388627
803.755314	2443.301076
804.076045	2441.887032
804.396731	2443.984152
804.717372	2442.257557
805.037967	2442.890222
805.358518	2445.524225
805.679024	2445.771241
805.999485	2444.732763
806.319901	2444.243772
806.640272	2444.100099
806.960598	2447.293670
807.280879	2445.620007
807.601115	2447.928855
807.921306	2445.060438
808.241453	2448.075048
808.561554	2444.047167
808.881611	2449.968002
809.201623	2446.282918
809.521590	2447.772579
809.841513	2445.683021
810.161390	2446.174533
810.481223	2442.255036
810.801011	2445.199070
811.120755	2444.115222
811.440453	2445.390634
811.760107	2442.126487
812.079716	2441.491302
812.399281	2439.139603
812.718801	2441.924841
813.038276	2439.154727
813.357707	2443.890891
813.677093	2445.531786
813.996434	2443.754780
814.315731	2440.820828
814.634983	2443.933741
814.954191	2443.709409
815.273354	2447.036571
815.592473	2442.590273
815.911547	2444.755449
816.230577	2445.874585
816.549562	2448.992538
816.868502	2448.881633
817.187399	2449.952878
817.506250	2450.658640
817.825058	2452.975050
818.143821	2453.632921
818.462539	2456.115689
818.781213	2460.841771
819.099843	2464.562142
819.418429	2471.108080
819.736970	2478.090078
820.055466	2488.043837
820.373919	2498.529437
820.692327	2513.738598
821.010691	2553.014227
821.329011	2623.078704
821.647286	2735.178842
821.965517	2850.752335
822.283704	2922.266144
822.601847	2945.412602
822.919945	2899.139851
823.237999	2840.516272
823.556010	2781.028137
823.873976	2726.661813
824.191897	2680.351253
824.509775	2641.446148
824.827609	2608.439193
825.145398	2585.627972
825.463144	2577.347877
825.780845	2576.561457
826.098502	2593.769436
826.416116	2616.237858
826.733685	2643.094606
827.051210	2651.551141
827.368692	2639.928761
827.686129	2611.214349
828.003522	2577.511715
828.320872	2543.738504
828.638177	2529.587986
828.955439	2509.771210
829.272656	2497.674961
829.589830	2484.489823
829.906960	2478.752990
830.224046	2470.752679
830.541088	2467.884262
830.858086	2464.302523
831.175041	2460.186421
831.491952	2460.292285
831.808819	2460.231791
832.125642	2463.672378
832.442421	2469.131948
832.759157	2483.663074
833.075849	2510.126611
833.392497	2530.928932
833.709101	2546.367466
834.025662	2544.008206
834.342179	2532.209386
834.658653	2514.053670
834.975083	2502.665703
835.291469	2493.299240
835.607811	2479.768783
835.924110	2471.765951
836.240366	2464.360496
836.556578	2456.171142
836.872746	2453.509412
837.188871	2448.284256
837.504952	2445.544389
837.820990	2443.152362
838.136984	2442.580191
838.452935	2441.254367
838.768842	2442.129008
839.084706	2445.909873
839.400526	2453.763991
839.716303	2466.898717
840.032037	2476.366004
840.347727	2473.363997
840.663373	2469.094139
840.978977	2458.772377
841.294537	2454.956223
841.610054	2448.276695
841.925527	2443.956426
842.240957	2442.628082
842.556344	2438.653132
842.871687	2436.145158
843.186987	2435.222627
843.502244	2430.153747
843.817458	2428.603592
844.132629	2424.593354
844.447756	2426.483787
844.762840	2422.544125
845.077881	2423.360792
845.392879	2421.109917
845.707833	2424.926070
846.022745	2421.273754
846.337613	2425.659558
846.652438	2423.885072
846.967221	2423.335586
847.281960	2422.617222
847.596656	2424.056471
847.911309	2421.745102
848.225919	2422.997829
848.540485	2422.529001
848.855009	2421.432550
849.169490	2422.281985
849.483928	2423.660740
849.798323	2419.816861
850.112675	2422.718045
850.426984	2421.689649
850.741251	2423.096131
851.055474	2424.167376
851.369654	2421.397262
851.683792	2422.934814
851.997887	2419.211922
852.311938	2422.985226
852.625947	2421.404824
852.939914	2421.311563
853.253837	2422.397931
853.567718	2424.046389
853.881555	2420.021027
854.195350	2422.554207
854.509103	2420.560431
854.822812	2422.181162
855.136479	2420.043712
855.450103	2420.953641
855.763685	2422.148394
856.077224	2422.395411
856.390720	2422.110586
856.704173	2420.063877
857.017584	2421.419947
857.330953	2421.533373
857.644278	2424.363981
857.957561	2424.031265
858.270802	2425.344486
858.584000	2420.504978
858.897155	2424.336255
859.210268	2423.428847
859.523339	2421.314083
859.836367	2423.678384
860.149352	2419.958013
860.462295	2421.654361
860.775195	2418.604463
861.088054	2417.510533
861.400869	2419.650502
861.713642	2416.479617
862.026373	2422.970102
862.339062	2419.587488
862.651708	2422.065215
862.964312	2419.867272
863.276873	2423.426327
863.589392	2421.566141
863.901869	2423.658220
864.214303	2424.071594
864.526696	2426.287182
864.839045	2425.364650
865.151353	2423.418765
865.463619	2427.292892
865.775842	2424.565627
866.088023	2426.458581
866.400162	2426.612336
866.712258	2425.362130
867.024313	2425.049578
867.336325	2425.523447
867.648296	2427.060999
867.960224	2423.678384
868.272110	2425.125196
868.583954	2423.930442
868.895755	2428.495207
869.207515	2426.093097
869.519233	2426.725762
869.830909	2424.847932
870.142542	2425.891451
870.454134	2426.408169
870.765684	2427.113931
871.077191	2428.313725
871.388657	2430.776329
871.700081	2426.763571
872.011463	2428.280958
872.322803	2427.953283
872.634101	2431.789601
872.945357	2430.113417
873.256571	2431.202307
873.567744	2429.594178
873.878874	2431.698860
874.189963	2431.424117
874.501010	2431.761875
874.812015	2429.881524
875.122979	2432.467636
875.433900	2431.691298
875.744780	2434.562236
876.055618	2433.269180
876.366415	2433.533840
876.677169	2432.268511
876.987882	2431.439241
877.298554	2432.366813
877.609183	2433.775816
877.919771	2435.121804
878.230317	2436.402257
878.540822	2441.710592
878.851285	2444.891560
879.161707	2451.966819
879.472087	2461.151802
879.782425	2475.360294
880.092722	2500.485404
880.402977	2538.460416
880.713191	2587.324321
881.023363	2635.152268
881.333494	2660.721000
881.643583	2672.776919
881.953631	2667.269459
882.263637	2655.644558
882.573602	2636.092443
882.883526	2618.637448
883.193408	2599.755806
883.503248	2580.087744
883.813048	2561.193500
884.122806	2542.579039
884.432522	2528.128572
884.742197	2512.327075
885.051831	2500.601351
885.361424	2488.116933
885.670975	2480.802219
885.980485	2471.529017
886.289954	2466.906279
886.599382	2459.503344
886.908768	2455.286419
887.218113	2450.260389
887.527417	2449.486572
887.836680	2446.686211
888.145901	2442.592794
888.455082	2440.276383
888.764221	2440.059614
889.073319	2438.819490
889.382376	2438.012905
889.691392	2434.942843
890.000366	2435.777154
890.309300	2432.676844
890.618193	2435.593152
890.927044	2433.929571
891.235855	2433.380085
891.544625	2435.308326
891.853353	2435.608275
892.162041	2439.298400
892.470687	2442.365942
892.779293	2446.466920
893.087858	2445.098247
893.396381	2451.019082
893.704864	2462.407049
894.013306	2473.754686
894.321707	2491.802017
894.630068	2498.395846
894.938387	2501.904489
895.246665	2501.682678
895.554903	2493.962151
895.863100	2486.123157
896.171256	2476.764255
896.479371	2475.292238
896.787446	2466.200517
897.095480	2463.488376
897.403473	2461.116513
897.711425	2456.299691
898.019336	2452.065122
898.327207	2447.230655
898.635038	2445.756118
898.942827	2442.534820
899.250576	2440.498194
899.558284	2437.276897
899.865952	2435.893100
900.173579	2433.866556
900.481165	2433.853953
900.788711	2431.950918
901.096216	2430.783891
901.403681	2430.597368
901.711105	2431.741710
902.018489	2431.116607
902.325832	2432.313881
902.633135	2436.437545
902.940397	2437.276897
903.247619	2450.704010
903.554800	2469.872998
903.861941	2492.278406
904.169041	2512.616941
904.476101	2518.807478
904.783121	2515.021572
905.090100	2504.175529
905.397039	2495.661020
905.703938	2480.376242
906.010796	2475.224182
906.317614	2468.975672
906.624391	2460.680454
906.931129	2455.472942
907.237826	2450.479679
907.544483	2446.527414
907.851099	2439.391661
908.157675	2438.980807
908.464211	2434.395878
908.770707	2426.524116
909.077163	2424.525298
909.383578	2423.270051
909.689954	2419.259813
909.996289	2420.026068
910.302584	2423.491862
910.608839	2423.249886
910.915054	2422.649989
911.221229	2421.064546
911.527363	2419.862231
911.833458	2419.852149
912.139513	2422.997829
912.445527	2423.547314
912.751502	2424.547983
913.057436	2423.854825
913.363331	2426.085535
913.669186	2427.698705
913.975000	2431.217430
914.280775	2440.430139
914.586510	2447.581015
914.892205	2459.019393
915.197859	2473.328709
915.503475	2489.409989
915.809050	2502.330467
916.114585	2511.064266
916.420081	2514.477127
916.725536	2514.227590
917.030952	2507.227948
917.336328	2502.370796
917.641665	2495.902996
917.946961	2490.135916
918.252218	2485.298928
918.557435	2477.878350
918.862612	2471.140848
919.167750	2463.828654
919.472848	2461.739096
919.777906	2454.890688
920.082925	2452.261727
920.387904	2446.471962
920.692843	2441.851744
920.997743	2439.084151
921.302603	2435.083995
921.607423	2434.710950
921.912204	2433.425455
922.216946	2432.006371
922.521647	2429.314394
922.826310	2428.381781
923.130932	2425.427665
923.435516	2423.822057
923.740059	2421.795513
924.044564	2422.791141
924.349028	2419.879875
924.653454	2416.807292
924.957840	2415.768814
925.262186	2413.177661
925.566493	2419.169072
925.870761	2411.476272
926.174989	2418.465831
926.479178	2415.239493
926.783328	2417.240831
927.087438	2413.585994
927.391509	2414.634554
927.695541	2415.070614
927.999533	2415.584812
928.303486	2414.952147
928.607400	2415.491551
928.911275	2414.664801
929.215110	2413.717064
929.518906	2410.616755
929.822663	2412.797054
930.126381	2416.439288
930.430060	2414.271591
930.733699	2415.100861
931.037299	2412.862589
931.340861	2413.520459
931.644383	2413.180182
931.947866	2413.646488
932.251309	2414.624472
932.554714	2413.646488
932.858080	2412.610531
933.161407	2410.374779
933.464694	2410.082392
933.767943	2412.439132
934.071153	2414.117836
934.374323	2409.704306
934.677455	2411.327558
934.980548	2412.161868
935.283602	2414.170768
935.586617	2412.471899
935.889593	2412.983577
936.192530	2411.446025
936.495428	2409.028791
936.798287	2413.275963
937.101108	2413.981725
937.403890	2414.400141
937.706632	2414.221180
938.009336	2415.831828
938.312002	2415.685635
938.614628	2418.833836
938.917216	2419.486665
939.219765	2416.535069
939.522275	2418.879206
939.824747	2417.545821
940.127179	2414.662281
940.429573	2415.378125
940.731929	2416.298135
941.034246	2413.598597
941.336524	2417.215625
941.638763	2417.011458
941.940964	2418.518763
942.243126	2416.083886
942.545250	2415.690676
942.847335	2416.434246
943.149381	2417.061870
943.451389	2415.675553
943.753359	2417.656726
944.055290	2413.480130
944.357182	2415.899884
944.659036	2414.682445
944.960851	2416.819895
945.262628	2413.275963
945.564367	2413.936355
945.866067	2412.774369
946.167729	2415.806623
946.469352	2415.448701
946.770937	2413.490213
947.072484	2414.846283
947.373992	2415.602456
947.675462	2413.422157
947.976893	2413.878381
948.278286	2413.263361
948.579641	2410.856210
948.880958	2413.127249
949.182236	2416.391397
949.483476	2411.297311
949.784678	2412.308062
950.085841	2412.676066
950.386967	2415.511715
950.688054	2415.037847
950.989103	2413.863258
951.290114	2410.049625
951.591087	2412.275294
951.892021	2415.310069
952.192917	2413.497774
952.493776	2415.990625
952.794596	2417.223187
953.095378	2414.672363
953.396122	2415.645306
953.696828	2414.735378
953.997496	2414.185892
954.298126	2414.775707
954.598718	2415.932652
954.899272	2414.233783
955.199788	2412.938206
955.500266	2413.764955
955.800706	2409.522824
956.101108	2406.341856
956.401472	2410.006775
956.701798	2408.562485
957.002087	2408.159192
957.302337	2409.492578
957.602550	2409.674059
957.902724	2408.171795
958.202861	2412.071128
958.502960	2407.282032
958.803022	2408.885118
959.103045	2406.455282
959.403031	2407.778585
959.702979	2404.882442
960.002889	2410.354615
960.302762	2407.949984
960.602596	2406.593914
960.902393	2406.740108
961.202153	2405.842782
961.501875	2403.448234
961.801559	2404.012843
962.101205	2408.058369
962.400814	2405.595766
962.700385	2404.027967
962.999918	2405.076527
963.299414	2406.195663
963.598873	2406.064593
963.898293	2404.252298
964.197677	2404.910169
964.497022	2404.693399
964.796331	2405.701630
965.095601	2407.808832
965.394835	2404.653070
965.694030	2403.042421
965.993189	2406.740108
966.292309	2405.714233
966.591393	2405.913358
966.890439	2401.812380
967.189447	2404.935374
967.488419	2403.717936
967.787353	2406.036867
968.086249	2403.647360
968.385108	2405.830179
968.683930	2404.930333
968.982714	2404.010323
969.281462	2404.806825
969.580172	2404.416136
969.878844	2405.709192
970.177480	2407.080385
970.476078	2404.063255
970.774639	2405.240364
971.073162	2405.804973
971.371649	2403.992679
971.670098	2402.815569
971.968510	2402.800446
972.266885	2402.092164
972.565223	2403.072668
972.863524	2405.399161
973.161788	2406.094840
973.460014	2408.852351
973.758204	2405.827659
974.056356	2405.661301
974.354471	2404.585014
974.652550	2405.056362
974.950591	2407.352608
975.248595	2406.548544
975.546563	2406.561147
975.844493	2405.946126
976.142386	2406.167937
976.440243	2405.638615
976.738062	2404.781619
977.035845	2403.354973
977.333590	2407.276990
977.631299	2403.360014
977.928971	2407.347567
978.226606	2406.687175
978.524204	2406.354459
978.821765	2403.133162
979.119290	2404.025446
979.416777	2404.244736
979.714228	2402.608882
980.011642	2405.449572
980.309020	2408.920407
980.606360	2404.721125
980.903664	2407.506363
981.200931	2409.026271
981.498162	2410.369738
981.795356	2411.367887
982.092513	2410.828483
982.389633	2412.580284
982.686717	2416.207394
982.983764	2415.115985
983.280775	2418.191088
983.577749	2416.683783
983.874686	2418.533887
984.171587	2417.424833
984.468451	2417.384504
984.765279	2414.339647
985.062070	2413.769997
985.358824	2412.429050
985.655543	2412.308062
985.952224	2409.416960
986.248869	2407.866805
986.545478	2403.639798
986.842050	2404.486712
987.138586	2399.901782
987.435086	2402.497977
987.731549	2398.273490
988.027975	2403.120559
988.324366	2404.403533
988.620719	2405.051321
988.917037	2406.699778
989.213318	2402.543347
989.509563	2404.910169
989.805772	2403.909500
990.101944	2408.307906
990.398080	2401.958573
990.694180	2399.402708
990.990244	2401.988820
991.286271	2403.233985
991.582262	2403.349932
991.878217	2404.963101
992.174136	2403.924623
992.470019	2402.475291
992.765865	2402.064437
993.061676	2399.979920
993.357450	2404.605179
993.653188	2402.790363
993.948890	2403.715415
994.244556	2405.177350
994.540186	2407.899573
994.835780	2404.907648
995.131337	2407.118194
995.426859	2405.991496
995.722345	2411.476272
996.017795	2408.769172
996.313208	2412.355953
996.608586	2410.979718
996.903928	2408.267577
997.199234	2409.721950
997.494504	2412.310583
997.789738	2407.624830
998.084936	2409.812691
998.380099	2409.404357
998.675225	2407.271949
998.970316	2408.539799
999.265371	2408.144069
999.560390	2406.936713
999.855373	2405.726836
1000.150320	2406.646846
1000.445232	2409.253123
1000.740108	2403.559139
1001.034948	2405.918399
1001.329752	2400.146278
1001.624521	2403.072668
1001.919254	2398.477656
1002.213951	2400.698285
1002.508613	2399.652245
1002.803239	2400.831875
1003.097829	2398.034035
1003.392384	2400.897410
1003.686903	2403.468399
1003.981386	2400.965466
1004.275834	2401.391443
1004.570246	2403.067627
1004.864623	2400.060579
1005.158964	2402.230795
1005.453270	2402.092164
1005.747540	2403.627195
1006.041775	2401.134344
1006.335974	2401.983779
1006.630138	2404.106105
1006.924266	2403.236506
1007.218359	2401.091495
1007.512416	2402.001423
1007.806438	2400.090826
1008.100425	2402.939078
1008.394376	2399.130486
1008.688292	2399.117883
1008.982172	2401.351114
1009.276017	2397.623181
1009.569827	2399.889179
1009.863602	2401.126783
1010.157341	2401.696433
1010.451045	2401.633419
1010.744714	2401.978738
1011.038347	2401.547719
1011.331945	2401.512431
1011.625508	2400.347924
1011.919036	2401.517472
1012.212528	2399.737945
1012.505986	2400.988151
1012.799408	2400.574776
1013.092795	2401.076371
1013.386147	2402.518141
1013.679464	2400.899931
1013.972745	2400.075702
1014.265992	2397.955897
1014.559204	2404.108625
1014.852380	2400.237019
1015.145521	2401.192318
1015.438628	2399.034704
1015.731699	2400.789025
1016.024736	2399.190980
1016.317737	2400.171484
1016.610703	2399.720301
1016.903635	2398.979251
1017.196531	2399.851371
1017.489393	2397.998747
1017.782219	2395.062275
1018.075011	2403.261711
1018.367768	2400.995713
1018.660490	2399.427914
1018.953177	2399.427914
1019.245829	2399.427914
