Dividing Wavelength (nm)	Counts (n)	Blue Motor Position (mm): 0.000000	Red Motor Position (mm): 44.200000	
326.493990	1998.401605
326.888308	1998.401605
327.282561	1998.401605
327.676750	1972.976545
328.070874	1972.071658
328.464933	1981.783441
328.858929	1991.351551
329.252859	2004.070382
329.646726	2017.734430
330.040528	2031.479136
330.434265	2050.219625
330.827938	2069.791905
331.221547	2089.908629
331.615091	2110.436208
332.008571	2132.728190
332.401986	2152.945738
332.795338	2173.206135
333.188625	2189.854546
333.581847	2211.488657
333.975006	2229.331821
334.368100	2247.434605
334.761129	2266.553181
335.154095	2280.161776
335.546996	2315.762404
335.939833	2386.610780
336.332606	2401.094015
336.725315	2411.851837
337.117960	2420.971285
337.510540	2428.475042
337.903056	2440.404933
338.295508	2443.979111
338.687896	2452.153342
339.080220	2459.883951
339.472480	2464.284879
339.864676	2468.095991
340.256807	2472.973307
340.648875	2470.959366
341.040879	2471.786116
341.432818	2474.205869
341.824694	2479.063021
342.216506	2475.972794
342.608253	2475.380458
342.999937	2475.438432
343.391557	2472.953143
343.783113	2473.931127
344.174605	2472.857361
344.566033	2470.913996
344.957397	2467.770837
345.348697	2470.644294
345.739934	2465.250260
346.131106	2466.331587
346.522215	2463.642132
346.913260	2460.960238
347.304241	2459.417645
347.695159	2461.146760
348.086012	2458.580813
348.476802	2458.427058
348.867528	2452.927159
349.258191	2451.795420
349.648789	2451.508074
350.039324	2454.071501
350.429796	2454.041254
350.820203	2452.423044
351.210548	2452.072683
351.600828	2450.192333
351.991045	2449.950358
352.381198	2448.576643
352.771288	2449.158897
353.161314	2449.136211
353.551276	2450.101592
353.941175	2447.545727
354.331010	2448.198557
354.720782	2453.063270
355.110490	2452.153342
355.500135	2450.928342
355.889717	2451.581171
356.279235	2451.397169
356.668689	2452.959927
357.058080	2451.591253
357.447408	2454.177365
357.836672	2450.106633
358.225873	2452.816254
358.615010	2450.252827
359.004084	2458.008642
359.393095	2455.906481
359.782043	2458.724486
360.170927	2458.905968
360.559748	2459.566359
360.948505	2460.660289
361.337199	2460.577110
361.725830	2464.557101
362.114398	2464.486525
362.502903	2461.247583
362.891344	2466.303861
363.279722	2463.846298
363.668037	2464.489045
364.056289	2466.185394
364.444478	2469.016002
364.832603	2468.900055
365.220665	2467.206227
365.608665	2472.181846
365.996601	2472.743935
366.384474	2473.295941
366.772284	2476.209728
367.160031	2474.130252
367.547715	2476.358442
367.935336	2474.984728
368.322893	2479.705768
368.710388	2478.271560
369.097820	2480.983701
369.485189	2482.637199
369.872495	2484.509988
370.259738	2485.556027
370.646918	2485.596357
371.034035	2489.110041
371.421090	2494.950217
371.808081	2494.902327
372.195010	2502.756444
372.581875	2509.655263
372.968678	2512.533762
373.355418	2521.161697
373.742096	2532.365661
374.128710	2543.983000
374.515262	2559.608057
374.901751	2572.329408
375.288177	2592.897316
375.674540	2611.272322
376.060841	2632.321660
376.447079	2656.501554
376.833254	2683.612880
377.219367	2708.422918
377.605417	2742.473392
377.991404	2768.447937
378.377329	2810.264308
378.763191	2845.191943
379.148991	2895.769839
379.534727	2947.358487
379.920402	2997.028976
380.306013	3046.540668
380.691563	3108.561984
381.077049	3168.052641
381.462474	3226.804768
381.847835	3300.700522
382.233134	3374.901265
382.618371	3433.819751
383.003545	3521.631610
383.388657	3602.547170
383.773706	3702.127603
384.158693	3776.250208
384.543618	3868.987274
384.928480	3953.918114
385.313280	4056.636665
385.698017	4165.636493
386.082692	4290.107623
386.467305	4353.326213
386.851856	4483.582066
387.236344	4639.585613
387.620770	4703.515006
388.005133	4831.144418
388.389435	4981.262418
388.773674	5071.814144
389.157851	5201.328948
389.541965	5340.782387
389.926018	5362.489595
390.310008	5549.075302
390.693936	5673.566596
391.077802	5790.339884
391.461606	5934.010248
391.845348	6049.064502
392.229027	6170.727709
392.612645	6396.674745
392.996200	6517.949783
393.379694	6695.423604
393.763125	6924.823831
394.146494	7027.214706
394.529801	7162.925088
394.913047	7414.702997
395.296230	7415.895230
395.679351	7473.858417
396.062410	7746.736074
396.445408	7640.786144
396.828343	7801.828324
397.211217	7938.494005
397.594028	7824.498393
397.976778	8028.370216
398.359466	8197.967234
398.742092	8171.849016
399.124656	8324.772418
399.507158	8517.536059
399.889598	8543.371972
400.271977	8759.420703
400.654294	8792.919170
401.036549	8983.585691
401.418742	9021.853090
401.800874	9327.609153
402.182944	9409.487574
402.564952	9787.674935
402.946898	9603.866904
403.328783	9670.778139
403.710606	9865.827943
404.092367	10131.574889
404.474067	10504.118679
404.855705	10286.988621
405.237282	10237.734027
405.618797	10678.527478
406.000250	10926.204408
406.381642	11301.845987
406.762972	11251.845302
407.144240	11045.894003
407.525447	11306.781276
407.906593	11249.702812
408.287677	11505.959785
408.668700	11673.885661
409.049661	11642.917853
409.430560	11805.510188
409.811399	11774.668409
410.192176	11941.379367
410.572891	12025.662418
410.953545	12525.336546
411.334138	11984.085501
411.714669	12610.554731
412.095139	11893.397664
412.475547	12412.460070
412.855894	12244.698032
413.236180	12585.646390
413.616405	12257.336204
413.996568	12547.568034
414.376670	12518.205834
414.756711	12391.700598
415.136691	12690.295702
415.516609	12874.449053
415.896466	12948.349847
416.276262	13238.619486
416.655997	13679.579295
417.035670	13721.670409
417.415283	14378.666346
417.794834	14478.178723
418.174324	14217.299011
418.553753	14115.261016
418.933121	14624.916629
419.312428	14421.677470
419.691674	14337.104553
420.070859	14799.348114
420.449983	14454.984374
420.829045	15011.878119
421.208047	14756.092493
421.586988	15225.547424
421.965867	15487.465614
422.344686	15484.209028
422.723444	16056.931996
423.102141	14713.144383
423.480777	15931.016576
423.859352	15430.518219
424.237866	16570.988536
424.616319	16260.697955
424.994712	16933.928928
425.373044	16725.870426
425.751314	17418.270387
426.129524	16522.215373
426.507673	17644.338410
426.885762	17330.902149
427.263789	17536.808078
427.641756	17705.777473
428.019662	17770.871372
428.397508	17814.729410
428.775292	18141.161766
429.153016	18084.594978
429.530679	18173.402465
429.908282	18195.825518
430.285824	17902.795847
430.663305	18632.495305
431.040726	18216.615236
431.418086	18037.682001
431.795385	18707.560606
432.172624	19118.722155
432.549802	18672.012910
432.926920	18864.925265
433.303977	18754.279499
433.680974	19004.134208
434.057910	19298.265370
434.434786	19326.258897
434.811601	19233.363035
435.188355	20309.810698
435.565050	19932.520662
435.941683	19876.621827
436.318257	20789.998246
436.694770	20602.981520
437.071222	21197.759536
437.447614	20254.415979
437.823946	20286.747419
438.200218	20433.301323
438.576429	20210.948630
438.952580	20495.234418
439.328670	20455.066505
439.704700	20876.935464
440.080670	20440.626119
440.456580	21031.318280
440.832429	21218.279553
441.208218	20182.677839
441.583947	20645.750669
441.959616	20754.798389
442.335224	20996.136068
442.710773	21132.900051
443.086261	21668.162204
443.461689	21032.487828
443.837057	21148.026033
444.212365	21817.773568
444.587612	21811.048669
444.962800	21377.075899
445.337927	21818.862458
445.712995	20516.099754
446.088002	22404.735275
446.462949	22603.810441
446.837837	22788.765334
447.212664	22747.011977
447.587431	25660.524157
447.962139	28635.805596
448.336786	31037.413809
448.711374	29449.021849
449.085901	25703.328595
449.460369	25649.206767
449.834776	25581.763690
450.209124	28101.460932
450.583412	27633.717473
450.957640	28166.522064
451.331808	26787.519470
451.705917	25401.023202
452.079965	25435.169457
452.453954	25808.832383
452.827883	25679.063001
453.201752	25481.999256
453.575562	25662.563304
453.949311	26802.874825
454.323001	26865.004525
454.696632	26608.006502
455.070202	28197.610859
455.443713	28339.489093
455.817164	28948.558780
456.190556	29488.594907
456.563888	28921.273535
456.937160	29354.694299
457.310373	27659.755032
457.683526	28131.090314
458.056619	28100.941693
458.429653	28042.275265
458.802628	28623.968967
459.175542	28759.260933
459.548398	30053.438551
459.921194	31669.428308
460.293930	32335.952025
460.666607	34399.026593
461.039224	36172.759094
461.411782	36584.623884
461.784280	35375.188062
462.156719	34890.458434
462.529099	34321.521373
462.901419	33031.328787
463.273680	31945.494495
463.645882	32039.761551
464.018024	32020.678263
464.390106	32856.486448
464.762130	35591.614878
465.134094	39704.112569
465.505999	45057.071863
465.877845	49653.558131
466.249631	50833.581341
466.621358	49134.052104
466.993026	47050.192859
467.364634	44971.730169
467.736184	42972.322854
468.107674	41701.001827
468.479105	40910.130489
468.850477	40208.205268
469.221790	38733.844209
469.593043	36972.026474
469.964238	36076.475576
470.335373	36005.919587
470.706449	37746.065401
471.077467	40387.173792
471.448425	44973.456764
471.819324	47775.360319
472.190164	45911.063489
472.560945	42321.656086
472.931667	39191.802789
473.302330	38067.738907
473.672934	37251.969309
474.043479	37752.044209
474.413965	36937.358459
474.784393	36573.558551
475.154761	37479.106058
475.525070	37493.952256
475.895321	37027.932871
476.265513	37633.521641
476.635645	38635.239239
477.005719	38444.608007
477.375734	38912.858102
477.745691	39617.359352
478.115588	40980.517599
478.485427	42963.132831
478.855207	46357.351798
479.224928	48963.716556
479.594591	50601.443768
479.964194	49619.371546
480.333739	49779.241658
480.703226	49824.019707
481.072653	50458.385904
481.442022	50934.074222
481.811333	51193.093748
482.180584	49901.565256
482.549777	49400.794677
482.918912	48863.221154
483.287988	48565.624199
483.657005	47716.875373
484.025964	47089.750793
484.394864	47114.402035
484.763706	46694.040381
485.132489	45818.981773
485.501213	45643.905020
485.869879	45815.964642
486.238487	45390.108130
486.607036	45578.296923
486.975527	45049.263115
487.343959	45251.904897
487.712333	45335.308267
488.080648	45238.568525
488.448905	45705.669237
488.817104	45517.729981
489.185244	46483.975500
489.553326	48199.918734
489.921350	50914.340626
490.289315	53752.512762
490.657222	54330.261760
491.025070	54607.797444
491.392861	53737.374177
491.760593	52524.545658
492.128267	50880.761500
492.495883	49359.132061
492.863440	47972.179568
493.230939	46617.490460
493.598380	45518.939857
493.965763	45192.787286
494.333088	44367.399167
494.700354	43885.913522
495.067563	43585.894292
495.434713	43458.975682
495.801805	43531.850602
496.168839	43136.160354
496.535815	42821.375585
496.902733	42841.522556
497.269593	42412.064139
497.636395	42361.912220
498.003139	42767.440280
498.369825	42214.128275
498.736453	42551.167218
499.103023	42049.322873
499.469535	41938.750205
499.835989	42030.267312
500.202385	41698.559388
500.568723	41736.816705
500.935003	41924.486260
501.301226	41717.859446
501.667390	42346.274561
502.033497	42606.458593
502.399546	42034.388455
502.765537	41352.761440
503.131470	41723.235837
503.497345	42079.652975
503.863163	40737.113048
504.228923	41375.091231
504.594625	41785.972996
504.960269	41083.203383
505.325856	41778.567541
505.691385	41121.929526
506.056856	41271.767742
506.422270	41706.040461
506.787625	41283.385081
507.152924	41485.560556
507.518164	41584.064702
507.883347	40765.580443
508.248472	41049.178115
508.613540	41513.785977
508.978550	41846.025741
509.343503	41576.818044
509.708398	41790.381485
510.073236	42324.433762
510.438016	42315.299191
510.802738	41776.014197
511.167403	42406.768407
511.532010	42633.083447
511.896561	42940.223307
512.261053	43798.429338
512.625488	43329.385261
512.989866	43200.183008
513.354186	43038.298955
513.718449	43023.407387
514.082655	43728.289244
514.446803	43378.639854
514.810894	43909.385134
515.174927	43812.171523
515.538904	43714.728540
515.902822	44417.982104
516.266684	43833.881252
516.630488	44284.494871
516.994235	44136.078261
517.357925	44719.312034
517.721558	44873.531013
518.085133	45174.054358
518.448651	45313.477550
518.812112	45075.376292
519.175516	45189.676894
519.538863	45523.691145
519.902152	45481.380741
520.265385	45942.248067
520.628560	45995.122209
520.991678	45758.737464
521.354739	46007.606626
521.717743	46325.330388
522.080690	46222.168216
522.443580	46760.026564
522.806413	46803.907288
523.169189	46750.428207
523.531908	46926.820701
523.894569	46782.053886
524.257174	46944.442054
524.619722	47256.517203
524.982213	47242.858197
525.344647	47161.246957
525.707025	47191.065382
526.069345	47591.983307
526.431608	47502.732198
526.793815	47829.708999
527.155964	47342.685646
527.518057	47505.250255
527.880093	47296.543965
528.242072	47799.527611
528.603995	47515.322480
528.965860	47505.099020
529.327669	47604.487889
529.689421	47506.636572
530.051117	47459.027915
530.412755	47589.951722
530.774337	47663.217331
531.135862	47452.852502
531.497331	47644.098755
531.858743	47533.921817
532.220098	47887.397443
532.581396	47593.049511
532.942638	47259.151206
533.303824	47563.669666
533.664953	47503.526180
534.026025	47212.023980
534.387040	47696.294862
534.747999	47641.736975
535.108902	47790.337587
535.469748	47323.783840
535.830537	47401.982218
536.191270	47602.947816
536.551947	47256.315557
536.912567	47563.072289
537.273131	47694.500211
537.633638	47153.113056
537.994089	47499.344543
538.354483	47081.783249
538.714821	47675.792489
539.075103	48011.913943
539.435328	47770.125081
539.795497	47655.650559
540.155609	47623.949263
540.515665	48104.013303
540.875665	47546.290288
541.235609	47869.350112
541.595496	47853.997278
541.955328	48510.587402
542.315102	47875.840598
542.674821	47645.535484
543.034483	47712.744147
543.394090	47668.228238
543.753640	47635.276736
544.113134	48635.061052
544.472571	47626.474881
544.831953	48891.217202
545.191278	48092.007795
545.550548	47815.878593
545.909761	48283.569121
546.268918	48484.627980
546.628019	48792.297161
546.987064	48343.793265
547.346053	47613.786297
547.704986	48496.910751
548.063863	48034.899084
548.422684	48237.165299
548.781449	48106.039847
549.140158	48492.025873
549.498811	48340.183799
549.857408	47767.745656
550.215949	48611.193709
550.574434	48549.260613
550.932864	48310.249427
551.291237	49031.136948
551.649555	48614.851066
552.007817	48874.402434
552.366022	48493.870936
552.724173	48685.102066
553.082267	49086.188868
553.440305	49386.689529
553.798288	48702.347853
554.156215	49000.317854
554.514086	49220.185258
554.871902	48962.209251
555.229661	49008.900418
555.587365	48835.547740
555.945014	48922.303477
556.302606	48836.414819
556.660143	49059.939580
557.017625	49146.097941
557.375050	48943.723340
557.732421	49286.940218
558.089735	49276.124422
558.446994	49193.610816
558.804197	49685.929900
559.161345	49625.985540
559.518437	48870.170385
559.875474	49179.120019
560.232455	49334.344708
560.589381	49523.778666
560.946251	49220.205423
561.303065	49914.274005
561.659825	49701.920440
562.016528	49382.906143
562.373177	49108.899267
562.729770	49599.942939
563.086307	49096.515672
563.442789	49562.903061
563.799216	49627.296240
564.155587	49407.292724
564.511904	49439.815728
564.868164	49519.972595
565.224370	49778.205701
565.580520	49502.489874
565.936615	49725.185365
566.292654	49456.867431
566.648638	49706.646522
567.004567	49663.446354
567.360441	49705.550071
567.716260	49583.158418
568.072023	49848.048367
568.427732	49829.968269
568.783385	49386.606350
569.138982	49778.520773
569.494525	49751.366598
569.850013	49523.461074
570.205445	49482.020268
570.560823	49460.040838
570.916145	49342.846614
571.271412	49379.425226
571.626625	49115.689701
571.981782	49190.626453
572.336884	48875.214059
572.691931	49206.080110
573.046923	48810.629317
573.401860	48659.049383
573.756743	48651.492693
574.111570	48764.769940
574.466342	48613.379049
574.821059	48737.240199
575.175722	48250.463863
575.530330	48269.864744
575.884882	47987.872680
576.239380	47956.025191
576.593823	47948.453378
576.948211	47857.700005
577.302544	47381.623518
577.656823	47400.369049
578.011047	47638.586253
578.365216	47348.399794
578.719330	47170.389090
579.073389	47003.947834
579.427394	47087.678879
579.781344	47066.412771
580.135239	46715.223309
580.489080	46818.705595
580.842866	46277.278110
581.196597	46749.377127
581.550273	46683.005295
581.903895	46546.919347
582.257463	46975.354409
582.610975	46339.594333
582.964434	46612.507279
583.317837	46284.386137
583.671186	46113.032277
584.024481	46343.881835
584.377721	45892.726292
584.730906	46182.146496
585.084037	46195.049329
585.437113	45913.251350
585.790135	45956.065869
586.143103	45563.765797
586.496016	45687.516042
586.848874	45696.030551
587.201679	45716.346401
587.554428	45201.896651
587.907124	45378.952056
588.259765	45131.254962
588.612352	45386.538993
588.964884	44777.318071
589.317362	45066.713069
589.669786	45008.581004
590.022155	44769.723573
590.374470	45222.051184
590.726731	44726.823354
591.078937	44238.900155
591.431090	44327.503475
591.783188	43988.380015
592.135232	43646.811595
592.487222	43909.528807
592.839157	44000.085574
593.191038	43659.560673
593.542866	43407.535748
593.894639	42806.534428
594.246358	43092.698046
594.598022	43067.104108
594.949633	42656.832323
595.301190	42594.952160
595.652692	42429.561984
596.004141	42746.650561
596.355535	41755.131217
596.706876	41705.669936
597.058162	41537.605428
597.409395	42033.481047
597.760573	42112.672533
598.111698	41666.497650
598.462768	41680.217150
598.813785	41731.568864
599.164748	41152.743579
599.515657	41552.128993
599.866511	41004.614315
600.217312	41620.514765
600.568060	40552.004399
600.918753	41313.112765
601.269392	41264.203491
601.619978	40911.763822
601.970510	41125.929682
602.320988	41305.316621
602.671412	41603.014400
603.021783	41356.660773
603.372100	40987.179484
603.722363	41108.421755
604.072572	41179.602847
604.422728	41184.676768
604.772830	40996.805567
605.122878	41081.186921
605.472872	41007.260920
605.822813	41285.603189
606.172701	41097.457245
606.522534	41343.891530
606.872314	41601.255037
607.222041	41341.068484
607.571714	41719.061761
607.921333	41134.557617
608.270899	41430.259098
608.620411	41787.560960
608.969870	41580.160329
609.319276	41546.303939
609.668627	41596.264295
610.017926	42095.356169
610.367171	42227.968763
610.716362	42319.193482
611.065500	42255.884152
611.414585	42415.038420
611.763616	42710.986918
612.112594	42609.778193
612.461518	42831.846061
612.810389	43111.930048
613.159207	42954.469608
613.507971	43022.643652
613.856682	43503.032846
614.205340	43370.793298
614.553945	44069.519907
614.902496	43492.562369
615.250994	43933.053351
615.599439	44010.520763
615.947830	44183.785220
616.296169	44209.618613
616.644454	44325.983567
616.992686	44487.262682
617.340864	44979.543958
617.688990	44670.596844
618.037063	45264.444767
618.385082	45207.557867
618.733048	45501.946128
619.080961	45476.992416
619.428821	45471.217775
619.776628	45565.507516
620.124382	45382.483385
620.472083	45514.102870
620.819731	45636.363454
621.167326	45295.916691
621.514868	45264.439726
621.862357	44812.293597
622.209793	44827.956462
622.557176	44492.013969
622.904506	44243.812760
623.251783	43891.564655
623.599007	43666.792208
623.946179	43409.801747
624.293297	43353.628169
624.640363	42741.286773
624.987376	42723.078126
625.334336	42435.555916
625.681243	42070.891450
626.028097	42006.455421
626.374899	41852.957328
626.721647	41779.800103
627.068343	41647.439568
627.414987	41401.471589
627.761577	41152.907417
628.108115	41456.095012
628.454600	40870.260003
628.801032	41032.028109
629.147412	40969.623666
629.493739	40942.877824
629.840014	40553.597403
630.186236	40863.855217
630.532405	40459.474020
630.878521	40624.534000
631.224585	40477.304581
631.570597	40168.773363
631.916556	40311.874077
632.262462	40237.038148
632.608316	40216.129962
632.954117	40092.173030
633.299866	40075.975803
633.645562	39964.838525
633.991206	39467.029624
634.336797	39015.425418
634.682336	39007.949387
635.027823	38752.619986
635.373257	38547.177843
635.718639	38291.740058
636.063968	38149.546752
636.409245	37563.994047
636.754470	37596.930426
637.099642	37339.665222
637.444762	36828.008271
637.789829	36947.710469
638.134845	36591.207631
638.479808	36505.881061
638.824719	36391.893010
639.169577	35982.836143
639.514383	36023.800559
639.859137	35695.366866
640.203839	35915.660248
640.548489	35526.349580
640.893086	35573.141570
641.237632	35277.561076
641.582125	35377.804420
641.926566	35287.802180
642.270955	35229.148355
642.615292	35221.702571
642.959576	35179.122465
643.303809	35146.095346
643.647990	35252.430924
643.992118	35198.200712
644.336195	35162.842059
644.680219	35204.832350
645.024192	35466.178368
645.368112	35924.855312
645.711981	35885.894755
646.055797	36691.854267
646.399562	36559.440800
646.743274	37437.236754
647.086935	37833.829368
647.430544	37706.898156
647.774101	37788.940414
648.117606	37995.065633
648.461059	38269.579145
648.804460	37900.120542
649.147810	37299.893038
649.491108	37040.770169
649.834354	36667.908786
650.177548	35844.874886
650.520690	35404.031023
650.863781	35390.427470
651.206820	35224.177777
651.549807	34778.136485
651.892742	34283.218686
652.235626	34065.133329
652.578458	33916.142027
652.921238	33288.379742
653.263967	33561.645568
653.606644	33237.154057
653.949269	33152.255985
654.291843	32736.161667
654.634365	33095.147274
654.976836	32682.269212
655.319255	32640.657008
655.661622	32607.922275
656.003938	32362.440768
656.346203	32214.951730
656.688416	32387.863307
657.030577	32186.151618
657.372687	32016.153828
657.714746	32249.329878
658.056753	32332.466067
658.398708	31777.611469
658.740612	31795.187452
659.082465	32010.313651
659.424266	31824.315239
659.766016	31901.568401
660.107715	31762.155291
660.449362	31861.612216
660.790958	31811.835862
661.132503	31791.088994
661.473996	31792.276186
661.815438	31867.296117
662.156829	32022.757739
662.498168	31788.487758
662.839456	31765.858019
663.180693	31876.584443
663.521879	31987.958654
663.863013	31914.234300
664.204097	31883.072408
664.545129	32270.543054
664.886110	32182.942923
665.227040	32204.088043
665.567918	32279.123098
665.908746	32308.618889
666.249522	32426.208843
666.590248	32402.649011
666.930922	32466.102014
667.271545	32406.213107
667.612118	32454.391414
667.952639	32226.178379
668.293109	32240.744793
668.633528	32129.872176
668.973896	32039.547302
669.314213	32048.356719
669.654480	31758.797883
669.994695	31764.645621
670.334859	31625.860135
670.674973	31510.770593
671.015035	31618.195061
671.355047	31541.642619
671.695008	31458.892079
672.034918	31323.534577
672.374777	31340.384634
672.714585	31151.981592
673.054342	31321.823106
673.394049	31059.315102
673.733705	31296.675310
674.073310	30972.897122
674.412864	31007.313079
674.752368	30612.137029
675.091820	30861.323784
675.431223	30454.144747
675.770574	30185.862101
676.109875	30022.601813
676.449125	29750.150133
676.788324	29644.558124
677.127473	29132.606266
677.466571	29033.313179
677.805619	28699.901346
678.144616	28684.309058
678.483562	28562.325737
678.822458	28232.049502
679.161303	28135.889492
679.500098	28016.202418
679.838842	27877.807621
680.177535	27978.882756
680.516179	28175.545729
680.854771	28336.870214
681.193314	29047.231805
681.531805	29949.260586
681.870247	30553.518492
682.208638	31155.399494
682.546978	31318.564000
682.885268	31385.833157
683.223508	30914.402093
683.561697	30593.134400
683.899836	30396.234492
684.237925	29910.259700
684.575963	29743.790717
684.913951	29280.443144
685.251889	29392.981862
685.589776	29322.791357
685.927614	29245.525592
686.265401	29317.840944
686.603137	29330.373252
686.940824	29693.681648
687.278460	29958.382554
687.616046	30012.827016
687.953582	30472.890278
688.291068	30326.084316
688.628504	30541.838139
688.965889	30449.315322
689.303224	30121.012698
689.640510	29816.421141
689.977745	29182.735500
690.314930	28496.589091
690.652065	28039.487507
690.989150	27417.265450
691.326185	26635.485832
691.663170	26018.821647
692.000105	25366.375351
692.336990	24770.301759
692.673825	24355.008984
693.010610	23898.091402
693.347345	23376.624366
693.684030	22794.517291
694.020665	22524.187936
694.357251	21943.293258
694.693786	21853.081810
695.030272	21627.611163
695.366707	21137.429527
695.703093	20864.675378
696.039429	20835.963486
696.375716	20581.768345
696.711952	20510.249495
697.048139	20350.654126
697.384276	20171.768782
697.720363	20231.045189
698.056400	20051.771676
698.392388	19839.095478
698.728326	19773.598287
699.064214	19590.135575
699.400053	19530.425628
699.735842	19222.406087
700.071581	18964.735070
700.407270	18707.179999
700.742910	18534.225572
701.078501	18296.401578
701.414042	18038.808699
701.749533	17766.866175
702.084974	17453.049307
702.420366	17600.828211
702.755709	17213.100466
703.091002	16947.424097
703.426246	16954.726208
703.761440	16835.321438
704.096584	16594.790344
704.431679	16538.672219
704.766725	16426.219201
705.101721	16350.710278
705.436668	16403.226498
705.771565	16119.273425
706.106413	16371.542846
706.441212	16327.276474
706.775961	16398.767597
707.110661	16430.055519
707.445311	16664.673339
707.779913	16497.614542
708.114465	16657.880384
708.448967	16839.251017
708.783421	17344.588882
709.117825	17524.674021
709.452180	17668.420002
709.786485	17943.316642
710.120742	18530.984110
710.454949	18513.655144
710.789107	18828.812959
711.123216	19336.802470
711.457275	19406.778727
711.791286	19807.134562
712.125247	19846.914307
712.459159	19605.185939
712.793023	20109.651684
713.126837	19254.026724
713.460602	19434.689075
713.794318	19138.438108
714.127985	18839.424588
714.461602	18149.141912
714.795171	18081.058609
715.128691	17277.128161
715.462162	16857.825149
715.795584	16526.654109
716.128957	16299.789583
716.462281	15971.824716
716.795556	15771.375837
717.128782	15374.006885
717.461960	14950.867554
717.795088	14861.366909
718.128167	14550.703282
718.461198	14190.641390
718.794180	14062.835537
719.127113	13783.674081
719.459997	13612.968009
719.792833	13339.293849
720.125619	13294.951859
720.458357	13041.780072
720.791046	12884.669992
721.123686	12745.135895
721.456278	12546.663147
721.788821	12496.695230
722.121315	12280.888475
722.453761	12309.491982
722.786158	12241.721230
723.118506	12227.525341
723.450805	12107.561003
723.783056	12200.093903
724.115259	12115.266407
724.447412	12043.543390
724.779518	12189.603261
725.111574	12188.426152
725.443582	12304.516363
725.775542	12269.044284
726.107453	12592.986310
726.439315	12483.502531
726.771129	12751.071853
727.102895	12996.482784
727.434612	13128.296354
727.766281	13197.307230
728.097901	13363.057848
728.429473	13362.059699
728.760996	13341.363242
729.092471	13388.208164
729.423897	13291.816262
729.755276	13183.983460
730.086606	13244.348757
730.417887	13563.489084
730.749120	13881.767373
731.080305	13975.810098
731.411442	14186.459752
731.742530	14225.707656
732.073570	14275.075675
732.404562	14466.011898
732.735506	14329.356299
733.066401	14132.494201
733.397249	13753.772477
733.728048	13312.210250
734.058798	12712.794372
734.389501	12218.499155
734.720156	11891.038404
735.050762	11516.195848
735.381320	11252.140210
735.711831	11077.900289
736.042293	10810.310802
736.372707	10797.526435
736.703073	10630.392021
737.033391	10731.648637
737.363661	10680.057468
737.693883	10734.557383
738.024056	10826.858389
738.354182	10935.417117
738.684260	11099.703279
739.014290	11235.091027
739.344272	11348.305261
739.674207	11520.150633
740.004093	11580.475601
740.333931	11572.293808
740.663722	11584.395098
740.993464	11575.192472
741.323159	11450.335694
741.652806	11266.383990
741.982405	11105.500606
742.311956	10875.341686
742.641460	10779.670668
742.970915	10567.861548
743.300323	10330.551752
743.629683	10177.154481
743.958996	9983.858999
744.288260	9794.483013
744.617477	9584.347557
744.946647	9513.605045
745.275768	9326.298453
745.604842	9197.812044
745.933869	9070.366634
746.262847	9026.589254
746.591778	8971.310481
746.920662	8895.438595
747.249498	8874.023774
747.578286	8937.426366
747.907027	9006.953960
748.235720	9135.634453
748.564365	9129.385943
748.892963	9063.707270
749.221514	9079.443231
749.550017	8973.672262
749.878473	8943.662273
750.206881	8800.826220
750.535242	8722.942914
750.863555	8662.363368
751.191821	8588.351668
751.520039	8587.502233
751.848210	8521.851287
752.176334	8526.632821
752.504411	8461.669992
752.832440	8349.527004
753.160421	8379.773927
753.488356	8292.236811
753.816243	8227.437820
754.144082	8133.952142
754.471875	8082.466838
754.799620	8048.199595
755.127318	8012.107454
755.454969	7977.268040
755.782572	7943.903163
756.110129	7939.343439
756.437638	7874.647791
756.765100	7862.281841
757.092515	7851.022424
757.419882	7853.353957
757.747203	7848.852207
758.074477	7881.317238
758.401703	7847.760797
758.728882	7933.964528
759.056014	7956.664844
759.383099	8012.697269
759.710138	8064.207779
760.037129	8104.872246
760.364073	8106.482895
760.690970	8089.957993
761.017820	8077.670180
761.344623	8177.880757
761.671379	8351.223353
761.998088	8692.814458
762.324751	9572.273993
762.651366	11213.426669
762.977935	13282.250672
763.304456	14551.542635
763.630931	14807.771882
763.957359	14133.721722
764.283740	13037.633723
764.610074	11940.451794
764.936362	10732.596374
765.262602	9862.475576
765.588796	8998.986416
765.914943	8411.082013
766.241044	7908.373111
766.567097	7525.656272
766.893104	7194.422218
767.219064	6978.819629
767.544978	6746.566110
767.870845	6559.009981
768.196665	6445.079904
768.522438	6320.926367
768.848165	6214.671447
769.173846	6113.283761
769.499479	6036.438932
769.825066	5942.857473
770.150607	5833.940823
770.476101	5784.043483
770.801548	5717.114604
771.126949	5628.165965
771.452303	5575.863993
771.777611	5474.650227
772.102872	5454.972083
772.428087	5388.698554
772.753256	5315.218696
773.078378	5254.916413
773.403453	5172.985060
773.728482	5113.713694
774.053465	5068.328186
774.378401	5015.106204
774.703291	4961.609480
775.028135	4903.656375
775.352932	4872.282754
775.677683	4826.970343
776.002388	4770.869862
776.327046	4770.012866
776.651658	4716.785843
776.976224	4670.276158
777.300743	4656.370135
777.625216	4618.085092
777.949643	4593.131380
778.274024	4586.860185
778.598359	4546.329308
778.922647	4542.508113
779.246889	4522.398951
779.571086	4520.616903
779.895236	4529.582595
780.219339	4514.764123
780.543397	4508.266076
780.867409	4536.685581
781.191374	4532.708110
781.515294	4513.133310
781.839167	4533.244993
782.162995	4515.222868
782.486776	4483.932426
782.810511	4460.009631
783.134201	4415.786109
783.457844	4404.960231
783.781441	4376.049213
784.104993	4352.464175
784.428498	4336.662678
784.751958	4320.616686
785.075372	4301.989622
785.398739	4279.261580
785.722061	4284.859782
786.045337	4281.240233
786.368568	4332.009693
786.691752	4340.148636
787.014891	4467.314263
787.337983	4607.899441
787.661030	4840.682281
787.984031	5047.283889
788.306987	5171.792828
788.629897	5205.548394
788.952760	5152.752389
789.275579	5045.869846
789.598351	4897.654881
789.921078	4757.742697
790.243759	4613.437148
790.566395	4503.028317
790.888984	4408.146240
791.211529	4333.380887
791.534027	4250.741252
791.856480	4179.197197
792.178888	4144.627484
792.501249	4107.267493
792.823566	4054.458886
793.145836	4050.461251
793.468062	4033.419631
793.790241	4012.287114
794.112375	4029.590874
794.434464	4072.387750
794.756507	4089.638578
795.078505	4144.312412
795.400457	4247.993823
795.722364	4362.733006
796.044226	4462.815033
796.366042	4540.506775
796.687812	4511.505017
797.009538	4515.689175
797.331218	4466.747133
797.652852	4430.816309
797.974442	4365.571175
798.295986	4329.494158
798.617484	4264.662399
798.938938	4212.080643
799.260346	4168.260414
799.581709	4101.510496
799.903026	4074.583172
800.224299	4040.084036
800.545526	3983.363493
800.866708	3950.321251
801.187845	3925.319648
801.508936	3889.935789
801.829983	3870.638252
802.150984	3821.739060
802.471940	3807.107111
802.792851	3796.129998
803.113717	3786.191364
803.434538	3769.381636
803.755314	3751.795571
804.076045	3748.659973
804.396731	3729.579206
804.717372	3737.592120
805.037967	3732.235894
805.358518	3749.995879
805.679024	3775.332718
805.999485	3776.532513
806.319901	3783.665746
806.640272	3790.766211
806.960598	3808.647183
807.280879	3804.644507
807.601115	3821.217301
807.921306	3800.427582
808.241453	3798.239721
808.561554	3799.673930
808.881611	3784.079120
809.201623	3782.160961
809.521590	3757.824791
809.841513	3745.869695
810.161390	3751.528390
810.481223	3706.158005
810.801011	3697.366233
811.120755	3684.392823
811.440453	3656.522804
811.760107	3641.696771
812.079716	3629.000625
812.399281	3601.904423
812.718801	3600.485338
813.038276	3577.333839
813.357707	3565.497210
813.677093	3569.981316
813.996434	3539.890669
814.315731	3545.209086
814.634983	3545.405691
814.954191	3543.565670
815.273354	3566.195410
815.592473	3583.889860
815.911547	3616.826238
816.230577	3642.765496
816.549562	3678.739169
816.868502	3702.276317
817.187399	3717.974470
817.506250	3748.486053
817.825058	3762.029113
818.143821	3820.934996
818.462539	3891.085172
818.781213	3986.660408
819.099843	4144.735869
819.418429	4414.702261
819.736970	4682.763096
820.055466	4979.470288
820.373919	5366.429257
820.692327	5991.991079
821.010691	7230.005202
821.329011	10298.575713
821.647286	15342.650908
821.965517	21057.252496
822.283704	24031.765158
822.601847	24465.017043
822.919945	21596.839960
823.237999	18668.955450
823.556010	15926.890392
823.873976	13620.807003
824.191897	11615.620005
824.509775	10143.046034
824.827609	8856.717493
825.145398	8091.757685
825.463144	7713.282977
825.780845	7822.542425
826.098502	8394.526864
826.416116	9460.110841
826.733685	10421.491647
827.051210	10590.924827
827.368692	9917.172095
827.686129	8801.622722
828.003522	7731.327787
828.320872	6792.775847
828.638177	6083.235963
828.955439	5548.064551
829.272656	5086.264611
829.589830	4717.350452
829.906960	4406.354110
830.224046	4176.096887
830.541088	4001.859487
830.858086	3885.171899
831.175041	3798.025472
831.491952	3763.138167
831.808819	3770.140330
832.125642	3865.501317
832.442421	4087.980039
832.759157	4553.575967
833.075849	5305.811903
833.392497	6079.906281
833.709101	6541.791920
834.025662	6414.704432
834.342179	5958.689217
834.658653	5408.235546
834.975083	4952.421977
835.291469	4584.833641
835.607811	4284.103608
835.924110	4067.439857
836.240366	3866.020555
836.556578	3680.001978
836.872746	3532.260883
837.188871	3420.818615
837.504952	3331.844770
837.820990	3259.647886
838.136984	3212.525700
838.452935	3191.874613
838.768842	3208.913713
839.084706	3325.906291
839.400526	3638.266266
839.716303	4005.353007
840.032037	4230.649734
840.347727	4157.409330
840.663373	3907.942791
840.978977	3672.289013
841.294537	3495.140346
841.610054	3363.616643
841.925527	3266.355141
842.240957	3188.227338
842.556344	3108.415791
842.871687	3042.096891
843.186987	2981.872747
843.502244	2934.274172
843.817458	2896.405025
844.132629	2871.615151
844.447756	2849.734022
844.762840	2830.766681
845.077881	2813.178095
845.392879	2799.204017
845.707833	2793.625980
846.022745	2779.036881
846.337613	2777.038063
846.652438	2767.016249
846.967221	2760.578696
847.281960	2754.269692
847.596656	2750.292222
847.911309	2745.424987
848.225919	2739.012640
848.540485	2736.608009
848.855009	2735.259501
849.169490	2728.335476
849.483928	2725.976216
849.798323	2725.436812
850.112675	2717.902808
850.426984	2718.169989
850.741251	2716.040102
851.055474	2711.427446
851.369654	2713.154041
851.683792	2711.533310
851.997887	2713.280070
852.311938	2714.361397
852.625947	2715.667056
852.939914	2710.666232
853.253837	2714.288301
853.567718	2712.939792
853.881555	2709.985676
854.195350	2709.859647
854.509103	2706.981148
854.822812	2704.931919
855.136479	2706.023329
855.450103	2707.328988
855.763685	2704.435366
856.077224	2703.585931
856.390720	2705.713298
856.704173	2709.935264
857.017584	2713.801829
857.330953	2715.404916
857.644278	2718.527911
857.957561	2719.402551
858.270802	2713.658157
858.584000	2716.476162
858.897155	2715.359546
859.210268	2710.555326
859.523339	2704.518545
859.836367	2706.603062
860.149352	2701.249356
860.462295	2699.300950
860.775195	2695.434385
861.088054	2692.351720
861.400869	2695.721731
861.713642	2692.286185
862.026373	2697.939839
862.339062	2698.297761
862.651708	2701.415714
862.964312	2704.117773
863.276873	2707.303782
863.589392	2720.831718
863.901869	2730.971999
864.214303	2739.915006
864.526696	2745.596387
864.839045	2751.083683
865.151353	2759.509971
865.463619	2756.926380
865.775842	2755.963520
866.088023	2756.545773
866.400162	2753.780700
866.712258	2752.454877
867.024313	2752.475041
867.336325	2753.513519
867.648296	2755.421596
867.960224	2751.285329
868.272110	2752.253230
868.583954	2752.260792
868.895755	2755.653489
869.207515	2751.945720
869.519233	2758.322780
869.830909	2760.114910
870.142542	2764.924171
870.454134	2764.858636
870.765684	2771.480191
871.077191	2779.883795
871.388657	2782.840431
871.700081	2787.130453
872.011463	2799.826599
872.322803	2807.048052
872.634101	2813.049546
872.945357	2821.513643
873.256571	2830.940601
873.567744	2837.398319
873.878874	2840.647342
874.189963	2849.033302
874.501010	2844.216479
874.812015	2845.015502
875.122979	2849.340812
875.433900	2846.447190
875.744780	2847.105061
876.055618	2847.979701
876.366415	2845.824607
876.677169	2846.563137
876.987882	2851.445494
877.298554	2858.130064
877.609183	2871.751262
877.919771	2883.638303
878.230317	2907.213258
878.540822	2947.015689
878.851285	2997.545694
879.161707	3079.061152
879.472087	3209.291800
879.782425	3446.208387
880.092722	3920.583484
880.402977	4795.634530
880.713191	5988.318598
881.023363	7216.961217
881.333494	7895.729897
881.643583	8014.131477
881.953631	7680.162597
882.263637	7180.969899
882.573602	6670.154821
882.883526	6226.097222
883.193408	5801.866482
883.503248	5406.977778
883.813048	5053.416453
884.122806	4726.742122
884.432522	4408.410901
884.742197	4126.209629
885.051831	3888.360429
885.361424	3680.642205
885.670975	3520.023482
885.980485	3387.408368
886.289954	3282.471710
886.599382	3198.355017
886.908768	3128.290540
887.218113	3067.065726
887.527417	3017.617048
887.836680	2970.285655
888.145901	2933.142433
888.455082	2904.773340
888.764221	2875.852240
889.073319	2854.200485
889.382376	2843.004082
889.691392	2833.123420
890.000366	2830.305415
890.309300	2829.730724
890.618193	2831.442196
890.927044	2828.977071
891.235855	2829.312308
891.544625	2834.819769
891.853353	2847.508353
892.162041	2869.835623
892.470687	2903.505490
892.779293	2948.195319
893.087858	3011.308044
893.396381	3114.366873
893.704864	3269.619288
894.013306	3481.751042
894.321707	3690.480017
894.630068	3813.159016
894.938387	3817.625478
895.246665	3740.432810
895.554903	3625.328144
895.863100	3502.596213
896.171256	3406.000143
896.479371	3320.602997
896.787446	3240.564598
897.095480	3170.578259
897.403473	3115.637244
897.711425	3063.869635
898.019336	3015.739218
898.327207	2976.019967
898.635038	2936.406580
898.942827	2902.749317
899.250576	2872.106663
899.558284	2841.360666
899.865952	2820.734785
900.173579	2799.312402
900.481165	2783.629372
900.788711	2766.229829
901.096216	2757.188520
901.403681	2744.724267
901.711105	2742.904411
902.018489	2738.183370
902.325832	2752.124681
902.633135	2772.430449
902.940397	2833.962773
903.247619	2986.639158
903.554800	3281.904580
903.861941	3656.530366
904.169041	3923.396448
904.476101	3988.341633
904.783121	3874.847616
905.090100	3716.109243
905.397039	3563.387487
905.703938	3431.652055
906.010796	3312.985814
906.317614	3218.479303
906.624391	3127.420941
906.931129	3055.836556
907.237826	2991.864314
907.544483	2928.426434
907.851099	2861.288347
908.157675	2802.223668
908.464211	2751.930597
908.770707	2711.631613
909.077163	2684.364012
909.383578	2660.095897
909.689954	2646.406644
909.996289	2634.396095
910.302584	2627.010804
910.608839	2623.464352
910.915054	2618.213991
911.221229	2614.594442
911.527363	2618.355143
911.833458	2620.961420
912.139513	2624.863273
912.445527	2631.152112
912.751502	2642.388844
913.057436	2656.236894
913.363331	2678.675069
913.669186	2708.349822
913.975000	2751.960843
914.280775	2817.092551
914.586510	2917.567788
914.892205	3056.575085
915.197859	3242.817993
915.503475	3454.178451
915.809050	3633.131851
916.114585	3733.357551
916.420081	3747.465220
916.725536	3714.806105
917.030952	3628.330152
917.336328	3555.591343
917.641665	3476.667038
917.946961	3397.858680
918.252218	3327.698421
918.557435	3246.659353
918.862612	3172.942560
919.167750	3112.320164
919.472848	3043.710061
919.777906	2982.676811
920.082925	2926.263779
920.387904	2870.470809
920.692843	2829.103100
920.997743	2794.656896
921.302603	2761.039962
921.607423	2740.222517
921.912204	2716.219063
922.216946	2698.055785
922.521647	2681.006603
922.826310	2669.154850
923.130932	2653.802016
923.435516	2639.722074
923.740059	2628.911319
924.044564	2620.041409
924.349028	2608.484564
924.653454	2599.793615
924.957840	2587.122674
925.262186	2580.561613
925.566493	2572.561302
925.870761	2561.929508
926.174989	2563.419169
926.479178	2555.696121
926.783328	2548.290666
927.087438	2546.080120
927.391509	2541.381765
927.695541	2536.862371
927.999533	2533.121834
928.303486	2530.810465
928.607400	2528.020187
928.911275	2526.742254
929.215110	2520.856707
929.518906	2520.440812
929.822663	2521.108765
930.126381	2520.972654
930.430060	2524.962727
930.733699	2522.900895
931.037299	2525.444157
931.340861	2523.334434
931.644383	2525.119003
931.947866	2523.137829
932.251309	2523.193282
932.554714	2522.389218
932.858080	2525.600433
933.161407	2520.685308
933.464694	2520.826460
933.767943	2516.758249
934.071153	2515.921417
934.374323	2518.177334
934.677455	2515.876047
934.980548	2515.455111
935.283602	2514.910666
935.586617	2513.819256
935.889593	2512.886643
936.192530	2513.874709
936.495428	2513.108454
936.798287	2518.746984
937.101108	2521.363343
937.403890	2528.892306
937.706632	2538.987217
938.009336	2548.696479
938.312002	2561.445557
938.614628	2568.667010
938.917216	2572.369738
939.219765	2576.647157
939.522275	2581.905080
939.824747	2581.380800
940.127179	2575.570870
940.429573	2575.344018
940.731929	2574.360993
941.034246	2570.224727
941.336524	2572.137845
941.638763	2569.796229
941.940964	2571.069120
942.243126	2561.697615
942.545250	2558.539332
942.847335	2552.449618
943.149381	2550.138249
943.451389	2547.670604
943.753359	2542.624409
944.055290	2538.886394
944.357182	2534.117462
944.659036	2534.364479
944.960851	2531.760723
945.262628	2531.296937
945.564367	2533.174767
945.866067	2528.695701
946.167729	2529.262831
946.469352	2529.688809
946.770937	2528.282327
947.072484	2527.717718
947.373992	2525.766791
947.675462	2520.372756
947.976893	2523.425175
948.278286	2520.821419
948.579641	2518.366377
948.880958	2518.878054
949.182236	2516.145749
949.483476	2518.361336
949.784678	2517.451408
950.085841	2514.729185
950.386967	2518.535256
950.688054	2519.639268
950.989103	2521.285205
951.290114	2524.022552
951.591087	2526.497758
951.892021	2533.837678
952.192917	2537.242978
952.493776	2541.890922
952.794596	2543.657846
953.095378	2542.982331
953.396122	2542.551313
953.696828	2540.723894
953.997496	2540.030736
954.298126	2534.631660
954.598718	2537.976466
954.899272	2532.655528
955.199788	2529.414066
955.500266	2521.897705
955.800706	2515.991994
956.101108	2510.237517
956.401472	2505.498832
956.701798	2500.487925
957.002087	2495.529950
957.302337	2494.720845
957.602550	2491.441574
957.902724	2486.591984
958.202861	2485.664412
958.502960	2482.117960
958.803022	2479.660398
959.103045	2478.289204
959.403031	2476.834831
959.702979	2472.406178
960.002889	2471.234109
960.302762	2466.939046
960.602596	2468.529530
960.902393	2464.181535
961.202153	2464.685650
961.501875	2465.769498
961.801559	2463.924436
962.101205	2462.570886
962.400814	2464.224385
962.700385	2463.218675
962.999918	2462.583489
963.299414	2459.737758
963.598873	2461.335804
963.898293	2458.616101
964.197677	2456.239197
964.497022	2457.607870
964.796331	2458.784980
965.095601	2453.849690
965.394835	2458.449743
965.694030	2456.024948
965.993189	2455.616615
966.292309	2455.460339
966.591393	2457.650720
966.890439	2453.590071
967.189447	2456.851697
967.488419	2455.243569
967.787353	2453.595112
968.086249	2454.197530
968.385108	2458.641307
968.683930	2455.079732
968.982714	2459.768005
969.281462	2457.391101
969.580172	2455.689711
969.878844	2455.520833
970.177480	2458.512758
970.476078	2457.940587
970.774639	2461.509723
971.073162	2459.576441
971.371649	2460.766153
971.670098	2458.071657
971.968510	2459.473097
972.266885	2456.193827
972.565223	2462.969137
972.863524	2461.484518
973.161788	2462.359158
973.460014	2465.063737
973.758204	2463.843778
974.056356	2463.286730
974.354471	2463.818572
974.652550	2464.078191
974.950591	2464.978037
975.248595	2467.319653
975.546563	2464.373099
975.844493	2465.673717
976.142386	2462.149950
976.440243	2463.432924
976.738062	2460.680454
977.035845	2459.833540
977.333590	2459.417645
977.631299	2460.108283
977.928971	2454.792386
978.226606	2459.926801
978.524204	2454.172324
978.821765	2457.653241
979.119290	2456.314814
979.416777	2456.861780
979.714228	2458.243056
980.011642	2457.933025
980.309020	2457.597788
980.606360	2462.316308
980.903664	2460.128447
981.200931	2468.111114
981.498162	2474.931796
981.795356	2484.817498
982.092513	2499.058758
982.389633	2513.902435
982.686717	2528.141174
982.983764	2542.458051
983.280775	2552.116902
983.577749	2548.935934
983.874686	2546.818649
984.171587	2537.558050
984.468451	2535.453368
984.765279	2525.532377
985.062070	2521.456604
985.358824	2513.652898
985.655543	2506.433966
985.952224	2496.523057
986.248869	2486.775987
986.545478	2477.036477
986.842050	2468.678244
987.138586	2463.717749
987.435086	2456.985288
987.731549	2451.384566
988.027975	2452.881789
988.324366	2450.855245
988.620719	2448.901798
988.917037	2445.027671
989.213318	2445.609924
989.509563	2444.566405
989.805772	2444.442897
990.101944	2443.860644
990.398080	2444.289142
990.694180	2447.384410
990.990244	2446.131684
991.286271	2442.960798
991.582262	2445.589760
991.878217	2444.362239
992.174136	2443.278391
992.470019	2443.336364
992.765865	2443.989193
993.061676	2443.575819
993.357450	2445.511622
993.653188	2445.115891
993.948890	2450.996397
994.244556	2449.277364
994.540186	2456.410596
994.835780	2458.081739
995.131337	2463.115331
995.426859	2461.857563
995.722345	2476.681076
996.017795	2482.254072
996.313208	2487.819505
996.608586	2490.476193
996.903928	2491.681029
997.199234	2487.630462
997.494504	2489.314208
997.789738	2485.987046
998.084936	2483.922693
998.380099	2478.453042
998.675225	2473.205200
998.970316	2472.232258
999.265371	2465.149437
999.560390	2460.083077
999.855373	2459.026955
1000.150320	2451.077056
1000.445232	2451.145111
1000.740108	2446.855089
1001.034948	2447.265943
1001.329752	2441.418205
1001.624521	2444.697475
1001.919254	2438.953081
1002.213951	2439.003492
1002.508613	2435.444437
1002.803239	2437.070210
1003.097829	2434.970569
1003.392384	2436.984510
1003.686903	2436.180446
1003.981386	2435.993923
1004.275834	2435.192380
1004.570246	2436.598862
1004.864623	2430.887234
1005.158964	2434.592482
1005.453270	2435.477205
1005.747540	2434.484098
1006.041775	2432.336566
1006.335974	2433.261618
1006.630138	2432.737338
1006.924266	2432.482760
1007.218359	2434.799170
1007.512416	2430.249528
1007.806438	2433.876639
1008.100425	2433.601896
1008.394376	2429.846236
1008.688292	2432.921340
1008.982172	2432.081988
1009.276017	2432.036618
1009.569827	2431.338418
1009.863602	2430.988057
1010.157341	2433.039807
1010.451045	2433.203645
1010.744714	2432.570980
1011.038347	2430.995619
1011.331945	2429.790783
1011.625508	2432.447472
1011.919036	2429.269024
1012.212528	2432.354210
1012.505986	2430.983016
1012.799408	2430.357913
1013.092795	2431.351021
1013.386147	2430.869590
1013.679464	2430.516710
1013.972745	2428.230546
1014.265992	2430.609971
1014.559204	2431.713984
1014.852380	2428.711977
1015.145521	2429.556370
1015.438628	2430.851946
1015.731699	2429.455547
1016.024736	2428.711977
1016.317737	2425.783066
1016.610703	2428.343972
1016.903635	2426.181317
1017.196531	2427.708787
1017.489393	2429.470670
1017.782219	2426.337593
1018.075011	2428.714497
1018.367768	2428.633839
1018.660490	2428.573345
1018.953177	2428.573345
1019.245829	2428.573345
