Dividing Wavelength (nm)	Counts (n)	Blue Motor Position (mm): 0.000000	Red Motor Position (mm): 43.600000	
326.493990	1994.161994
326.888308	1994.161994
327.282561	1994.161994
327.676750	1971.799436
328.070874	1973.997379
328.464933	1977.364870
328.858929	1987.318628
329.252859	2003.619199
329.646726	2015.465911
330.040528	2030.480987
330.434265	2050.960675
330.827938	2071.042111
331.221547	2088.088773
331.615091	2109.838831
332.008571	2130.532768
332.401986	2150.157980
332.795338	2171.998779
333.188625	2190.726665
333.581847	2209.615869
333.975006	2228.928529
334.368100	2246.106261
334.761129	2261.668303
335.154095	2276.822011
335.546996	2313.657722
335.939833	2379.835469
336.332606	2393.212171
336.725315	2403.793553
337.117960	2412.784451
337.510540	2419.610173
337.903056	2432.850764
338.295508	2437.171033
338.687896	2442.504573
339.080220	2451.266099
339.472480	2455.664506
339.864676	2461.325721
340.256807	2462.908644
340.648875	2466.470219
341.040879	2467.939715
341.432818	2467.561629
341.824694	2468.615230
342.216506	2470.349387
342.608253	2470.412401
342.999937	2469.699078
343.391557	2469.179839
343.783113	2465.580455
344.174605	2466.797894
344.566033	2461.638273
344.957397	2460.546863
345.348697	2460.541822
345.739934	2459.367233
346.131106	2456.980247
346.522215	2458.353961
346.913260	2452.181068
347.304241	2452.962447
347.695159	2450.832560
348.086012	2448.339709
348.476802	2446.509770
348.867528	2446.146807
349.258191	2444.533638
349.648789	2444.435335
350.039324	2443.215376
350.429796	2446.010696
350.820203	2442.161775
351.210548	2443.585901
351.600828	2441.864347
351.991045	2442.711261
352.381198	2440.016764
352.771288	2443.787547
353.161314	2439.242947
353.551276	2442.290324
353.941175	2440.810746
354.331010	2438.635488
354.720782	2442.471806
355.110490	2446.194698
355.500135	2443.545572
355.889717	2441.955088
356.279235	2444.047167
356.668689	2443.502722
357.058080	2446.300562
357.447408	2441.917279
357.836672	2443.361570
358.225873	2443.096909
358.615010	2444.266457
359.004084	2447.545727
359.393095	2449.738629
359.782043	2449.685697
360.170927	2452.140739
360.559748	2451.971860
360.948505	2452.445729
361.337199	2452.055039
361.725830	2455.621656
362.114398	2458.666513
362.502903	2455.568724
362.891344	2457.237346
363.279722	2456.508899
363.668037	2456.428240
364.056289	2459.155505
364.444478	2461.678602
364.832603	2460.577110
365.220665	2462.112141
365.608665	2460.345217
365.996601	2467.823769
366.384474	2464.040383
366.772284	2466.180353
367.160031	2466.939046
367.547715	2467.599437
367.935336	2467.188583
368.322893	2470.906434
368.710388	2469.568008
369.097820	2475.020016
369.485189	2475.103195
369.872495	2476.431539
370.259738	2478.851293
370.646918	2484.220122
371.034035	2483.075780
371.421090	2485.256079
371.808081	2489.140288
372.195010	2494.446102
372.581875	2499.688902
372.968678	2507.457320
373.355418	2515.969308
373.742096	2523.957017
374.128710	2536.353214
374.515262	2550.191181
374.901751	2560.409600
375.288177	2580.982549
375.674540	2599.483584
376.060841	2624.621297
376.447079	2646.041160
376.833254	2674.851354
377.219367	2701.072916
377.605417	2735.998030
377.991404	2758.985691
378.377329	2804.018319
378.763191	2838.709019
379.148991	2884.722151
379.534727	2940.363886
379.920402	2987.380208
380.306013	3037.083464
380.691563	3100.896910
381.077049	3156.780621
381.462474	3215.139538
381.847835	3292.611991
382.233134	3366.336345
382.618371	3429.562497
383.003545	3517.956609
383.388657	3597.674895
383.773706	3694.762477
384.158693	3769.018673
384.543618	3866.486862
384.928480	3946.459727
385.313280	4054.778999
385.698017	4162.518539
386.082692	4281.066313
386.467305	4350.558619
386.851856	4479.917147
387.236344	4638.247187
387.620770	4703.840160
388.005133	4829.397658
388.389435	4979.059434
388.773674	5066.110078
389.157851	5202.296849
389.541965	5339.824568
389.926018	5358.940623
390.310008	5547.144540
390.693936	5674.988202
391.077802	5791.073372
391.461606	5929.531183
391.845348	6047.579882
392.229027	6172.429098
392.612645	6398.194653
392.996200	6516.873497
393.379694	6698.642381
393.763125	6926.870539
394.146494	7026.657659
394.529801	7168.263670
394.913047	7420.689367
395.296230	7416.911022
395.679351	7473.687017
396.062410	7749.092814
396.445408	7642.971484
396.828343	7803.796895
397.211217	7942.300076
397.594028	7826.870256
397.976778	8030.558077
398.359466	8203.177267
398.742092	8170.150148
399.124656	8332.606371
399.507158	8520.795165
399.889598	8542.073875
400.271977	8749.285463
400.654294	8793.539232
401.036549	8994.822423
401.418742	9020.507102
401.800874	9335.579217
402.182944	9413.583511
402.564952	9791.677611
402.946898	9604.333211
403.328783	9663.738168
403.710606	9865.777532
404.092367	10132.845260
404.474067	10503.337300
404.855705	10290.043560
405.237282	10245.157126
405.618797	10684.034939
406.000250	10933.135994
406.381642	11308.250773
406.762972	11254.867474
407.144240	11053.927082
407.525447	11312.447533
407.906593	11256.704975
408.287677	11515.732062
408.668700	11677.795076
409.049661	11647.094449
409.430560	11813.124851
409.811399	11784.551591
410.192176	11952.742127
410.572891	12027.696523
410.953545	12531.012885
411.334138	11996.897594
411.714669	12619.880866
412.095139	11899.931000
412.475547	12420.059609
412.855894	12259.224117
413.236180	12595.501846
413.616405	12272.557968
413.996568	12553.670351
414.376670	12523.962831
414.756711	12404.842887
415.136691	12694.641177
415.516609	12885.027914
415.896466	12959.211013
416.276262	13248.916042
416.655997	13696.739383
417.035670	13720.347106
417.415283	14384.088107
417.794834	14490.171628
418.174324	14223.212285
418.553753	14128.874652
418.933121	14633.884842
419.312428	14437.983083
419.691674	14352.180123
420.070859	14814.786647
420.449983	14458.780363
420.829045	15026.361354
421.208047	14762.341003
421.586988	15233.502365
421.965867	15494.326624
422.344686	15491.206150
422.723444	16068.577062
423.102141	14718.056987
423.480777	15947.110460
423.859352	15445.966835
424.237866	16577.559680
424.616319	16275.587003
424.994712	16952.094726
425.373044	16739.234525
425.751314	17427.919155
426.129524	16534.908998
426.507673	17662.705854
426.885762	17333.644537
427.263789	17550.696457
427.641756	17724.880925
428.019662	17785.505841
428.397508	17821.814752
428.775292	18147.259041
429.153016	18096.650898
429.530679	18182.209361
429.908282	18215.450729
430.285824	17918.836799
430.663305	18633.385068
431.040726	18216.645483
431.418086	18052.460143
431.795385	18717.584941
432.172624	19134.251429
432.549802	18690.150981
432.926920	18876.514877
433.303977	18764.553371
433.680974	19029.211427
434.057910	19310.956475
434.434786	19339.479323
434.811601	19258.203320
435.188355	20318.904939
435.565050	19958.820361
435.941683	19898.833151
436.318257	20807.773354
436.694770	20611.821183
437.071222	21216.946168
437.447614	20282.507808
437.823946	20302.644697
438.200218	20455.681525
438.576429	20233.606096
438.952580	20503.398567
439.328670	20474.353959
439.704700	20889.243441
440.080670	20461.657813
440.456580	21063.115358
440.832429	21243.618913
441.208218	20194.869869
441.583947	20665.423772
441.959616	20776.004002
442.335224	21009.931185
442.710773	21145.893625
443.086261	21698.343592
443.461689	21053.537166
443.837057	21174.197183
444.212365	21840.521775
444.587612	21831.651865
444.962800	21387.659802
445.337927	21833.189417
445.712995	20531.261024
446.088002	22433.515222
446.462949	22626.684676
446.837837	22816.053100
447.212664	22771.053240
447.587431	25685.208167
447.962139	28674.743468
448.336786	31082.569944
448.711374	29486.732200
449.085901	25723.352058
449.460369	25686.458373
449.834776	25610.825942
450.209124	28139.783784
450.583412	27655.056677
450.957640	28194.172792
451.331808	26806.779198
451.705917	25422.175883
452.079965	25461.610309
452.453954	25832.886249
452.827883	25703.973862
453.201752	25502.012637
453.575562	25680.814802
453.949311	26829.620667
454.323001	26892.042754
454.696632	26639.259136
455.070202	28225.475837
455.443713	28376.249187
455.817164	28967.140473
456.190556	29519.824855
456.563888	28944.414952
456.937160	29385.157992
457.310373	27692.139404
457.683526	28159.623245
458.056619	28136.746488
458.429653	28078.228775
458.802628	28661.144956
459.175542	28774.187789
459.548398	30092.726784
459.921194	31699.317309
460.293930	32374.511811
460.666607	34433.583702
461.039224	36215.979426
461.411782	36616.478935
461.784280	35416.434782
462.156719	34931.664826
462.529099	34383.812390
462.901419	33069.334045
463.273680	31988.828253
463.645882	32082.003900
464.018024	32063.812896
464.390106	32906.950918
464.762130	35633.247248
465.134094	39759.862689
465.505999	45089.541935
465.877845	49688.863852
466.249631	50878.561036
466.621358	49206.795954
466.993026	47111.904144
467.364634	45040.191559
467.736184	43036.514387
468.107674	41770.657971
468.479105	40955.798301
468.850477	40267.118713
469.221790	38814.767331
469.593043	37017.779987
469.964238	36131.076313
470.335373	36058.390437
470.706449	37827.003646
471.077467	40444.668151
471.448425	45040.867074
471.819324	47846.591823
472.190164	45980.628891
472.560945	42400.708940
472.931667	39247.583156
473.302330	38130.952456
473.672934	37304.883781
474.043479	37821.294539
474.413965	37007.962340
474.784393	36622.417414
475.154761	37550.156080
475.525070	37568.415139
475.895321	37103.225024
476.265513	37708.765903
476.635645	38681.156589
477.005719	38514.271712
477.375734	38985.506170
477.745691	39697.871620
478.115588	41052.154916
478.485427	43041.043863
478.855207	46433.667305
479.224928	49050.379032
479.594591	50690.175638
479.964194	49707.034691
480.333739	49891.177959
480.703226	49929.704977
481.072653	50541.166692
481.442022	51016.774351
481.811333	51281.994496
482.180584	49998.788949
482.549777	49480.394496
482.918912	48932.756310
483.287988	48669.411474
483.657005	47819.939242
484.025964	47169.761466
484.394864	47194.445476
484.763706	46768.888913
485.132489	45906.559218
485.501213	45720.550723
485.869879	45881.759262
486.238487	45471.495038
486.607036	45667.016190
486.975527	45126.027286
487.343959	45325.054560
487.712333	45406.149081
488.080648	45318.243961
488.448905	45801.988043
488.817104	45594.758811
489.185244	46562.705720
489.553326	48255.741951
489.921350	50990.918273
490.289315	53812.562986
490.657222	54372.360436
491.025070	54657.173025
491.392861	53787.271517
491.760593	52570.352102
492.128267	50922.300608
492.495883	49410.022509
492.863440	48036.187098
493.230939	46668.663212
493.598380	45556.592236
493.965763	45240.874852
494.333088	44406.720167
494.700354	43898.128237
495.067563	43624.948111
495.434713	43496.552443
495.801805	43562.019387
496.168839	43177.606201
496.535815	42827.349352
496.902733	42865.440310
497.269593	42470.342398
497.636395	42381.119016
498.003139	42800.447234
498.369825	42235.434711
498.736453	42568.370155
499.103023	42086.672782
499.469535	41931.138062
499.835989	42048.801114
500.202385	41715.621174
500.568723	41727.228430
500.935003	41918.278079
501.301226	41706.758825
501.667390	42353.806045
502.033497	42625.277221
502.399546	42031.348639
502.765537	41333.196722
503.131470	41731.921745
503.497345	42089.211003
503.863163	40738.839643
504.228923	41354.808149
504.594625	41783.729683
504.960269	41052.628784
505.325856	41767.814760
505.691385	41128.820784
506.056856	41266.449325
506.422270	41691.844572
506.787625	41264.140476
507.152924	41476.393218
507.518164	41583.744589
507.883347	40757.701120
508.248472	41034.480631
508.613540	41513.559125
508.978550	41827.076044
509.343503	41551.206462
509.708398	41764.535489
510.073236	42307.049343
510.438016	42313.519664
510.802738	41752.955959
511.167403	42383.170766
511.532010	42614.068215
511.896561	42924.951132
512.261053	43783.464673
512.625488	43318.803879
512.989866	43190.869476
513.354186	43029.832337
513.718449	43007.210159
514.082655	43714.415988
514.446803	43364.620405
514.810894	43894.440633
515.174927	43821.545549
515.538904	43717.912029
515.902822	44399.438220
516.266684	43815.410465
516.630488	44266.329073
516.994235	44108.548520
517.357925	44698.103900
517.721558	44850.820615
518.085133	45169.217371
518.448651	45297.449202
518.812112	45080.714874
519.175516	45166.464901
519.538863	45507.846798
519.902152	45474.638197
520.265385	45938.056347
520.628560	45983.824983
520.991678	45772.222550
521.354739	46011.977307
521.717743	46317.889645
522.080690	46214.881228
522.443580	46755.098836
522.806413	46808.099007
523.169189	46731.470948
523.531908	46927.740711
523.894569	46774.920653
524.257174	46940.749409
524.619722	47265.813091
524.982213	47246.379443
525.344647	47147.177097
525.707025	47186.233437
526.069345	47569.945903
526.431608	47501.610542
526.793815	47827.904266
527.155964	47355.908593
527.518057	47524.318419
527.880093	47278.589896
528.242072	47815.316504
528.603995	47498.132146
528.965860	47522.780867
529.327669	47608.997201
529.689421	47499.573916
530.051117	47446.598950
530.412755	47588.043645
530.774337	47674.018003
531.135862	47448.280175
531.497331	47661.117691
531.858743	47551.134837
532.220098	47890.633863
532.581396	47605.680122
532.942638	47264.330992
533.303824	47576.809434
533.664953	47520.098973
534.026025	47232.975015
534.387040	47705.376501
534.747999	47659.040735
535.108902	47809.733427
535.469748	47321.979107
535.830537	47436.985470
536.191270	47625.653173
536.551947	47284.483004
536.912567	47584.305629
537.273131	47703.687714
537.633638	47170.968823
537.994089	47538.549597
538.354483	47109.660830
538.714821	47699.120429
539.075103	48043.458963
539.435328	47784.550343
539.795497	47674.655709
540.155609	47657.750200
540.515665	48117.873955
540.875665	47568.340295
541.235609	47898.666942
541.595496	47864.745018
541.955328	48545.157114
542.315102	47905.578364
542.674821	47696.057928
543.034483	47733.309534
543.394090	47697.792085
543.753640	47661.813370
544.113134	48677.066466
544.472571	47668.671860
544.831953	48927.027039
545.191278	48134.698806
545.550548	47855.711270
545.909761	48324.231067
546.268918	48505.798306
546.628019	48814.480758
546.987064	48380.550838
547.346053	47660.016198
547.704986	48554.009380
548.063863	48080.377853
548.422684	48278.714489
548.781449	48150.028955
549.140158	48535.145383
549.498811	48381.110406
549.857408	47795.252712
550.215949	48645.874327
550.574434	48567.479343
550.932864	48335.046863
551.291237	49072.829811
551.649555	48661.764044
552.007817	48894.612419
552.366022	48537.915497
552.724173	48724.188652
553.082267	49118.714393
553.440305	49433.148803
553.798288	48742.987115
554.156215	49048.712931
554.514086	49265.081774
554.871902	49011.690697
555.229661	49042.272857
555.587365	48835.714098
555.945014	48943.410789
556.302606	48851.046768
556.660143	49094.690774
557.017625	49178.739412
557.375050	48979.790275
557.732421	49316.443570
558.089735	49305.589966
558.446994	49216.873220
558.804197	49708.894877
559.161345	49645.378859
559.518437	48897.064941
559.875474	49189.898006
560.232455	49350.620073
560.589381	49527.138595
560.946251	49230.635570
561.303065	49930.632549
561.659825	49738.282283
562.016528	49401.729811
562.373177	49125.131782
562.729770	49591.297360
563.086307	49108.034709
563.442789	49580.300083
563.799216	49643.082613
564.155587	49421.723027
564.511904	49440.690369
564.868164	49548.550896
565.224370	49775.231420
565.580520	49513.817346
565.936615	49731.522096
566.292654	49442.137180
566.648638	49704.977900
567.004567	49655.854377
567.360441	49714.409899
567.716260	49562.774512
568.072023	49834.671665
568.427732	49825.428710
568.783385	49370.020953
569.138982	49768.798908
569.494525	49718.863758
569.850013	49521.963851
570.205445	49476.585905
570.560823	49435.248443
570.916145	49328.736424
571.271412	49338.904431
571.626625	49099.041290
571.981782	49160.931536
572.336884	48847.817909
572.691931	49171.928813
573.046923	48771.361249
573.401860	48620.426582
573.756743	48611.400396
574.111570	48734.891022
574.466342	48575.025951
574.821059	48682.543680
575.175722	48204.102892
575.530330	48230.571470
575.884882	47941.476421
576.239380	47902.261285
576.593823	47879.921412
576.948211	47802.600194
577.302544	47317.570618
577.656823	47348.606481
578.011047	47562.356446
578.365216	47283.230278
578.719330	47102.615818
579.073389	46917.718898
579.427394	47016.772529
579.781344	46989.825042
580.135239	46649.413566
580.489080	46731.760814
580.842866	46193.322734
581.196597	46668.048192
581.550273	46586.565501
581.903895	46460.032540
582.257463	46875.859677
582.610975	46247.678975
582.964434	46512.286620
583.317837	46175.716504
583.671186	45996.382497
584.024481	46214.906434
584.377721	45757.502381
584.730906	46054.007927
585.084037	46081.971207
585.437113	45784.154961
585.790135	45834.556418
586.143103	45424.607266
586.496016	45530.690787
586.848874	45576.371203
587.201679	45575.345328
587.554428	45058.145628
587.907124	45238.261014
588.259765	44985.406820
588.612352	45231.248769
588.964884	44618.715809
589.317362	44891.676646
589.669786	44845.124111
590.022155	44606.569149
590.374470	45042.996961
590.726731	44554.254575
591.078937	44052.952154
591.431090	44147.960260
591.783188	43811.430474
592.135232	43481.847397
592.487222	43717.622162
592.839157	43815.849045
593.191038	43467.091940
593.542866	43218.789907
593.894639	42589.807662
594.246358	42867.088768
594.598022	42871.154458
594.949633	42449.688791
595.301190	42390.278793
595.652692	42207.126112
596.004141	42539.905280
596.355535	41529.126208
596.706876	41486.314209
597.058162	41321.264311
597.409395	41795.019347
597.760573	41871.866696
598.111698	41430.395210
598.462768	41436.948710
598.813785	41475.994967
599.164748	40893.219938
599.515657	41275.324276
599.866511	40736.432492
600.217312	41345.512261
600.568060	40287.109408
600.918753	41034.326875
601.269392	41005.824192
601.619978	40634.399538
601.970510	40840.696156
602.320988	41013.433813
602.671412	41297.520477
603.021783	41047.259956
603.372100	40701.532584
603.722363	40798.733592
604.072572	40854.062776
604.422728	40867.225228
604.772830	40662.322489
605.122878	40743.676630
605.472872	40669.498572
605.822813	40923.925606
606.172701	40757.917889
606.522534	40989.788281
606.872314	41241.639286
607.222041	40961.966153
607.571714	41339.972033
607.921333	40756.029977
608.270899	41062.479199
608.620411	41383.121789
608.969870	41183.731552
609.319276	41148.035142
609.668627	41171.108503
610.017926	41660.244099
610.367171	41811.166163
610.716362	41866.230686
611.065500	41777.544187
611.414585	41955.300313
611.763616	42243.825712
612.112594	42137.830411
612.461518	42347.524767
612.810389	42606.899694
613.159207	42432.674897
613.507971	42491.157323
613.856682	42967.997544
614.205340	42820.831140
614.553945	43493.472298
614.902496	42914.710027
615.250994	43360.829458
615.599439	43418.505299
615.947830	43588.737503
616.296169	43605.080923
616.644454	43698.138103
616.992686	43839.696223
617.340864	44322.941231
617.688990	43999.727652
618.037063	44583.221045
618.385082	44506.963511
618.733048	44770.000836
619.080961	44760.997336
619.428821	44745.117701
619.776628	44837.620353
620.124382	44630.002953
620.472083	44741.994706
620.819731	44854.147776
621.167326	44512.838976
621.514868	44493.450698
621.862357	44030.312333
622.209793	44033.478177
622.557176	43707.663363
622.904506	43440.363742
623.251783	43103.241620
623.599007	42851.788866
623.946179	42611.908081
624.293297	42528.666028
624.640363	41921.333018
624.987376	41887.743810
625.334336	41632.396765
625.681243	41229.853068
626.028097	41148.715697
626.374899	40977.457619
626.721647	40929.576740
627.068343	40781.205500
627.414987	40517.086847
627.761577	40263.221901
628.108115	40552.909286
628.454600	39970.076284
628.801032	40122.344336
629.147412	40042.384074
629.493739	40016.064210
629.840014	39625.740271
630.186236	39905.887272
630.532405	39498.204119
630.878521	39668.509420
631.224585	39505.619657
631.570597	39177.430459
631.916556	39308.492897
632.262462	39208.163853
632.608316	39183.721819
632.954117	39047.474554
633.299866	39008.201445
633.645562	38908.628574
633.991206	38411.835466
634.336797	37959.802762
634.682336	37940.721995
635.027823	37699.883390
635.373257	37493.017122
635.718639	37230.204127
636.063968	37075.670077
636.409245	36493.807497
636.754470	36526.101129
637.099642	36263.114215
637.444762	35760.952277
637.789829	35863.905242
638.134845	35514.245770
638.479808	35431.901042
638.824719	35300.780631
639.169577	34899.282974
639.514383	34916.349800
639.859137	34593.715954
640.203839	34798.041481
640.548489	34414.744910
640.893086	34453.624809
641.237632	34171.211809
641.582125	34235.307560
641.926566	34148.418232
642.270955	34081.461627
642.615292	34056.684355
642.959576	33994.784027
643.303809	33945.998261
643.647990	34051.408788
643.992118	33973.296109
644.336195	33913.465175
644.680219	33960.189109
645.024192	34207.674475
645.368112	34630.917149
645.711981	34580.056948
646.055797	35336.446794
646.399562	35208.726641
646.743274	36027.717536
647.086935	36398.196973
647.430544	36238.175627
647.774101	36315.796793
648.117606	36498.145410
648.461059	36759.093177
648.804460	36394.022898
649.147810	35785.495135
649.491108	35541.112599
649.834354	35183.309143
650.177548	34374.604723
650.520690	33937.057775
650.863781	33911.007612
651.206820	33735.963627
651.549807	33322.387366
651.892742	32836.873839
652.235626	32606.576287
652.578458	32448.571402
652.921238	31852.444877
653.263967	32102.024843
653.606644	31770.563936
653.949269	31679.404751
654.291843	31267.643305
654.634365	31600.041866
654.976836	31185.343948
655.319255	31151.817754
655.661622	31111.508688
656.003938	30867.030370
656.346203	30706.537676
656.688416	30872.986494
657.030577	30639.480247
657.372687	30476.628293
657.714746	30674.995176
658.056753	30749.813461
658.398708	30224.005992
658.740612	30231.514790
659.082465	30423.194583
659.424266	30213.611132
659.766016	30271.859144
660.107715	30140.758897
660.449362	30223.312833
660.790958	30150.039662
661.132503	30126.719284
661.473996	30117.599837
661.815438	30175.096717
662.156829	30319.006536
662.498168	30059.757637
662.839456	30045.428158
663.180693	30122.865322
663.521879	30221.671937
663.863013	30139.576747
664.204097	30087.698233
664.545129	30445.531936
664.886110	30360.936333
665.227040	30357.495745
665.567918	30413.671843
665.908746	30426.035273
666.249522	30525.028411
666.590248	30476.121657
666.930922	30538.326975
667.271545	30444.390114
667.612118	30479.698356
667.952639	30248.810989
668.293109	30250.557749
668.633528	30139.112961
668.973896	30029.346877
669.314213	30009.336017
669.654480	29756.769168
669.994695	29742.817775
670.334859	29603.102196
670.674973	29464.500712
671.015035	29573.361909
671.355047	29460.024167
671.695008	29375.504182
672.034918	29238.140301
672.374777	29244.507279
672.714585	29058.904597
673.054342	29190.105667
673.394049	28934.264589
673.733705	29141.952565
674.073310	28813.970055
674.412864	28840.874693
674.752368	28453.759448
675.091820	28670.818930
675.431223	28279.897614
675.770574	28013.757458
676.109875	27841.995264
676.449125	27584.006654
676.788324	27476.882135
677.127473	26984.255540
677.466571	26892.080563
677.805619	26566.353969
678.144616	26515.246751
678.483562	26411.772027
678.822458	26093.914674
679.161303	25990.661761
679.500098	25868.539809
679.838842	25725.358437
680.177535	25802.636805
680.516179	25963.699150
680.854771	26094.731341
681.193314	26724.966313
681.531805	27539.899079
681.870247	28074.279031
682.208638	28613.412790
682.546978	28760.985007
682.885268	28795.501788
683.223508	28327.029882
683.561697	28040.367189
683.899836	27835.477052
684.237925	27367.942801
684.575963	27210.815076
684.913951	26771.286955
685.251889	26849.618924
685.589776	26769.651100
685.927614	26701.623250
686.265401	26732.026449
686.603137	26732.076860
686.940824	27060.215646
687.278460	27278.749666
687.616046	27299.617522
687.953582	27720.541265
688.291068	27561.654178
688.628504	27755.368077
688.965889	27642.902455
689.303224	27334.575403
689.640510	27048.568060
689.977745	26474.489022
690.314930	25835.409346
690.652065	25430.650063
690.989150	24839.181564
691.326185	24129.616475
691.663170	23568.359612
692.000105	22956.169450
692.336990	22403.338876
692.673825	22030.051516
693.010610	21585.804874
693.347345	21120.463524
693.684030	20590.907957
694.020665	20344.874443
694.357251	19810.796961
694.693786	19726.292099
695.030272	19506.364201
695.366707	19062.019257
695.703093	18802.551068
696.039429	18763.850130
696.375716	18531.699954
696.711952	18460.251681
697.048139	18301.374676
697.384276	18126.244992
697.720363	18179.910595
698.056400	17985.380030
698.392388	17795.714178
698.728326	17735.754694
699.064214	17555.735090
699.400053	17493.398702
699.735842	17195.194288
700.071581	16969.325390
700.407270	16736.386273
700.742910	16563.646096
701.078501	16348.305647
701.414042	16111.189935
701.749533	15880.375665
702.084974	15600.639517
702.420366	15715.877774
702.755709	15376.592997
703.091002	15138.837058
703.426246	15130.728362
703.761440	15023.470252
704.096584	14799.612774
704.431679	14742.572118
704.766725	14646.628878
705.101721	14572.279421
705.436668	14605.079688
705.771565	14348.910935
706.106413	14553.357450
706.441212	14507.586294
706.775961	14561.975302
707.110661	14572.959977
707.445311	14772.519093
707.779913	14629.032731
708.114465	14748.664353
708.448967	14902.795111
708.783421	15334.154043
709.117825	15480.337422
709.452180	15589.186016
709.786485	15810.041487
710.120742	16296.054088
710.454949	16275.513906
710.789107	16553.543623
711.123216	16981.595558
711.457275	17041.539918
711.791286	17373.709107
712.125247	17410.083553
712.459159	17193.361828
712.793023	17614.739275
713.126837	16865.621293
713.460602	17014.421031
713.794318	16751.308089
714.127985	16468.335520
714.461602	15864.427975
714.795171	15809.391178
715.128691	15138.020391
715.462162	14760.448050
715.795584	14457.678871
716.128957	14257.129168
716.462281	13976.382269
716.795556	13790.048620
717.128782	13443.701186
717.461960	13071.195205
717.795088	12986.395435
718.128167	12700.327599
718.461198	12380.549566
718.794180	12259.629929
719.127113	12012.389060
719.459997	11873.359078
719.792833	11638.085907
720.125619	11595.573857
720.458357	11366.534073
720.791046	11244.122255
721.123686	11118.963007
721.456278	10950.462440
721.788821	10898.707434
722.121315	10715.625329
722.453761	10745.673127
722.786158	10677.917499
723.118506	10658.383028
723.450805	10555.329240
723.783056	10626.626279
724.115259	10543.220388
724.447412	10474.824534
724.779518	10602.320356
725.111574	10600.102248
725.443582	10689.555002
725.775542	10659.960909
726.107453	10909.155226
726.439315	10830.966929
726.771129	11033.296160
727.102895	11228.106509
727.434612	11329.663074
727.766281	11380.356917
728.097901	11516.377330
728.429473	11512.160405
728.760996	11497.248672
729.092471	11524.425532
729.423897	11433.256265
729.755276	11338.454846
730.086606	11380.205682
730.417887	11629.342026
730.749120	11887.237374
731.080305	11961.410391
731.411442	12124.879887
731.742530	12140.749439
732.073570	12181.870131
732.404562	12332.837566
732.735506	12211.854914
733.066401	12034.807071
733.397249	11719.094729
733.728048	11345.396515
734.058798	10865.609739
734.389501	10459.307862
734.720156	10178.271097
735.050762	9861.210246
735.381320	9639.843099
735.711831	9478.984921
736.042293	9263.778063
736.372707	9250.963450
736.703073	9107.686296
737.033391	9191.351806
737.363661	9151.637596
737.693883	9189.564717
738.024056	9264.655224
738.354182	9352.424233
738.684260	9482.770827
739.014290	9593.540101
739.344272	9690.700779
739.674207	9824.210698
740.004093	9873.614005
740.333931	9865.596050
740.663722	9874.433193
740.993464	9855.183547
741.323159	9751.086241
741.652806	9583.699768
741.982405	9453.758987
742.311956	9263.094987
742.641460	9176.487963
742.970915	8982.945464
743.300323	8796.566445
743.629683	8667.492742
743.958996	8495.768357
744.288260	8340.699944
744.617477	8164.309971
744.946647	8102.747400
745.275768	7944.934079
745.604842	7834.752100
745.933869	7737.866164
746.262847	7686.947990
746.591778	7645.640775
746.920662	7566.043476
747.249498	7552.215591
747.578286	7602.385154
747.907027	7654.893813
748.235720	7753.803772
748.564365	7757.161180
748.892963	7702.656225
749.221514	7709.963378
749.550017	7625.342569
749.878473	7587.906961
750.206881	7463.151006
750.535242	7407.194198
750.863555	7350.440888
751.191821	7291.782022
751.520039	7283.575023
751.848210	7229.478402
752.176334	7234.345636
752.504411	7180.170876
752.832440	7092.613595
753.160421	7105.841583
753.488356	7039.008486
753.816243	6986.361196
754.144082	6911.512664
754.471875	6874.482868
754.799620	6836.921231
755.127318	6812.680843
755.454969	6787.321318
755.782572	6751.730772
756.110129	6741.915646
756.437638	6697.407298
756.765100	6683.307191
757.092515	6674.026427
757.419882	6677.172107
757.747203	6663.681979
758.074477	6698.067689
758.401703	6666.053842
758.728882	6736.206539
759.056014	6746.732468
759.383099	6793.839530
759.710138	6831.232289
760.037129	6858.915785
760.364073	6861.998451
760.690970	6842.191757
761.017820	6830.753379
761.344623	6901.624441
761.671379	7029.982300
761.998088	7285.304139
762.324751	7988.187179
762.651366	9260.740768
762.977935	10860.843328
763.304456	11836.354488
763.630931	12018.650173
763.957359	11483.435910
764.283740	10635.448298
764.610074	9791.962437
764.936362	8855.341258
765.262602	8164.325094
765.588796	7496.077302
765.914943	7036.364401
766.241044	6649.324773
766.567097	6362.110074
766.893104	6104.060970
767.219064	5933.601914
767.544978	5752.322022
767.870845	5603.484475
768.196665	5511.858984
768.522438	5413.359879
768.848165	5337.026727
769.173846	5250.437348
769.499479	5189.699006
769.825066	5116.924909
770.150607	5030.648082
770.476101	4991.904294
770.801548	4940.613074
771.126949	4873.394328
771.452303	4825.268953
771.777611	4751.816821
772.102872	4733.804778
772.428087	4680.015667
772.753256	4624.177326
773.078378	4578.927929
773.403453	4512.288917
773.728482	4464.183706
774.053465	4433.772946
774.378401	4391.248292
774.703291	4351.352601
775.028135	4299.766473
775.352932	4283.695275
775.677683	4241.490735
776.002388	4203.417421
776.327046	4197.262172
776.651658	4159.526615
776.976224	4123.023620
777.300743	4114.105818
777.625216	4076.266918
777.949643	4056.251016
778.274024	4054.242117
778.598359	4022.462683
778.922647	4023.823794
779.246889	4007.399715
779.571086	4001.105834
779.895236	4009.791742
780.219339	4002.487111
780.543397	3999.124661
780.867409	4016.889687
781.191374	4008.992720
781.515294	3991.845235
781.839167	4004.657327
782.162995	3989.506139
782.486776	3970.261535
782.810511	3951.790747
783.134201	3917.730191
783.457844	3910.365065
783.781441	3885.232393
784.104993	3865.120709
784.428498	3851.267619
784.751958	3840.678675
785.075372	3826.918846
785.398739	3806.182059
785.722061	3811.586176
786.045337	3807.913696
786.368568	3846.864171
786.691752	3853.349615
787.014891	3951.258905
787.337983	4058.600194
787.661030	4231.408427
787.984031	4392.180906
788.306987	4480.262466
788.629897	4501.468080
788.952760	4456.170792
789.275579	4380.871077
789.598351	4263.931431
789.921078	4158.231038
790.243759	4049.881518
790.566395	3969.185248
790.888984	3891.004514
791.211529	3835.829085
791.534027	3777.795322
791.856480	3721.727609
792.178888	3692.836756
792.501249	3666.837005
792.823566	3625.859986
793.145836	3620.042495
793.468062	3610.368520
793.790241	3593.750357
794.112375	3605.871811
794.434464	3642.397491
794.756507	3652.736898
795.078505	3694.452446
795.400457	3771.907254
795.722364	3860.762632
796.044226	3932.873817
796.366042	3988.732322
796.687812	3965.974033
797.009538	3970.748006
797.331218	3935.858180
797.652852	3905.517996
797.974442	3856.810367
798.295986	3827.596881
798.617484	3777.268521
798.938938	3735.615988
799.260346	3706.054662
799.581709	3656.976508
799.903026	3639.077892
800.224299	3610.237450
800.545526	3570.157757
800.866708	3543.883263
801.187845	3525.142773
801.508936	3497.106396
801.829983	3485.610045
802.150984	3448.681072
802.471940	3437.136830
802.792851	3434.701953
803.113717	3422.666198
803.434538	3411.288314
803.755314	3399.207189
804.076045	3393.230901
804.396731	3381.275804
804.717372	3384.512225
805.037967	3382.152965
805.358518	3398.012435
805.679024	3412.137748
805.999485	3416.667225
806.319901	3425.131322
806.640272	3433.338321
806.960598	3442.553550
807.280879	3437.779577
807.601115	3451.345322
807.921306	3434.011315
808.241453	3434.195317
808.561554	3435.969803
808.881611	3422.925818
809.201623	3420.435488
809.521590	3396.961355
809.841513	3390.183523
810.161390	3396.767270
810.481223	3360.894419
810.801011	3356.480889
811.120755	3343.777182
811.440453	3325.142556
811.760107	3315.440856
812.079716	3301.529792
812.399281	3280.132614
812.718801	3278.050618
813.038276	3263.428751
813.357707	3249.681524
813.677093	3260.257865
813.996434	3233.401118
814.315731	3242.268508
814.634983	3234.237950
814.954191	3238.278434
815.273354	3255.738471
815.592473	3266.526540
815.911547	3289.831794
816.230577	3307.059938
816.549562	3332.152281
816.868502	3348.001668
817.187399	3362.242928
817.506250	3385.550703
817.825058	3389.397103
818.143821	3432.337652
818.462539	3482.973522
818.781213	3549.909962
819.099843	3663.650996
819.418429	3861.349926
819.736970	4053.979977
820.055466	4265.995784
820.373919	4536.758678
820.692327	4984.584538
821.010691	5889.254884
821.329011	8181.472579
821.647286	11990.049186
821.965517	16299.570292
822.283704	18578.592767
822.601847	18824.127207
822.919945	16550.937347
823.237999	14319.697449
823.556010	12272.104265
823.873976	10566.228215
824.191897	9101.493238
824.509775	8028.231584
824.827609	7069.484781
825.145398	6506.690366
825.463144	6229.467234
825.780845	6303.481454
826.098502	6723.896041
826.416116	7509.214549
826.733685	8208.657001
827.051210	8323.542377
827.368692	7821.698032
827.686129	7011.652664
828.003522	6233.661474
828.320872	5562.383948
828.638177	5049.975865
828.955439	4666.132329
829.272656	4333.448943
829.589830	4071.031679
829.906960	3850.347608
830.224046	3682.086496
830.541088	3553.494223
830.858086	3471.976244
831.175041	3409.866708
831.491952	3381.583315
831.808819	3382.329406
832.125642	3452.656022
832.442421	3612.581587
832.759157	3945.509469
833.075849	4484.688599
833.392497	5050.263211
833.709101	5377.199682
834.025662	5283.530003
834.342179	4952.774857
834.658653	4553.817942
834.975083	4229.729723
835.291469	3967.952686
835.607811	3754.522835
835.924110	3600.056840
836.240366	3455.642906
836.556578	3320.106444
836.872746	3220.435270
837.188871	3139.111377
837.504952	3075.827252
837.820990	3028.989891
838.136984	2992.310456
838.452935	2977.282776
838.768842	2989.580671
839.084706	3070.944894
839.400526	3294.683905
839.716303	3563.165676
840.032037	3720.525294
840.347727	3667.515040
840.663373	3487.382011
840.978977	3319.509067
841.294537	3196.083977
841.610054	3098.232660
841.925527	3032.271683
842.240957	2970.068885
842.556344	2917.668612
842.871687	2870.788401
843.186987	2828.558656
843.502244	2793.016000
843.817458	2769.234357
844.132629	2749.019330
844.447756	2732.643142
844.762840	2718.540514
845.077881	2705.398226
845.392879	2697.813810
845.707833	2689.947089
846.022745	2681.120029
846.337613	2682.614731
846.652438	2675.282373
846.967221	2671.632577
847.281960	2668.249963
847.596656	2663.639828
847.911309	2661.913233
848.225919	2655.107675
848.540485	2653.383601
848.855009	2651.145328
849.169490	2645.572333
849.483928	2644.412867
849.798323	2643.762558
850.112675	2638.716363
850.426984	2642.270377
850.741251	2637.093112
851.055474	2635.782412
851.369654	2638.499594
851.683792	2637.224182
851.997887	2637.934985
852.311938	2634.859881
852.625947	2636.841054
852.939914	2634.295272
853.253837	2636.805766
853.567718	2636.543626
853.881555	2634.275107
854.195350	2633.546660
854.509103	2633.566825
854.822812	2633.040024
855.136479	2631.099180
855.450103	2631.026083
855.763685	2631.053810
856.077224	2629.856536
856.390720	2631.177318
856.704173	2633.294602
857.017584	2638.882722
857.330953	2639.074285
857.644278	2641.428504
857.957561	2641.761220
858.270802	2639.351549
858.584000	2638.403812
858.897155	2636.588997
859.210268	2633.448358
859.523339	2630.343007
859.836367	2630.675723
860.149352	2627.968623
860.462295	2629.465846
860.775195	2624.278499
861.088054	2620.046450
861.400869	2619.617952
861.713642	2616.343723
862.026373	2624.260855
862.339062	2623.194651
862.651708	2625.639610
862.964312	2630.839561
863.276873	2635.419449
863.589392	2639.918679
863.901869	2647.571150
864.214303	2654.800165
864.526696	2659.916936
864.839045	2664.769047
865.151353	2666.271310
865.463619	2667.017401
865.775842	2667.284582
866.088023	2667.193842
866.400162	2665.817607
866.712258	2665.167298
867.024313	2664.532112
867.336325	2665.535302
867.648296	2663.589417
867.960224	2663.304591
868.272110	2663.123110
868.583954	2664.053203
868.895755	2664.143943
869.207515	2664.973213
869.519233	2669.381702
869.830909	2671.418328
870.142542	2676.237672
870.454134	2673.099553
870.765684	2679.711027
871.077191	2682.506346
871.388657	2686.062880
871.700081	2691.207378
872.011463	2697.423121
872.322803	2702.968390
872.634101	2707.543237
872.945357	2715.170503
873.256571	2722.540670
873.567744	2725.857749
873.878874	2723.170814
874.189963	2729.956207
874.501010	2730.525857
874.812015	2729.832699
875.122979	2734.137844
875.433900	2732.048286
875.744780	2731.995354
876.055618	2734.946949
876.366415	2733.258163
876.677169	2731.382853
876.987882	2733.432082
877.298554	2736.497104
877.609183	2748.890781
877.919771	2760.109869
878.230317	2775.934051
878.540822	2802.329532
878.851285	2836.692557
879.161707	2893.251783
879.472087	2987.289467
879.782425	3149.014723
880.092722	3483.510404
880.402977	4111.852423
880.713191	4996.902598
881.023363	5903.246607
881.333494	6401.191619
881.643583	6468.488502
881.953631	6200.737698
882.263637	5833.280432
882.573602	5463.844514
882.883526	5145.104959
883.193408	4840.652034
883.503248	4558.435639
883.813048	4305.037000
884.122806	4079.994851
884.432522	3850.438349
884.742197	3646.780775
885.051831	3473.410453
885.361424	3324.633400
885.670975	3208.127293
885.980485	3114.177830
886.289954	3042.109494
886.599382	2983.690083
886.908768	2934.294337
887.218113	2887.414127
887.527417	2853.618231
887.836680	2819.968529
888.145901	2797.013635
888.455082	2769.950201
888.764221	2751.852459
889.073319	2739.337794
889.382376	2730.871176
889.691392	2721.643344
890.000366	2721.149311
890.309300	2717.824670
890.618193	2722.752398
890.927044	2719.750391
891.235855	2719.195864
891.544625	2724.307594
891.853353	2731.823954
892.162041	2746.060173
892.470687	2772.274173
892.779293	2801.717032
893.087858	2845.814525
893.396381	2917.840011
893.704864	3029.415869
894.013306	3173.872653
894.321707	3321.475117
894.630068	3407.136924
894.938387	3409.667583
895.246665	3357.579861
895.554903	3277.118004
895.863100	3192.335879
896.171256	3125.802730
896.479371	3066.738051
896.787446	3009.412570
897.095480	2959.893316
897.403473	2922.719848
897.711425	2886.345402
898.019336	2853.993797
898.327207	2822.352995
898.635038	2797.648821
898.942827	2773.617640
899.250576	2751.219794
899.558284	2727.236504
899.865952	2714.943651
900.173579	2699.656352
900.481165	2686.829136
900.788711	2677.326561
901.096216	2669.235509
901.403681	2663.707884
901.711105	2660.342913
902.018489	2657.862666
902.325832	2667.458502
902.633135	2677.127435
902.940397	2727.601988
903.247619	2833.186435
903.554800	3035.172867
903.861941	3298.063998
904.169041	3484.463183
904.476101	3536.064433
904.783121	3456.376394
905.090100	3347.263139
905.397039	3239.190883
905.703938	3145.206132
906.010796	3062.558935
906.317614	2997.492762
906.624391	2933.185283
906.931129	2881.667211
907.237826	2837.859584
907.544483	2791.987605
907.851099	2746.755852
908.157675	2705.564584
908.464211	2665.857936
908.770707	2637.773668
909.077163	2617.528394
909.383578	2603.319902
909.689954	2589.958323
909.996289	2580.405337
910.302584	2576.591704
910.608839	2574.754203
910.915054	2572.636919
911.221229	2569.861764
911.527363	2574.708833
911.833458	2572.914182
912.139513	2574.764286
912.445527	2579.407188
912.751502	2588.052767
913.057436	2598.004005
913.363331	2612.613269
913.669186	2636.946918
913.975000	2667.743327
914.280775	2715.039433
914.586510	2786.724640
914.892205	2881.014382
915.197859	3008.157323
915.503475	3157.519150
915.809050	3282.353243
916.114585	3351.109540
916.420081	3358.840149
916.725536	3342.063189
917.030952	3280.954322
917.336328	3230.366343
917.641665	3176.466327
917.946961	3120.368367
918.252218	3070.103022
918.557435	3013.344670
918.862612	2966.787094
919.167750	2922.765218
919.472848	2874.768392
919.777906	2828.898933
920.082925	2788.993160
920.387904	2752.555700
920.692843	2724.557131
920.997743	2696.765250
921.302603	2673.586025
921.607423	2657.857625
921.912204	2643.001344
922.216946	2630.708491
922.521647	2615.549741
922.826310	2604.544902
923.130932	2595.632142
923.435516	2585.131419
923.740059	2576.626992
924.044564	2569.087947
924.349028	2563.643500
924.653454	2552.250493
924.957840	2548.908208
925.262186	2541.558205
925.566493	2539.488812
925.870761	2529.620753
926.174989	2529.792152
926.479178	2523.735206
926.783328	2522.941224
927.087438	2516.922087
927.391509	2514.920748
927.695541	2511.926303
927.999533	2508.503360
928.303486	2505.755931
928.607400	2505.140910
928.911275	2505.813904
929.215110	2501.428100
929.518906	2500.777791
929.822663	2500.916423
930.126381	2500.921464
930.430060	2500.089674
930.733699	2502.133862
931.037299	2502.496825
931.340861	2500.671927
931.644383	2501.339880
931.947866	2501.546567
932.251309	2500.505569
932.554714	2499.303254
932.858080	2500.492966
933.161407	2499.439365
933.464694	2498.058089
933.767943	2495.587923
934.071153	2493.483242
934.374323	2495.023314
934.677455	2495.729076
934.980548	2492.865700
935.283602	2494.806545
935.586617	2489.732623
935.889593	2493.392501
936.192530	2491.920484
936.495428	2495.025835
936.798287	2500.349293
937.101108	2499.804849
937.403890	2505.521517
937.706632	2514.187261
938.009336	2514.857734
938.312002	2528.594878
938.614628	2533.767102
938.917216	2535.423121
939.219765	2540.670962
939.522275	2540.892773
939.824747	2542.558874
940.127179	2541.059131
940.429573	2536.552340
940.731929	2538.036959
941.034246	2535.765920
941.336524	2536.537216
941.638763	2535.662576
941.940964	2535.841537
942.243126	2528.297450
942.545250	2526.013808
942.847335	2521.945596
943.149381	2519.099865
943.451389	2517.648013
943.753359	2515.485358
944.055290	2512.763135
944.357182	2507.606034
944.659036	2508.725170
944.960851	2509.733401
945.262628	2505.090498
945.564367	2506.166785
945.866067	2505.612258
946.167729	2506.539830
946.469352	2504.951867
946.770937	2500.492966
947.072484	2504.238543
947.373992	2503.502535
947.675462	2501.188645
947.976893	2496.999447
948.278286	2500.921464
948.579641	2497.044817
948.880958	2497.410301
949.182236	2497.891731
949.483476	2499.199910
949.784678	2496.644045
950.085841	2494.405773
950.386967	2496.759992
950.688054	2497.574138
950.989103	2500.397184
951.290114	2502.685868
951.591087	2502.580004
951.892021	2505.418173
952.192917	2509.221724
952.493776	2509.993021
952.794596	2511.681807
953.095378	2511.195336
953.396122	2512.226252
953.696828	2511.359173
953.997496	2512.866478
954.298126	2507.696775
954.598718	2507.953874
954.899272	2503.900786
955.199788	2501.037411
955.500266	2497.133037
955.800706	2495.209837
956.101108	2486.208857
956.401472	2486.402941
956.701798	2480.068731
957.002087	2481.628968
957.302337	2478.954636
957.602550	2477.885912
957.902724	2473.661425
958.202861	2469.550364
958.502960	2468.768985
958.803022	2467.753192
959.103045	2466.240846
959.403031	2464.698253
959.702979	2465.267904
960.002889	2460.929991
960.302762	2460.859415
960.602596	2458.401852
960.902393	2457.217181
961.202153	2455.402366
961.501875	2454.651234
961.801559	2456.942438
962.101205	2454.636110
962.400814	2455.399845
962.700385	2455.059567
962.999918	2453.547221
963.299414	2452.165945
963.598873	2452.155862
963.898293	2452.090328
964.197677	2452.975050
964.497022	2454.822633
964.796331	2450.154524
965.095601	2449.262240
965.394835	2449.002621
965.694030	2452.952365
965.993189	2448.259051
966.292309	2451.891202
966.591393	2450.154524
966.890439	2449.060594
967.189447	2449.859617
967.488419	2447.840635
967.787353	2450.245265
968.086249	2448.024637
968.385108	2449.479010
968.683930	2449.254678
968.982714	2450.532611
969.281462	2450.209977
969.580172	2451.382045
969.878844	2450.099072
970.177480	2451.296346
970.476078	2450.656119
970.774639	2454.868003
971.073162	2450.731737
971.371649	2452.571758
971.670098	2448.551438
971.968510	2454.202571
972.266885	2448.750563
972.565223	2455.475462
972.863524	2450.938424
973.161788	2456.004783
973.460014	2455.223405
973.758204	2453.252313
974.056356	2455.167952
974.354471	2455.127623
974.652550	2455.646862
974.950591	2456.287088
975.248595	2455.674588
975.546563	2454.978909
975.844493	2452.360029
976.142386	2454.633590
976.440243	2454.820112
976.738062	2453.582509
977.035845	2453.111161
977.333590	2450.797272
977.631299	2450.056222
977.928971	2450.620831
978.226606	2446.976077
978.524204	2452.206274
978.821765	2449.179061
979.119290	2450.371294
979.416777	2447.573454
979.714228	2450.817436
980.011642	2449.456325
980.309020	2451.770214
980.606360	2454.285750
980.903664	2454.300873
981.200931	2459.866307
981.498162	2461.434106
981.795356	2470.929119
982.092513	2477.785089
982.389633	2493.284116
982.686717	2499.336021
982.983764	2511.333967
983.280775	2514.303207
983.577749	2516.841428
983.874686	2512.541324
984.171587	2508.974708
984.468451	2503.689058
984.765279	2497.831237
985.062070	2495.146823
985.358824	2489.190699
985.655543	2480.623258
985.952224	2474.072279
986.248869	2468.244705
986.545478	2460.156174
986.842050	2459.722634
987.138586	2448.614452
987.435086	2449.506736
987.731549	2444.959615
988.027975	2446.411468
988.324366	2445.219235
988.620719	2441.110694
988.917037	2442.161775
989.213318	2441.254367
989.509563	2441.289655
989.805772	2436.815631
990.101944	2438.176743
990.398080	2440.127669
990.694180	2439.247988
990.990244	2440.094902
991.286271	2436.061979
991.582262	2439.071548
991.878217	2436.203131
992.174136	2442.310489
992.470019	2438.035591
992.765865	2439.585745
993.061676	2440.619182
993.357450	2437.511311
993.653188	2441.466096
993.948890	2443.646395
994.244556	2442.572629
994.540186	2449.501695
994.835780	2448.732919
995.131337	2452.927159
995.426859	2453.741305
995.722345	2464.234467
996.017795	2464.557101
996.313208	2471.786116
996.608586	2470.823255
996.903928	2474.639409
997.199234	2472.582618
997.494504	2470.813173
997.789738	2468.106073
998.084936	2467.095322
998.380099	2462.286061
998.675225	2461.078705
998.970316	2458.790021
999.265371	2455.052005
999.560390	2452.029834
999.855373	2449.123608
1000.150320	2444.389965
1000.445232	2443.656477
1000.740108	2440.271342
1001.034948	2438.476692
1001.329752	2436.233378
1001.624521	2436.762699
1001.919254	2431.398912
1002.213951	2434.534509
1002.508613	2431.343459
1002.803239	2433.584252
1003.097829	2428.777512
1003.392384	2436.097267
1003.686903	2433.228850
1003.981386	2432.795311
1004.275834	2428.278437
1004.570246	2432.621391
1004.864623	2430.362954
1005.158964	2432.956628
1005.453270	2429.974786
1005.747540	2430.536874
1006.041775	2426.614857
1006.335974	2428.709456
1006.630138	2433.405291
1006.924266	2429.145516
1007.218359	2428.233067
1007.512416	2428.303643
1007.806438	2429.374888
1008.100425	2428.510330
1008.394376	2430.425969
1008.688292	2429.770619
1008.982172	2429.921853
1009.276017	2429.626946
1009.569827	2427.638211
1009.863602	2429.533685
1010.157341	2427.338262
1010.451045	2430.032759
1010.744714	2424.910947
1011.038347	2430.141144
1011.331945	2428.543098
1011.625508	2425.707449
1011.919036	2426.231729
1012.212528	2424.132088
1012.505986	2426.408169
1012.799408	2428.490166
1013.092795	2426.055288
1013.386147	2426.917326
1013.679464	2426.556883
1013.972745	2427.401277
1014.265992	2428.986719
1014.559204	2427.547470
1014.852380	2426.569486
1015.145521	2427.086204
1015.438628	2425.893972
1015.731699	2424.671492
1016.024736	2426.256935
1016.317737	2428.722059
1016.610703	2425.828437
1016.903635	2425.112593
1017.196531	2423.993457
1017.489393	2423.207037
1017.782219	2422.715524
1018.075011	2423.983374
1018.367768	2426.113262
1018.660490	2425.304157
1018.953177	2425.304157
1019.245829	2425.304157
