Dividing Wavelength (nm)	Counts (n)	Blue Motor Position (mm): 0.000000	Red Motor Position (mm): 31.800000	
326.493990	1987.933649
326.888308	1987.933649
327.282561	1987.933649
327.676750	1965.409773
328.070874	1966.160905
328.464933	1969.820783
328.858929	1980.109778
329.252859	1994.504793
329.646726	2009.345950
330.040528	2022.629390
330.434265	2045.347350
330.827938	2063.019115
331.221547	2082.367063
331.615091	2105.107708
332.008571	2124.707714
332.401986	2144.206898
332.795338	2162.995278
333.188625	2183.706858
333.581847	2202.616227
333.975006	2222.722869
334.368100	2235.529920
334.761129	2255.361819
335.154095	2269.159457
335.546996	2294.438323
335.939833	2325.277582
336.332606	2337.441886
336.725315	2349.893536
337.117960	2360.830319
337.510540	2366.292410
337.903056	2376.659543
338.295508	2382.416540
338.687896	2390.260576
339.080220	2397.812224
339.472480	2405.321023
339.864676	2407.493760
340.256807	2408.005437
340.648875	2411.980387
341.040879	2411.299831
341.432818	2412.928124
341.824694	2415.562127
342.216506	2413.888464
342.608253	2415.317631
342.999937	2414.193453
343.391557	2413.845614
343.783113	2408.993503
344.174605	2413.399472
344.566033	2408.063410
344.957397	2408.915365
345.348697	2404.249778
345.739934	2404.360683
346.131106	2403.425549
346.522215	2399.012019
346.913260	2399.432955
347.304241	2395.931874
347.695159	2399.412790
348.086012	2395.286606
348.476802	2392.841646
348.867528	2392.798797
349.258191	2389.017931
349.648789	2390.661347
350.039324	2387.573641
350.429796	2392.080432
350.820203	2388.007180
351.210548	2386.809906
351.600828	2384.856459
351.991045	2389.085987
352.381198	2388.158414
352.771288	2388.375184
353.161314	2386.804865
353.551276	2384.014586
353.941175	2387.626573
354.331010	2386.681356
354.720782	2385.428630
355.110490	2387.097252
355.500135	2387.059443
355.889717	2389.549773
356.279235	2390.295864
356.668689	2389.282592
357.058080	2391.553632
357.447408	2390.273178
357.836672	2385.708414
358.225873	2388.188661
358.615010	2388.057591
359.004084	2394.117058
359.393095	2394.908519
359.782043	2396.496483
360.170927	2394.154867
360.559748	2398.127296
360.948505	2398.805331
361.337199	2398.132337
361.725830	2400.524365
362.114398	2402.941598
362.502903	2399.904303
362.891344	2402.616444
363.279722	2402.591238
363.668037	2404.993348
364.056289	2402.881104
364.444478	2407.173647
364.832603	2404.622823
365.220665	2408.743966
365.608665	2407.239182
365.996601	2408.771692
366.384474	2411.945099
366.772284	2410.591549
367.160031	2411.655233
367.547715	2410.215983
367.935336	2411.461148
368.322893	2414.309400
368.710388	2414.579102
369.097820	2419.332910
369.485189	2415.882240
369.872495	2420.333579
370.259738	2420.235276
370.646918	2421.641758
371.034035	2424.616039
371.421090	2429.826072
371.808081	2435.605754
372.195010	2436.780343
372.581875	2442.527259
372.968678	2448.826180
373.355418	2455.800617
373.742096	2466.439972
374.128710	2478.180819
374.515262	2492.316215
374.901751	2502.741321
375.288177	2522.764784
375.674540	2541.114584
376.060841	2565.211299
376.447079	2586.139649
376.833254	2613.266098
377.219367	2640.110242
377.605417	2674.894204
377.991404	2703.263297
378.377329	2742.944740
378.763191	2777.332971
379.148991	2826.063284
379.534727	2875.864843
379.920402	2924.638007
380.306013	2972.859164
380.691563	3038.958773
381.077049	3093.567072
381.462474	3151.016061
381.847835	3225.950293
382.233134	3300.415697
382.618371	3360.927187
383.003545	3446.876339
383.388657	3531.645862
383.773706	3626.278402
384.158693	3696.053012
384.543618	3792.848207
384.928480	3873.529354
385.313280	3980.855519
385.698017	4084.330243
386.082692	4209.721383
386.467305	4269.612812
386.851856	4400.433275
387.236344	4555.768869
387.620770	4623.411071
388.005133	4745.550667
388.389435	4895.925766
388.773674	4983.344414
389.157851	5113.365854
389.541965	5251.919447
389.926018	5276.507675
390.310008	5458.964677
390.693936	5582.926650
391.077802	5700.539290
391.461606	5836.277398
391.845348	5951.432476
392.229027	6072.735240
392.612645	6301.782586
392.996200	6417.146871
393.379694	6596.422904
393.763125	6824.651063
394.146494	6915.810248
394.529801	7057.491876
394.913047	7309.007645
395.296230	7304.841131
395.679351	7363.777261
396.062410	7639.505691
396.445408	7521.396497
396.828343	7683.812392
397.211217	7818.486817
397.594028	7705.633026
397.976778	7913.676404
398.359466	8080.102537
398.742092	8050.599184
399.124656	8208.142803
399.507158	8387.416317
399.889598	8413.718537
400.271977	8623.894323
400.654294	8664.601640
401.036549	8859.696815
401.418742	8893.021362
401.800874	9197.254997
402.182944	9271.271738
402.564952	9646.441969
402.946898	9467.251635
403.328783	9520.972691
403.710606	9725.953568
404.092367	9985.996448
404.474067	10358.482265
404.855705	10135.963213
405.237282	10095.482748
405.618797	10523.464107
406.000250	10778.412901
406.381642	11145.620629
406.762972	11100.691345
407.144240	10893.424305
407.525447	11151.140692
407.906593	11089.096692
408.287677	11358.823628
408.668700	11512.939263
409.049661	11482.016825
409.430560	11642.688481
409.811399	11610.150353
410.192176	11779.205447
410.572891	11852.962569
410.953545	12356.967048
411.334138	11817.984523
411.714669	12432.516301
412.095139	11726.376676
412.475547	12233.166392
412.855894	12081.727610
413.236180	12413.979978
413.616405	12097.118253
413.996568	12369.000283
414.376670	12345.195954
414.756711	12219.293137
415.136691	12504.859379
415.516609	12694.464737
415.896466	12756.387750
416.276262	13059.224985
416.655997	13501.757634
417.035670	13531.107232
417.415283	14186.555534
417.794834	14292.132419
418.174324	14035.547771
418.553753	13925.766564
418.933121	14421.634621
419.312428	14229.584303
419.691674	14141.835459
420.070859	14607.239823
420.449983	14253.108848
420.829045	14810.962932
421.208047	14554.138829
421.586988	15021.680642
421.965867	15270.963179
422.344686	15270.091060
422.723444	15843.739079
423.102141	14501.985572
423.480777	15718.670573
423.859352	15214.673656
424.237866	16339.377764
424.616319	16037.266455
424.994712	16703.109617
425.373044	16495.391393
425.751314	17176.705856
426.129524	16288.953623
426.507673	17398.123415
426.885762	17082.121207
427.263789	17289.836910
427.641756	17462.514073
428.019662	17520.343670
428.397508	17573.739571
428.775292	17874.935911
429.153016	17826.830700
429.530679	17909.971930
429.908282	17936.579140
430.285824	17654.614802
430.663305	18366.166106
431.040726	17962.238613
431.418086	17783.930481
431.795385	18448.725083
432.172624	18858.724645
432.549802	18421.205424
432.926920	18615.312532
433.303977	18487.665475
433.680974	18742.969671
434.057910	19038.625782
434.434786	19067.524197
434.811601	18979.528336
435.188355	20025.577841
435.565050	19670.015178
435.941683	19613.980232
436.318257	20512.666728
436.694770	20316.631379
437.071222	20918.777041
437.447614	19976.308124
437.823946	20014.905718
438.200218	20154.230608
438.576429	19934.501835
438.952580	20201.199038
439.328670	20176.497384
439.704700	20594.550190
440.080670	20146.225255
440.456580	20752.229921
440.832429	20928.987898
441.208218	19914.894267
441.583947	20361.593430
441.959616	20475.057200
442.335224	20705.861388
442.710773	20839.464568
443.086261	21386.754914
443.461689	20737.476984
443.837057	20859.828309
444.212365	21520.118639
444.587612	21514.981704
444.962800	21084.210066
445.337927	21518.689472
445.712995	20229.489993
446.088002	22105.205037
446.462949	22299.957413
446.837837	22479.926605
447.212664	22434.795676
447.587431	25283.307218
447.962139	28230.824502
448.336786	30653.900468
448.711374	29098.465052
449.085901	25376.001434
449.460369	25317.448433
449.834776	25226.677416
450.209124	27720.029588
450.583412	27261.173683
450.957640	27794.406772
451.331808	26437.282786
451.705917	25067.069444
452.079965	25082.838174
452.453954	25450.920542
452.827883	25332.778581
453.201752	25132.959846
453.575562	25302.224148
453.949311	26430.172239
454.323001	26492.725396
454.696632	26239.684679
455.070202	27815.730853
455.443713	27952.502398
455.817164	28542.110710
456.190556	29078.393698
456.563888	28509.345731
456.937160	28975.435692
457.310373	27288.509339
457.683526	27734.666578
458.056619	27721.093272
458.429653	27648.054514
458.802628	28215.880001
459.175542	28341.838271
459.548398	29645.589040
459.921194	31219.495244
460.293930	31882.623745
460.666607	33908.993671
461.039224	35679.164597
461.411782	36081.375577
461.784280	34900.334054
462.156719	34423.997948
462.529099	33868.624111
462.901419	32570.564804
463.273680	31491.031955
463.645882	31570.765365
464.018024	31550.449515
464.390106	32378.060783
464.762130	35075.549439
465.134094	39135.014191
465.505999	44428.084577
465.877845	49031.825065
466.249631	50224.060471
466.621358	48532.917193
466.993026	46455.215717
467.364634	44370.398653
467.736184	42390.167887
468.107674	41122.894907
468.479105	40336.394249
468.850477	39632.694542
469.221790	38181.212759
469.593043	36439.486544
469.964238	35539.391045
470.335373	35467.400848
470.706449	37178.451642
471.077467	39748.021019
471.448425	44315.102237
471.819324	47138.332393
472.190164	45314.087530
472.560945	41752.315733
472.931667	38638.304261
473.302330	37527.349900
473.672934	36690.588937
474.043479	37192.965124
474.413965	36407.213077
474.784393	36026.064037
475.154761	36906.897287
475.525070	36923.200379
475.895321	36483.231156
476.265513	37055.515544
476.635645	38048.559837
477.005719	37852.070784
477.375734	38322.082762
477.745691	39017.099082
478.115588	40351.318585
478.485427	42306.741833
478.855207	45666.343196
479.224928	48266.943395
479.594591	49906.876112
479.964194	48921.577551
480.333739	49087.587789
480.703226	49107.996900
481.072653	49719.410724
481.442022	50199.215144
481.811333	50457.690225
482.180584	49151.229835
482.549777	48604.499057
482.918912	48079.949355
483.287988	47775.723282
483.657005	46939.826878
484.025964	46290.072558
484.394864	46290.269163
484.763706	45839.905082
485.132489	44968.231608
485.501213	44792.146625
485.869879	44927.108396
486.238487	44488.570861
486.607036	44651.022044
486.975527	44094.314822
487.343959	44285.366991
487.712333	44351.350653
488.080648	44237.904527
488.448905	44664.824723
488.817104	44450.230366
489.185244	45369.361261
489.553326	47001.331475
489.921350	49653.772380
490.289315	52489.403774
490.657222	53059.734715
491.025070	53313.503879
491.392861	52377.258266
491.760593	51107.104266
492.128267	49387.619622
492.495883	47819.737596
492.863440	46411.864315
493.230939	45025.428540
493.598380	43875.548909
493.965763	43500.817259
494.333088	42625.521717
494.700354	42089.543719
495.067563	41751.234405
495.434713	41552.738972
495.801805	41556.968500
496.168839	41103.342792
496.535815	40722.133259
496.902733	40664.117140
497.269593	40194.783196
497.636395	40031.316221
498.003139	40354.297907
498.369825	39725.570240
498.736453	39947.857398
499.103023	39391.929035
499.469535	39160.282974
499.835989	39170.430817
500.202385	38725.705266
500.568723	38644.648553
500.935003	38723.154442
501.301226	38408.415043
501.667390	38881.597907
502.033497	39026.039568
502.399546	38361.643217
502.765537	37603.131045
503.131470	37829.428441
503.497345	38044.862151
503.863163	36677.083686
504.228923	37108.782896
504.594625	37322.369023
504.960269	36556.111118
505.325856	37050.431540
505.691385	36323.809707
506.056856	36317.898954
506.422270	36552.058030
506.787625	36031.377414
507.152924	36043.244290
507.518164	35978.772973
507.883347	35131.841483
508.248472	35197.058890
508.613540	35441.504440
508.978550	35548.639042
509.343503	35147.433772
509.708398	35152.495090
510.073236	35437.151404
510.438016	35251.150471
510.802738	34596.395327
511.167403	34953.417404
511.532010	34961.480730
511.896561	35027.713930
512.261053	35559.374179
512.625488	34974.960775
512.989866	34665.358312
513.354186	34333.544525
513.718449	34129.017351
514.082655	34479.654807
514.446803	34008.374978
514.810894	34225.502515
515.174927	33939.404432
515.538904	33641.570542
515.902822	33981.341791
516.266684	33298.330979
516.630488	33433.559931
516.994235	33079.441559
517.357925	33312.731035
517.721558	33219.676377
518.085133	33201.596278
518.448651	33079.945674
518.812112	32669.474763
519.175516	32504.876049
519.538863	32530.323794
519.902152	32253.783738
520.265385	32345.913345
520.628560	32139.493218
520.991678	31745.287591
521.354739	31680.347447
521.717743	31657.238798
522.080690	31321.734886
522.443580	31443.748453
522.806413	31234.064179
523.169189	30933.704671
523.531908	30813.478193
523.894569	30460.287393
524.257174	30312.871452
524.619722	30246.728993
524.982213	29977.148249
525.344647	29665.705765
525.707025	29425.646019
526.069345	29409.751261
526.431608	29091.530945
526.793815	29040.519509
527.155964	28459.836559
527.518057	28298.290263
527.880093	27895.318069
528.242072	27948.030894
528.603995	27490.178178
528.965860	27234.087563
529.327669	27030.205657
529.689421	26701.779526
530.051117	26409.899238
530.412755	26226.181948
530.774337	26001.076785
531.135862	25618.218794
531.497331	25463.588962
531.858743	25146.712113
532.220098	25076.403141
532.581396	24646.516226
532.942638	24209.082704
533.303824	24099.399799
533.664953	23813.432785
534.026025	23410.085025
534.387040	23396.088261
534.747999	23111.000929
535.108902	22928.100306
535.469748	22443.937808
535.830537	22223.485630
536.191270	22068.989388
536.551947	21647.425418
536.912567	21549.690048
537.273131	21360.087211
537.633638	20880.315558
537.994089	20775.956112
538.354483	20360.630570
538.714821	20358.611588
539.075103	20257.339848
539.435328	19909.999307
539.795497	19625.726121
540.155609	19377.582884
540.515665	19326.707560
540.875665	18858.835551
541.235609	18767.139483
541.595496	18512.893930
541.955328	18527.515797
542.315102	18060.236123
542.674821	17737.060353
543.034483	17515.292433
543.394090	17268.984177
543.753640	17029.446190
544.113134	17161.940316
544.472571	16606.422807
544.831953	16799.902291
545.191278	16325.433932
545.550548	16016.136459
545.909761	15948.655573
546.268918	15796.281657
546.628019	15683.478278
546.987064	15343.722153
547.346053	14932.525316
547.704986	14983.471217
548.063863	14653.968798
548.422684	14512.423281
548.781449	14272.726498
549.140158	14183.961861
549.498811	13951.988125
549.857408	13615.985139
550.215949	13647.827587
550.574434	13440.139611
550.932864	13191.005788
551.291237	13198.217158
551.649555	12914.712748
552.007817	12789.399746
552.366022	12521.049044
552.724173	12390.319322
553.082267	12307.646920
553.440305	12197.558202
553.798288	11884.527754
554.156215	11786.467229
554.514086	11669.905670
554.871902	11454.413987
555.229661	11304.172479
555.587365	11105.185534
555.945014	10974.049999
556.302606	10802.620521
556.660143	10695.939624
557.017625	10563.758049
557.375050	10383.113342
557.732421	10298.185023
558.089735	10150.668259
558.446994	9990.800668
558.804197	9933.639024
559.161345	9783.468092
559.518437	9522.394296
559.875474	9432.530688
560.232455	9330.782559
560.589381	9224.668791
560.946251	9060.395232
561.303065	9026.266620
561.659825	8869.605202
562.016528	8698.400056
562.373177	8540.168319
562.729770	8481.748908
563.086307	8298.301319
563.442789	8240.118842
563.799216	8137.115466
564.155587	7995.484249
564.511904	7890.202272
564.868164	7786.916591
565.224370	7712.332720
565.580520	7572.420536
565.936615	7495.316088
566.292654	7361.803649
566.648638	7287.703728
567.004567	7180.848911
567.360441	7095.255160
567.716260	6986.905640
568.072023	6918.192193
568.427732	6825.838254
568.783385	6701.354522
569.138982	6638.816488
569.494525	6560.189611
569.850013	6452.545853
570.205445	6370.904367
570.560823	6288.824300
570.916145	6199.759714
571.271412	6122.209124
571.626625	6032.723602
571.981782	5966.497964
572.336884	5867.469538
572.691931	5821.549667
573.046923	5722.858998
573.401860	5647.072812
573.756743	5576.393315
574.111570	5519.763513
574.466342	5451.082833
574.821059	5390.233585
575.175722	5297.675480
575.530330	5237.579885
575.884882	5166.524822
576.239380	5102.340851
576.593823	5043.437489
576.948211	4985.832224
577.302544	4904.583947
577.656823	4855.162996
578.011047	4814.851409
578.365216	4756.525259
578.719330	4697.546279
579.073389	4644.697343
579.427394	4603.959779
579.781344	4555.249630
580.135239	4497.006659
580.489080	4456.082572
580.842866	4394.192326
581.196597	4372.341445
581.550273	4335.261238
581.903895	4288.315493
582.257463	4267.543418
582.610975	4203.777863
582.964434	4180.901107
583.317837	4132.420330
583.671186	4092.572530
584.024481	4068.402718
584.377721	4017.277856
584.730906	3991.361284
585.084037	3961.426912
585.437113	3917.533586
585.790135	3890.782703
586.143103	3849.162937
586.496016	3821.829801
586.848874	3793.362405
587.201679	3771.574538
587.554428	3727.918146
587.907124	3710.939540
588.259765	3676.463088
588.612352	3664.941531
588.964884	3625.444091
589.317362	3609.370372
589.669786	3588.507557
590.022155	3560.206519
590.374470	3550.439283
590.726731	3517.512987
591.078937	3484.198522
591.431090	3465.291674
591.783188	3439.967438
592.135232	3414.623037
592.487222	3403.877818
592.839157	3389.795354
593.191038	3367.773074
593.542866	3343.230216
593.894639	3318.195846
594.246358	3309.756955
594.598022	3292.997639
594.949633	3272.545678
595.301190	3257.432298
595.652692	3241.744228
596.004141	3234.565625
596.355535	3203.459185
596.706876	3191.768749
597.058162	3175.427849
597.409395	3173.527334
597.760573	3163.626508
598.111698	3146.531955
598.462768	3136.147178
598.813785	3124.504633
599.164748	3110.011316
599.515657	3106.593414
599.866511	3089.156062
600.217312	3090.653285
600.568060	3066.727969
600.918753	3067.554718
601.269392	3062.145560
601.619978	3047.543858
601.970510	3043.654608
602.320988	3038.351314
602.671412	3035.190511
603.021783	3023.535363
603.372100	3014.589835
603.722363	3005.712363
604.072572	3002.488546
604.422728	2997.991836
604.772830	2983.440546
605.122878	2978.376707
605.472872	2974.495018
605.822813	2968.387660
606.172701	2966.023359
606.522534	2962.396249
606.872314	2961.675364
607.222041	2950.846966
607.571714	2949.755556
607.921333	2938.211313
608.270899	2937.329112
608.620411	2934.919440
608.969870	2927.226639
609.319276	2922.132553
609.668627	2916.322623
610.017926	2916.065525
610.367171	2914.570823
610.716362	2913.676018
611.065500	2905.355593
611.414585	2902.865263
611.763616	2900.322001
612.112594	2894.063409
612.461518	2892.493089
612.810389	2890.088459
613.159207	2885.637120
613.507971	2876.195039
613.856682	2882.372973
614.205340	2876.074051
614.553945	2875.799308
614.902496	2867.209182
615.250994	2867.990561
615.599439	2863.393029
615.947830	2862.122658
616.296169	2854.881040
616.644454	2853.671163
616.992686	2851.687469
617.340864	2853.358612
617.688990	2849.214783
618.037063	2850.893488
618.385082	2844.642457
618.733048	2843.631706
619.080961	2838.048628
619.428821	2834.812207
619.776628	2830.996053
620.124382	2828.447750
620.472083	2824.845846
620.819731	2823.008345
621.167326	2815.872592
621.514868	2813.409988
621.862357	2804.126703
622.209793	2804.154430
622.557176	2794.694705
622.904506	2790.160187
623.251783	2779.475461
623.599007	2779.556120
623.946179	2772.259049
624.293297	2774.305758
624.640363	2763.237905
624.987376	2762.310332
625.334336	2759.426792
625.681243	2757.029724
626.028097	2751.219794
626.374899	2746.327354
626.721647	2743.733680
627.068343	2742.765779
627.414987	2736.683627
627.761577	2735.458626
628.108115	2732.254973
628.454600	2729.570559
628.801032	2724.257182
629.147412	2724.287429
629.493739	2722.785166
629.840014	2717.557489
630.186236	2719.437839
630.532405	2715.732591
630.878521	2712.002137
631.224585	2710.507435
631.570597	2708.425439
631.916556	2707.016436
632.262462	2705.551981
632.608316	2705.771271
632.954117	2699.439582
633.299866	2702.444110
633.645562	2695.847760
633.991206	2692.659230
634.336797	2690.531863
634.682336	2689.828622
635.027823	2686.209074
635.373257	2684.890812
635.718639	2677.936540
636.063968	2676.696417
636.409245	2671.514110
636.754470	2672.560150
637.099642	2668.136537
637.444762	2663.554128
637.789829	2663.539005
638.134845	2661.048675
638.479808	2659.798469
638.824719	2658.959117
639.169577	2654.583395
639.514383	2654.545587
639.859137	2651.122643
640.203839	2652.345123
640.548489	2649.877478
640.893086	2644.385141
641.237632	2641.557054
641.582125	2641.902373
641.926566	2639.079327
642.270955	2643.006385
642.615292	2640.841210
642.959576	2642.179636
643.303809	2640.717702
643.647990	2642.411529
643.992118	2640.387506
644.336195	2639.535551
644.680219	2638.686117
645.024192	2638.055972
645.368112	2641.194091
645.711981	2640.369862
646.055797	2643.757517
646.399562	2643.266005
646.743274	2648.982673
647.086935	2649.469145
647.430544	2649.103661
647.774101	2647.946716
648.117606	2649.595173
648.461059	2650.530307
648.804460	2647.855975
649.147810	2644.387662
649.491108	2643.039153
649.834354	2639.172588
650.177548	2633.193779
650.520690	2629.375105
650.863781	2631.804942
651.206820	2630.290075
651.549807	2626.216822
651.892742	2624.472583
652.235626	2624.192799
652.578458	2621.301697
652.921238	2617.851028
653.263967	2621.364712
653.606644	2618.813888
653.949269	2615.643002
654.291843	2613.966819
654.634365	2614.176027
654.976836	2609.633947
655.319255	2609.122270
655.661622	2612.260388
656.003938	2611.267281
656.346203	2609.487753
656.688416	2611.801643
657.030577	2609.306272
657.372687	2605.588421
657.714746	2608.048504
658.056753	2603.491301
658.398708	2601.368975
658.740612	2604.809563
659.082465	2604.802001
659.424266	2602.231013
659.766016	2601.938626
660.107715	2604.093719
660.449362	2605.200252
660.790958	2606.029522
661.132503	2604.479367
661.473996	2603.236723
661.815438	2606.203442
662.156829	2604.370982
662.498168	2604.426435
662.839456	2604.179418
663.180693	2603.433328
663.521879	2604.764192
663.863013	2602.987186
664.204097	2604.355859
664.545129	2606.200921
664.886110	2605.205293
665.227040	2604.096239
665.567918	2606.067331
665.908746	2606.851230
666.249522	2608.819801
666.590248	2608.061107
666.930922	2605.555653
667.271545	2608.376179
667.612118	2606.027001
667.952639	2603.130858
668.293109	2607.483895
668.633528	2606.989862
668.973896	2608.703854
669.314213	2603.677824
669.654480	2602.321753
669.994695	2604.617999
670.334859	2600.758996
670.674973	2600.998450
671.015035	2600.353183
671.355047	2600.638008
671.695008	2602.288986
672.034918	2600.620364
672.374777	2602.551126
672.714585	2598.641711
673.054342	2601.464757
673.394049	2600.738831
673.733705	2601.986517
674.073310	2600.486773
674.412864	2600.504417
674.752368	2596.340424
675.091820	2598.102307
675.431223	2597.817482
675.770574	2593.466967
676.109875	2590.326328
676.449125	2589.456729
676.788324	2588.728282
677.127473	2590.880855
677.466571	2587.001687
677.805619	2588.118302
678.144616	2586.149732
678.483562	2586.414392
678.822458	2584.781058
679.161303	2585.854824
679.500098	2583.908939
679.838842	2584.687797
680.177535	2584.486151
680.516179	2584.289546
680.854771	2588.579568
681.193314	2592.562079
681.531805	2597.630960
681.870247	2598.515682
682.208638	2602.969542
682.546978	2604.532299
682.885268	2604.436517
683.223508	2600.237236
683.561697	2599.019797
683.899836	2599.624736
684.237925	2597.676330
684.575963	2597.746906
684.913951	2592.725917
685.251889	2596.375712
685.589776	2595.364961
685.927614	2594.018973
686.265401	2595.634663
686.603137	2594.891092
686.940824	2599.102977
687.278460	2601.303440
687.616046	2602.346959
687.953582	2606.374841
688.291068	2603.161105
688.628504	2604.733945
688.965889	2603.224120
689.303224	2603.060282
689.640510	2602.200766
689.977745	2598.251022
690.314930	2593.933273
690.652065	2589.872624
690.989150	2587.314238
691.326185	2583.513208
691.663170	2580.884247
692.000105	2574.529872
692.336990	2573.960222
692.673825	2569.899572
693.010610	2567.593244
693.347345	2564.845816
693.684030	2558.370453
694.020665	2556.606050
694.357251	2551.022972
694.693786	2556.497665
695.030272	2553.127653
695.366707	2552.555482
695.703093	2546.364946
696.039429	2547.635316
696.375716	2548.439380
696.711952	2547.728578
697.048139	2546.601880
697.384276	2546.798485
697.720363	2547.630275
698.056400	2546.732950
698.392388	2543.612476
698.728326	2544.945861
699.064214	2544.209852
699.400053	2543.514173
699.735842	2543.267157
700.071581	2539.057793
700.407270	2539.088040
700.742910	2538.165509
701.078501	2536.557381
701.414042	2535.551671
701.749533	2535.518903
702.084974	2532.582431
702.420366	2532.564787
702.755709	2530.931453
703.091002	2531.062523
703.426246	2527.747964
703.761440	2528.010104
704.096584	2526.346524
704.431679	2526.591020
704.766725	2527.873993
705.101721	2526.210413
705.436668	2531.102852
705.771565	2525.784435
706.106413	2525.842408
706.441212	2525.832326
706.775961	2528.216792
707.110661	2526.354085
707.445311	2531.359951
707.779913	2528.647810
708.114465	2527.886596
708.448967	2533.331042
708.783421	2536.630477
709.117825	2535.327339
709.452180	2539.050231
709.786485	2538.742721
710.120742	2546.407795
710.454949	2544.852599
710.789107	2546.122970
711.123216	2546.682538
711.457275	2549.435008
711.791286	2550.231511
712.125247	2554.554300
712.459159	2552.437015
712.793023	2559.257697
713.126837	2553.140256
713.460602	2555.370967
713.794318	2551.607746
714.127985	2551.557334
714.461602	2546.959802
714.795171	2545.528114
715.128691	2537.689120
715.462162	2536.012936
715.795584	2534.883718
716.128957	2533.247863
716.462281	2532.998326
716.795556	2530.228212
717.128782	2525.239990
717.461960	2522.568179
717.795088	2525.144208
718.128167	2523.072294
718.461198	2519.440143
718.794180	2521.610360
719.127113	2516.564165
719.459997	2518.255472
719.792833	2515.024092
720.125619	2513.935203
720.458357	2513.763804
720.791046	2511.346570
721.123686	2511.268433
721.456278	2510.393792
721.788821	2510.991169
722.121315	2509.768689
722.453761	2508.735253
722.786158	2506.675941
723.118506	2510.119049
723.450805	2507.520335
723.783056	2506.456651
724.115259	2510.799605
724.447412	2507.311127
724.779518	2508.553771
725.111574	2510.597959
725.443582	2510.368587
725.775542	2509.473782
726.107453	2514.698938
726.439315	2514.265398
726.771129	2520.234125
727.102895	2520.171110
727.434612	2520.166069
727.766281	2519.694721
728.097901	2518.623476
728.429473	2517.159021
728.760996	2521.028106
729.092471	2516.128105
729.423897	2519.858559
729.755276	2519.856038
730.086606	2522.830319
730.417887	2525.423993
730.749120	2528.531864
731.080305	2530.545805
731.411442	2533.951104
731.742530	2531.150743
732.073570	2534.858512
732.404562	2534.762730
732.735506	2535.264325
733.066401	2532.264838
733.397249	2529.648479
733.728048	2526.646472
734.058798	2524.042716
734.389501	2519.233456
734.720156	2511.399503
735.050762	2514.663650
735.381320	2510.444204
735.711831	2507.517814
736.042293	2509.771210
736.372707	2503.835251
736.703073	2502.567401
737.033391	2503.933554
737.363661	2504.125118
737.693883	2507.036384
738.024056	2511.114677
738.354182	2508.450428
738.684260	2511.228103
739.014290	2513.350429
739.344272	2515.603825
739.674207	2516.503671
740.004093	2518.903260
740.333931	2515.467714
740.663722	2519.576254
740.993464	2519.591378
741.323159	2517.330420
741.652806	2515.223218
741.982405	2516.213804
742.311956	2510.310613
742.641460	2508.868843
742.970915	2509.924965
743.300323	2507.346415
743.629683	2506.159223
743.958996	2504.470437
744.288260	2503.860457
744.617477	2499.159581
744.946647	2496.104642
745.275768	2496.588593
745.604842	2491.988540
745.933869	2493.931904
746.262847	2490.377891
746.591778	2497.780825
746.920662	2493.498365
747.249498	2495.202275
747.578286	2496.984323
747.907027	2496.180259
748.235720	2498.675630
748.564365	2499.058758
748.892963	2496.144971
749.221514	2500.971876
749.550017	2499.134375
749.878473	2498.781494
750.206881	2495.933242
750.535242	2494.902327
750.863555	2497.465753
751.191821	2493.873931
751.520039	2495.091370
751.848210	2493.694970
752.176334	2493.710094
752.504411	2496.018942
752.832440	2491.854949
753.160421	2494.262100
753.488356	2491.010556
753.816243	2493.773108
754.144082	2493.329487
754.471875	2490.818992
754.799620	2491.318066
755.127318	2491.000473
755.454969	2491.943169
755.782572	2489.646924
756.110129	2490.859321
756.437638	2490.549290
756.765100	2487.380925
757.092515	2491.176914
757.419882	2491.607933
757.747203	2491.340751
758.074477	2490.980309
758.401703	2489.893940
758.728882	2494.022645
759.056014	2494.897285
759.383099	2492.233036
759.710138	2495.260248
760.037129	2497.029693
760.364073	2496.911226
760.690970	2494.914929
761.017820	2496.074395
761.344623	2498.884838
761.671379	2501.057575
761.998088	2502.126300
762.324751	2513.756242
762.651366	2534.929088
762.977935	2564.089643
763.304456	2578.177147
763.630931	2587.087386
763.957359	2579.344174
764.283740	2567.076526
764.610074	2551.781665
764.936362	2541.152393
765.262602	2526.490197
765.588796	2513.216838
765.914943	2504.979593
766.241044	2499.832575
766.567097	2493.349651
766.893104	2491.779332
767.219064	2486.539052
767.544978	2483.751294
767.870845	2479.095789
768.196665	2482.659884
768.522438	2477.301138
768.848165	2474.871302
769.173846	2475.088071
769.499479	2475.655201
769.825066	2474.349542
770.150607	2472.532206
770.476101	2471.778554
770.801548	2472.617906
771.126949	2466.555918
771.452303	2466.762606
771.777611	2466.412246
772.102872	2467.564149
772.428087	2466.878552
772.753256	2461.408900
773.078378	2464.617595
773.403453	2464.186576
773.728482	2462.966617
774.053465	2459.939404
774.378401	2461.348407
774.703291	2459.982254
775.028135	2460.108283
775.352932	2458.724486
775.677683	2460.519137
776.002388	2458.359002
776.327046	2460.163735
776.651658	2458.926132
776.976224	2457.403704
777.300743	2458.283385
777.625216	2453.660647
777.949643	2455.795576
778.274024	2455.422530
778.598359	2452.360029
778.922647	2451.256017
779.246889	2452.889350
779.571086	2449.234514
779.895236	2452.407920
780.219339	2455.598971
780.543397	2456.650051
780.867409	2455.132664
781.191374	2452.869186
781.515294	2453.453960
781.839167	2457.582665
782.162995	2457.413786
782.486776	2456.702983
782.810511	2454.767180
783.134201	2455.687191
783.457844	2457.010494
783.781441	2453.282560
784.104993	2457.907819
784.428498	2454.068980
784.751958	2453.809361
785.075372	2452.919597
785.398739	2449.947837
785.722061	2452.259206
786.045337	2456.345061
786.368568	2452.297015
786.691752	2453.181737
787.014891	2458.391770
787.337983	2460.443519
787.661030	2464.075671
787.984031	2472.834676
788.306987	2469.598255
788.629897	2471.965077
788.952760	2470.241002
789.275579	2469.079016
789.598351	2466.886114
789.921078	2465.272945
790.243759	2461.618108
790.566395	2460.940073
790.888984	2459.687346
791.211529	2456.229115
791.534027	2456.682819
791.856480	2455.629218
792.178888	2454.646193
792.501249	2454.162242
792.823566	2453.249793
793.145836	2452.181068
793.468062	2451.094700
793.790241	2447.782662
794.112375	2449.017744
794.434464	2452.743157
794.756507	2457.653241
795.078505	2453.156532
795.400457	2454.522684
795.722364	2457.174331
796.044226	2458.835391
796.366042	2459.039558
796.687812	2458.795062
797.009538	2461.643314
797.331218	2464.418469
797.652852	2460.574589
797.974442	2458.999229
798.295986	2461.519806
798.617484	2458.245576
798.938938	2459.508385
799.260346	2455.803137
799.581709	2454.331120
799.903026	2455.727520
800.224299	2455.293981
800.545526	2452.881789
800.866708	2452.670060
801.187845	2453.643003
801.508936	2452.178548
801.829983	2453.070832
802.150984	2452.173507
802.471940	2449.415995
802.792851	2447.606221
803.113717	2448.586726
803.434538	2447.898608
803.755314	2448.163269
804.076045	2449.683177
804.396731	2450.146963
804.717372	2447.676797
805.037967	2452.448249
805.358518	2447.656633
805.679024	2450.015893
805.999485	2448.866510
806.319901	2450.772066
806.640272	2448.576643
806.960598	2453.217025
807.280879	2451.976902
807.601115	2451.687035
807.921306	2450.920780
808.241453	2451.193002
808.561554	2448.430450
808.881611	2449.821808
809.201623	2449.559668
809.521590	2449.184102
809.841513	2448.049843
810.161390	2450.245265
810.481223	2448.538835
810.801011	2451.419854
811.120755	2450.688887
811.440453	2449.542024
811.760107	2449.715944
812.079716	2445.012547
812.399281	2444.536158
812.718801	2445.352825
813.038276	2443.883329
813.357707	2448.553958
813.677093	2446.025819
813.996434	2450.640996
814.315731	2449.274843
814.634983	2449.335337
814.954191	2445.980449
815.273354	2451.959258
815.592473	2451.124947
815.911547	2450.560337
816.230577	2452.602005
816.549562	2452.584361
816.868502	2451.626541
817.187399	2455.687191
817.506250	2456.801286
817.825058	2458.774898
818.143821	2460.597275
818.462539	2461.227419
818.781213	2464.383181
819.099843	2468.264870
819.418429	2478.392548
819.736970	2483.597539
820.055466	2497.019611
820.373919	2508.367248
820.692327	2529.164529
821.010691	2565.748182
821.329011	2644.327168
821.647286	2763.341248
821.965517	2891.452091
822.283704	2968.465798
822.601847	2994.808348
822.919945	2943.592745
823.237999	2880.563199
823.556010	2817.332006
823.873976	2757.861514
824.191897	2706.479553
824.509775	2667.892041
824.827609	2626.279837
825.145398	2605.666559
825.463144	2594.434868
825.780845	2595.833788
826.098502	2612.930862
826.416116	2640.405150
826.733685	2667.206444
827.051210	2675.839420
827.368692	2659.531288
827.686129	2628.911319
828.003522	2595.914447
828.320872	2563.729200
828.638177	2541.785057
828.955439	2520.294618
829.272656	2505.854233
829.589830	2490.992912
829.906960	2486.584423
830.224046	2479.254585
830.541088	2470.218317
830.858086	2470.513224
831.175041	2462.873356
831.491952	2465.346042
831.808819	2462.994343
832.125642	2468.143882
832.442421	2479.806591
832.759157	2492.580875
833.075849	2518.459638
833.392497	2546.538865
833.709101	2560.553273
834.025662	2559.434137
834.342179	2544.517363
834.658653	2527.047244
834.975083	2510.300531
835.291469	2501.067658
835.607811	2487.542242
835.924110	2477.613689
836.240366	2471.362659
836.556578	2463.705146
836.872746	2461.050978
837.188871	2453.653085
837.504952	2451.639144
837.820990	2444.828545
838.136984	2446.141766
838.452935	2444.105140
838.768842	2444.841148
839.084706	2448.642178
839.400526	2462.066771
839.716303	2476.779378
840.032037	2482.102837
840.347727	2482.841366
840.663373	2473.545478
840.978977	2462.936370
841.294537	2458.842953
841.610054	2453.219546
841.925527	2449.907508
842.240957	2444.742846
842.556344	2441.589604
842.871687	2437.982658
843.186987	2435.147009
843.502244	2437.506269
843.817458	2432.505445
844.132629	2432.165167
844.447756	2429.652152
844.762840	2422.783580
845.077881	2428.343972
845.392879	2425.256266
845.707833	2425.089907
846.022745	2425.425144
846.337613	2425.692325
846.652438	2428.255752
846.967221	2428.709456
847.281960	2427.960845
847.596656	2428.149888
847.911309	2424.845412
848.225919	2425.654517
848.540485	2423.827098
848.855009	2424.399269
849.169490	2424.195103
849.483928	2425.354568
849.798323	2424.968920
850.112675	2423.330545
850.426984	2424.482448
850.741251	2424.938673
851.055474	2424.182500
851.369654	2425.324321
851.683792	2421.384659
851.997887	2423.685946
852.311938	2425.253745
852.625947	2421.283836
852.939914	2427.597882
853.253837	2424.237953
853.567718	2425.525967
853.881555	2425.341965
854.195350	2424.144691
854.509103	2424.890782
854.822812	2422.559248
855.136479	2422.523960
855.450103	2425.674681
855.763685	2424.595874
856.077224	2424.268199
856.390720	2424.497572
856.704173	2426.493869
857.017584	2423.481779
857.330953	2426.236770
857.644278	2424.220308
857.957561	2423.287695
858.270802	2425.228539
858.584000	2426.685433
858.897155	2425.669640
859.210268	2425.566297
859.523339	2424.169897
859.836367	2425.425144
860.149352	2426.859353
860.462295	2426.335072
860.775195	2419.695873
861.088054	2420.265523
861.400869	2422.677715
861.713642	2417.933990
862.026373	2426.955134
862.339062	2423.874989
862.651708	2425.762902
862.964312	2423.161666
863.276873	2425.054619
863.589392	2424.263158
863.901869	2423.585123
864.214303	2426.665268
864.526696	2425.742737
864.839045	2427.171904
865.151353	2427.149219
865.463619	2429.326997
865.775842	2429.490835
866.088023	2428.853129
866.400162	2429.195927
866.712258	2426.672830
867.024313	2427.287851
867.336325	2426.839188
867.648296	2429.465629
867.960224	2428.762388
868.272110	2427.842377
868.583954	2427.242480
868.895755	2429.407656
869.207515	2429.208530
869.519233	2429.674837
869.830909	2429.526123
870.142542	2427.481935
870.454134	2430.897317
870.765684	2431.545105
871.077191	2429.677357
871.388657	2433.453182
871.700081	2431.537543
872.011463	2432.749941
872.322803	2431.973603
872.634101	2436.263625
872.945357	2433.319591
873.256571	2433.712801
873.567744	2435.099118
873.878874	2432.087029
874.189963	2437.355035
874.501010	2436.903852
874.812015	2433.322112
875.122979	2434.882349
875.433900	2435.331012
875.744780	2439.006013
876.055618	2437.428132
876.366415	2438.822011
876.677169	2437.405446
876.987882	2436.971907
877.298554	2432.112235
877.609183	2437.743204
877.919771	2438.711105
878.230317	2440.704882
878.540822	2447.079421
878.851285	2451.248455
879.161707	2457.186934
879.472087	2466.906279
879.782425	2485.223311
880.092722	2511.598628
880.402977	2556.046482
880.713191	2608.824842
881.023363	2659.881648
881.333494	2684.464835
881.643583	2697.677699
881.953631	2694.610157
882.263637	2682.014834
882.573602	2662.492966
882.883526	2642.058648
883.193408	2622.042747
883.503248	2600.562391
883.813048	2580.256623
884.122806	2560.608726
884.432522	2544.265305
884.742197	2526.631349
885.051831	2510.784482
885.361424	2497.856443
885.670975	2488.721872
885.980485	2476.711323
886.289954	2472.449027
886.599382	2463.790846
886.908768	2461.083746
887.218113	2455.200719
887.527417	2453.960596
887.836680	2449.438681
888.145901	2447.001283
888.455082	2444.715119
888.764221	2444.465582
889.073319	2441.627413
889.382376	2440.490632
889.691392	2440.712443
890.000366	2438.595159
890.309300	2441.587083
890.618193	2440.783019
890.927044	2438.015426
891.235855	2440.193204
891.544625	2438.731270
891.853353	2439.134562
892.162041	2441.950047
892.470687	2445.186467
892.779293	2446.633278
893.087858	2451.644185
893.396381	2456.229115
893.704864	2469.782257
894.013306	2481.818012
894.321707	2499.686382
894.630068	2512.390089
894.938387	2514.464524
895.246665	2512.138032
895.554903	2502.794253
895.863100	2494.559528
896.171256	2489.266317
896.479371	2483.849597
896.787446	2473.767289
897.095480	2470.354428
897.403473	2465.663634
897.711425	2459.110134
898.019336	2456.803806
898.327207	2455.430092
898.635038	2449.597477
898.942827	2447.099585
899.250576	2445.178906
899.558284	2442.129008
899.865952	2442.071034
900.173579	2441.634974
900.481165	2437.740683
900.788711	2437.879315
901.096216	2437.420570
901.403681	2434.484098
901.711105	2434.826896
902.018489	2434.252205
902.325832	2437.717998
902.633135	2436.487956
902.940397	2444.052208
903.247619	2456.645010
903.554800	2480.235089
903.861941	2503.167298
904.169041	2528.473891
904.476101	2533.101670
904.783121	2526.671678
905.090100	2515.394617
905.397039	2504.571260
905.703938	2494.241935
906.010796	2485.271202
906.317614	2477.235603
906.624391	2469.971300
906.931129	2465.552729
907.237826	2457.091152
907.544483	2452.599484
907.851099	2447.011365
908.157675	2440.357042
908.464211	2434.279931
908.770707	2429.727769
909.077163	2429.420259
909.383578	2425.014290
909.689954	2423.857345
909.996289	2418.425502
910.302584	2426.997984
910.608839	2422.594536
910.915054	2421.974474
911.221229	2422.899526
911.527363	2425.493200
911.833458	2424.414393
912.139513	2426.158632
912.445527	2425.188210
912.751502	2425.286513
913.057436	2431.875301
913.363331	2432.555856
913.669186	2430.559559
913.975000	2439.711774
914.280775	2445.277208
914.586510	2451.719803
914.892205	2465.908130
915.197859	2484.310862
915.503475	2497.788387
915.809050	2516.022241
916.114585	2526.560773
916.420081	2528.423479
916.725536	2528.920033
917.030952	2521.532222
917.336328	2512.811026
917.641665	2507.212824
917.946961	2501.909530
918.252218	2494.236894
918.557435	2485.520739
918.862612	2480.976139
919.167750	2473.384161
919.472848	2468.159005
919.777906	2461.676082
920.082925	2457.413786
920.387904	2451.986984
920.692843	2448.233845
920.997743	2442.557506
921.302603	2442.416353
921.607423	2437.390323
921.912204	2438.295210
922.216946	2434.970569
922.521647	2432.754982
922.826310	2429.342121
923.130932	2430.763726
923.435516	2427.998653
923.740059	2427.010587
924.044564	2426.110741
924.349028	2424.326173
924.653454	2420.199988
924.957840	2418.823753
925.262186	2416.184709
925.566493	2419.620256
925.870761	2414.110274
926.174989	2421.573703
926.479178	2419.479103
926.783328	2420.883065
927.087438	2415.645306
927.391509	2416.277971
927.695541	2415.766293
927.999533	2415.315110
928.303486	2413.689338
928.607400	2414.634554
928.911275	2413.810326
929.215110	2416.494740
929.518906	2415.559606
929.822663	2418.128074
930.126381	2413.757394
930.430060	2412.895356
930.733699	2415.166396
931.037299	2416.020872
931.340861	2416.628331
931.644383	2414.261509
931.947866	2415.972981
932.251309	2415.660429
932.554714	2414.944585
932.858080	2416.149421
933.161407	2412.449214
933.464694	2414.569019
933.767943	2412.716395
934.071153	2412.620613
934.374323	2414.062383
934.677455	2414.311921
934.980548	2413.318813
935.283602	2412.940727
935.586617	2413.727147
935.889593	2412.431570
936.192530	2414.453073
936.495428	2415.496592
936.798287	2416.088927
937.101108	2415.713361
937.403890	2414.972312
937.706632	2416.996335
938.009336	2419.927766
938.312002	2419.161511
938.614628	2417.387024
938.917216	2422.329876
939.219765	2420.870462
939.522275	2425.102510
939.824747	2423.806934
940.127179	2421.399783
940.429573	2418.871644
940.731929	2419.027920
941.034246	2414.745460
941.336524	2423.617891
941.638763	2421.692170
941.940964	2422.851635
942.243126	2421.760225
942.545250	2417.807961
942.847335	2420.404155
943.149381	2418.508681
943.451389	2416.575399
943.753359	2416.149421
944.055290	2417.671850
944.357182	2416.845100
944.659036	2416.588002
944.960851	2419.184196
945.262628	2416.005748
945.564367	2414.332085
945.866067	2418.932138
946.167729	2418.506161
946.469352	2417.187899
946.770937	2413.013823
947.072484	2416.144380
947.373992	2416.915677
947.675462	2416.482137
947.976893	2415.511715
948.278286	2414.034657
948.579641	2415.821746
948.880958	2416.761921
949.182236	2413.807805
949.483476	2417.724782
949.784678	2417.601273
950.085841	2417.311407
950.386967	2417.873496
950.688054	2414.364853
950.989103	2416.625810
951.290114	2413.754873
951.591087	2416.613207
951.892021	2414.493402
952.192917	2418.702766
952.493776	2417.097158
952.794596	2419.411048
953.095378	2418.899371
953.396122	2419.491706
953.696828	2419.337951
953.997496	2419.995822
954.298126	2415.932652
954.598718	2415.063052
954.899272	2416.262847
955.199788	2417.187899
955.500266	2414.385017
955.800706	2412.292938
956.101108	2411.761097
956.401472	2411.070459
956.701798	2407.771023
957.002087	2407.672721
957.302337	2412.998700
957.602550	2412.489543
957.902724	2412.091292
958.202861	2410.236148
958.502960	2408.784295
958.803022	2411.468710
959.103045	2409.485016
959.403031	2408.464182
959.702979	2407.755900
960.002889	2411.002403
960.302762	2407.057700
960.602596	2406.603996
960.902393	2405.200035
961.202153	2407.387896
961.501875	2406.856054
961.801559	2408.985942
962.101205	2409.038874
962.400814	2408.454100
962.700385	2406.170457
962.999918	2407.450910
963.299414	2406.787998
963.598873	2407.145920
963.898293	2406.392268
964.197677	2405.462175
964.497022	2407.284552
964.796331	2406.833369
965.095601	2404.171640
965.394835	2405.187432
965.694030	2403.460837
965.993189	2406.246074
966.292309	2406.694737
966.591393	2407.992834
966.890439	2406.672052
967.189447	2405.061403
967.488419	2406.278842
967.787353	2405.192473
968.086249	2406.364542
968.385108	2404.953018
968.683930	2404.814387
968.982714	2406.818245
969.281462	2406.901424
969.580172	2405.628533
969.878844	2407.622309
970.177480	2405.681465
970.476078	2407.211455
970.774639	2407.261867
971.073162	2405.116856
971.371649	2402.888666
971.670098	2402.008985
971.968510	2404.524520
972.266885	2403.395302
972.565223	2403.493604
972.863524	2406.178019
973.161788	2409.590880
973.460014	2405.963770
973.758204	2409.212793
974.056356	2407.055180
974.354471	2405.585683
974.652550	2405.550395
974.950591	2410.054666
975.248595	2405.673903
975.546563	2406.112484
975.844493	2408.670869
976.142386	2408.363359
976.440243	2406.417474
976.738062	2407.065262
977.035845	2403.874212
977.333590	2407.455951
977.631299	2405.608368
977.928971	2407.481157
978.226606	2404.847154
978.524204	2406.054511
978.821765	2407.340005
979.119290	2406.785478
979.416777	2403.218862
979.714228	2404.141393
980.011642	2407.433266
980.309020	2406.344377
980.606360	2406.208266
980.903664	2407.050138
981.200931	2409.154820
981.498162	2410.326888
981.795356	2412.648340
982.092513	2414.231262
982.389633	2412.376117
982.686717	2419.620256
982.983764	2419.584967
983.280775	2418.455749
983.577749	2421.414906
983.874686	2418.634710
984.171587	2415.625141
984.468451	2419.161511
984.765279	2417.941551
985.062070	2414.362332
985.358824	2414.697569
985.655543	2413.994328
985.952224	2409.669018
986.248869	2413.283525
986.545478	2404.542164
986.842050	2404.529562
987.138586	2402.739952
987.435086	2403.102915
987.731549	2403.281876
988.027975	2403.914541
988.324366	2402.646691
988.620719	2405.396640
988.917037	2403.019736
989.213318	2404.882442
989.509563	2404.201887
989.805772	2402.024108
990.101944	2402.568553
990.398080	2401.462019
990.694180	2403.493604
990.990244	2404.832031
991.286271	2403.770868
991.582262	2403.281876
991.878217	2405.706671
992.174136	2403.344890
992.470019	2403.400343
992.765865	2403.140724
993.061676	2406.072155
993.357450	2404.874881
993.653188	2401.920764
993.948890	2405.646177
994.244556	2407.385375
994.540186	2405.381517
994.835780	2405.227761
995.131337	2407.138359
995.426859	2408.806981
995.722345	2413.686817
996.017795	2407.549213
996.313208	2411.181364
996.608586	2410.009296
996.903928	2411.766138
997.199234	2410.299162
997.494504	2413.008782
997.789738	2410.977197
998.084936	2411.884605
998.380099	2409.845458
998.675225	2407.899573
998.970316	2407.783626
999.265371	2410.987280
999.560390	2408.219686
999.855373	2405.999058
1000.150320	2403.581825
1000.445232	2403.307082
1000.740108	2402.563512
1001.034948	2403.654921
1001.329752	2404.045611
1001.624521	2405.018553
1001.919254	2400.413459
1002.213951	2400.108470
1002.508613	2398.694426
1002.803239	2403.092833
1003.097829	2401.628378
1003.392384	2403.770868
1003.686903	2402.054355
1003.981386	2400.158881
1004.275834	2402.702143
1004.570246	2404.113666
1004.864623	2403.544016
1005.158964	2403.347411
1005.453270	2404.713564
1005.747540	2402.026629
1006.041775	2402.994530
1006.335974	2401.474622
1006.630138	2401.025960
1006.924266	2400.070661
1007.218359	2399.611916
1007.512416	2404.254819
1007.806438	2402.707184
1008.100425	2401.313305
1008.394376	2402.150137
1008.688292	2402.997051
1008.982172	2399.470764
1009.276017	2402.727349
1009.569827	2399.299364
1009.863602	2401.671227
1010.157341	2400.940260
1010.451045	2402.434962
1010.744714	2398.555794
1011.038347	2401.784653
1011.331945	2402.954201
1011.625508	2401.530075
1011.919036	2400.536968
1012.212528	2402.104767
1012.505986	2401.298182
1012.799408	2400.821793
1013.092795	2401.643501
1013.386147	2400.713408
1013.679464	2399.838768
1013.972745	2402.707184
1014.265992	2400.486556
1014.559204	2402.934036
1014.852380	2401.305744
1015.145521	2399.823644
1015.438628	2399.768192
1015.731699	2401.315826
1016.024736	2399.304406
1016.317737	2401.456978
1016.610703	2402.434962
1016.903635	2396.544374
1017.196531	2396.625032
1017.489393	2398.512944
1017.782219	2395.949518
1018.075011	2400.375651
1018.367768	2402.863460
1018.660490	2402.112328
1018.953177	2402.112328
1019.245829	2402.112328
