Dividing Wavelength (nm)	Counts (n)	Blue Motor Position (mm): 0.000000	Red Motor Position (mm): 15.400000	
326.493990	1983.570530
326.888308	1983.570530
327.282561	1983.570530
327.676750	1958.347117
328.070874	1958.032045
328.464933	1963.297530
328.858929	1972.779940
329.252859	1987.033803
329.646726	2001.811945
330.040528	2015.178565
330.434265	2034.153468
330.827938	2054.003011
331.221547	2073.292986
331.615091	2095.310226
332.008571	2115.474841
332.401986	2135.604168
332.795338	2156.691315
333.188625	2178.882474
333.581847	2196.584486
333.975006	2211.546631
334.368100	2229.737634
334.761129	2248.410068
335.154095	2262.275762
335.546996	2279.027516
335.939833	2295.123920
336.332606	2306.466516
336.725315	2320.022179
337.117960	2329.555001
337.510540	2333.988696
337.903056	2344.494460
338.295508	2350.100223
338.687896	2357.573734
339.080220	2362.017511
339.472480	2368.571011
339.864676	2373.380272
340.256807	2378.272712
340.648875	2377.478730
341.040879	2375.242978
341.432818	2381.204143
341.824694	2377.962681
342.216506	2380.097609
342.608253	2383.908722
342.999937	2381.118443
343.391557	2380.596684
343.783113	2377.211549
344.174605	2378.413864
344.566033	2373.110570
344.957397	2374.322968
345.348697	2371.061341
345.739934	2370.053110
346.131106	2365.856350
346.522215	2368.482791
346.913260	2364.132275
347.304241	2365.014477
347.695159	2360.686647
348.086012	2360.459795
348.476802	2357.215812
348.867528	2357.437623
349.258191	2356.769670
349.648789	2356.499968
350.039324	2352.522498
350.429796	2353.583661
350.820203	2352.746829
351.210548	2351.423526
351.600828	2350.705162
351.991045	2353.225739
352.381198	2348.171982
352.771288	2354.266737
353.161314	2351.925121
353.551276	2350.322034
353.941175	2352.714062
354.331010	2351.993177
354.720782	2354.241531
355.110490	2351.569720
355.500135	2354.599453
355.889717	2350.932014
356.279235	2354.186079
356.668689	2355.935359
357.058080	2354.596933
357.447408	2354.080214
357.836672	2352.686335
358.225873	2353.719772
358.615010	2351.179030
359.004084	2358.095493
359.393095	2359.539784
359.782043	2358.917202
360.170927	2358.292098
360.559748	2359.532222
360.948505	2361.694877
361.337199	2359.635566
361.725830	2361.886441
362.114398	2366.012626
362.502903	2362.929960
362.891344	2364.091946
363.279722	2367.262832
363.668037	2368.928933
364.056289	2365.137985
364.444478	2367.388861
364.832603	2366.312574
365.220665	2368.979345
365.608665	2365.168232
365.996601	2369.891793
366.384474	2372.495549
366.772284	2373.365148
367.160031	2372.994624
367.547715	2371.837679
367.935336	2371.270549
368.322893	2372.170395
368.710388	2375.472351
369.097820	2378.313041
369.485189	2375.265663
369.872495	2380.354708
370.259738	2379.742208
370.646918	2382.981149
371.034035	2384.584236
371.421090	2385.184134
371.808081	2386.583054
372.195010	2394.875752
372.581875	2396.602347
372.968678	2402.422359
373.355418	2413.064235
373.742096	2420.212591
374.128710	2432.167687
374.515262	2442.998607
374.901751	2457.701132
375.288177	2473.714357
375.674540	2491.129023
376.060841	2512.493433
376.447079	2537.467309
376.833254	2561.311967
377.219367	2587.175607
377.605417	2622.680453
377.991404	2646.207518
378.377329	2687.189578
378.763191	2719.246276
379.148991	2765.030035
379.534727	2813.236068
379.920402	2859.455888
380.306013	2907.155285
380.691563	2969.358083
381.077049	3021.269364
381.462474	3080.417222
381.847835	3152.460352
382.233134	3222.071125
382.618371	3279.837707
383.003545	3364.647558
383.388657	3442.803087
383.773706	3535.630894
384.158693	3605.763426
384.543618	3698.780277
384.928480	3774.415228
385.313280	3881.491857
385.698017	3981.778051
386.082692	4102.387656
386.467305	4161.243128
386.851856	4286.435142
387.236344	4435.491979
387.620770	4500.129654
388.005133	4617.185246
388.389435	4762.514150
388.773674	4847.427345
389.157851	4978.888034
389.541965	5108.244042
389.926018	5129.613493
390.310008	5308.287109
390.693936	5424.823462
391.077802	5546.562287
391.461606	5672.180279
391.845348	5786.700171
392.229027	5905.540332
392.612645	6121.793229
392.996200	6238.506022
393.379694	6409.161683
393.763125	6627.652852
394.146494	6722.673561
394.529801	6857.557194
394.913047	7089.301557
395.296230	7087.065805
395.679351	7142.427757
396.062410	7393.351190
396.445408	7285.404962
396.828343	7436.737880
397.211217	7565.201604
397.594028	7448.158614
397.976778	7646.565827
398.359466	7812.545817
398.742092	7783.450798
399.124656	7926.513703
399.507158	8112.234852
399.889598	8127.920402
400.271977	8334.431269
400.654294	8355.614198
401.036549	8546.618476
401.418742	8570.538751
401.800874	8866.814924
402.182944	8936.292106
402.564952	9292.626066
402.946898	9108.598745
403.328783	9154.629520
403.710606	9334.540739
404.092367	9572.077388
404.474067	9909.922916
404.855705	9690.746150
405.237282	9625.813568
405.618797	10025.844249
406.000250	10233.844777
406.381642	10547.591069
406.762972	10468.636517
407.144240	10253.858158
407.525447	10450.707654
407.906593	10357.088386
408.287677	10558.008613
408.668700	10652.278190
409.049661	10573.731972
409.430560	10659.368573
409.811399	10573.905892
410.192176	10654.929837
410.572891	10648.280555
410.953545	10999.457414
411.334138	10461.745260
411.714669	10892.658050
412.095139	10216.273835
412.475547	10550.646008
412.855894	10334.136012
413.236180	10503.654893
413.616405	10140.691816
413.996568	10254.987376
414.376670	10132.704107
414.756711	9917.252754
415.136691	10023.429536
415.516609	10029.385659
415.896466	9965.617584
416.276262	10035.619046
416.655997	10218.340708
417.035670	10111.339697
417.415283	10415.890925
417.794834	10326.463376
418.174324	10000.189817
418.553753	9783.306775
418.933121	9939.650600
419.312428	9658.550821
419.691674	9451.445097
420.070859	9561.997601
420.449983	9196.879431
420.829045	9339.917130
421.208047	9033.483032
421.586988	9109.228889
421.965867	9067.788084
422.344686	8898.647290
422.723444	8998.431889
423.102141	8196.291051
423.480777	8578.917148
423.859352	8182.604318
424.237866	8494.530753
424.616319	8187.075822
424.994712	8275.041436
425.373044	8015.986622
425.751314	8080.296621
426.129524	7576.541679
426.507673	7787.733258
426.885762	7499.462437
427.263789	7383.495734
427.641756	7258.041579
428.019662	7102.796726
428.397508	6946.941893
428.775292	6854.897986
429.153016	6679.843918
429.530679	6534.545262
429.908282	6372.593153
430.285824	6149.872456
430.663305	6154.447303
431.040726	5913.099542
431.418086	5722.952260
431.795385	5703.677408
432.172624	5639.974867
432.549802	5412.545732
432.926920	5309.255011
433.303977	5154.415970
433.680974	5058.482813
434.057910	4975.404597
434.434786	4852.541596
434.811601	4719.513107
435.188355	4732.960385
435.565050	4577.342487
435.941683	4454.759269
436.318257	4441.228812
436.694770	4307.136640
437.071222	4264.707769
437.447614	4072.354982
437.823946	3978.468533
438.200218	3897.797469
438.576429	3795.570430
438.952580	3730.111048
439.328670	3650.559119
439.704700	3601.566666
440.080670	3504.237108
440.456580	3467.325780
440.832429	3409.627254
441.208218	3297.270017
441.583947	3257.669233
441.959616	3210.123590
442.335224	3168.289575
442.710773	3122.783079
443.086261	3093.163780
443.461689	3027.969058
443.837057	2988.665702
444.212365	2971.293886
444.587612	2935.242074
444.962800	2890.033006
445.337927	2866.742875
445.712995	2811.988383
446.088002	2824.170331
446.462949	2800.819707
446.837837	2777.569905
447.212664	2754.254568
447.587431	2774.842641
447.962139	2799.599747
448.336786	2811.632982
448.711374	2774.325922
449.085901	2711.724874
449.460369	2690.340299
449.834776	2675.789009
450.209124	2691.381298
450.583412	2675.085768
450.957640	2668.000426
451.331808	2644.735501
451.705917	2620.976543
452.079965	2613.084617
452.453954	2608.454317
452.827883	2602.470467
453.201752	2591.367326
453.575562	2588.156111
453.949311	2592.274734
454.323001	2585.239803
454.696632	2578.691345
455.070202	2582.792323
455.443713	2582.144535
455.817164	2578.958526
456.190556	2576.316961
456.563888	2571.064079
456.937160	2566.605178
457.310373	2554.662685
457.683526	2555.529763
458.056619	2554.072870
458.429653	2550.085317
458.802628	2550.546583
459.175542	2549.029195
459.548398	2553.697304
459.921194	2559.159394
460.293930	2559.713921
460.666607	2569.420663
461.039224	2576.977352
461.411782	2574.734039
461.784280	2567.079047
462.156719	2562.053016
462.529099	2559.567727
462.901419	2547.413506
463.273680	2541.810263
463.645882	2539.874460
464.018024	2539.395550
464.390106	2541.984183
464.762130	2551.096068
465.134094	2568.535940
465.505999	2591.952100
465.877845	2615.232148
466.249631	2614.836418
466.621358	2607.027670
466.993026	2595.380084
467.364634	2589.975967
467.736184	2574.676066
468.107674	2565.672565
468.479105	2564.916392
468.850477	2559.817265
469.221790	2550.140770
469.593043	2544.852599
469.964238	2540.739018
470.335373	2536.937988
470.706449	2544.066179
471.077467	2554.413148
471.448425	2572.251271
471.819324	2584.400451
472.190164	2574.600448
472.560945	2561.160732
472.931667	2547.794113
473.302330	2542.775644
473.672934	2541.457382
474.043479	2541.147351
474.413965	2535.854140
474.784393	2533.046217
475.154761	2537.343801
475.525070	2533.288192
475.895321	2532.562266
476.265513	2533.154602
476.635645	2542.889070
477.005719	2538.878832
477.375734	2541.190201
477.745691	2545.651622
478.115588	2551.320400
478.485427	2556.928683
478.855207	2569.455951
479.224928	2582.479772
479.594591	2589.141657
479.964194	2581.756366
480.333739	2581.970615
480.703226	2585.224680
481.072653	2586.119485
481.442022	2588.819023
481.811333	2590.081832
482.180584	2581.915162
482.549777	2581.892477
482.918912	2579.313927
483.287988	2579.097157
483.657005	2572.662125
484.025964	2573.861919
484.394864	2567.933522
484.763706	2571.167422
485.132489	2568.341856
485.501213	2568.024263
485.869879	2564.238357
486.238487	2566.012843
486.607036	2564.218192
486.975527	2563.522513
487.343959	2563.945970
487.712333	2564.445044
488.080648	2564.787842
488.448905	2565.307081
488.817104	2562.670558
489.185244	2570.597772
489.553326	2575.890984
489.921350	2586.487489
490.289315	2600.383430
490.657222	2601.840323
491.025070	2602.188163
491.392861	2599.178594
491.760593	2593.426637
492.128267	2585.832139
492.495883	2579.631520
492.863440	2576.092630
493.230939	2569.929819
493.598380	2565.120558
493.965763	2556.527912
494.333088	2560.432285
494.700354	2555.572613
495.067563	2557.548745
495.434713	2556.273333
495.801805	2557.256358
496.168839	2559.645865
496.535815	2557.090000
496.902733	2557.256358
497.269593	2558.302398
497.636395	2556.341389
498.003139	2556.618652
498.369825	2556.618652
498.736453	2559.083777
499.103023	2558.226781
499.469535	2558.425906
499.835989	2558.768705
500.202385	2557.470608
500.568723	2559.749209
500.935003	2560.212995
501.301226	2561.422872
501.667390	2563.953531
502.033497	2568.498132
502.399546	2566.733728
502.765537	2563.315825
503.131470	2567.976372
503.497345	2572.531055
503.863163	2569.148440
504.228923	2568.790518
504.594625	2577.375603
504.960269	2572.399985
505.325856	2575.780078
505.691385	2575.916189
506.056856	2578.668659
506.422270	2581.837025
506.787625	2583.021696
507.152924	2586.474886
507.518164	2590.464959
507.883347	2586.900864
508.248472	2590.336410
508.613540	2594.124837
508.978550	2599.176073
509.343503	2600.832092
509.708398	2605.706888
510.073236	2608.567743
510.438016	2610.932044
510.802738	2612.111674
511.167403	2613.916407
511.532010	2617.508229
511.896561	2621.778087
512.261053	2628.339148
512.625488	2624.162552
512.989866	2627.041051
513.354186	2628.959210
513.718449	2627.688839
514.082655	2636.697381
514.446803	2638.234933
514.810894	2644.763227
515.174927	2646.346150
515.538904	2647.233393
515.902822	2652.990391
516.266684	2650.563075
516.630488	2651.808240
516.994235	2651.767911
517.357925	2655.881492
517.721558	2659.997594
518.085133	2663.367606
518.448651	2664.464057
518.812112	2665.663851
519.175516	2665.782318
519.538863	2668.128976
519.902152	2667.861794
520.265385	2672.870181
520.628560	2673.112156
520.991678	2672.814728
521.354739	2676.943433
521.717743	2676.830007
522.080690	2677.021571
522.443580	2680.784792
522.806413	2683.164217
523.169189	2678.163392
523.531908	2682.801254
523.894569	2682.357632
524.257174	2684.169927
524.619722	2687.814681
524.982213	2684.613549
525.344647	2684.989115
525.707025	2689.584126
526.069345	2689.183355
526.431608	2685.778055
526.793815	2688.427182
527.155964	2689.349713
527.518057	2688.039013
527.880093	2685.392407
528.242072	2689.732840
528.603995	2686.630010
528.965860	2684.502643
529.327669	2685.785617
529.689421	2683.927952
530.051117	2681.961902
530.412755	2685.054650
530.774337	2683.348219
531.135862	2679.622806
531.497331	2677.664318
531.858743	2676.656087
532.220098	2678.478464
532.581396	2671.138544
532.942638	2668.713749
533.303824	2671.269614
533.664953	2672.033349
534.026025	2668.754079
534.387040	2670.548729
534.747999	2666.011691
535.108902	2666.664520
535.469748	2658.817964
535.830537	2657.852583
536.191270	2657.973571
536.551947	2655.263951
536.912567	2651.835966
537.273131	2651.142808
537.633638	2647.064514
537.994089	2645.985707
538.354483	2641.524286
538.714821	2639.588483
539.075103	2642.628299
539.435328	2634.733852
539.795497	2632.946763
540.155609	2629.581793
540.515665	2627.083901
540.875665	2622.178858
541.235609	2620.638786
541.595496	2616.260544
541.955328	2614.896912
542.315102	2610.606890
542.674821	2604.771754
543.034483	2603.057762
543.394090	2595.775815
543.753640	2597.441916
544.113134	2598.608943
544.472571	2591.788262
544.831953	2594.608788
545.191278	2585.426326
545.550548	2581.179154
545.909761	2580.402816
546.268918	2578.429205
546.628019	2576.488360
546.987064	2573.468709
547.346053	2566.683316
547.704986	2562.778943
548.063863	2562.408418
548.422684	2560.112172
548.781449	2560.094528
549.140158	2553.485575
549.498811	2552.653785
549.857408	2544.237579
550.215949	2547.007693
550.574434	2539.950077
550.932864	2540.431508
551.291237	2536.063348
551.649555	2539.692978
552.007817	2537.079140
552.366022	2534.959335
552.724173	2530.150074
553.082267	2531.591844
553.440305	2530.021525
553.798288	2527.014477
554.156215	2524.428365
554.514086	2526.084384
554.871902	2523.286543
555.229661	2520.526512
555.587365	2520.760925
555.945014	2518.318486
556.302606	2519.278826
556.660143	2516.622138
557.017625	2515.939062
557.375050	2514.676252
557.732421	2510.809688
558.089735	2513.231962
558.446994	2513.413443
558.804197	2512.480830
559.161345	2511.270953
559.518437	2509.405726
559.875474	2508.609224
560.232455	2508.901611
560.589381	2504.833400
560.946251	2508.314316
561.303065	2506.343225
561.659825	2505.221568
562.016528	2504.097391
562.373177	2505.619820
562.729770	2504.866167
563.086307	2503.991527
563.442789	2501.793584
563.799216	2505.314830
564.155587	2501.730569
564.511904	2501.667555
564.868164	2502.151506
565.224370	2501.738131
565.580520	2498.738645
565.936615	2502.030518
566.292654	2500.641680
566.648638	2500.964314
567.004567	2498.521875
567.360441	2502.464057
567.716260	2500.966835
568.072023	2498.118583
568.427732	2495.361072
568.783385	2498.534478
569.138982	2494.854436
569.494525	2496.097080
569.850013	2493.231184
570.205445	2498.771412
570.560823	2496.044148
570.916145	2496.001298
571.271412	2497.569097
571.626625	2496.303767
571.981782	2493.568941
572.336884	2496.480208
572.691931	2495.706391
573.046923	2492.616163
573.401860	2494.272182
573.756743	2491.398725
574.111570	2491.023159
574.466342	2496.286123
574.821059	2488.414362
575.175722	2494.400732
575.530330	2492.162459
575.884882	2490.188848
576.239380	2490.103148
576.593823	2490.937459
576.948211	2492.732110
577.302544	2488.999135
577.656823	2487.668271
578.011047	2490.405617
578.365216	2487.902684
578.719330	2489.898981
579.073389	2487.816985
579.427394	2488.764722
579.781344	2487.877479
580.135239	2487.834629
580.489080	2489.667088
580.842866	2485.666933
581.196597	2487.965699
581.550273	2484.736840
581.903895	2485.188023
582.257463	2488.245483
582.610975	2482.445635
582.964434	2486.186172
583.317837	2483.428660
583.671186	2483.710965
584.024481	2484.620893
584.377721	2483.272385
584.730906	2485.356902
585.084037	2483.272385
585.437113	2482.140646
585.790135	2482.518732
586.143103	2485.588795
586.496016	2481.984370
586.848874	2478.460603
587.201679	2479.294914
587.554428	2479.612507
587.907124	2478.132928
588.259765	2475.645119
588.612352	2482.831284
588.964884	2478.347177
589.317362	2478.090078
589.669786	2479.799030
590.022155	2480.996304
590.374470	2480.577888
590.726731	2478.085037
591.078937	2476.494553
591.431090	2478.568988
591.783188	2476.973463
592.135232	2475.750983
592.487222	2480.053608
592.839157	2475.662763
593.191038	2477.588484
593.542866	2476.602938
593.894639	2476.328195
594.246358	2475.216621
594.598022	2477.858185
594.949633	2475.229224
595.301190	2474.856178
595.652692	2473.739563
596.004141	2475.438432
596.355535	2475.687969
596.706876	2470.314099
597.058162	2475.040180
597.409395	2472.627988
597.760573	2471.836527
598.111698	2469.653707
598.462768	2473.553040
598.813785	2471.198821
599.164748	2471.130766
599.515657	2469.809983
599.866511	2469.875518
600.217312	2469.230251
600.568060	2469.535240
600.918753	2472.320478
601.269392	2471.332412
601.619978	2472.297793
601.970510	2470.944243
602.320988	2470.346866
602.671412	2472.111270
603.021783	2473.061527
603.372100	2469.384006
603.722363	2470.752679
604.072572	2472.171764
604.422728	2472.305354
604.772830	2465.845116
605.122878	2463.309415
605.472872	2470.014150
605.822813	2465.388891
606.172701	2470.646815
606.522534	2470.545992
606.872314	2470.346866
607.222041	2470.172946
607.571714	2470.157823
607.921333	2464.892338
608.270899	2470.682103
608.620411	2469.086578
608.969870	2467.271762
609.319276	2467.397791
609.668627	2467.997688
610.017926	2468.847123
610.367171	2469.641105
610.716362	2467.725466
611.065500	2467.982565
611.414585	2469.759572
611.763616	2469.119345
612.112594	2467.949797
612.461518	2468.509366
612.810389	2468.935343
613.159207	2469.073975
613.507971	2468.509366
613.856682	2471.332412
614.205340	2467.420476
614.553945	2470.949284
614.902496	2467.740590
615.250994	2469.308388
615.599439	2469.595734
615.947830	2468.698409
616.296169	2469.326033
616.644454	2468.335446
616.992686	2468.075826
617.340864	2469.510035
617.688990	2469.028604
618.037063	2471.113122
618.385082	2470.407360
618.733048	2469.341156
619.080961	2469.426856
619.428821	2469.895683
619.776628	2469.159674
620.124382	2467.473408
620.472083	2468.267390
620.819731	2469.484829
621.167326	2465.083902
621.514868	2470.672021
621.862357	2467.791001
622.209793	2469.585652
622.557176	2467.717904
622.904506	2466.261011
623.251783	2459.717593
623.599007	2464.065588
623.946179	2458.900926
624.293297	2460.284723
624.640363	2462.142388
624.987376	2461.113993
625.334336	2463.458129
625.681243	2462.802779
626.028097	2462.528037
626.374899	2462.906123
626.721647	2462.056689
627.068343	2463.705146
627.414987	2461.424024
627.761577	2461.673561
628.108115	2461.600464
628.454600	2459.152984
628.801032	2459.377315
629.147412	2459.372274
629.493739	2458.787500
629.840014	2458.217850
630.186236	2459.684826
630.532405	2457.519650
630.878521	2457.539815
631.224585	2461.945783
631.570597	2455.430092
631.916556	2459.863787
632.262462	2457.030658
632.608316	2456.246759
632.954117	2458.462346
633.299866	2457.214660
633.645562	2455.639300
633.991206	2454.626028
634.336797	2454.996553
634.682336	2456.576954
635.027823	2454.931018
635.373257	2454.618466
635.718639	2452.327262
636.063968	2455.548559
636.409245	2453.068311
636.754470	2454.179886
637.099642	2454.661316
637.444762	2451.588733
637.789829	2451.871037
638.134845	2452.176027
638.479808	2454.308435
638.824719	2451.077056
639.169577	2450.593105
639.514383	2450.257868
639.859137	2451.019082
640.203839	2453.111161
640.548489	2448.301900
640.893086	2446.766869
641.237632	2443.953905
641.582125	2448.337188
641.926566	2444.788216
642.270955	2447.248299
642.615292	2446.237548
642.959576	2448.246448
643.303809	2448.125460
643.647990	2447.528083
643.992118	2449.700821
644.336195	2447.507919
644.680219	2445.937599
645.024192	2450.285594
645.368112	2448.876592
645.711981	2447.712085
646.055797	2451.813064
646.399562	2449.867179
646.743274	2447.565892
647.086935	2451.440019
647.430544	2448.879112
647.774101	2451.283743
648.117606	2446.527414
648.461059	2451.369443
648.804460	2454.384053
649.147810	2453.398507
649.491108	2452.105451
649.834354	2447.523042
650.177548	2448.748042
650.520690	2447.394493
650.863781	2448.543876
651.206820	2451.039247
651.549807	2447.311314
651.892742	2444.246292
652.235626	2446.096396
652.578458	2447.873402
652.921238	2445.577157
653.263967	2446.033381
653.606644	2442.575150
653.949269	2443.827876
654.291843	2445.347784
654.634365	2446.905501
654.976836	2443.502722
655.319255	2446.524894
655.661622	2444.553803
656.003938	2444.889039
656.346203	2443.296035
656.688416	2441.521548
657.030577	2442.847372
657.372687	2445.030192
657.714746	2442.940633
658.056753	2440.641867
658.398708	2441.080448
658.740612	2441.655139
659.082465	2437.597010
659.424266	2438.771599
659.766016	2438.312854
660.107715	2442.275201
660.449362	2440.553647
660.790958	2442.426436
661.132503	2440.533482
661.473996	2444.193360
661.815438	2441.380396
662.156829	2441.864347
662.498168	2443.681683
662.839456	2441.408122
663.180693	2440.057093
663.521879	2445.292332
663.863013	2441.277052
664.204097	2443.132197
664.545129	2442.267639
664.886110	2442.943154
665.227040	2443.152362
665.567918	2443.253185
665.908746	2441.009871
666.249522	2443.870726
666.590248	2442.106322
666.930922	2441.506425
667.271545	2441.314861
667.612118	2441.380396
667.952639	2443.495160
668.293109	2443.941302
668.633528	2442.280242
668.973896	2442.686055
669.314213	2439.487443
669.654480	2441.723195
669.994695	2442.189501
670.334859	2442.023143
670.674973	2441.871909
671.015035	2442.194542
671.355047	2440.084820
671.695008	2444.768052
672.034918	2441.279573
672.374777	2442.149172
672.714585	2442.852413
673.054342	2441.922320
673.394049	2438.539706
673.733705	2442.738987
674.073310	2443.162444
674.412864	2440.147834
674.752368	2437.937288
675.091820	2440.735128
675.431223	2442.870057
675.770574	2441.335026
676.109875	2436.361928
676.449125	2436.266146
676.788324	2436.583738
677.127473	2436.109870
677.466571	2436.775302
677.805619	2438.481733
678.144616	2439.810077
678.483562	2437.917123
678.822458	2439.190015
679.161303	2438.630447
679.500098	2438.776640
679.838842	2439.900818
680.177535	2440.185643
680.516179	2435.293203
680.854771	2438.587597
681.193314	2437.924685
681.531805	2439.036260
681.870247	2439.111877
682.208638	2442.376024
682.546978	2443.480037
682.885268	2442.186981
683.223508	2441.219079
683.561697	2439.331167
683.899836	2441.713112
684.237925	2440.757814
684.575963	2440.498194
684.913951	2438.285128
685.251889	2439.981476
685.589776	2440.720005
685.927614	2439.215221
686.265401	2439.512649
686.603137	2438.517021
686.940824	2440.006682
687.278460	2440.694799
687.616046	2439.381579
687.953582	2441.551795
688.291068	2441.846703
688.628504	2444.896601
688.965889	2442.970880
689.303224	2444.329471
689.640510	2442.640685
689.977745	2442.320571
690.314930	2439.772268
690.652065	2439.517690
690.989150	2441.289655
691.326185	2436.046855
691.663170	2435.651125
692.000105	2434.133737
692.336990	2436.082143
692.673825	2435.820003
693.010610	2434.030394
693.347345	2431.703901
693.684030	2428.520413
694.020665	2431.610640
694.357251	2427.265165
694.693786	2432.449992
695.030272	2429.768098
695.366707	2430.685588
695.703093	2427.640731
696.039429	2430.511668
696.375716	2430.100814
696.711952	2430.796494
697.048139	2429.253901
697.384276	2430.037800
697.720363	2429.422779
698.056400	2432.631474
698.392388	2426.375402
698.728326	2429.599220
699.064214	2427.950762
699.400053	2429.198448
699.735842	2427.880186
700.071581	2427.928077
700.407270	2427.660896
700.742910	2427.423962
701.078501	2429.311874
701.414042	2427.088725
701.749533	2428.165011
702.084974	2425.392377
702.420366	2427.035793
702.755709	2428.769950
703.091002	2424.895823
703.426246	2424.318611
703.761440	2425.893972
704.096584	2426.055288
704.431679	2425.392377
704.766725	2424.495051
705.101721	2422.009762
705.436668	2425.636873
705.771565	2424.515216
706.106413	2424.290885
706.441212	2426.103179
706.775961	2425.520926
707.110661	2422.254258
707.445311	2423.784249
707.779913	2426.186358
708.114465	2423.668302
708.448967	2426.773653
708.783421	2429.647111
709.117825	2427.285330
709.452180	2426.945052
709.786485	2429.808427
710.120742	2426.559404
710.454949	2428.840526
710.789107	2427.471853
711.123216	2425.210895
711.457275	2428.923705
711.791286	2427.865063
712.125247	2432.208017
712.459159	2430.554518
712.793023	2432.823037
713.126837	2429.982347
713.460602	2431.754313
713.794318	2430.655341
714.127985	2428.865732
714.461602	2429.589137
714.795171	2431.121648
715.128691	2427.320618
715.462162	2429.314394
715.795584	2425.939342
716.128957	2425.256266
716.462281	2427.121492
716.795556	2427.875145
717.128782	2427.597882
717.461960	2424.764753
717.795088	2424.129568
718.128167	2421.132602
718.461198	2422.367684
718.794180	2423.043199
719.127113	2421.881213
719.459997	2421.447674
719.792833	2420.492375
720.125619	2424.116965
720.458357	2421.621594
720.791046	2420.762077
721.123686	2419.683270
721.456278	2422.468507
721.788821	2420.038671
722.121315	2421.939186
722.453761	2421.838363
722.786158	2419.332910
723.118506	2422.571851
723.450805	2420.865421
723.783056	2418.785945
724.115259	2423.348189
724.447412	2419.973136
724.779518	2422.045051
725.111574	2420.550348
725.443582	2422.105544
725.775542	2419.090934
726.107453	2421.097314
726.439315	2418.692683
726.771129	2426.718200
727.102895	2423.212078
727.434612	2426.077974
727.766281	2421.082190
728.097901	2424.021183
728.429473	2419.529515
728.760996	2422.627304
729.092471	2416.625810
729.423897	2424.172417
729.755276	2425.984712
730.086606	2425.067222
730.417887	2422.171079
730.749120	2426.685433
731.080305	2423.315421
731.411442	2427.300453
731.742530	2426.448498
732.073570	2426.395566
732.404562	2426.448498
732.735506	2429.195927
733.066401	2426.342634
733.397249	2427.202151
733.728048	2424.739547
734.058798	2424.613518
734.389501	2421.893816
734.720156	2420.273085
735.050762	2421.856007
735.381320	2422.483631
735.711831	2420.746953
736.042293	2423.048240
736.372707	2419.683270
736.703073	2419.083373
737.033391	2420.368867
737.363661	2420.436922
737.693883	2419.244690
738.024056	2421.830802
738.354182	2421.692170
738.684260	2421.016655
739.014290	2421.835843
739.344272	2422.017324
739.674207	2422.677715
740.004093	2422.526481
740.333931	2420.875503
740.663722	2424.535381
740.993464	2426.100659
741.323159	2422.148394
741.652806	2421.427509
741.982405	2424.124527
742.311956	2420.479772
742.641460	2422.471028
742.970915	2420.177303
743.300323	2419.564803
743.629683	2421.833322
743.958996	2421.704773
744.288260	2419.413568
744.617477	2416.772004
744.946647	2416.204874
745.275768	2418.685122
745.604842	2414.798392
745.933869	2413.863258
746.262847	2416.411561
746.591778	2415.970460
746.920662	2417.780234
747.249498	2418.201171
747.578286	2415.647826
747.907027	2419.494227
748.235720	2417.752508
748.564365	2418.601942
748.892963	2417.986922
749.221514	2416.855183
749.550017	2417.283681
749.878473	2418.710327
750.206881	2417.334092
750.535242	2417.941551
750.863555	2419.942889
751.191821	2418.599422
751.520039	2415.791499
751.848210	2418.685122
752.176334	2414.848803
752.504411	2415.703279
752.832440	2417.951634
753.160421	2417.250913
753.488356	2419.078332
753.816243	2418.244021
754.144082	2414.390058
754.471875	2417.253434
754.799620	2413.039029
755.127318	2417.505492
755.454969	2419.083373
755.782572	2415.211767
756.110129	2416.174627
756.437638	2416.683783
756.765100	2417.044226
757.092515	2415.794020
757.419882	2415.917528
757.747203	2416.257806
758.074477	2415.385686
758.401703	2415.660429
758.728882	2417.659247
759.056014	2416.156983
759.383099	2418.579257
759.710138	2418.203691
760.037129	2415.814184
760.364073	2419.857190
760.690970	2417.356777
761.017820	2418.165883
761.344623	2419.342992
761.671379	2417.969278
761.998088	2417.003897
762.324751	2422.718045
762.651366	2424.507654
762.977935	2432.694488
763.304456	2433.465785
763.630931	2437.120621
763.957359	2436.588779
764.283740	2434.703388
764.610074	2431.933274
764.936362	2427.446647
765.262602	2422.763415
765.588796	2422.188723
765.914943	2422.425658
766.241044	2418.604463
766.567097	2416.845100
766.893104	2413.069276
767.219064	2413.033988
767.544978	2418.057498
767.870845	2416.885430
768.196665	2415.481468
768.522438	2411.108267
768.848165	2413.031467
769.173846	2413.480130
769.499479	2410.757907
769.825066	2412.393762
770.150607	2412.013154
770.476101	2412.550037
770.801548	2411.279667
771.126949	2411.635068
771.452303	2411.307393
771.777611	2408.068452
772.102872	2411.761097
772.428087	2410.248751
772.753256	2407.156003
773.078378	2409.222876
773.403453	2411.451066
773.728482	2411.577095
774.053465	2411.471230
774.378401	2407.166085
774.703291	2410.082393
775.028135	2408.996024
775.352932	2409.381672
775.677683	2407.934861
776.002388	2409.048956
776.327046	2410.362177
776.651658	2409.114491
776.976224	2409.613565
777.300743	2407.952505
777.625216	2407.839079
777.949643	2407.307237
778.274024	2410.528535
778.598359	2407.602145
778.922647	2402.261042
779.246889	2406.697258
779.571086	2402.064437
779.895236	2409.399316
780.219339	2407.072824
780.543397	2410.677249
780.867409	2408.093657
781.191374	2407.302196
781.515294	2408.537279
781.839167	2409.936199
782.162995	2410.437794
782.486776	2410.399985
782.810511	2408.315468
783.134201	2408.559964
783.457844	2409.064079
783.781441	2407.544172
784.104993	2408.779254
784.428498	2411.355284
784.751958	2409.469892
785.075372	2407.133318
785.398739	2407.201373
785.722061	2405.870508
786.045337	2408.007958
786.368568	2407.841600
786.691752	2408.136507
787.014891	2408.693555
787.337983	2408.202042
787.661030	2409.028791
787.984031	2411.098185
788.306987	2409.926117
788.629897	2411.781261
788.952760	2412.935686
789.275579	2410.589028
789.598351	2411.846796
789.921078	2409.185067
790.243759	2410.873854
790.566395	2405.855385
790.888984	2408.219686
791.211529	2410.011816
791.534027	2407.213976
791.856480	2406.984603
792.178888	2408.660787
792.501249	2407.629871
792.823566	2407.735735
793.145836	2407.637433
793.468062	2407.524007
793.790241	2405.731877
794.112375	2408.955695
794.434464	2406.084758
794.756507	2408.295303
795.078505	2407.987793
795.400457	2406.908986
795.722364	2403.607030
796.044226	2408.282701
796.366042	2406.442679
796.687812	2406.762793
797.009538	2407.816394
797.331218	2409.094326
797.652852	2407.551733
797.974442	2412.204718
798.295986	2409.273287
798.617484	2409.366549
798.938938	2410.135325
799.260346	2407.423184
799.581709	2407.823956
799.903026	2408.693555
800.224299	2408.507032
800.545526	2407.771023
800.866708	2406.714902
801.187845	2410.939389
801.508936	2407.435787
801.829983	2409.553071
802.150984	2406.858575
802.471940	2405.207597
802.792851	2407.468554
803.113717	2408.348236
803.434538	2405.454613
803.755314	2406.329253
804.076045	2407.697927
804.396731	2408.244892
804.717372	2405.958729
805.037967	2403.453275
805.358518	2407.269429
805.679024	2405.724315
805.999485	2404.799263
806.319901	2405.870508
806.640272	2408.381003
806.960598	2407.150962
807.280879	2405.830179
807.601115	2406.074675
807.921306	2407.808832
808.241453	2409.558113
808.561554	2405.575601
808.881611	2409.394275
809.201623	2406.452762
809.521590	2407.161044
809.841513	2408.479306
810.161390	2405.479819
810.481223	2405.678945
810.801011	2408.048287
811.120755	2408.537279
811.440453	2405.817576
811.760107	2406.992165
812.079716	2403.102915
812.399281	2402.243398
812.718801	2404.310271
813.038276	2398.535630
813.357707	2406.341856
813.677093	2405.562998
813.996434	2404.834551
814.315731	2407.367731
814.634983	2408.806981
814.954191	2404.663152
815.273354	2406.079716
815.592473	2409.369069
815.911547	2409.447207
816.230577	2406.848492
816.549562	2408.665828
816.868502	2409.527866
817.187399	2407.261867
817.506250	2409.913514
817.825058	2408.827145
818.143821	2411.196487
818.462539	2407.813873
818.781213	2409.295973
819.099843	2412.776889
819.418429	2414.702610
819.736970	2414.450552
820.055466	2419.950451
820.373919	2421.886254
820.692327	2425.331883
821.010691	2435.056269
821.329011	2457.817078
821.647286	2489.843529
821.965517	2522.043899
822.283704	2540.673483
822.601847	2545.901159
822.919945	2531.354910
823.237999	2513.708351
823.556010	2500.394664
823.873976	2485.056953
824.191897	2469.807463
824.509775	2458.205247
824.827609	2449.975563
825.145398	2441.831579
825.463144	2442.320571
825.780845	2441.340067
826.098502	2446.686211
826.416116	2454.590740
826.733685	2461.270269
827.051210	2461.338324
827.368692	2460.541822
827.686129	2449.882302
828.003522	2440.662032
828.320872	2432.787749
828.638177	2428.853129
828.955439	2421.183013
829.272656	2420.439443
829.589830	2414.601787
829.906960	2415.156314
830.224046	2410.639440
830.541088	2413.931313
830.858086	2412.313103
831.175041	2412.330747
831.491952	2411.007444
831.808819	2410.946950
832.125642	2409.961405
832.442421	2415.741088
832.759157	2418.775862
833.075849	2420.560431
833.392497	2430.541915
833.709101	2435.076433
834.025662	2431.976124
834.342179	2431.391350
834.658653	2428.782553
834.975083	2423.375915
835.291469	2427.429003
835.607811	2414.256468
835.924110	2414.924421
836.240366	2413.112126
836.556578	2410.800757
836.872746	2408.776734
837.188871	2407.644995
837.504952	2405.265570
837.820990	2408.663308
838.136984	2406.230951
838.452935	2406.334295
838.768842	2404.519479
839.084706	2406.440159
839.400526	2409.323699
839.716303	2412.902918
840.032037	2413.172620
840.347727	2416.078845
840.663373	2410.415109
840.978977	2409.210273
841.294537	2406.513256
841.610054	2408.388565
841.925527	2408.779254
842.240957	2405.351270
842.556344	2403.639798
842.871687	2403.871691
843.186987	2404.070817
843.502244	2402.152658
843.817458	2404.915210
844.132629	2403.211300
844.447756	2400.622667
844.762840	2396.451113
845.077881	2398.916237
845.392879	2396.090670
845.707833	2400.153840
846.022745	2393.965824
846.337613	2398.943963
846.652438	2398.883469
846.967221	2401.134344
847.281960	2400.632750
847.596656	2401.688871
847.911309	2400.703326
848.225919	2401.225085
848.540485	2398.520506
848.855009	2401.240209
849.169490	2399.299364
849.483928	2402.129972
849.798323	2399.102759
850.112675	2397.416493
850.426984	2402.553429
850.741251	2399.211144
851.055474	2401.462019
851.369654	2400.519324
851.683792	2397.396329
851.997887	2398.722152
852.311938	2399.947153
852.625947	2402.939078
852.939914	2400.027811
853.253837	2401.247770
853.567718	2401.777092
853.881555	2401.565363
854.195350	2401.202400
854.509103	2402.702143
854.822812	2400.065620
855.136479	2399.127965
855.450103	2399.924468
855.763685	2400.191649
856.077224	2400.249622
856.390720	2400.436145
856.704173	2397.920609
857.017584	2399.420352
857.330953	2399.085115
857.644278	2401.230126
857.957561	2402.137534
858.270802	2397.822306
858.584000	2402.180384
858.897155	2401.119221
859.210268	2399.092677
859.523339	2401.139386
859.836367	2398.984292
860.149352	2398.969169
860.462295	2399.541340
860.775195	2393.464229
861.088054	2395.279044
861.400869	2397.267779
861.713642	2393.486914
862.026373	2400.478994
862.339062	2401.454458
862.651708	2401.262894
862.964312	2401.204921
863.276873	2397.933212
863.589392	2403.987638
863.901869	2400.509241
864.214303	2400.179046
864.526696	2399.627039
864.839045	2400.652914
865.151353	2401.225085
865.463619	2403.216341
865.775842	2401.066289
866.088023	2402.271125
866.400162	2400.544529
866.712258	2401.653583
867.024313	2400.927657
867.336325	2402.795405
867.648296	2398.560835
867.960224	2402.180384
868.272110	2399.211144
868.583954	2402.445044
868.895755	2400.877246
869.207515	2401.562843
869.519233	2401.835065
869.830909	2400.012688
870.142542	2399.748027
870.454134	2398.976731
870.765684	2398.661658
871.077191	2400.050496
871.388657	2401.525034
871.700081	2403.846485
872.011463	2402.550909
872.322803	2402.674417
872.634101	2400.032852
872.945357	2402.823131
873.256571	2402.795405
873.567744	2401.714077
873.878874	2403.458316
874.189963	2401.386402
874.501010	2405.535272
874.812015	2399.390105
875.122979	2401.519993
875.433900	2404.194325
875.744780	2407.420663
876.055618	2400.287431
876.366415	2402.865981
876.677169	2404.033008
876.987882	2401.000754
877.298554	2397.718963
877.609183	2400.980589
877.919771	2399.861453
878.230317	2402.248439
878.540822	2403.584345
878.851285	2406.026784
879.161707	2406.979562
879.472087	2410.021899
879.782425	2413.825449
880.092722	2422.284505
880.402977	2431.577873
880.713191	2449.068156
881.023363	2459.117696
881.333494	2472.317957
881.643583	2471.208903
881.953631	2470.556074
882.263637	2465.628346
882.573602	2458.192644
882.883526	2454.217694
883.193408	2449.726026
883.503248	2443.754780
883.813048	2440.258739
884.122806	2435.346135
884.432522	2429.364806
884.742197	2421.755184
885.051831	2421.828281
885.361424	2416.842580
885.670975	2413.422157
885.980485	2411.282187
886.289954	2411.446025
886.599382	2408.219686
886.908768	2409.132135
887.218113	2408.133987
887.527417	2406.757752
887.836680	2403.428069
888.145901	2404.290107
888.455082	2405.845303
888.764221	2403.637277
889.073319	2404.731208
889.382376	2404.307751
889.691392	2403.722977
890.000366	2403.856568
890.309300	2402.311454
890.618193	2405.205076
890.927044	2399.410270
891.235855	2404.678276
891.544625	2403.070147
891.853353	2404.547206
892.162041	2404.237175
892.470687	2407.660118
892.779293	2404.015364
893.087858	2402.999571
893.396381	2405.815056
893.704864	2410.097516
894.013306	2411.128432
894.321707	2417.394586
894.630068	2421.177972
894.938387	2425.745258
895.246665	2421.608991
895.554903	2420.255441
895.863100	2416.192271
896.171256	2413.522980
896.479371	2413.371745
896.787446	2413.414595
897.095480	2411.052815
897.403473	2410.241189
897.711425	2406.848492
898.019336	2408.731363
898.327207	2407.657598
898.635038	2406.949315
898.942827	2405.429408
899.250576	2404.511917
899.558284	2404.895045
899.865952	2400.302554
900.173579	2402.341701
900.481165	2401.885476
900.788711	2401.512431
901.096216	2399.780795
901.403681	2401.227606
901.711105	2400.272307
902.018489	2402.492935
902.325832	2403.244067
902.633135	2403.017215
902.940397	2404.307751
903.247619	2407.193811
903.554800	2412.474420
903.861941	2421.240987
904.169041	2426.493869
904.476101	2423.703590
904.783121	2426.924887
905.090100	2421.762746
905.397039	2418.659916
905.703938	2415.957857
906.010796	2415.988104
906.317614	2412.507188
906.624391	2412.318144
906.931129	2407.173647
907.237826	2407.413102
907.544483	2405.033677
907.851099	2404.837072
908.157675	2401.996382
908.464211	2401.570404
908.770707	2397.512275
909.077163	2401.993861
909.383578	2395.972203
909.689954	2395.415155
909.996289	2392.645041
910.302584	2395.213509
910.608839	2398.838099
910.915054	2397.277862
911.221229	2400.146278
911.527363	2397.792059
911.833458	2398.800290
912.139513	2400.302554
912.445527	2399.808521
912.751502	2399.259035
913.057436	2399.823644
913.363331	2402.008985
913.669186	2400.554612
913.975000	2403.191135
914.280775	2403.007133
914.586510	2408.519635
914.892205	2406.760272
915.197859	2411.496436
915.503475	2418.019689
915.809050	2421.505647
916.114585	2423.522109
916.420081	2425.188210
916.725536	2423.718714
917.030952	2423.118816
917.336328	2419.234607
917.641665	2420.898188
917.946961	2416.892991
918.252218	2419.000194
918.557435	2412.308062
918.862612	2412.358473
919.167750	2409.621127
919.472848	2409.671538
919.777906	2408.375962
920.082925	2408.665828
920.387904	2407.105591
920.692843	2401.832544
920.997743	2405.653739
921.302603	2402.129972
921.607423	2402.366907
921.912204	2402.190466
922.216946	2401.320867
922.521647	2401.822462
922.826310	2399.253994
923.130932	2399.755589
923.435516	2400.133675
923.740059	2400.335322
924.044564	2396.105793
924.349028	2398.800290
924.653454	2393.721328
924.957840	2396.279713
925.262186	2392.899620
925.566493	2396.249466
925.870761	2392.609753
926.174989	2395.873900
926.479178	2396.650238
926.783328	2395.952038
927.087438	2395.440361
927.391509	2398.500342
927.695541	2397.111504
927.999533	2397.824827
928.303486	2394.457336
928.607400	2396.594785
928.911275	2394.812738
929.215110	2394.679147
929.518906	2397.126627
929.822663	2395.261400
930.126381	2393.585217
930.430060	2397.580331
930.733699	2395.455485
931.037299	2396.693088
931.340861	2393.922974
931.644383	2396.219219
931.947866	2397.908006
932.251309	2399.662328
932.554714	2395.309291
932.858080	2395.793242
933.161407	2398.054199
933.464694	2394.981616
933.767943	2396.206617
934.071153	2396.050341
934.374323	2395.117727
934.677455	2396.020094
934.980548	2394.578324
935.283602	2395.987326
935.586617	2394.495145
935.889593	2396.272152
936.192530	2396.163767
936.495428	2396.322563
936.798287	2397.446740
937.101108	2395.198386
937.403890	2396.476318
937.706632	2397.171998
938.009336	2398.810372
938.312002	2398.417162
938.614628	2397.532440
938.917216	2396.924981
939.219765	2398.835578
939.522275	2397.424055
939.824747	2400.022770
940.127179	2395.828530
940.429573	2394.023797
940.731929	2394.868190
941.034246	2393.292830
941.336524	2397.265259
941.638763	2395.384908
941.940964	2396.587224
942.243126	2402.172822
942.545250	2400.542009
942.847335	2396.756102
943.149381	2396.289796
943.451389	2396.549415
943.753359	2394.878273
944.055290	2399.657286
944.357182	2394.691750
944.659036	2398.729714
944.960851	2394.497665
945.262628	2396.007491
945.564367	2396.952707
945.866067	2395.778118
946.167729	2399.052348
946.469352	2392.856770
946.770937	2395.614281
947.072484	2396.249466
947.373992	2397.111504
947.675462	2396.972872
947.976893	2396.725855
948.278286	2397.555125
948.579641	2396.501524
948.880958	2395.730228
949.182236	2397.255177
949.483476	2394.792573
949.784678	2393.892727
950.085841	2395.470608
950.386967	2396.748541
950.688054	2396.892213
950.989103	2392.352654
951.290114	2395.899106
951.591087	2397.792059
951.892021	2394.916081
952.192917	2398.422204
952.493776	2398.535630
952.794596	2396.544374
953.095378	2396.793911
953.396122	2397.192162
953.696828	2394.926163
953.997496	2394.890875
954.298126	2398.815414
954.598718	2397.494631
954.899272	2394.346431
955.199788	2396.980434
955.500266	2396.773746
955.800706	2395.831051
956.101108	2392.138405
956.401472	2394.676626
956.701798	2392.163611
957.002087	2389.385935
957.302337	2393.842315
957.602550	2392.584548
957.902724	2395.483211
958.202861	2396.652759
958.502960	2391.919115
958.803022	2393.744013
959.103045	2392.226626
959.403031	2396.776267
959.702979	2392.642521
960.002889	2394.696791
960.302762	2392.017418
960.602596	2393.411297
960.902393	2390.898282
961.202153	2392.927346
961.501875	2392.859290
961.801559	2392.571945
962.101205	2393.065978
962.400814	2396.037738
962.700385	2396.264590
962.999918	2394.674106
963.299414	2390.366440
963.598873	2393.620505
963.898293	2394.868190
964.197677	2392.377860
964.497022	2392.317366
964.796331	2393.260062
965.095601	2392.249311
965.394835	2391.634290
965.694030	2393.605381
965.993189	2395.261400
966.292309	2394.016235
966.591393	2395.127810
966.890439	2394.119579
967.189447	2392.710576
967.488419	2392.135885
967.787353	2393.446585
968.086249	2394.792573
968.385108	2391.921636
968.683930	2392.342572
968.982714	2392.156049
969.281462	2394.510268
969.580172	2393.237377
969.878844	2393.433982
970.177480	2391.712428
970.476078	2392.917264
970.774639	2393.353323
971.073162	2394.666544
971.371649	2391.825854
971.670098	2388.430637
971.968510	2394.666544
972.266885	2391.712428
972.565223	2393.991029
972.863524	2393.980947
973.161788	2391.946842
973.460014	2392.110679
973.758204	2392.158570
974.056356	2392.251831
974.354471	2393.900289
974.652550	2393.534805
974.950591	2393.708725
975.248595	2394.971534
975.546563	2393.610422
975.844493	2394.631256
976.142386	2394.989178
976.440243	2392.362737
976.738062	2393.973385
977.035845	2393.290309
977.333590	2394.603530
977.631299	2395.762995
977.928971	2393.905330
978.226606	2392.735782
978.524204	2392.400545
978.821765	2392.786194
979.119290	2393.882645
979.416777	2393.272665
979.714228	2394.651421
980.011642	2391.755278
980.309020	2395.886503
980.606360	2392.211502
980.903664	2393.635628
981.200931	2393.484393
981.498162	2394.301060
981.795356	2392.861811
982.092513	2394.432130
982.389633	2391.871224
982.686717	2393.305432
982.983764	2394.434651
983.280775	2395.800804
983.577749	2396.529250
983.874686	2398.023952
984.171587	2396.509086
984.468451	2394.260731
984.765279	2396.935063
985.062070	2397.557646
985.358824	2395.314332
985.655543	2397.146792
985.952224	2396.383057
986.248869	2394.805176
986.545478	2390.621018
986.842050	2392.544218
987.138586	2388.544063
987.435086	2391.558673
987.731549	2389.978271
988.027975	2394.747203
988.324366	2392.997922
988.620719	2393.635628
988.917037	2393.297871
989.213318	2393.554970
989.509563	2389.675802
989.805772	2393.683519
990.101944	2391.228477
990.398080	2392.496327
990.694180	2391.299053
990.990244	2391.417520
991.286271	2391.009187
991.582262	2394.820299
991.878217	2393.484393
992.174136	2392.385422
992.470019	2389.073384
992.765865	2394.215361
993.061676	2391.783004
993.357450	2392.952552
993.653188	2391.578837
993.948890	2389.703528
994.244556	2389.587582
994.540186	2394.611091
994.835780	2389.892571
995.131337	2395.967162
995.426859	2394.071688
995.722345	2393.300391
996.017795	2392.766029
996.313208	2392.236708
996.608586	2396.930022
996.903928	2395.861298
997.199234	2393.549928
997.494504	2394.122099
997.789738	2393.575134
998.084936	2394.212840
998.380099	2393.721328
998.675225	2395.515978
998.970316	2394.865670
999.265371	2395.435320
999.560390	2391.460370
999.855373	2393.809548
1000.150320	2394.079250
1000.445232	2391.868704
1000.740108	2391.556152
1001.034948	2390.971378
1001.329752	2391.672099
1001.624521	2388.914588
1001.919254	2389.769063
1002.213951	2391.135216
1002.508613	2387.555997
1002.803239	2393.449105
1003.097829	2389.789228
1003.392384	2391.956924
1003.686903	2391.011707
1003.981386	2392.178735
1004.275834	2390.356358
1004.570246	2390.114382
1004.864623	2390.618498
1005.158964	2391.901471
1005.453270	2393.486914
1005.747540	2392.466080
1006.041775	2392.261914
1006.335974	2392.735782
1006.630138	2390.121944
1006.924266	2390.268137
1007.218359	2391.634290
1007.512416	2391.515823
1007.806438	2391.861142
1008.100425	2389.653117
1008.394376	2392.196379
1008.688292	2392.473642
1008.982172	2390.472304
1009.276017	2392.249311
1009.569827	2390.126985
1009.863602	2392.264434
1010.157341	2389.101110
1010.451045	2393.242418
1010.744714	2392.846688
1011.038347	2389.678322
1011.331945	2391.299053
1011.625508	2391.934239
1011.919036	2390.394166
1012.212528	2394.787532
1012.505986	2389.857283
1012.799408	2386.462066
1013.092795	2392.546739
1013.386147	2392.120761
1013.679464	2393.849877
1013.972745	2392.241749
1014.265992	2390.419372
1014.559204	2390.605895
1014.852380	2389.527088
1015.145521	2389.998436
1015.438628	2389.292674
1015.731699	2391.934239
1016.024736	2390.956255
1016.317737	2391.173024
1016.610703	2390.401728
1016.903635	2392.345093
1017.196531	2387.921480
1017.489393	2388.697818
1017.782219	2383.732281
1018.075011	2392.148488
1018.367768	2392.007335
1018.660490	2393.131513
1018.953177	2393.131513
1019.245829	2393.131513
