Dividing Wavelength (nm)	Counts (n)	Blue Motor Position (mm): 0.000000	Red Motor Position (mm): 39.000000	
326.493990	1992.667292
326.888308	1992.667292
327.282561	1992.667292
327.676750	1969.414970
328.070874	1969.717439
328.464933	1975.277832
328.858929	1986.030613
329.252859	1999.737511
329.646726	2013.192350
330.040528	2027.418486
330.434265	2049.839018
330.827938	2066.469785
331.221547	2086.994843
331.615091	2104.752307
332.008571	2128.405401
332.401986	2149.989101
332.795338	2170.733449
333.188625	2189.383198
333.581847	2208.494212
333.975006	2225.397201
334.368100	2245.818915
334.761129	2260.612181
335.154095	2274.397216
335.546996	2302.116001
335.939833	2345.217866
336.332606	2359.020545
336.725315	2372.210724
337.117960	2379.036447
337.510540	2388.528939
337.903056	2398.570918
338.295508	2404.060734
338.687896	2411.793864
339.080220	2420.547828
339.472480	2423.794331
339.864676	2425.450350
340.256807	2428.631318
340.648875	2434.106011
341.040879	2435.396547
341.432818	2435.187339
341.824694	2434.342945
342.216506	2433.473346
342.608253	2435.358738
342.999937	2434.640373
343.391557	2435.933429
343.783113	2432.749941
344.174605	2431.018304
344.566033	2428.636359
344.957397	2429.601740
345.348697	2428.719538
345.739934	2426.037644
346.131106	2423.385998
346.522215	2422.430699
346.913260	2419.627817
347.304241	2421.457756
347.695159	2420.179824
348.086012	2415.627662
348.476802	2415.423495
348.867528	2416.676222
349.258191	2412.739081
349.648789	2411.123391
350.039324	2411.927455
350.429796	2411.814029
350.820203	2409.069121
351.210548	2411.365366
351.600828	2408.421332
351.991045	2411.788823
352.381198	2409.059038
352.771288	2410.883936
353.161314	2407.239182
353.551276	2410.722619
353.941175	2410.402506
354.331010	2408.625499
354.720782	2408.174316
355.110490	2409.744635
355.500135	2412.597928
355.889717	2411.907290
356.279235	2411.342681
356.668689	2412.345871
357.058080	2410.967115
357.447408	2411.688000
357.836672	2409.530386
358.225873	2410.836045
358.615010	2414.334606
359.004084	2414.629513
359.393095	2419.075811
359.782043	2417.145049
360.170927	2417.016500
360.559748	2417.901222
360.948505	2419.816861
361.337199	2420.119330
361.725830	2421.651841
362.114398	2424.069074
362.502903	2421.177972
362.891344	2425.324321
363.279722	2427.807089
363.668037	2427.267686
364.056289	2423.892633
364.444478	2427.731472
364.832603	2430.395722
365.220665	2429.251380
365.608665	2430.433531
365.996601	2431.340938
366.384474	2433.433017
366.772284	2433.642225
367.160031	2434.433686
367.547715	2435.570466
367.935336	2434.431166
368.322893	2441.287135
368.710388	2440.253698
369.097820	2443.442228
369.485189	2439.273194
369.872495	2445.002465
370.259738	2446.058587
370.646918	2446.726540
371.034035	2446.477003
371.421090	2453.995884
371.808081	2454.787345
372.195010	2460.486369
372.581875	2465.865280
372.968678	2471.788636
373.355418	2480.008237
373.742096	2491.439054
374.128710	2503.371465
374.515262	2515.840759
374.901751	2527.682429
375.288177	2545.749925
375.674540	2564.054354
376.060841	2589.580237
376.447079	2613.281222
376.833254	2638.623102
377.219367	2663.387770
377.605417	2700.432689
377.991404	2729.222719
378.377329	2771.298710
378.763191	2806.692651
379.148991	2855.276771
379.534727	2904.347363
379.920402	2952.434929
380.306013	3004.290758
380.691563	3069.624112
381.077049	3124.207205
381.462474	3182.659384
381.847835	3258.362391
382.233134	3334.778722
382.618371	3394.511354
383.003545	3481.975373
383.388657	3568.161460
383.773706	3661.518588
384.158693	3737.309815
384.543618	3832.756502
384.928480	3913.195673
385.313280	4026.561141
385.698017	4130.721462
386.082692	4254.441459
386.467305	4317.138290
386.851856	4451.721974
387.236344	4611.171149
387.620770	4673.683978
388.005133	4797.058656
388.389435	4949.044404
388.773674	5039.250811
389.157851	5172.543959
389.541965	5309.005473
389.926018	5329.933824
390.310008	5517.419376
390.693936	5644.048120
391.077802	5763.447849
391.461606	5901.262913
391.845348	6016.115521
392.229027	6139.220498
392.612645	6368.736670
392.996200	6487.647407
393.379694	6667.417474
393.763125	6894.589510
394.146494	6997.653380
394.529801	7133.978783
394.913047	7386.570838
395.296230	7387.523616
395.679351	7445.615352
396.062410	7715.526291
396.445408	7601.790298
396.828343	7773.136597
397.211217	7906.391937
397.594028	7786.455325
397.976778	7992.278075
398.359466	8163.090012
398.742092	8129.455433
399.124656	8290.053992
399.507158	8475.520562
399.889598	8502.828493
400.271977	8716.976708
400.654294	8756.600177
401.036549	8951.050084
401.418742	8981.297007
401.800874	9289.026682
402.182944	9374.176812
402.564952	9745.178008
402.946898	9564.114886
403.328783	9628.810533
403.710606	9829.824022
404.092367	10086.746428
404.474067	10464.684253
404.855705	10253.371686
405.237282	10198.866731
405.618797	10636.816971
406.000250	10886.560774
406.381642	11264.284349
406.762972	11218.258615
407.144240	11007.172900
407.525447	11272.655185
407.906593	11212.262162
408.287677	11474.956689
408.668700	11634.385700
409.049661	11605.154570
409.430560	11767.532656
409.811399	11742.710014
410.192176	11911.581106
410.572891	11977.325314
410.953545	12486.686019
411.334138	11941.946496
411.714669	12577.028537
412.095139	11850.119358
412.475547	12371.662012
412.855894	12208.822660
413.236180	12544.281202
413.616405	12217.891696
413.996568	12516.209537
414.376670	12480.989515
414.756711	12355.066533
415.136691	12647.216522
415.516609	12834.387003
415.896466	12909.127150
416.276262	13201.045246
416.655997	13643.898008
417.035670	13667.321729
417.415283	14337.540613
417.794834	14435.442341
418.174324	14176.153113
418.553753	14076.333226
418.933121	14582.122274
419.312428	14380.700451
419.691674	14296.926557
420.070859	14759.815385
420.449983	14406.780861
420.829045	14972.118538
421.208047	14714.387027
421.586988	15179.821638
421.965867	15441.467605
422.344686	15441.172698
422.723444	16017.162333
423.102141	14666.395243
423.480777	15882.989503
423.859352	15385.624224
424.237866	16529.336002
424.616319	16222.455762
424.994712	16877.064712
425.373044	16673.747416
425.751314	17368.244496
426.129524	16464.657999
426.507673	17593.740349
426.885762	17281.700488
427.263789	17491.722519
427.641756	17660.954053
428.019662	17729.443169
428.397508	17763.133201
428.775292	18085.520030
429.153016	18033.810395
429.530679	18125.345146
429.908282	18143.682343
430.285824	17850.642590
430.663305	18577.183765
431.040726	18184.440072
431.418086	17986.700812
431.795385	18661.257608
432.172624	19090.912630
432.549802	18628.366600
432.926920	18818.859201
433.303977	18692.326239
433.680974	18954.418348
434.057910	19257.580738
434.434786	19273.294014
434.811601	19192.043217
435.188355	20249.939434
435.565050	19896.945239
435.941683	19848.630820
436.318257	20742.364383
436.694770	20548.887419
437.071222	21162.032879
437.447614	20209.786644
437.823946	20239.521890
438.200218	20395.830426
438.576429	20166.841054
438.952580	20449.974939
439.328670	20396.236239
439.704700	20816.237451
440.080670	20385.768283
440.456580	20994.563227
440.832429	21172.223571
441.208218	20131.933584
441.583947	20597.496745
441.959616	20702.340142
442.335224	20948.973553
442.710773	21078.581618
443.086261	21620.056994
443.461689	20982.076289
443.837057	21102.890062
444.212365	21754.320565
444.587612	21761.199219
444.962800	21334.435299
445.337927	21759.525556
445.712995	20460.400045
446.088002	22358.414633
446.462949	22552.078120
446.837837	22738.815061
447.212664	22693.490047
447.587431	25575.565592
447.962139	28567.427385
448.336786	30986.220891
448.711374	29411.354348
449.085901	25645.872044
449.460369	25587.790390
449.834776	25508.581260
450.209124	28039.394246
450.583412	27569.747751
450.957640	28091.807122
451.331808	26738.027942
451.705917	25328.428066
452.079965	25380.152825
452.453954	25744.666056
452.827883	25636.674459
453.201752	25420.154380
453.575562	25586.328455
453.949311	26732.074340
454.323001	26793.364688
454.696632	26544.697172
455.070202	28132.547207
455.443713	28263.556713
455.817164	28864.079124
456.190556	29411.492979
456.563888	28843.392749
456.937160	29291.332036
457.310373	27589.796420
457.683526	28045.909937
458.056619	28046.411532
458.429653	27971.888155
458.802628	28568.634741
459.175542	28687.353914
459.548398	29990.265332
459.921194	31570.959449
460.293930	32267.767899
460.666607	34315.963501
461.039224	36093.108863
461.411782	36502.183374
461.784280	35295.784847
462.156719	34804.582378
462.529099	34248.540588
462.901419	32948.542958
463.273680	31877.524618
463.645882	31953.177213
464.018024	31935.228185
464.390106	32773.846813
464.762130	35502.585581
465.134094	39600.622722
465.505999	44936.381598
465.877845	49560.931970
466.249631	50746.596231
466.621358	49073.255788
466.993026	46972.637227
467.364634	44901.264921
467.736184	42897.300403
468.107674	41623.204221
468.479105	40822.749648
468.850477	40132.499740
469.221790	38664.251080
469.593043	36902.892091
469.964238	36010.749012
470.335373	35910.561121
470.706449	37686.128602
471.077467	40288.432711
471.448425	44880.296241
471.819324	47735.280625
472.190164	45870.020935
472.560945	42289.175932
472.931667	39128.455649
473.302330	38006.113322
473.672934	37172.273708
474.043479	37706.081489
474.413965	36883.302167
474.784393	36501.706985
475.154761	37412.041067
475.525070	37433.166023
475.895321	36975.167113
476.265513	37568.566374
476.635645	38556.206550
477.005719	38388.709172
477.375734	38858.728713
477.745691	39552.089013
478.115588	40921.457961
478.485427	42902.815425
478.855207	46285.820345
479.224928	48901.569212
479.594591	50553.749412
479.964194	49564.543957
480.333739	49738.592314
480.703226	49770.195308
481.072653	50405.486556
481.442022	50884.343240
481.811333	51146.609268
482.180584	49861.021776
482.549777	49346.907263
482.918912	48790.164753
483.287988	48510.776445
483.657005	47673.365174
484.025964	47024.558592
484.394864	47053.734269
484.763706	46622.549257
485.132489	45748.882008
485.501213	45584.487460
485.869879	45726.095993
486.238487	45295.062215
486.607036	45511.211769
486.975527	44965.645497
487.343959	45154.471996
487.712333	45242.389719
488.080648	45137.868956
488.448905	45609.234485
488.817104	45409.390543
489.185244	46372.568521
489.553326	48053.062361
489.921350	50772.512803
490.289315	53622.955108
490.657222	54201.472882
491.025070	54477.438246
491.392861	53605.676553
491.760593	52381.807907
492.128267	50728.115361
492.495883	49204.744204
492.863440	47820.695416
493.230939	46447.308667
493.598380	45337.760788
493.965763	45006.383061
494.333088	44184.478379
494.700354	43695.367989
495.067563	43389.838778
495.434713	43254.483797
495.801805	43308.262826
496.168839	42932.157461
496.535815	42567.316554
496.902733	42624.178249
497.269593	42180.559231
497.636395	42111.936524
498.003139	42524.285265
498.369825	41972.992242
498.736453	42286.698205
499.103023	41803.249030
499.469535	41659.815601
499.835989	41770.809205
500.202385	41426.810949
500.568723	41442.761160
500.935003	41637.750470
501.301226	41420.166708
501.667390	42051.798080
502.033497	42309.171669
502.399546	41724.735580
502.765537	41027.501153
503.131470	41418.475401
503.497345	41780.016873
503.863163	40423.762486
504.228923	41039.917515
504.594625	41458.628192
504.960269	40749.768864
505.325856	41448.853394
505.691385	40795.020782
506.056856	40925.894177
506.422270	41370.765921
506.787625	40935.802565
507.152924	41135.805302
507.518164	41240.792372
507.883347	40431.936717
508.248472	40704.403521
508.613540	41177.190655
508.978550	41477.774494
509.343503	41219.816131
509.708398	41430.178440
510.073236	41963.078813
510.438016	41947.126082
510.802738	41398.409088
511.167403	42018.954962
511.532010	42260.940429
511.896561	42551.326014
512.261053	43424.022842
512.625488	42944.445273
512.989866	42832.072913
513.354186	42667.017974
513.718449	42649.981395
514.082655	43339.734749
514.446803	42991.151564
514.810894	43521.564128
515.174927	43445.351964
515.538904	43345.567364
515.902822	44018.258934
516.266684	43454.579796
516.630488	43900.618567
516.994235	43749.567954
517.357925	44313.688193
517.721558	44487.262682
518.085133	44788.330472
518.448651	44930.778356
518.812112	44687.888002
519.175516	44799.025280
519.538863	45117.457324
519.902152	45085.882057
520.265385	45551.470423
520.628560	45593.743019
520.991678	45380.209824
521.354739	45610.691378
521.717743	45927.996725
522.080690	45817.361042
522.443580	46365.016872
522.806413	46420.424194
523.169189	46350.057248
523.531908	46526.429577
523.894569	46383.948925
524.257174	46559.171871
524.619722	46862.233438
524.982213	46858.495422
525.344647	46770.555014
525.707025	46795.483520
526.069345	47179.299329
526.431608	47112.458671
526.793815	47423.679344
527.155964	46958.683314
527.518057	47113.116541
527.880093	46888.669248
528.242072	47403.489523
528.603995	47113.572766
528.965860	47128.078686
529.327669	47217.420535
529.689421	47107.208309
530.051117	47064.260199
530.412755	47206.163638
530.774337	47260.648429
531.135862	47050.079433
531.497331	47264.134387
531.858743	47149.697674
532.220098	47504.257148
532.581396	47206.854276
532.942638	46876.956127
533.303824	47174.873196
533.664953	47113.509751
534.026025	46846.096704
534.387040	47306.356571
534.747999	47237.761591
535.108902	47405.730316
535.469748	46918.217972
535.830537	47039.624080
536.191270	47212.074391
536.551947	46861.595732
536.912567	47174.265737
537.273131	47289.693037
537.633638	46750.992816
537.994089	47110.996736
538.354483	46698.869806
538.714821	47256.106349
539.075103	47609.135833
539.435328	47349.982716
539.795497	47221.894559
540.155609	47213.934577
540.515665	47673.483641
540.875665	47120.395967
541.235609	47440.932693
541.595496	47403.454235
541.955328	48068.538703
542.315102	47421.373017
542.674821	47196.282977
543.034483	47235.117505
543.394090	47194.581587
543.753640	47144.275913
544.113134	48142.631062
544.472571	47142.965213
544.831953	48374.566989
545.191278	47568.816684
545.550548	47274.161242
545.909761	47736.669463
546.268918	47928.613917
546.628019	48212.924911
546.987064	47761.406405
547.346053	47011.922939
547.704986	47895.627126
548.063863	47423.913758
548.422684	47608.031820
548.781449	47424.548943
549.140158	47806.229825
549.498811	47628.947567
549.857408	47025.881894
550.215949	47868.578815
550.574434	47779.718397
550.932864	47517.258283
551.291237	48217.840036
551.649555	47797.753124
552.007817	48008.364970
552.366022	47634.825553
552.724173	47776.368550
553.082267	48148.584665
553.440305	48406.142256
553.798288	47697.477013
554.156215	47960.821848
554.514086	48167.332716
554.871902	47884.902072
555.229661	47866.065800
555.587365	47654.982606
555.945014	47700.544555
556.302606	47577.061491
556.660143	47766.966798
557.017625	47831.617075
557.375050	47572.668126
557.732421	47870.270123
558.089735	47824.488884
558.446994	47694.906024
558.804197	48119.411507
559.161345	48026.407260
559.518437	47219.709219
559.875474	47471.217425
560.232455	47576.958148
560.589381	47711.773725
560.946251	47378.195534
561.303065	47994.395933
561.659825	47748.838809
562.016528	47367.447794
562.373177	47036.380097
562.729770	47449.875700
563.086307	46899.076711
563.442789	47291.424673
563.799216	47289.372924
564.155587	47017.248918
564.511904	46963.303531
564.868164	46987.473343
565.224370	47154.527099
565.580520	46812.124368
565.936615	46952.102087
566.292654	46613.654142
566.648638	46755.015657
567.004567	46652.788619
567.360441	46603.216432
567.716260	46390.454534
568.072023	46578.688698
568.427732	46470.175341
568.783385	45953.825076
569.138982	46246.446413
569.494525	46123.984183
569.850013	45804.674978
570.205445	45681.035639
570.560823	45545.415997
570.916145	45348.931985
571.271412	45263.943173
571.626625	44928.620742
571.981782	44877.125356
572.336884	44502.224826
572.691931	44692.964444
573.046923	44206.409919
573.401860	43973.415350
573.756743	43845.347357
574.111570	43838.748486
574.466342	43597.846867
574.821059	43582.806585
575.175722	43022.585679
575.530330	42927.678396
575.884882	42552.510685
576.239380	42407.401072
576.593823	42274.007100
576.948211	42091.366096
577.302544	41517.743282
577.656823	41422.669641
578.011047	41493.414674
578.365216	41123.943467
578.719330	40822.963898
579.073389	40562.638713
579.427394	40495.977015
579.781344	40352.823369
580.135239	39915.962018
580.489080	39862.417403
580.842866	39262.058829
581.196597	39521.151452
581.550273	39319.923714
581.903895	39068.423069
582.257463	39292.711565
582.610975	38597.143240
582.964434	38700.731390
583.317837	38242.699713
583.671186	37964.884245
584.024481	38021.564458
584.377721	37478.044895
584.730906	37592.358099
585.084037	37465.709191
585.437113	37083.859431
585.790135	36975.114181
586.143103	36486.999419
586.496016	36442.859076
586.848874	36312.472152
587.201679	36190.947577
587.554428	35601.689624
587.907124	35589.419456
588.259765	35222.650308
588.612352	35281.977127
588.964884	34643.920805
589.317362	34711.777257
589.669786	34519.008575
590.022155	34180.747152
590.374470	34371.489290
590.726731	33842.445399
591.078937	33291.275885
591.431090	33219.986408
591.783188	32821.175686
592.135232	32406.031625
592.487222	32436.785184
592.839157	32365.581407
593.191038	31961.190128
593.542866	31620.435854
593.894639	31001.795536
594.246358	31052.058361
594.598022	30893.337632
594.949633	30446.749374
595.301190	30262.643915
595.652692	29999.442752
596.004141	30058.653625
596.355535	29205.367760
596.706876	29016.745427
597.058162	28755.681714
597.409395	28935.824826
597.760573	28834.031327
598.111698	28371.815492
598.462768	28218.801350
598.813785	28100.480428
599.164748	27548.143886
599.515657	27665.118820
599.866511	27142.502401
600.217312	27398.018324
600.568060	26544.714816
600.918753	26888.173668
601.269392	26699.982354
601.619978	26320.945558
601.970510	26301.322867
602.320988	26254.735044
602.671412	26281.853931
603.021783	25968.389943
603.372100	25584.458187
603.722363	25498.304868
604.072572	25381.019903
604.422728	25240.669139
604.772830	24955.889317
605.122878	24861.360121
605.472872	24672.896584
605.822813	24664.639174
606.172701	24415.114662
606.522534	24391.358224
606.872314	24392.416866
607.222041	24079.144443
607.571714	24148.092304
607.921333	23658.598786
608.270899	23668.088758
608.620411	23705.524367
608.969870	23424.485081
609.319276	23263.949537
609.668627	23131.959526
610.017926	23234.423499
610.367171	23177.529036
610.716362	23056.024626
611.065500	22845.621988
611.414585	22790.917907
611.763616	22779.729066
612.112594	22576.346234
612.461518	22537.715872
612.810389	22529.609697
613.159207	22283.319085
613.507971	22165.487155
613.856682	22243.640163
614.205340	22031.647041
614.553945	22215.639074
614.902496	21767.019231
615.250994	21844.468998
615.599439	21712.635264
615.947830	21648.836941
616.296169	21511.838544
616.644454	21399.030124
616.992686	21326.369453
617.340864	21411.224675
617.688990	21117.736260
618.037063	21229.060060
618.385082	21044.876463
618.733048	21034.373219
619.080961	20872.206862
619.428821	20727.676981
619.776628	20615.528952
620.124382	20388.649303
620.472083	20297.986671
620.819731	20202.978565
621.167326	19913.656664
621.514868	19766.646535
621.862357	19436.750907
622.209793	19295.165060
622.557176	19016.699283
622.904506	18760.366693
623.251783	18492.744438
623.599007	18251.873066
623.946179	18022.114918
624.293297	17865.365280
624.640363	17493.277715
624.987376	17348.100046
625.334336	17101.864886
625.681243	16843.846029
626.028097	16692.840786
626.374899	16504.251221
626.721647	16360.464910
627.068343	16191.475351
627.414987	15978.663042
627.761577	15785.526355
628.108115	15773.293996
628.454600	15455.383711
628.801032	15397.861625
629.147412	15266.053096
629.493739	15151.845755
629.840014	14909.890535
630.186236	14900.435851
630.532405	14664.925746
630.878521	14628.344613
631.224585	14473.069513
631.570597	14277.409730
631.916556	14213.036716
632.262462	14091.726389
632.608316	13985.600019
632.954117	13848.289070
633.299866	13742.800405
633.645562	13613.666208
633.991206	13369.376934
634.336797	13137.433446
634.682336	13030.442517
635.027823	12849.495341
635.373257	12685.867049
635.718639	12506.459945
636.063968	12372.803833
636.409245	12124.746297
636.754470	12041.668081
637.099642	11871.811443
637.444762	11659.888898
637.789829	11600.771286
638.134845	11421.671693
638.479808	11316.218316
638.824719	11207.964579
639.169577	11027.345077
639.514383	10952.574684
639.859137	10795.232710
640.203839	10766.979564
640.548489	10596.903636
640.893086	10531.023317
641.237632	10386.347242
641.582125	10332.371608
641.926566	10238.543132
642.270955	10154.065997
642.615292	10077.480788
642.959576	9998.362398
643.303809	9919.443135
643.647990	9876.154747
643.992118	9799.045258
644.336195	9717.683555
644.680219	9660.899998
645.024192	9653.469338
645.368112	9694.443836
645.711981	9629.803641
646.055797	9743.007792
646.399562	9669.013735
646.743274	9796.244897
647.086935	9828.505761
647.430544	9743.983255
647.774101	9695.182365
648.117606	9675.317698
648.461059	9664.650617
648.804460	9523.778093
649.147810	9328.541766
649.491108	9207.932161
649.834354	9063.233401
650.177548	8835.695881
650.520690	8687.173407
650.863781	8623.869117
651.206820	8529.034931
651.549807	8387.875062
651.892742	8238.966939
652.235626	8137.796022
652.578458	8057.616470
652.921238	7899.659476
653.263967	7896.274341
653.606644	7783.342413
653.949269	7717.333544
654.291843	7606.392872
654.634365	7605.291380
654.976836	7495.820203
655.319255	7440.196112
655.661622	7389.124182
656.003938	7299.943650
656.346203	7223.686116
656.688416	7206.702468
657.030577	7130.490305
657.372687	7058.169912
657.714746	7050.625825
658.056753	7017.697008
658.398708	6886.334621
658.740612	6849.907243
659.082465	6843.714186
659.424266	6774.610049
659.766016	6748.522078
660.107715	6694.927051
660.449362	6660.853892
660.790958	6624.716380
661.132503	6582.658034
661.473996	6544.105810
661.815438	6517.773343
662.156829	6502.410426
662.498168	6434.140600
662.839456	6392.409929
663.180693	6365.215424
663.521879	6346.381674
663.863013	6300.441639
664.204097	6255.857674
664.545129	6279.165449
664.886110	6234.813377
665.227040	6208.072577
665.567918	6185.029463
665.908746	6154.343959
666.249522	6141.420961
666.590248	6109.467608
666.930922	6082.552887
667.271545	6047.844543
667.612118	6026.041552
667.952639	5962.366738
668.293109	5931.285504
668.633528	5885.877311
668.973896	5841.235373
669.314213	5813.498945
669.654480	5747.164922
669.994695	5713.046392
670.334859	5671.691287
670.674973	5627.061952
671.015035	5613.599551
671.355047	5570.800154
671.695008	5541.861411
672.034918	5499.301469
672.374777	5475.940762
672.714585	5438.779897
673.054342	5430.459472
673.394049	5387.155961
673.733705	5378.742275
674.073310	5326.286549
674.412864	5302.159587
674.752368	5233.718361
675.091820	5234.945882
675.431223	5171.371891
675.770574	5119.616885
676.109875	5070.382456
676.449125	5020.558212
676.788324	4986.149817
677.127473	4919.959467
677.466571	4883.191811
677.805619	4835.777238
678.144616	4814.077592
678.483562	4780.874032
678.822458	4738.016662
679.161303	4704.349317
679.500098	4672.378319
679.838842	4640.714832
680.177535	4633.435405
680.516179	4632.008759
680.854771	4630.209067
681.193314	4675.007281
681.531805	4741.111931
681.870247	4785.756389
682.208638	4825.140404
682.546978	4816.943488
682.885268	4803.649965
683.223508	4748.928240
683.561697	4706.043144
683.899836	4671.342362
684.237925	4621.510556
684.575963	4596.816464
684.913951	4547.453485
685.251889	4541.353689
685.589776	4523.833159
685.927614	4509.748175
686.265401	4506.405890
686.603137	4501.384901
686.940824	4521.209238
687.278460	4536.683060
687.616046	4535.516033
687.953582	4561.215835
688.291068	4547.841654
688.628504	4550.979773
688.965889	4534.394376
689.303224	4492.648581
689.640510	4453.897232
689.977745	4388.397520
690.314930	4315.583094
690.652065	4262.396400
690.989150	4199.729817
691.326185	4124.679639
691.663170	4062.612952
692.000105	4003.840660
692.336990	3946.948719
692.673825	3903.352820
693.010610	3859.807333
693.347345	3811.719767
693.684030	3761.711521
694.020665	3731.462077
694.357251	3680.629602
694.693786	3667.610822
695.030272	3642.649549
695.366707	3607.802573
695.703093	3582.543872
696.039429	3570.359403
696.375716	3547.437276
696.711952	3538.766492
697.048139	3522.349974
697.384276	3508.950587
697.720363	3504.670648
698.056400	3485.723471
698.392388	3470.957931
698.728326	3458.730613
699.064214	3437.247736
699.400053	3424.612083
699.735842	3402.068043
700.071581	3379.408057
700.407270	3355.696990
700.742910	3335.721418
701.078501	3313.036225
701.414042	3292.485962
701.749533	3272.283538
702.084974	3248.411154
702.420366	3246.061976
702.755709	3219.747153
703.091002	3202.929864
703.426246	3193.439892
703.761440	3180.158972
704.096584	3164.155829
704.431679	3152.664519
704.766725	3143.731594
705.101721	3133.714821
705.436668	3130.180973
705.771565	3112.320164
706.106413	3118.306535
706.441212	3114.359311
706.775961	3112.597428
707.110661	3106.086778
707.445311	3113.867799
707.779913	3106.543002
708.114465	3104.841613
708.448967	3111.480812
708.783421	3131.075777
709.117825	3135.970738
709.452180	3143.040956
709.786485	3154.703665
710.120742	3177.829959
710.454949	3181.809950
710.789107	3194.627083
711.123216	3218.040722
711.457275	3223.149932
711.791286	3242.891090
712.125247	3242.873446
712.459159	3233.222157
712.793023	3246.689600
713.126837	3203.582693
713.460602	3203.514637
713.794318	3184.776669
714.127985	3160.329593
714.461602	3120.791823
714.795171	3110.142386
715.128691	3070.793660
715.462162	3046.505380
715.795584	3024.160466
716.128957	3009.435256
716.462281	2994.566372
716.795556	2977.681028
717.128782	2958.738892
717.461960	2938.879266
717.795088	2928.665889
718.128167	2913.194588
718.461198	2894.592730
718.794180	2891.714231
719.127113	2875.171685
719.459997	2868.356045
719.792833	2854.427337
720.125619	2852.967922
720.458357	2837.625171
720.791046	2830.229798
721.123686	2826.486741
721.456278	2817.142963
721.788821	2812.588280
722.121315	2805.200469
722.453761	2804.429173
722.786158	2798.430200
723.118506	2796.897689
723.450805	2793.265537
723.783056	2791.448202
724.115259	2788.443674
724.447412	2784.080555
724.779518	2788.315124
725.111574	2788.373098
725.443582	2792.781587
725.775542	2789.456946
726.107453	2797.361475
726.439315	2794.606484
726.771129	2804.245171
727.102895	2808.736839
727.434612	2813.878816
727.766281	2814.027530
728.097901	2816.442242
728.429473	2815.625575
728.760996	2814.027530
729.092471	2810.213897
729.423897	2810.097950
729.755276	2803.909934
730.086606	2803.710808
730.417887	2808.507466
730.749120	2817.629434
731.080305	2820.575988
731.411442	2823.419199
731.742530	2822.743685
732.073570	2823.189827
732.404562	2826.862307
732.735506	2823.025989
733.066401	2815.512149
733.397249	2801.943884
733.728048	2785.217335
734.058798	2769.330139
734.389501	2751.247520
734.720156	2736.126579
735.050762	2726.520661
735.381320	2718.464897
735.711831	2711.477857
736.042293	2703.248174
736.372707	2702.852443
736.703073	2696.656865
737.033391	2699.154757
737.363661	2696.750127
737.693883	2698.083512
738.024056	2704.092567
738.354182	2706.093905
738.684260	2711.651777
739.014290	2712.818804
739.344272	2718.858107
739.674207	2720.251986
740.004093	2720.811554
740.333931	2722.575958
740.663722	2721.144270
740.993464	2719.984805
741.323159	2715.775441
741.652806	2710.903166
741.982405	2706.484595
742.311956	2698.988399
742.641460	2694.395908
742.970915	2687.683611
743.300323	2680.999041
743.629683	2676.530058
743.958996	2667.788698
744.288260	2664.300219
744.617477	2655.526091
744.946647	2651.732623
745.275768	2645.988228
745.604842	2641.773823
745.933869	2640.090078
746.262847	2634.562453
746.591778	2636.957001
746.920662	2639.099491
747.249498	2633.617236
747.578286	2638.663431
747.907027	2641.670480
748.235720	2643.903711
748.564365	2641.282311
748.892963	2639.883391
749.221514	2641.020171
749.550017	2637.042700
749.878473	2638.890283
750.206881	2629.720424
750.535242	2630.032976
750.863555	2627.030969
751.191821	2623.842439
751.520039	2624.543159
751.848210	2624.482666
752.176334	2622.700618
752.504411	2620.101903
752.832440	2617.845987
753.160421	2621.105092
753.488356	2615.998404
753.816243	2616.371449
754.144082	2612.041098
754.471875	2611.133690
754.799620	2611.698299
755.127318	2608.701333
755.454969	2611.073196
755.782572	2607.554471
756.110129	2605.976590
756.437638	2603.342587
756.765100	2606.684872
757.092515	2603.498863
757.419882	2606.581528
757.747203	2605.981631
758.074477	2605.406939
758.401703	2604.340735
758.728882	2608.877774
759.056014	2610.049842
759.383099	2609.086982
759.710138	2612.976232
760.037129	2614.707868
760.364073	2613.523197
760.690970	2614.055039
761.017820	2614.541510
761.344623	2614.347426
761.671379	2617.941768
761.998088	2627.167080
762.324751	2655.011893
762.651366	2700.616692
762.977935	2754.970412
763.304456	2786.142387
763.630931	2802.687454
763.957359	2789.353602
764.283740	2761.032400
764.610074	2730.669530
764.936362	2697.513861
765.262602	2672.877742
765.588796	2647.248516
765.914943	2624.578447
766.241044	2611.872219
766.567097	2603.874429
766.893104	2591.717686
767.219064	2585.244845
767.544978	2576.805953
767.870845	2569.738255
768.196665	2566.516958
768.522438	2563.232646
768.848165	2559.227450
769.173846	2556.356512
769.499479	2554.944989
769.825066	2551.030533
770.150607	2548.620862
770.476101	2545.873433
770.801548	2544.207332
771.126949	2539.130890
771.452303	2543.912424
771.777611	2535.594520
772.102872	2538.856147
772.428087	2534.561084
772.753256	2531.269210
773.078378	2530.674354
773.403453	2527.551359
773.728482	2526.908612
774.053465	2523.473066
774.378401	2525.446678
774.703291	2523.846111
775.028135	2522.048940
775.352932	2518.762108
775.677683	2516.798578
776.002388	2517.436284
776.327046	2516.879237
776.651658	2515.833197
776.976224	2512.541324
777.300743	2514.424195
777.625216	2512.226252
777.949643	2516.803619
778.274024	2513.909997
778.598359	2506.118894
778.922647	2506.620489
779.246889	2505.753410
779.571086	2506.799450
779.895236	2509.743483
780.219339	2508.301713
780.543397	2511.797754
780.867409	2508.064779
781.191374	2513.037878
781.515294	2507.779954
781.839167	2511.586025
782.162995	2511.212980
782.486776	2509.914883
782.810511	2507.802639
783.134201	2507.560664
783.457844	2505.496311
783.781441	2507.810201
784.104993	2505.433297
784.428498	2507.364059
784.751958	2505.738287
785.075372	2504.180570
785.398739	2505.473626
785.722061	2503.031187
786.045337	2504.828358
786.368568	2505.438338
786.691752	2508.306755
787.014891	2511.707013
787.337983	2515.296314
787.661030	2523.392407
787.984031	2533.961187
788.306987	2536.685930
788.629897	2538.236085
788.952760	2534.548481
789.275579	2535.019829
789.598351	2527.465660
789.921078	2524.294774
790.243759	2520.387880
790.566395	2516.294463
790.888984	2510.875222
791.211529	2510.514780
791.534027	2505.022443
791.856480	2504.394819
792.178888	2503.898266
792.501249	2500.669407
792.823566	2499.025990
793.145836	2499.270486
793.468062	2498.123624
793.790241	2496.265959
794.112375	2498.075733
794.434464	2501.080261
794.756507	2502.577483
795.078505	2501.614623
795.400457	2508.210973
795.722364	2506.605365
796.044226	2512.624503
796.366042	2512.604338
796.687812	2511.722136
797.009538	2518.520132
797.331218	2514.575429
797.652852	2514.598115
797.974442	2509.859430
798.295986	2511.369256
798.617484	2507.641322
798.938938	2509.095695
799.260346	2507.931189
799.581709	2502.900117
799.903026	2502.917761
800.224299	2503.532782
800.545526	2500.130003
800.866708	2496.331494
801.187845	2499.036073
801.508936	2496.271000
801.829983	2496.021463
802.150984	2490.889568
802.471940	2493.987357
802.792851	2491.020638
803.113717	2491.923005
803.434538	2489.223467
803.755314	2488.696666
804.076045	2488.386635
804.396731	2490.007366
804.717372	2488.850421
805.037967	2490.461070
805.358518	2488.202633
805.679024	2491.736482
805.999485	2490.130874
806.319901	2491.217243
806.640272	2493.785711
806.960598	2492.061636
807.280879	2491.023159
807.601115	2493.876452
807.921306	2490.030051
808.241453	2496.152533
808.561554	2495.756802
808.881611	2492.782521
809.201623	2491.282778
809.521590	2493.178252
809.841513	2490.128354
810.161390	2492.311173
810.481223	2491.101297
810.801011	2489.941831
811.120755	2490.357726
811.440453	2491.728920
811.760107	2489.536018
812.079716	2487.569968
812.399281	2483.801706
812.718801	2486.627272
813.038276	2480.981180
813.357707	2488.938642
813.677093	2487.030565
813.996434	2486.271871
814.315731	2484.691469
814.634983	2488.167345
814.954191	2486.317242
815.273354	2488.492499
815.592473	2488.948724
815.911547	2491.892758
816.230577	2491.106338
816.549562	2494.804024
816.868502	2495.666061
817.187399	2495.386277
817.506250	2500.135044
817.825058	2499.388953
818.143821	2501.962463
818.462539	2506.933040
818.781213	2513.315141
819.099843	2521.227232
819.418429	2535.244160
819.736970	2549.855945
820.055466	2564.883624
820.373919	2581.635378
820.692327	2617.624176
821.010691	2670.952022
821.329011	2796.658234
821.647286	2990.379694
821.965517	3202.851726
822.283704	3326.022238
822.601847	3366.427086
822.919945	3278.529527
823.237999	3175.264011
823.556010	3068.900706
823.873976	2977.045842
824.191897	2887.986298
824.509775	2820.386945
824.827609	2764.470467
825.145398	2730.235991
825.463144	2711.608927
825.780845	2714.512632
826.098502	2738.211096
826.416116	2783.145421
826.733685	2829.113182
827.051210	2840.906962
827.368692	2815.008034
827.686129	2767.774943
828.003522	2716.261912
828.320872	2665.784839
828.638177	2633.808800
828.955439	2606.238730
829.272656	2579.515573
829.589830	2556.023796
829.906960	2544.305634
830.224046	2530.661751
830.541088	2525.061029
830.858086	2519.571213
831.175041	2511.480161
831.491952	2509.632578
831.808819	2513.332785
832.125642	2518.361336
832.442421	2532.837009
832.759157	2555.728889
833.075849	2598.382092
833.392497	2634.549850
833.709101	2661.809889
834.025662	2655.621873
834.342179	2633.899541
834.658653	2607.473812
834.975083	2582.424319
835.291469	2566.552246
835.607811	2543.153731
835.924110	2531.934643
836.240366	2521.585154
836.556578	2510.076200
836.872746	2500.293841
837.188871	2497.039776
837.504952	2489.079794
837.820990	2484.273054
838.136984	2481.684421
838.452935	2479.161324
838.768842	2478.410192
839.084706	2487.174238
839.400526	2505.947495
839.716303	2526.021369
840.032037	2542.145500
840.347727	2540.325643
840.663373	2525.053468
840.978977	2508.117711
841.294537	2500.931547
841.610054	2490.332521
841.925527	2487.451501
842.240957	2481.323979
842.556344	2476.502115
842.871687	2471.226548
843.186987	2467.594396
843.502244	2464.446196
843.817458	2459.798252
844.132629	2459.447892
844.447756	2459.336986
844.762840	2453.630400
845.077881	2454.028651
845.392879	2449.831891
845.707833	2452.163424
846.022745	2452.677622
846.337613	2453.012859
846.652438	2450.451952
846.967221	2453.033023
847.281960	2454.076542
847.596656	2452.430605
847.911309	2451.916408
848.225919	2451.606377
848.540485	2450.739298
848.855009	2449.579833
849.169490	2449.907508
849.483928	2451.319031
849.798323	2450.835080
850.112675	2447.225614
850.426984	2448.506067
850.741251	2449.894905
851.055474	2447.303752
851.369654	2448.884154
851.683792	2449.191664
851.997887	2450.257868
852.311938	2448.546396
852.625947	2449.471448
852.939914	2450.136880
853.253837	2450.404062
853.567718	2449.983125
853.881555	2449.559668
854.195350	2449.930193
854.509103	2447.331478
854.822812	2449.811726
855.136479	2448.493464
855.450103	2449.297528
855.763685	2449.468927
856.077224	2447.006324
856.390720	2450.620831
856.704173	2451.921449
857.017584	2451.261058
857.330953	2449.194185
857.644278	2449.907508
857.957561	2451.419854
858.270802	2449.325255
858.584000	2451.777776
858.897155	2452.012190
859.210268	2445.635130
859.523339	2452.538990
859.836367	2447.908690
860.149352	2450.779627
860.462295	2453.249793
860.775195	2446.993721
861.088054	2448.659822
861.400869	2449.582353
861.713642	2443.482557
862.026373	2452.017231
862.339062	2449.617642
862.651708	2451.860955
862.964312	2447.646550
863.276873	2451.208126
863.589392	2450.366253
863.901869	2452.183589
864.214303	2452.975050
864.526696	2452.695266
864.839045	2454.797427
865.151353	2456.130812
865.463619	2454.003445
865.775842	2456.405555
866.088023	2455.934207
866.400162	2456.120730
866.712258	2452.843980
867.024313	2454.016048
867.336325	2454.729372
867.648296	2452.851542
867.960224	2455.472942
868.272110	2457.393621
868.583954	2456.914712
868.895755	2456.161059
869.207515	2455.440174
869.519233	2459.604167
869.830909	2456.947479
870.142542	2458.094342
870.454134	2458.124589
870.765684	2460.365382
871.077191	2458.416976
871.388657	2461.439147
871.700081	2460.534260
872.011463	2461.161884
872.322803	2462.540639
872.634101	2460.279682
872.945357	2461.993674
873.256571	2466.132462
873.567744	2464.456278
873.878874	2463.931998
874.189963	2464.030300
874.501010	2465.388891
874.812015	2466.288737
875.122979	2465.867801
875.433900	2468.194293
875.744780	2468.453913
876.055618	2467.551546
876.366415	2468.060703
876.677169	2467.065075
876.987882	2467.123048
877.298554	2467.697740
877.609183	2472.010447
877.919771	2469.429376
878.230317	2474.815849
878.540822	2482.422950
878.851285	2489.460401
879.161707	2494.677995
879.472087	2510.759276
879.782425	2535.327339
880.092722	2575.366704
880.402977	2637.987917
880.713191	2708.312013
881.023363	2774.202414
881.333494	2818.277222
881.643583	2833.589727
881.953631	2828.765343
882.263637	2807.466468
882.573602	2780.990328
882.883526	2753.044692
883.193408	2724.882286
883.503248	2695.648634
883.813048	2668.065961
884.122806	2641.942702
884.432522	2615.239710
884.742197	2593.978644
885.051831	2571.759758
885.361424	2555.141594
885.670975	2540.013092
885.980485	2528.678057
886.289954	2518.121881
886.599382	2509.856909
886.908768	2503.714263
887.218113	2496.470125
887.527417	2492.308653
887.836680	2484.610811
888.145901	2482.554020
888.455082	2479.763742
888.764221	2476.418936
889.073319	2475.889615
889.382376	2472.595221
889.691392	2470.571197
890.000366	2469.479788
890.309300	2472.237299
890.618193	2470.467854
890.927044	2472.355766
891.235855	2474.160499
891.544625	2473.797536
891.853353	2476.209728
892.162041	2475.098154
892.470687	2477.928762
892.779293	2484.971253
893.087858	2489.596512
893.396381	2499.288130
893.704864	2517.360667
894.013306	2534.016639
894.321707	2559.545042
894.630068	2572.115159
894.938387	2576.258988
895.246665	2572.462999
895.554903	2559.635783
895.863100	2549.371994
896.171256	2537.061496
896.479371	2532.060672
896.787446	2524.370391
897.095480	2517.708507
897.403473	2509.625016
897.711425	2498.600013
898.019336	2496.543222
898.327207	2490.761019
898.635038	2490.428303
898.942827	2484.356233
899.250576	2481.717189
899.558284	2475.821559
899.865952	2474.531024
900.173579	2471.375262
900.481165	2468.733697
900.788711	2465.777060
901.096216	2468.300158
901.403681	2464.945270
901.711105	2467.264201
902.018489	2466.276134
902.325832	2469.759572
902.633135	2471.292083
902.940397	2477.215438
903.247619	2494.640187
903.554800	2527.153108
903.861941	2562.403377
904.169041	2588.226687
904.476101	2602.198245
904.783121	2593.620722
905.090100	2580.133115
905.397039	2562.705846
905.703938	2547.594987
906.010796	2536.088553
906.317614	2523.473066
906.624391	2512.274143
906.931129	2505.985303
907.237826	2495.708911
907.544483	2487.010400
907.851099	2482.879175
908.157675	2473.832824
908.464211	2463.914354
908.770707	2460.050309
909.077163	2458.893365
909.383578	2452.793568
909.689954	2448.856427
909.996289	2447.886005
910.302584	2453.791717
910.608839	2449.751232
910.915054	2452.740636
911.221229	2451.475307
911.527363	2452.090327
911.833458	2447.442384
912.139513	2456.690380
912.445527	2453.882458
912.751502	2456.377829
913.057436	2456.682819
913.363331	2459.520988
913.669186	2462.117183
913.975000	2471.004737
914.280775	2476.393730
914.586510	2492.389311
914.892205	2507.341374
915.197859	2528.867101
915.503475	2553.241079
915.809050	2575.754872
916.114585	2587.215936
916.420081	2594.623911
916.725536	2590.404466
917.030952	2585.179310
917.336328	2576.042218
917.641665	2564.631567
917.946961	2556.588406
918.252218	2546.493495
918.557435	2536.204500
918.862612	2529.023376
919.167750	2516.112981
919.472848	2513.632734
919.777906	2501.352483
920.082925	2492.681698
920.387904	2488.069042
920.692843	2479.904894
920.997743	2476.804584
921.302603	2472.650673
921.607423	2470.331743
921.912204	2465.804787
922.216946	2459.851184
922.521647	2462.154991
922.826310	2458.996708
923.130932	2454.648713
923.435516	2451.719803
923.740059	2456.231635
924.044564	2452.198712
924.349028	2450.381376
924.653454	2445.340222
924.957840	2444.337033
925.262186	2441.924841
925.566493	2441.395520
925.870761	2438.948039
926.174989	2442.875098
926.479178	2441.249326
926.783328	2442.282763
927.087438	2442.983483
927.391509	2442.224789
927.695541	2439.946188
927.999533	2439.729418
928.303486	2440.815787
928.607400	2438.779161
928.911275	2439.283276
929.215110	2438.174222
929.518906	2437.874274
929.822663	2437.876794
930.126381	2437.402926
930.430060	2437.254212
930.733699	2435.920827
931.037299	2440.173040
931.340861	2438.156578
931.644383	2438.610282
931.947866	2437.113059
932.251309	2436.392174
932.554714	2436.888728
932.858080	2439.305961
933.161407	2438.522062
933.464694	2436.291351
933.767943	2435.071392
934.071153	2434.879828
934.374323	2436.876125
934.677455	2435.691454
934.980548	2436.729932
935.283602	2435.943512
935.586617	2432.928902
935.889593	2435.482246
936.192530	2439.744542
936.495428	2436.581218
936.798287	2435.270518
937.101108	2437.937288
937.403890	2438.552309
937.706632	2441.957608
938.009336	2442.030705
938.312002	2445.289811
938.614628	2443.593463
938.917216	2445.312496
939.219765	2447.321396
939.522275	2451.407251
939.824747	2449.307611
940.127179	2444.236210
940.429573	2444.400047
940.731929	2444.236210
941.034246	2443.371652
941.336524	2448.715275
941.638763	2447.379369
941.940964	2444.939451
942.243126	2444.233689
942.545250	2445.002465
942.847335	2443.401899
943.149381	2444.004317
943.451389	2443.059100
943.753359	2441.881991
944.055290	2443.114553
944.357182	2440.314192
944.659036	2440.094902
944.960851	2437.884356
945.262628	2437.294541
945.564367	2440.331836
945.866067	2439.232865
946.167729	2437.760848
946.469352	2439.311002
946.770937	2438.375868
947.072484	2437.060127
947.373992	2438.270004
947.675462	2437.677669
947.976893	2437.377720
948.278286	2438.474171
948.579641	2439.096753
948.880958	2437.649942
949.182236	2439.401743
949.483476	2435.341094
949.784678	2438.438883
950.085841	2436.613985
950.386967	2435.913265
950.688054	2438.695982
950.989103	2440.183122
951.290114	2440.541044
951.591087	2438.963163
951.892021	2439.041301
952.192917	2444.011878
952.493776	2440.183122
952.794596	2444.100099
953.095378	2442.295366
953.396122	2441.541713
953.696828	2440.346960
953.997496	2442.144131
954.298126	2438.983328
954.598718	2438.103646
954.899272	2439.386620
955.199788	2439.532813
955.500266	2437.014757
955.800706	2435.436876
956.101108	2430.093253
956.401472	2428.936308
956.701798	2430.516710
957.002087	2432.334046
957.302337	2430.425969
957.602550	2429.846236
957.902724	2432.734817
958.202861	2431.726587
958.502960	2426.022521
958.803022	2428.906061
959.103045	2426.408169
959.403031	2429.475711
959.702979	2425.387336
960.002889	2428.044024
960.302762	2426.607295
960.602596	2426.292223
960.902393	2426.834147
961.202153	2426.826585
961.501875	2425.339445
961.801559	2424.462284
962.101205	2427.648293
962.400814	2425.830957
962.700385	2423.380956
962.999918	2425.362130
963.299414	2422.793662
963.598873	2424.142171
963.898293	2423.713673
964.197677	2423.443971
964.497022	2424.792479
964.796331	2422.501275
965.095601	2423.401121
965.394835	2425.987233
965.694030	2422.723086
965.993189	2424.028745
966.292309	2421.447674
966.591393	2423.239804
966.890439	2421.861048
967.189447	2425.785587
967.488419	2425.183169
967.787353	2423.935483
968.086249	2422.889444
968.385108	2424.842891
968.683930	2421.351892
968.982714	2424.726944
969.281462	2422.644948
969.580172	2424.762232
969.878844	2423.774166
970.177480	2424.200144
970.476078	2421.805596
970.774639	2424.265679
971.073162	2426.004877
971.371649	2422.438261
971.670098	2419.216963
971.968510	2423.146543
972.266885	2419.970616
972.565223	2424.323652
972.863524	2421.172931
973.161788	2424.984043
973.460014	2422.289547
973.758204	2425.120154
974.056356	2425.089907
974.354471	2424.777356
974.652550	2423.370874
974.950591	2427.136616
975.248595	2424.207706
975.546563	2424.313570
975.844493	2423.660740
976.142386	2421.944227
976.440243	2425.999836
976.738062	2426.294743
977.035845	2425.972109
977.333590	2423.028076
977.631299	2423.680905
977.928971	2424.076636
978.226606	2424.984043
978.524204	2423.312901
978.821765	2422.372726
979.119290	2421.442633
979.416777	2421.445153
979.714228	2423.023034
980.011642	2424.737027
980.309020	2425.334403
980.606360	2422.017324
980.903664	2423.456574
981.200931	2423.817016
981.498162	2428.248190
981.795356	2426.892120
982.092513	2429.947059
982.389633	2434.506783
982.686717	2438.915272
982.983764	2439.457196
983.280775	2441.377876
983.577749	2440.432659
983.874686	2438.670776
984.171587	2438.988369
984.468451	2437.266815
984.765279	2434.932760
985.062070	2433.455702
985.358824	2433.828748
985.655543	2431.507296
985.952224	2427.620567
986.248869	2427.098807
986.545478	2423.864907
986.842050	2423.285174
987.138586	2423.154104
987.435086	2420.605801
987.731549	2418.906932
988.027975	2423.096131
988.324366	2419.746284
988.620719	2418.675039
988.917037	2418.727971
989.213318	2418.997673
989.509563	2419.917684
989.805772	2419.335430
990.101944	2420.252920
990.398080	2418.060018
990.694180	2418.337282
990.990244	2418.332241
991.286271	2418.974988
991.582262	2416.595563
991.878217	2416.537590
992.174136	2417.240831
992.470019	2420.890626
992.765865	2417.384504
993.061676	2418.468352
993.357450	2418.145718
993.653188	2417.341654
993.948890	2418.657395
994.244556	2419.590009
994.540186	2419.015317
994.835780	2424.792479
995.131337	2422.657551
995.426859	2422.992788
995.722345	2426.047727
996.017795	2425.649476
996.313208	2429.490835
996.608586	2425.616708
996.903928	2429.616864
997.199234	2428.328849
997.494504	2427.234918
997.789738	2431.068716
998.084936	2427.035793
998.380099	2427.446647
998.675225	2424.926070
998.970316	2423.822057
999.265371	2424.936152
999.560390	2420.250400
999.855373	2419.862231
1000.150320	2418.425502
1000.445232	2420.623445
1000.740108	2417.971798
1001.034948	2418.987591
1001.329752	2414.879050
1001.624521	2415.214287
1001.919254	2412.242527
1002.213951	2411.884605
1002.508613	2413.459966
1002.803239	2415.272260
1003.097829	2411.665315
1003.392384	2415.166396
1003.686903	2416.459452
1003.981386	2413.533062
1004.275834	2416.492220
1004.570246	2416.686304
1004.864623	2416.078845
1005.158964	2414.937024
1005.453270	2412.517270
1005.747540	2415.423495
1006.041775	2413.359142
1006.335974	2412.456776
1006.630138	2412.179512
1006.924266	2415.196643
1007.218359	2412.358473
1007.512416	2412.638258
1007.806438	2413.465007
1008.100425	2414.667322
1008.394376	2411.753535
1008.688292	2415.297466
1008.982172	2413.482651
1009.276017	2415.121026
1009.569827	2413.913669
1009.863602	2412.345871
1010.157341	2412.905439
1010.451045	2414.024575
1010.744714	2412.308062
1011.038347	2412.650860
1011.331945	2411.814029
1011.625508	2415.567168
1011.919036	2412.050963
1012.212528	2413.069276
1012.505986	2413.008782
1012.799408	2411.793864
1013.092795	2413.681776
1013.386147	2412.532393
1013.679464	2412.124060
1013.972745	2416.658578
1014.265992	2411.468710
1014.559204	2413.442322
1014.852380	2412.713875
1015.145521	2412.507187
1015.438628	2412.580284
1015.731699	2413.951478
1016.024736	2412.078689
1016.317737	2414.251427
1016.610703	2413.258319
1016.903635	2408.416291
1017.196531	2411.060376
1017.489393	2410.581467
1017.782219	2406.765313
1018.075011	2413.399472
1018.367768	2408.849830
1018.660490	2412.761766
1018.953177	2412.761766
1019.245829	2412.761766
