Dividing Wavelength (nm)	Counts (n)	Blue Motor Position (mm): 0.000000	Red Motor Position (mm): 22.600000	
326.493990	1986.688484
326.888308	1986.688484
327.282561	1986.688484
327.676750	1958.442899
328.070874	1961.071861
328.464933	1966.231482
328.858929	1977.483337
329.252859	1988.498258
329.646726	2003.354538
330.040528	2020.121416
330.434265	2038.292255
330.827938	2059.142468
331.221547	2078.389593
331.615091	2098.047572
332.008571	2119.601026
332.401986	2140.206742
332.795338	2158.243990
333.188625	2180.500685
333.581847	2199.256298
333.975006	2216.739019
334.368100	2232.764847
334.761129	2247.714389
335.154095	2266.525454
335.546996	2284.116561
335.939833	2306.277473
336.332606	2319.661737
336.725315	2329.958293
337.117960	2336.436176
337.510540	2342.785509
337.903056	2353.213136
338.295508	2359.738910
338.687896	2368.959180
339.080220	2375.056456
339.472480	2378.308000
339.864676	2383.192878
340.256807	2386.288146
340.648875	2388.095400
341.040879	2388.808723
341.432818	2388.503733
341.824694	2392.640000
342.216506	2390.623539
342.608253	2390.119423
342.999937	2389.015411
343.391557	2386.641027
343.783113	2389.022972
344.174605	2385.794113
344.566033	2384.465769
344.957397	2383.707076
345.348697	2381.408309
345.739934	2381.645244
346.131106	2376.667104
346.522215	2377.352701
346.913260	2372.949253
347.304241	2375.971425
347.695159	2370.894983
348.086012	2372.409850
348.476802	2369.117976
348.867528	2369.256608
349.258191	2366.874663
349.648789	2367.073788
350.039324	2362.811493
350.429796	2365.730321
350.820203	2361.140350
351.210548	2363.466843
351.600828	2362.945083
351.991045	2360.948787
352.381198	2361.974661
352.771288	2364.679240
353.161314	2360.270751
353.551276	2361.243694
353.941175	2362.879548
354.331010	2363.184538
354.720782	2362.292254
355.110490	2363.209744
355.500135	2365.500948
355.889717	2364.321318
356.279235	2363.237470
356.668689	2366.453727
357.058080	2362.892151
357.447408	2364.638911
357.836672	2362.420803
358.225873	2364.384333
358.615010	2363.713859
359.004084	2368.051772
359.393095	2365.929447
359.782043	2369.639736
360.170927	2373.287011
360.559748	2370.758872
360.948505	2371.872967
361.337199	2374.670807
361.725830	2375.807587
362.114398	2376.853627
362.502903	2377.377907
362.891344	2375.900849
363.279722	2376.248688
363.668037	2380.833618
364.056289	2376.145345
364.444478	2379.729605
364.832603	2380.546272
365.220665	2381.667929
365.608665	2380.178268
365.996601	2382.046015
366.384474	2382.469472
366.772284	2386.320914
367.160031	2384.191026
367.547715	2384.702703
367.935336	2385.466438
368.322893	2387.155225
368.710388	2384.110368
369.097820	2391.236039
369.485189	2387.248486
369.872495	2395.281565
370.259738	2392.887017
370.646918	2394.517830
371.034035	2397.976062
371.421090	2399.248953
371.808081	2402.281207
372.195010	2406.029305
372.581875	2412.522311
372.968678	2418.092786
373.355418	2427.471853
373.742096	2440.011723
374.128710	2447.394493
374.515262	2458.890844
374.901751	2471.309727
375.288177	2489.863693
375.674540	2508.445386
376.060841	2527.967255
376.447079	2550.846531
376.833254	2577.899883
377.219367	2603.950046
377.605417	2639.424646
377.991404	2663.576814
378.377329	2708.012064
378.763191	2739.814183
379.148991	2783.296656
379.534727	2833.801456
379.920402	2881.684855
380.306013	2929.701846
380.691563	2990.919098
381.077049	3045.809701
381.462474	3103.593927
381.847835	3177.845082
382.233134	3249.684045
382.618371	3305.320739
383.003545	3392.966240
383.388657	3473.927171
383.773706	3565.782035
384.158693	3636.637973
384.543618	3733.317222
384.928480	3811.686999
385.313280	3915.375972
385.698017	4016.380531
386.082692	4138.575579
386.467305	4198.487172
386.851856	4327.026513
387.236344	4484.413857
387.620770	4542.419893
388.005133	4667.853883
388.389435	4810.503414
388.773674	4897.576743
389.157851	5032.740160
389.541965	5160.669522
389.926018	5183.387481
390.310008	5361.025140
390.693936	5487.069110
391.077802	5602.587150
391.461606	5734.660340
391.845348	5847.539336
392.229027	5967.828828
392.612645	6190.816707
392.996200	6307.811806
393.379694	6481.323280
393.763125	6700.966353
394.146494	6798.235416
394.529801	6932.151148
394.913047	7178.814805
395.296230	7164.220665
395.679351	7226.015129
396.062410	7491.457085
396.445408	7377.194292
396.828343	7531.657766
397.211217	7666.528796
397.594028	7552.447484
397.976778	7751.784790
398.359466	7918.954493
398.742092	7892.682519
399.124656	8039.092750
399.507158	8227.155515
399.889598	8241.822752
400.271977	8455.802089
400.654294	8484.876944
401.036549	8677.002879
401.418742	8711.391110
401.800874	9002.192590
402.182944	9088.247607
402.564952	9444.672307
402.946898	9274.263663
403.328783	9329.423968
403.710606	9525.676087
404.092367	9782.359038
404.474067	10141.052258
404.855705	9925.739536
405.237282	9887.777127
405.618797	10306.772629
406.000250	10554.802439
406.381642	10921.296845
406.762972	10871.465039
407.144240	10666.544656
407.525447	10918.919941
407.906593	10856.951557
408.287677	11112.956473
408.668700	11264.496078
409.049661	11237.253682
409.430560	11401.444063
409.811399	11368.721934
410.192176	11534.152438
410.572891	11600.267171
410.953545	12081.488155
411.334138	11564.321223
411.714669	12155.338539
412.095139	11482.001702
412.475547	11969.934983
412.855894	11817.903865
413.236180	12146.128351
413.616405	11823.746562
413.996568	12097.481216
414.376670	12081.677199
414.756711	11954.806480
415.136691	12228.314282
415.516609	12405.432702
415.896466	12477.906850
416.276262	12755.127462
416.655997	13200.082385
417.035670	13245.369591
417.415283	13876.297721
417.794834	13966.882214
418.174324	13711.767062
418.553753	13613.817443
418.933121	14095.413993
419.312428	13906.095981
419.691674	13808.030416
420.070859	14269.908493
420.449983	13923.165328
420.829045	14471.284945
421.208047	14214.390265
421.586988	14668.799873
421.965867	14917.313634
422.344686	14910.397171
422.723444	15478.419263
423.102141	14169.765972
423.480777	15337.231667
423.859352	14860.754409
424.237866	15939.044613
424.616319	15651.903011
424.994712	16294.766073
425.373044	16087.549444
425.751314	16748.903458
426.129524	15887.801285
426.507673	16957.191332
426.885762	16663.793658
427.263789	16844.292171
427.641756	17001.051891
428.019662	17062.130511
428.397508	17100.460925
428.775292	17391.259884
429.153016	17346.812031
429.530679	17415.805262
429.908282	17431.158096
430.285824	17139.073642
430.663305	17821.915575
431.040726	17414.610509
431.418086	17232.166110
431.795385	17856.528137
432.172624	18251.807531
432.549802	17802.981001
432.926920	17965.485116
433.303977	17825.409095
433.680974	18055.958704
434.057910	18308.699473
434.434786	18304.986663
434.811601	18189.619857
435.188355	19165.746038
435.565050	18788.090518
435.941683	18705.309731
436.318257	19504.052832
436.694770	19264.237581
437.071222	19771.901938
437.447614	18833.259257
437.823946	18791.798287
438.200218	18865.759576
438.576429	18591.223378
438.952580	18781.791597
439.328670	18674.563734
439.704700	18976.826277
440.080670	18490.700250
440.456580	18954.075550
440.832429	19020.737248
441.208218	17993.529055
441.583947	18306.861972
441.959616	18297.556002
442.335224	18398.333709
442.710773	18402.769924
443.086261	18761.939533
443.461689	18078.616170
443.837057	18077.416375
444.212365	18493.583790
444.587612	18360.285600
444.962800	17857.319598
445.337927	18075.384790
445.712995	16865.011314
446.088002	18263.976876
446.462949	18268.239172
446.837837	18253.609743
447.212664	18057.140855
447.587431	20106.516087
447.962139	22210.083722
448.336786	23860.587738
448.711374	22439.425975
449.085901	19446.061918
449.460369	19168.712757
449.834776	18898.620337
450.209124	20476.640122
450.583412	19944.105233
450.957640	20090.641493
451.331808	18914.784797
451.705917	17707.428451
452.079965	17504.673243
452.453954	17520.560439
452.827883	17210.892441
453.201752	16870.508692
453.575562	16749.233654
453.949311	17214.973255
454.323001	17013.921957
454.696632	16622.725898
455.070202	17325.142631
455.443713	17162.918300
455.817164	17239.647182
456.190556	17277.218902
456.563888	16699.548042
456.937160	16676.126841
457.310373	15527.134453
457.683526	15490.540717
458.056619	15224.481220
458.429653	14931.499441
458.802628	14964.067816
459.175542	14779.690134
459.548398	15130.594771
459.921194	15601.980464
460.293930	15654.186654
460.666607	16297.367308
461.039224	16799.012527
461.411782	16639.777601
461.784280	15813.146837
462.156719	15291.243741
462.529099	14748.603859
462.901419	13939.854068
463.273680	13245.964447
463.645882	12987.867452
464.018024	12710.477962
464.390106	12744.901481
464.762130	13435.126183
465.134094	14583.478344
465.505999	16144.091026
465.877845	17414.819717
466.249631	17412.266372
466.621358	16385.708488
466.993026	15287.213339
467.364634	14273.719605
467.736184	13361.084236
468.107674	12684.082480
468.479105	12172.826301
468.850477	11708.460415
469.221790	11081.015722
469.593043	10395.902750
469.964238	9941.122617
470.335373	9690.116005
470.706449	9818.599893
471.077467	10123.251944
471.448425	10841.896151
471.819324	11213.575383
472.190164	10604.082239
472.560945	9664.499382
472.931667	8863.127320
473.302330	8437.469933
473.672934	8093.920340
474.043479	7972.141186
474.413965	7660.093763
474.784393	7415.623007
475.154761	7372.508539
475.525070	7203.345060
475.895321	6972.447611
476.265513	6881.462346
476.635645	6844.094793
477.005719	6660.894221
477.375734	6559.730866
477.745691	6486.853426
478.115588	6475.805737
478.485427	6532.473347
478.855207	6735.102526
479.224928	6860.211362
479.594591	6845.894485
479.964194	6570.087917
480.333739	6403.475262
480.703226	6238.639613
481.072653	6149.607795
481.442022	6046.385129
481.811333	5923.499442
482.180584	5683.737124
482.549777	5507.611812
482.918912	5341.404969
483.287988	5199.932548
483.657005	5033.476169
484.025964	4877.187797
484.394864	4771.444554
484.763706	4644.956962
485.132489	4502.057895
485.501213	4401.194489
485.869879	4321.761028
486.238487	4228.693766
486.607036	4153.562930
486.975527	4060.667067
487.343959	3995.343796
487.712333	3939.568469
488.080648	3871.099518
488.448905	3826.127384
488.817104	3757.592898
489.185244	3733.501224
489.553326	3733.322263
489.921350	3762.003908
490.289315	3799.918426
490.657222	3773.107049
491.025070	3731.298239
491.392861	3659.519770
491.760593	3576.612954
492.128267	3493.880058
492.495883	3418.981115
492.863440	3351.749766
493.230939	3291.765077
493.598380	3244.292531
493.965763	3207.608054
494.333088	3173.287879
494.700354	3141.203455
495.067563	3118.793006
495.434713	3092.344592
495.801805	3078.428487
496.168839	3054.692214
496.535815	3037.179246
496.902733	3020.765249
497.269593	3005.283865
497.636395	2987.632265
498.003139	2980.390648
498.369825	2963.991774
498.736453	2959.404324
499.103023	2943.171809
499.469535	2927.995415
499.835989	2919.745567
500.202385	2910.127045
500.568723	2901.930129
500.935003	2894.945611
501.301226	2886.000083
501.667390	2886.431102
502.033497	2882.617469
502.399546	2869.525592
502.765537	2855.836339
503.131470	2856.126205
503.497345	2852.267202
503.863163	2836.251456
504.228923	2838.908144
504.594625	2840.901921
504.960269	2827.116886
505.325856	2831.353975
505.691385	2822.468942
506.056856	2820.792758
506.422270	2821.064980
506.787625	2813.283959
507.152924	2814.561892
507.518164	2810.975111
507.883347	2804.056127
508.248472	2805.996972
508.613540	2807.068217
508.978550	2808.988896
509.343503	2804.650983
509.708398	2808.187353
510.073236	2809.850934
510.438016	2810.337405
510.802738	2803.299954
511.167403	2807.595017
511.532010	2807.804225
511.896561	2811.819504
512.261053	2819.197233
512.625488	2813.929227
512.989866	2807.816828
513.354186	2809.704740
513.718449	2804.724080
514.082655	2814.055256
514.446803	2810.634833
514.810894	2817.884012
515.174927	2816.472489
515.538904	2813.919145
515.902822	2821.153201
516.266684	2815.469300
516.630488	2819.653457
516.994235	2816.505257
517.357925	2822.007676
517.721558	2822.310145
518.085133	2826.580003
518.448651	2828.772905
518.812112	2823.174703
519.175516	2824.792914
519.538863	2828.220898
519.902152	2826.489262
520.265385	2828.220898
520.628560	2832.054696
520.991678	2830.446568
521.354739	2831.439675
521.717743	2831.802638
522.080690	2832.626867
522.443580	2839.608865
522.806413	2838.333453
523.169189	2836.659790
523.531908	2838.898062
523.894569	2836.755572
524.257174	2838.739266
524.619722	2842.779751
524.982213	2839.485357
525.344647	2841.400995
525.707025	2840.095336
526.069345	2842.300841
526.431608	2841.058197
526.793815	2844.705471
527.155964	2841.489215
527.518057	2842.215141
527.880093	2838.348576
528.242072	2845.837210
528.603995	2840.294462
528.965860	2842.706654
529.327669	2843.611541
529.689421	2840.639781
530.051117	2841.469051
530.412755	2840.969976
530.774337	2842.346211
531.135862	2840.559122
531.497331	2839.712208
531.858743	2836.354800
532.220098	2841.705985
532.581396	2836.642146
532.942638	2833.836744
533.303824	2836.632063
533.664953	2838.731704
534.026025	2834.804645
534.387040	2839.263546
534.747999	2838.020901
535.108902	2840.034842
535.469748	2833.352793
535.830537	2834.630725
536.191270	2835.575942
536.551947	2834.131651
536.912567	2835.046621
537.273131	2836.841271
537.633638	2829.894561
537.994089	2834.340859
538.354483	2827.694098
538.714821	2832.369768
539.075103	2840.304544
539.435328	2832.042093
539.795497	2832.203410
540.155609	2832.248780
540.515665	2834.771878
540.875665	2830.151660
541.235609	2829.143429
541.595496	2833.604851
541.955328	2837.398319
542.315102	2832.488235
542.674821	2829.352637
543.034483	2827.868017
543.394090	2826.164107
543.753640	2826.138902
544.113134	2832.868842
544.472571	2824.823161
544.831953	2834.744151
545.191278	2827.542863
545.550548	2826.239725
545.909761	2828.283913
546.268918	2832.899089
546.628019	2830.885148
546.987064	2826.126299
547.346053	2819.293015
547.704986	2828.732575
548.063863	2820.676812
548.422684	2825.125630
548.781449	2820.717141
549.140158	2821.992553
549.498811	2822.534477
549.857408	2814.241779
550.215949	2819.429126
550.574434	2815.900318
550.932864	2816.137252
551.291237	2817.810916
551.649555	2818.042809
552.007817	2821.417861
552.366022	2815.549958
552.724173	2819.764363
553.082267	2818.385607
553.440305	2819.456852
553.798288	2813.147848
554.156215	2814.120791
554.514086	2816.268322
554.871902	2812.323620
555.229661	2810.579380
555.587365	2806.793474
555.945014	2807.322795
556.302606	2801.379275
556.660143	2805.321457
557.017625	2802.720222
557.375050	2800.360962
557.732421	2799.219140
558.089735	2800.459264
558.446994	2796.484314
558.804197	2798.147895
559.161345	2794.795528
559.518437	2785.277829
559.875474	2791.223870
560.232455	2785.809671
560.589381	2788.385701
560.946251	2784.498971
561.303065	2781.386058
561.659825	2780.113167
562.016528	2774.560336
562.373177	2771.094543
562.729770	2773.342897
563.086307	2770.237547
563.442789	2767.217896
563.799216	2762.758995
564.155587	2761.039962
564.511904	2760.959303
564.868164	2755.943355
565.224370	2755.212388
565.580520	2748.051429
565.936615	2748.797519
566.292654	2742.629668
566.648638	2740.595562
567.004567	2738.473236
567.360441	2736.247567
567.716260	2732.897720
568.072023	2728.209447
568.427732	2722.729713
568.783385	2721.078735
569.138982	2716.836604
569.494525	2718.240565
569.850013	2709.204297
570.205445	2708.947198
570.560823	2705.390664
570.916145	2699.545446
571.271412	2701.035107
571.626625	2697.055116
571.981782	2693.647296
572.336884	2687.572706
572.691931	2688.417099
573.046923	2682.952488
573.401860	2680.953671
573.756743	2678.070131
574.111570	2675.168947
574.466342	2672.320695
574.821059	2668.499500
575.175722	2666.140240
575.530330	2664.804335
575.884882	2658.981802
576.239380	2657.078766
576.593823	2656.226811
576.948211	2652.337561
577.302544	2649.012920
577.656823	2644.748104
578.011047	2645.965543
578.365216	2642.391365
578.719330	2636.906589
579.073389	2636.652011
579.427394	2636.702423
579.781344	2632.631691
580.135239	2631.126906
580.489080	2630.153964
580.842866	2624.190279
581.196597	2625.574075
581.550273	2625.894189
581.903895	2623.542490
582.257463	2624.522995
582.610975	2617.667026
582.964434	2617.210801
583.317837	2615.174175
583.671186	2613.293825
584.024481	2615.433794
584.377721	2610.533793
584.730906	2608.736622
585.084037	2609.588577
585.437113	2606.826024
585.790135	2605.837958
586.143103	2604.181939
586.496016	2604.055910
586.848874	2597.845209
587.201679	2600.426279
587.554428	2593.189703
587.907124	2595.674992
588.259765	2589.297932
588.612352	2595.370002
588.964884	2592.995619
589.317362	2596.582400
589.669786	2592.667944
590.022155	2593.328335
590.374470	2594.928901
590.726731	2590.996801
591.078937	2588.932449
591.431090	2587.939341
591.783188	2589.865062
592.135232	2585.726275
592.487222	2585.144022
592.839157	2584.808785
593.191038	2582.469689
593.542866	2585.769125
593.894639	2579.107240
594.246358	2581.285018
594.598022	2576.521128
594.949633	2578.540110
595.301190	2576.238823
595.652692	2577.720923
596.004141	2578.885429
596.355535	2574.232444
596.706876	2572.704974
597.058162	2569.652556
597.409395	2572.752865
597.760573	2572.722618
598.111698	2570.539799
598.462768	2571.364028
598.813785	2570.580128
599.164748	2570.149109
599.515657	2569.614747
599.866511	2569.491239
600.217312	2570.154151
600.568060	2566.073337
600.918753	2569.849161
601.269392	2568.649366
601.619978	2566.174160
601.970510	2564.122410
602.320988	2566.544684
602.671412	2569.065261
603.021783	2566.290106
603.372100	2563.673747
603.722363	2564.402194
604.072572	2564.530743
604.422728	2566.355641
604.772830	2561.972358
605.122878	2560.349106
605.472872	2559.703839
605.822813	2560.679302
606.172701	2565.430589
606.522534	2562.539488
606.872314	2565.617112
607.222041	2560.780125
607.571714	2561.551422
607.921333	2562.831875
608.270899	2562.128634
608.620411	2564.676937
608.969870	2559.285423
609.319276	2561.495969
609.668627	2562.423541
610.017926	2562.778942
610.367171	2564.477811
610.716362	2564.162739
611.065500	2563.096535
611.414585	2565.332287
611.763616	2566.199365
612.112594	2560.870866
612.461518	2563.063768
612.810389	2564.835733
613.159207	2564.543346
613.507971	2561.286761
613.856682	2563.078891
614.205340	2561.437996
614.553945	2565.244067
614.902496	2560.470094
615.250994	2565.927143
615.599439	2562.945301
615.947830	2565.566701
616.296169	2563.139385
616.644454	2565.450754
616.992686	2565.783470
617.340864	2566.411094
617.688990	2563.855229
618.037063	2567.013512
618.385082	2564.802966
618.733048	2564.545867
619.080961	2567.668862
619.428821	2566.849674
619.776628	2568.430076
620.124382	2566.980744
620.472083	2565.985116
620.819731	2564.986968
621.167326	2561.750547
621.514868	2564.729869
621.862357	2560.124775
622.209793	2561.143088
622.557176	2556.462377
622.904506	2556.769887
623.251783	2552.653785
623.599007	2553.808209
623.946179	2550.551624
624.293297	2548.399051
624.640363	2551.630431
624.987376	2552.694114
625.334336	2548.744370
625.681243	2549.598846
626.028097	2545.066848
626.374899	2548.792261
626.721647	2545.777651
627.068343	2543.846889
627.414987	2545.865871
627.761577	2546.864020
628.108115	2540.754141
628.454600	2540.000489
628.801032	2544.106509
629.147412	2540.933102
629.493739	2544.529966
629.840014	2542.362269
630.186236	2541.850592
630.532405	2539.675334
630.878521	2539.415715
631.224585	2540.335726
631.570597	2538.122659
631.916556	2539.708102
632.262462	2540.045859
632.608316	2536.083512
632.954117	2534.397246
633.299866	2535.720549
633.645562	2534.677030
633.991206	2532.839530
634.336797	2531.627132
634.682336	2533.104190
635.027823	2530.127389
635.373257	2529.991278
635.718639	2525.716379
636.063968	2529.270393
636.409245	2528.370547
636.754470	2528.045393
637.099642	2524.430885
637.444762	2527.735362
637.789829	2523.112623
638.134845	2523.677233
638.479808	2519.727489
638.824719	2522.495082
639.169577	2520.889475
639.514383	2518.847807
639.859137	2521.391069
640.203839	2519.440143
640.548489	2518.250431
640.893086	2515.621469
641.237632	2514.330933
641.582125	2515.671880
641.926566	2511.613752
642.270955	2516.493588
642.615292	2513.978053
642.959576	2516.687673
643.303809	2514.605676
643.647990	2516.231448
643.992118	2514.086437
644.336195	2512.934534
644.680219	2514.789678
645.024192	2515.137518
645.368112	2516.244051
645.711981	2519.263702
646.055797	2516.148269
646.399562	2516.884278
646.743274	2520.718075
647.086935	2523.357119
647.430544	2521.000380
647.774101	2520.292098
648.117606	2520.594567
648.461059	2522.348889
648.804460	2522.701769
649.147810	2517.489216
649.491108	2519.442663
649.834354	2516.851510
650.177548	2514.764473
650.520690	2514.338495
650.863781	2512.059894
651.206820	2513.473937
651.549807	2510.928155
651.892742	2507.865654
652.235626	2508.150479
652.578458	2510.008144
652.921238	2504.533451
653.263967	2505.602176
653.606644	2504.624192
653.949269	2504.662000
654.291843	2506.146620
654.634365	2507.515293
654.976836	2503.691578
655.319255	2503.333656
655.661622	2504.465395
656.003938	2502.733759
656.346203	2501.455827
656.688416	2500.820641
657.030577	2501.342401
657.372687	2501.619664
657.714746	2499.870384
658.056753	2498.937770
658.398708	2495.933243
658.740612	2501.259222
659.082465	2497.662358
659.424266	2496.086998
659.766016	2495.063643
660.107715	2499.603202
660.449362	2500.165291
660.790958	2499.900631
661.132503	2497.448109
661.473996	2498.721001
661.815438	2499.308295
662.156829	2501.644870
662.498168	2500.495487
662.839456	2501.017246
663.180693	2498.516834
663.521879	2498.794097
663.863013	2500.818121
664.204097	2500.941629
664.545129	2500.114880
664.886110	2500.142606
665.227040	2500.651762
665.567918	2503.184942
665.908746	2500.256032
666.249522	2502.869870
666.590248	2501.284427
666.930922	2499.603202
667.271545	2503.154695
667.612118	2503.063955
667.952639	2498.683192
668.293109	2501.402894
668.633528	2497.097749
668.973896	2504.346928
669.314213	2500.339211
669.654480	2498.927688
669.994695	2499.464571
670.334859	2499.847698
670.674973	2498.600013
671.015035	2498.766371
671.355047	2499.260404
671.695008	2498.093377
672.034918	2496.999447
672.374777	2499.736793
672.714585	2496.840650
673.054342	2499.767040
673.394049	2496.175218
673.733705	2498.279900
674.073310	2496.112203
674.412864	2494.491473
674.752368	2494.173880
675.091820	2498.688233
675.431223	2496.094559
675.770574	2494.168839
676.109875	2490.927377
676.449125	2491.340751
676.788324	2490.410658
677.127473	2491.978457
677.466571	2485.125009
677.805619	2489.959475
678.144616	2489.064670
678.483562	2492.394352
678.822458	2492.419558
679.161303	2488.184989
679.500098	2489.092397
679.838842	2489.006697
680.177535	2485.800523
680.516179	2489.427633
680.854771	2486.808754
681.193314	2492.354023
681.531805	2494.020125
681.870247	2499.656135
682.208638	2498.201762
682.546978	2498.607575
682.885268	2499.071361
683.223508	2498.733603
683.561697	2495.650938
683.899836	2496.833088
684.237925	2496.603716
684.575963	2496.250835
684.913951	2492.275885
685.251889	2493.674806
685.589776	2494.942656
685.927614	2495.587923
686.265401	2493.576503
686.603137	2495.111534
686.940824	2494.131030
687.278460	2496.515496
687.616046	2494.443582
687.953582	2501.024808
688.291068	2499.716628
688.628504	2501.223933
688.965889	2497.387615
689.303224	2498.776453
689.640510	2495.204796
689.977745	2494.579693
690.314930	2492.356544
690.652065	2492.469970
690.989150	2487.327993
691.326185	2488.686584
691.663170	2487.096100
692.000105	2485.288846
692.336990	2480.071252
692.673825	2483.922693
693.010610	2478.490850
693.347345	2475.740901
693.684030	2473.999182
694.020665	2472.582618
694.357251	2469.762092
694.693786	2474.556230
695.030272	2471.755869
695.366707	2469.265539
695.703093	2471.113122
696.039429	2469.217648
696.375716	2470.152782
696.711952	2471.564305
697.048139	2466.535754
697.384276	2469.666310
697.720363	2471.438276
698.056400	2469.925930
698.392388	2469.668831
698.728326	2466.505507
699.064214	2466.581124
699.400053	2462.701956
699.735842	2464.287399
700.071581	2466.750003
700.407270	2466.750003
700.742910	2462.865794
701.078501	2463.392594
701.414042	2463.097687
701.749533	2460.304888
702.084974	2461.013170
702.420366	2463.238839
702.755709	2462.202882
703.091002	2460.985443
703.426246	2458.210288
703.761440	2458.792542
704.096584	2458.467387
704.431679	2460.844291
704.766725	2456.274485
705.101721	2459.034517
705.436668	2461.219857
705.771565	2457.418827
706.106413	2461.018211
706.441212	2458.900926
706.775961	2459.548715
707.110661	2461.232460
707.445311	2462.202882
707.779913	2460.551904
708.114465	2462.291102
708.448967	2461.585341
708.783421	2463.392594
709.117825	2463.697584
709.452180	2464.705815
709.786485	2466.954170
710.120742	2466.966773
710.454949	2468.307719
710.789107	2466.674386
711.123216	2467.828810
711.457275	2469.447020
711.791286	2472.814511
712.125247	2469.764613
712.459159	2472.023050
712.793023	2475.420788
713.126837	2472.131435
713.460602	2472.759058
713.794318	2472.907772
714.127985	2468.186732
714.461602	2465.993830
714.795171	2468.093470
715.128691	2465.416618
715.462162	2464.433593
715.795584	2461.613067
716.128957	2459.944445
716.462281	2459.362192
716.795556	2462.003757
717.128782	2461.053499
717.461960	2458.180041
717.795088	2456.496296
718.128167	2457.287757
718.461198	2454.003445
718.794180	2454.754577
719.127113	2452.758280
719.459997	2456.292129
719.792833	2452.435647
720.125619	2451.689556
720.458357	2452.816254
720.791046	2449.809205
721.123686	2450.880451
721.456278	2446.726540
721.788821	2449.058073
722.121315	2450.600667
722.453761	2449.675615
722.786158	2446.600511
723.118506	2446.968515
723.450805	2450.164607
723.783056	2449.189143
724.115259	2451.455142
724.447412	2450.474638
724.779518	2448.027157
725.111574	2449.100923
725.443582	2448.806016
725.775542	2452.135698
726.107453	2451.540842
726.439315	2451.561006
726.771129	2457.300360
727.102895	2455.561162
727.434612	2456.120730
727.766281	2453.063270
728.097901	2453.821964
728.429473	2454.515123
728.760996	2453.978240
729.092471	2451.397169
729.423897	2457.242387
729.755276	2457.103755
730.086606	2456.380349
730.417887	2456.904629
730.749120	2460.541822
731.080305	2459.526029
731.411442	2459.841102
731.742530	2459.566359
732.073570	2460.947635
732.404562	2462.175156
732.735506	2462.628860
733.066401	2462.467543
733.397249	2461.348407
733.728048	2459.238684
734.058798	2459.289095
734.389501	2454.736933
734.720156	2450.235183
735.050762	2451.671912
735.381320	2449.214349
735.711831	2448.248968
736.042293	2445.788885
736.372707	2451.371963
736.703073	2444.243772
737.033391	2447.606221
737.363661	2442.814604
737.693883	2449.168979
738.024056	2450.222580
738.354182	2448.997580
738.684260	2450.411623
739.014290	2450.663681
739.344272	2453.025462
739.674207	2452.254165
740.004093	2453.597633
740.333931	2451.399689
740.663722	2453.922787
740.993464	2452.952365
741.323159	2454.111830
741.652806	2450.961109
741.982405	2454.497478
742.311956	2451.734926
742.641460	2446.146807
742.970915	2451.896243
743.300323	2447.036571
743.629683	2446.996242
743.958996	2445.819132
744.288260	2447.558330
744.617477	2444.689914
744.946647	2442.933072
745.275768	2443.679162
745.604842	2440.631785
745.933869	2439.568101
746.262847	2437.128183
746.591778	2443.069183
746.920662	2443.172526
747.249498	2445.670418
747.578286	2445.113371
747.907027	2444.339553
748.235720	2442.454162
748.564365	2444.571447
748.892963	2444.100099
749.221514	2445.642692
749.550017	2442.950716
749.878473	2444.878957
750.206881	2446.018258
750.535242	2439.928544
750.863555	2444.498350
751.191821	2442.018102
751.520039	2442.355859
751.848210	2440.097422
752.176334	2443.419543
752.504411	2443.444749
752.832440	2443.316199
753.160421	2441.045159
753.488356	2441.892073
753.816243	2442.875098
754.144082	2436.505600
754.471875	2440.031888
754.799620	2439.129521
755.127318	2441.856785
755.454969	2439.258070
755.782572	2439.452155
756.110129	2440.041970
756.437638	2439.442072
756.765100	2438.343101
757.092515	2439.361414
757.419882	2436.659356
757.747203	2440.939295
758.074477	2442.229831
758.401703	2441.282094
758.728882	2439.482402
759.056014	2443.139759
759.383099	2442.388627
759.710138	2443.628751
760.037129	2441.614810
760.364073	2442.983483
760.690970	2442.655808
761.017820	2441.539193
761.344623	2442.738987
761.671379	2446.083793
761.998088	2441.617330
762.324751	2451.162755
762.651366	2458.714404
762.977935	2474.218472
763.304456	2481.084524
763.630931	2486.304639
763.957359	2482.380100
764.283740	2477.253247
764.610074	2468.668162
764.936362	2462.598613
765.262602	2454.835236
765.588796	2453.025462
765.914943	2447.086982
766.241044	2444.861313
766.567097	2440.566250
766.893104	2438.489294
767.219064	2436.245981
767.544978	2440.180602
767.870845	2436.006526
768.196665	2435.230188
768.522438	2434.990734
768.848165	2433.092739
769.173846	2432.974272
769.499479	2430.814138
769.825066	2431.421597
770.150607	2430.093253
770.476101	2431.073757
770.801548	2428.646442
771.126949	2428.535536
771.452303	2430.859508
771.777611	2429.505958
772.102872	2426.186358
772.428087	2427.008067
772.753256	2428.616195
773.078378	2427.335742
773.403453	2425.891451
773.728482	2424.858014
774.053465	2426.955134
774.378401	2426.458581
774.703291	2428.401946
775.028135	2425.105031
775.352932	2424.419434
775.677683	2426.950093
776.002388	2423.943045
776.327046	2422.932294
776.651658	2424.353899
776.976224	2423.774166
777.300743	2422.241656
777.625216	2423.774166
777.949643	2421.414906
778.274024	2425.767943
778.598359	2421.283836
778.922647	2420.310894
779.246889	2420.434402
779.571086	2419.053126
779.895236	2423.627973
780.219339	2423.101172
780.543397	2422.539084
780.867409	2423.703590
781.191374	2423.325504
781.515294	2422.745771
781.839167	2426.524116
782.162995	2421.790472
782.486776	2419.116140
782.810511	2422.980185
783.134201	2423.542273
783.457844	2423.161666
783.781441	2421.034299
784.104993	2422.937335
784.428498	2423.817016
784.751958	2420.696542
785.075372	2423.338107
785.398739	2422.014804
785.722061	2422.425658
786.045337	2422.551687
786.368568	2423.388518
786.691752	2421.843404
787.014891	2426.493869
787.337983	2423.151584
787.661030	2426.682912
787.984031	2425.727613
788.306987	2429.788263
788.629897	2430.274734
788.952760	2427.640731
789.275579	2432.318922
789.598351	2430.128541
789.921078	2427.234918
790.243759	2426.516554
790.566395	2424.777356
790.888984	2422.501275
791.211529	2420.746953
791.534027	2420.706624
791.856480	2423.615370
792.178888	2422.060174
792.501249	2422.140832
792.823566	2424.830288
793.145836	2421.780390
793.468062	2423.506985
793.790241	2420.658733
794.112375	2420.782242
794.434464	2420.837694
794.756507	2423.635535
795.078505	2425.717531
795.400457	2423.517067
795.722364	2420.290729
796.044226	2424.747109
796.366042	2421.876172
796.687812	2423.650658
797.009538	2424.903385
797.331218	2424.623601
797.652852	2427.630649
797.974442	2426.831626
798.295986	2426.365319
798.617484	2422.806265
798.938938	2424.724424
799.260346	2424.081677
799.581709	2421.001532
799.903026	2425.117634
800.224299	2420.885585
800.545526	2421.674526
800.866708	2423.547314
801.187845	2422.284505
801.508936	2419.055646
801.829983	2421.525812
802.150984	2420.575554
802.471940	2422.216450
802.792851	2418.884247
803.113717	2419.569844
803.434538	2419.247210
803.755314	2419.595050
804.076045	2418.095307
804.396731	2420.620925
804.717372	2418.541449
805.037967	2419.761408
805.358518	2419.111099
805.679024	2420.590678
805.999485	2416.401479
806.319901	2419.436253
806.640272	2419.133784
806.960598	2419.562282
807.280879	2420.247879
807.601115	2420.850297
807.921306	2421.500606
808.241453	2422.438261
808.561554	2420.744433
808.881611	2421.019176
809.201623	2422.264341
809.521590	2417.137487
809.841513	2421.528332
810.161390	2418.249062
810.481223	2420.182344
810.801011	2419.290060
811.120755	2417.981881
811.440453	2419.650502
811.760107	2419.844587
812.079716	2419.035482
812.399281	2417.397107
812.718801	2415.526839
813.038276	2412.860068
813.357707	2416.479617
813.677093	2419.894998
813.996434	2418.589340
814.315731	2419.164031
814.634983	2418.274267
814.954191	2418.717889
815.273354	2421.435071
815.592473	2420.999011
815.911547	2422.649989
816.230577	2420.946079
816.549562	2421.359454
816.868502	2421.447674
817.187399	2421.954310
817.506250	2423.176790
817.825058	2424.477407
818.143821	2423.786769
818.462539	2425.977151
818.781213	2424.391708
819.099843	2429.659713
819.418429	2432.427307
819.736970	2439.452155
820.055466	2444.521035
820.373919	2447.858279
820.692327	2458.048971
821.010691	2474.709985
821.329011	2515.744977
821.647286	2577.539441
821.965517	2642.056128
822.283704	2679.133814
822.601847	2688.354085
822.919945	2666.467915
823.237999	2631.189921
823.556010	2602.462906
823.873976	2571.122052
824.191897	2544.839997
824.509775	2522.858045
824.827609	2503.492453
825.145398	2493.820999
825.463144	2487.479228
825.780845	2491.560042
826.098502	2496.061792
826.416116	2513.602487
826.733685	2526.951462
827.051210	2528.955321
827.368692	2523.268899
827.686129	2506.169305
828.003522	2491.557521
828.320872	2473.278297
828.638177	2462.986782
828.955439	2450.333485
829.272656	2444.606735
829.589830	2437.518872
829.906960	2436.699685
830.224046	2433.574169
830.541088	2429.891607
830.858086	2428.734662
831.175041	2427.290371
831.491952	2427.577717
831.808819	2427.877666
832.125642	2426.662748
832.442421	2434.670620
832.759157	2441.461055
833.075849	2452.554114
833.392497	2466.979375
833.709101	2474.785602
834.025662	2470.603965
834.342179	2464.733541
834.658653	2456.279526
834.975083	2448.813578
835.291469	2446.958433
835.607811	2437.206321
835.924110	2435.293203
836.240366	2431.366144
836.556578	2428.313725
836.872746	2424.762232
837.188871	2421.747623
837.504952	2421.961872
837.820990	2419.355595
838.136984	2415.859555
838.452935	2417.409710
838.768842	2416.855183
839.084706	2419.564803
839.400526	2424.018662
839.716303	2430.322625
840.032037	2435.663728
840.347727	2433.803542
840.663373	2431.109045
840.978977	2428.316246
841.294537	2422.483631
841.610054	2419.708476
841.925527	2420.920873
842.240957	2417.828125
842.556344	2414.674884
842.871687	2415.045408
843.186987	2415.080697
843.502244	2409.732032
843.817458	2413.427198
844.132629	2409.313617
844.447756	2411.496436
844.762840	2405.308420
845.077881	2409.132135
845.392879	2408.179357
845.707833	2406.873698
846.022745	2404.731208
846.337613	2407.150962
846.652438	2409.018709
846.967221	2406.654408
847.281960	2407.186250
847.596656	2411.254461
847.911309	2410.037022
848.225919	2407.733215
848.540485	2410.561302
848.855009	2406.530900
849.169490	2407.370252
849.483928	2408.766651
849.798323	2408.010478
850.112675	2406.747669
850.426984	2408.181877
850.741251	2407.856723
851.055474	2407.428225
851.369654	2406.082237
851.683792	2405.454613
851.997887	2404.937895
852.311938	2407.125756
852.625947	2407.763462
852.939914	2409.182547
853.253837	2407.201373
853.567718	2409.608524
853.881555	2405.883111
854.195350	2404.312792
854.509103	2407.884449
854.822812	2405.139541
855.136479	2409.532907
855.450103	2408.721281
855.763685	2407.445869
856.077224	2405.578122
856.390720	2405.512587
856.704173	2409.638771
857.017584	2407.072824
857.330953	2407.413102
857.644278	2407.123235
857.957561	2410.846127
858.270802	2409.250602
858.584000	2406.326733
858.897155	2407.271949
859.210268	2404.690878
859.523339	2405.467216
859.836367	2407.211455
860.149352	2407.266908
860.462295	2407.529048
860.775195	2405.086609
861.088054	2403.294479
861.400869	2402.966804
861.713642	2404.819428
862.026373	2405.217679
862.339062	2408.280180
862.651708	2409.472413
862.964312	2407.834038
863.276873	2408.746487
863.589392	2409.026271
863.901869	2409.467372
864.214303	2408.033163
864.526696	2409.187588
864.839045	2409.013668
865.151353	2407.597104
865.463619	2408.512073
865.775842	2410.397465
866.088023	2410.314286
866.400162	2410.909142
866.712258	2410.180695
867.024313	2410.604152
867.336325	2409.248082
867.648296	2406.896383
867.960224	2409.676580
868.272110	2412.867630
868.583954	2410.503329
868.895755	2411.004924
869.207515	2410.261353
869.519233	2408.769172
869.830909	2411.451066
870.142542	2409.472413
870.454134	2409.205232
870.765684	2411.330078
871.077191	2409.381672
871.388657	2411.012485
871.700081	2411.824111
872.011463	2411.705644
872.322803	2412.338309
872.634101	2414.054822
872.945357	2412.101375
873.256571	2413.243196
873.567744	2414.057342
873.878874	2412.547517
874.189963	2410.531055
874.501010	2410.788154
874.812015	2413.401992
875.122979	2411.511560
875.433900	2412.204718
875.744780	2414.690007
876.055618	2414.223700
876.366415	2415.297466
876.677169	2412.572722
876.987882	2410.924265
877.298554	2410.647002
877.609183	2412.353432
877.919771	2413.517939
878.230317	2413.217990
878.540822	2421.583785
878.851285	2419.032961
879.161707	2420.525143
879.472087	2428.563262
879.782425	2433.221289
880.092722	2450.628393
880.402977	2469.356279
880.713191	2494.758654
881.023363	2519.765297
881.333494	2536.842206
881.643583	2544.701365
881.953631	2543.481406
882.263637	2535.100487
882.573602	2522.550535
882.883526	2510.832373
883.193408	2502.506907
883.503248	2490.854280
883.813048	2484.197436
884.122806	2470.672021
884.432522	2464.002574
884.742197	2457.060905
885.051831	2446.834925
885.361424	2443.865685
885.670975	2438.517021
885.980485	2430.806576
886.289954	2429.934456
886.599382	2425.286512
886.908768	2424.242994
887.218113	2421.175452
887.527417	2420.303332
887.836680	2420.114289
888.145901	2416.623290
888.455082	2415.786458
888.764221	2415.163876
889.073319	2416.499781
889.382376	2416.109092
889.691392	2413.928793
890.000366	2414.100192
890.309300	2411.715726
890.618193	2415.133629
890.927044	2412.706313
891.235855	2416.913156
891.544625	2413.301169
891.853353	2412.582805
892.162041	2415.577250
892.470687	2415.794020
892.779293	2419.287539
893.087858	2420.467169
893.396381	2422.176121
893.704864	2428.994281
894.013306	2432.162646
894.321707	2442.330654
894.630068	2449.204267
894.938387	2450.192333
895.246665	2448.301900
895.554903	2443.361570
895.863100	2442.234872
896.171256	2438.305292
896.479371	2438.048193
896.787446	2432.104673
897.095480	2427.983530
897.403473	2425.369692
897.711425	2427.640731
898.019336	2422.672674
898.327207	2421.798034
898.635038	2422.246697
898.942827	2414.934503
899.250576	2420.688980
899.558284	2417.041705
899.865952	2414.198495
900.173579	2413.291087
900.481165	2415.743608
900.788711	2409.485016
901.096216	2410.957033
901.403681	2409.142217
901.711105	2410.536096
902.018489	2412.159348
902.325832	2415.615059
902.633135	2414.589184
902.940397	2416.003228
903.247619	2423.534712
903.554800	2432.097111
903.861941	2445.582198
904.169041	2456.695422
904.476101	2460.821606
904.783121	2454.464711
905.090100	2449.781479
905.397039	2447.611262
905.703938	2441.692948
906.010796	2435.043666
906.317614	2430.962852
906.624391	2429.095104
906.931129	2425.583941
907.237826	2421.848446
907.544483	2420.898188
907.851099	2415.050450
908.157675	2415.103382
908.464211	2411.125911
908.770707	2407.072824
909.077163	2408.854872
909.383578	2404.343039
909.689954	2406.664490
909.996289	2404.222051
910.302584	2404.973183
910.608839	2409.729512
910.915054	2403.843965
911.221229	2406.833369
911.527363	2409.192629
911.833458	2408.383524
912.139513	2407.173647
912.445527	2404.990827
912.751502	2410.228586
913.057436	2408.076013
913.363331	2410.120201
913.669186	2412.456776
913.975000	2413.674215
914.280775	2417.651685
914.586510	2420.890626
914.892205	2424.860535
915.197859	2434.279931
915.503475	2444.004317
915.809050	2449.675615
916.114585	2455.654423
916.420081	2455.339351
916.725536	2454.164762
917.030952	2454.900771
917.336328	2450.651078
917.641665	2450.454473
917.946961	2445.080603
918.252218	2441.796291
918.557435	2438.242278
918.862612	2434.199273
919.167750	2432.369334
919.472848	2427.310536
919.777906	2425.087387
920.082925	2423.945566
920.387904	2417.601273
920.692843	2417.976839
920.997743	2416.663619
921.302603	2414.909297
921.607423	2415.594894
921.912204	2413.333937
922.216946	2411.284708
922.521647	2409.870664
922.826310	2410.236148
923.130932	2409.739594
923.435516	2408.575087
923.740059	2408.217166
924.044564	2406.334295
924.349028	2408.254974
924.653454	2401.691392
924.957840	2402.681979
925.262186	2401.779612
925.566493	2402.979407
925.870761	2400.713408
926.174989	2404.955539
926.479178	2404.582494
926.783328	2401.948491
927.087438	2400.456309
927.391509	2403.831362
927.695541	2402.046793
927.999533	2403.057545
928.303486	2400.443706
928.607400	2402.641649
928.911275	2402.467730
929.215110	2402.026629
929.518906	2401.436814
929.822663	2404.481671
930.126381	2401.525034
930.430060	2400.226937
930.733699	2401.401526
931.037299	2398.785167
931.340861	2403.574263
931.644383	2400.781464
931.947866	2399.092677
932.251309	2404.083419
932.554714	2399.017060
932.858080	2400.557132
933.161407	2401.192318
933.464694	2402.119890
933.767943	2402.601320
934.071153	2402.205590
934.374323	2403.004613
934.677455	2399.150650
934.980548	2403.833882
935.283602	2400.904972
935.586617	2404.489232
935.889593	2402.835734
936.192530	2401.701474
936.495428	2401.003274
936.798287	2399.410270
937.101108	2402.926475
937.403890	2404.453944
937.706632	2403.917061
938.009336	2403.400343
938.312002	2404.509397
938.614628	2403.329767
938.917216	2404.443862
939.219765	2405.457134
939.522275	2406.412432
939.824747	2407.234141
940.127179	2402.515621
940.429573	2401.436814
940.731929	2405.361352
941.034246	2399.853891
941.336524	2405.615930
941.638763	2407.776065
941.940964	2406.740107
942.243126	2404.181722
942.545250	2401.051165
942.847335	2405.023595
943.149381	2408.191960
943.451389	2404.148954
943.753359	2403.269273
944.055290	2401.537637
944.357182	2403.773388
944.659036	2401.898079
944.960851	2401.116700
945.262628	2402.722308
945.564367	2402.245919
945.866067	2403.934705
946.167729	2403.715415
946.469352	2403.448234
946.770937	2401.164591
947.072484	2404.630385
947.373992	2401.290620
947.675462	2402.412277
947.976893	2401.640980
948.278286	2399.347255
948.579641	2402.755075
948.880958	2404.017884
949.182236	2403.803635
949.483476	2401.789694
949.784678	2404.960580
950.085841	2401.431772
950.386967	2403.717936
950.688054	2402.639129
950.989103	2401.920764
951.290114	2402.790363
951.591087	2404.552247
951.892021	2404.164078
952.192917	2404.947977
952.493776	2403.541495
952.794596	2403.470919
953.095378	2404.022926
953.396122	2402.626526
953.696828	2403.433111
953.997496	2404.186763
954.298126	2403.624674
954.598718	2404.796743
954.899272	2401.290620
955.199788	2402.402195
955.500266	2400.710888
955.800706	2399.569066
956.101108	2395.387429
956.401472	2398.974210
956.701798	2396.355331
957.002087	2395.972203
957.302337	2398.543191
957.602550	2398.671741
957.902724	2397.159395
958.202861	2398.104611
958.502960	2397.492111
958.803022	2398.626370
959.103045	2400.791546
959.403031	2398.442368
959.702979	2399.485887
960.002889	2399.188459
960.302762	2398.704508
960.602596	2398.175187
960.902393	2398.722152
961.202153	2394.036400
961.501875	2397.645866
961.801559	2398.921278
962.101205	2398.588562
962.400814	2398.175187
962.700385	2396.859446
962.999918	2397.766854
963.299414	2399.647204
963.598873	2398.460012
963.898293	2397.540002
964.197677	2397.494631
964.497022	2398.013870
964.796331	2398.323901
965.095601	2399.150650
965.394835	2396.504045
965.694030	2398.228119
965.993189	2396.592265
966.292309	2397.973541
966.591393	2395.253838
966.890439	2397.108983
967.189447	2395.833571
967.488419	2395.831051
967.787353	2397.955897
968.086249	2397.345917
968.385108	2399.193500
968.683930	2396.559497
968.982714	2399.382543
969.281462	2395.420197
969.580172	2398.651576
969.878844	2397.174518
970.177480	2398.376833
970.476078	2395.803324
970.774639	2399.337173
971.073162	2398.230640
971.371649	2395.725186
971.670098	2393.713766
971.968510	2395.946997
972.266885	2394.674106
972.565223	2397.227450
972.863524	2399.022101
973.161788	2400.002605
973.460014	2398.119734
973.758204	2398.664179
974.056356	2398.654097
974.354471	2396.877090
974.652550	2398.817934
974.950591	2401.872873
975.248595	2396.408263
975.546563	2396.715773
975.844493	2395.710063
976.142386	2397.734086
976.440243	2399.468243
976.738062	2395.639487
977.035845	2398.339025
977.333590	2395.752913
977.631299	2400.002605
977.928971	2398.946484
978.226606	2398.407080
978.524204	2397.048489
978.821765	2397.499673
979.119290	2397.476987
979.416777	2398.581000
979.714228	2398.212996
980.011642	2399.301885
980.309020	2399.916906
980.606360	2397.000598
980.903664	2398.391957
981.200931	2395.301729
981.498162	2403.433111
981.795356	2398.631412
982.092513	2402.694582
982.389633	2400.363048
982.686717	2403.607030
982.983764	2405.915879
983.280775	2404.721125
983.577749	2403.657442
983.874686	2405.497463
984.171587	2403.201218
984.468451	2402.223234
984.765279	2402.697102
985.062070	2399.080074
985.358824	2398.812893
985.655543	2401.951011
985.952224	2397.295506
986.248869	2399.516134
986.545478	2395.223592
986.842050	2397.159395
987.138586	2396.763664
987.435086	2396.103273
987.731549	2394.908519
988.027975	2395.727707
988.324366	2397.116545
988.620719	2397.731566
988.917037	2397.300547
989.213318	2395.435320
989.509563	2393.358365
989.805772	2394.253169
990.101944	2397.038407
990.398080	2396.695608
990.694180	2395.740310
990.990244	2397.287944
991.286271	2398.039076
991.582262	2393.244939
991.878217	2397.877759
992.174136	2393.847357
992.470019	2395.722666
992.765865	2396.093191
993.061676	2398.195352
993.357450	2396.751061
993.653188	2396.614950
993.948890	2397.383726
994.244556	2398.517986
994.540186	2399.853891
994.835780	2395.213509
995.131337	2396.907337
995.426859	2398.646535
995.722345	2398.926319
996.017795	2398.991854
996.313208	2398.543191
996.608586	2398.792728
996.903928	2399.206103
997.199234	2397.915568
997.494504	2400.060579
997.789738	2398.296175
998.084936	2402.215672
998.380099	2397.865156
998.675225	2397.600496
998.970316	2397.373644
999.265371	2398.328942
999.560390	2395.483211
999.855373	2395.117727
1000.150320	2395.745351
1000.445232	2394.734600
1000.740108	2398.739796
1001.034948	2396.546894
1001.329752	2394.913561
1001.624521	2395.619322
1001.919254	2390.174876
1002.213951	2392.448436
1002.508613	2392.559342
1002.803239	2393.688560
1003.097829	2391.828374
1003.392384	2394.802655
1003.686903	2397.711401
1003.981386	2392.992881
1004.275834	2393.275186
1004.570246	2398.278531
1004.864623	2395.533623
1005.158964	2394.275855
1005.453270	2393.265103
1005.747540	2396.388098
1006.041775	2395.208468
1006.335974	2395.715104
1006.630138	2392.473642
1006.924266	2395.321894
1007.218359	2395.422717
1007.512416	2394.442213
1007.806438	2395.946997
1008.100425	2393.736451
1008.394376	2397.960938
1008.688292	2393.756616
1008.982172	2396.181411
1009.276017	2393.449105
1009.569827	2395.047151
1009.863602	2396.892213
1010.157341	2394.205278
1010.451045	2392.682850
1010.744714	2395.450443
1011.038347	2395.392470
1011.331945	2393.882645
1011.625508	2394.051523
1011.919036	2394.969013
1012.212528	2394.056564
1012.505986	2393.358365
1012.799408	2395.445402
1013.092795	2395.679816
1013.386147	2395.105124
1013.679464	2394.230484
1013.972745	2394.222922
1014.265992	2393.292830
1014.559204	2393.769219
1014.852380	2394.956410
1015.145521	2394.187634
1015.438628	2395.289127
1015.731699	2396.569580
1016.024736	2394.936246
1016.317737	2394.573283
1016.610703	2395.425238
1016.903635	2392.229146
1017.196531	2391.694784
1017.489393	2393.910371
1017.782219	2393.398694
1018.075011	2396.224261
1018.367768	2392.113200
1018.660490	2395.331976
1018.953177	2395.331976
1019.245829	2395.331976
