Dividing Wavelength (nm)	Counts (n)	Blue Motor Position (mm): 0.000000	Red Motor Position (mm): 47.800000	
326.493990	1999.263642
326.888308	1999.263642
327.282561	1999.263642
327.676750	1973.825980
328.070874	1976.492750
328.464933	1982.290077
328.858929	1991.434730
329.252859	2003.248674
329.646726	2018.273833
330.040528	2033.944260
330.434265	2052.152908
330.827938	2071.939437
331.221547	2092.688826
331.615091	2113.377721
332.008571	2132.511421
332.401986	2156.882879
332.795338	2173.571619
333.188625	2195.611543
333.581847	2215.302290
333.975006	2230.645042
334.368100	2247.258164
334.761129	2265.562594
335.154095	2281.109513
335.546996	2325.811944
335.939833	2416.766962
336.332606	2427.618046
336.725315	2439.227823
337.117960	2449.458845
337.510540	2456.029989
337.903056	2465.187245
338.295508	2473.598410
338.687896	2481.560913
339.080220	2487.905205
339.472480	2491.002994
339.864676	2495.532471
340.256807	2499.706546
340.648875	2502.990858
341.040879	2502.388440
341.432818	2500.772750
341.824694	2503.295848
342.216506	2504.815756
342.608253	2504.921620
342.999937	2504.127638
343.391557	2501.753255
343.783113	2501.634788
344.174605	2497.823675
344.566033	2498.148830
344.957397	2495.751761
345.348697	2496.792759
345.739934	2493.218581
346.131106	2493.430310
346.522215	2492.585916
346.913260	2489.072232
347.304241	2489.162973
347.695159	2484.777169
348.086012	2487.620380
348.476802	2484.953609
348.867528	2482.203660
349.258191	2480.550162
349.648789	2480.867754
350.039324	2476.035808
350.429796	2477.154944
350.820203	2477.341467
351.210548	2478.624441
351.600828	2478.432877
351.991045	2476.570171
352.381198	2476.134111
352.771288	2479.095789
353.161314	2472.756538
353.551276	2475.992958
353.941175	2474.367186
354.331010	2473.810139
354.720782	2480.915645
355.110490	2478.173257
355.500135	2477.119656
355.889717	2475.980356
356.279235	2477.676704
356.668689	2479.521766
357.058080	2479.753659
357.447408	2478.606797
357.836672	2477.659060
358.225873	2477.185191
358.615010	2474.765438
359.004084	2482.942189
359.393095	2484.933445
359.782043	2486.032416
360.170927	2485.951758
360.559748	2486.352530
360.948505	2488.111892
361.337199	2491.784373
361.725830	2491.713797
362.114398	2490.955103
362.502903	2490.955103
362.891344	2493.868890
363.279722	2493.251349
363.668037	2493.647079
364.056289	2494.113386
364.444478	2495.340907
364.832603	2494.864518
365.220665	2498.070692
365.608665	2498.690754
365.996601	2501.160919
366.384474	2497.541371
366.772284	2501.589417
367.160031	2501.733090
367.547715	2501.859119
367.935336	2500.608913
368.322893	2503.794922
368.710388	2504.052021
369.097820	2507.306086
369.485189	2506.252484
369.872495	2509.541837
370.259738	2512.332116
370.646918	2515.339164
371.034035	2513.950326
371.421090	2521.446522
371.808081	2524.163704
372.195010	2530.124868
372.581875	2534.498069
372.968678	2540.733977
373.355418	2547.484082
373.742096	2560.351627
374.128710	2572.856209
374.515262	2582.144535
374.901751	2599.012236
375.288177	2617.210801
375.674540	2636.636887
376.060841	2657.628252
376.447079	2681.553568
376.833254	2710.784699
377.219367	2732.063409
377.605417	2770.928185
377.991404	2793.184879
378.377329	2837.433607
378.763191	2872.015922
379.148991	2921.104158
379.534727	2973.638022
379.920402	3021.949920
380.306013	3074.849268
380.691563	3137.026859
381.077049	3194.372505
381.462474	3253.848038
381.847835	3328.268072
382.233134	3402.962848
382.618371	3463.373515
383.003545	3552.503636
383.388657	3633.053713
383.773706	3728.994432
384.158693	3806.048469
384.543618	3901.356523
384.928480	3981.334429
385.313280	4087.601952
385.698017	4196.813509
386.082692	4319.714319
386.467305	4384.147827
386.851856	4513.944936
387.236344	4670.787835
387.620770	4736.506837
388.005133	4864.282443
388.389435	5010.216285
388.773674	5100.089976
389.157851	5236.211212
389.541965	5371.031830
389.926018	5396.789606
390.310008	5581.862967
390.693936	5709.557914
391.077802	5828.889587
391.461606	5965.262881
391.845348	6081.534574
392.229027	6210.018462
392.612645	6436.343585
392.996200	6557.328756
393.379694	6734.921045
393.763125	6966.698175
394.146494	7059.122690
394.529801	7203.760955
394.913047	7462.046993
395.296230	7454.402083
395.679351	7514.971547
396.062410	7787.239225
396.445408	7683.114192
396.828343	7846.508071
397.211217	7980.257444
397.594028	7867.867439
397.976778	8075.378976
398.359466	8246.367352
398.742092	8215.059267
399.124656	8374.710088
399.507158	8564.459119
399.889598	8580.714320
400.271977	8800.165829
400.654294	8838.365172
401.036549	9036.031335
401.418742	9063.329183
401.800874	9375.721925
402.182944	9456.009862
402.564952	9840.415487
402.946898	9657.093927
403.328783	9712.564263
403.710606	9921.068907
404.092367	10179.964925
404.474067	10551.566019
404.855705	10337.052320
405.237282	10289.131111
405.618797	10731.822557
406.000250	10988.233285
406.381642	11353.341373
406.762972	11314.050620
407.144240	11096.161869
407.525447	11368.792510
407.906593	11298.118053
408.287677	11566.272150
408.668700	11729.476985
409.049661	11704.041843
409.430560	11858.729649
409.811399	11835.137049
410.192176	11999.836587
410.572891	12074.168400
410.953545	12594.160899
411.334138	12044.264275
411.714669	12672.356757
412.095139	11948.673916
412.475547	12477.634628
412.855894	12303.245993
413.236180	12656.338490
413.616405	12319.087818
413.996568	12621.229374
414.376670	12584.489445
414.756711	12459.002523
415.136691	12749.592275
415.516609	12940.715020
415.896466	13005.330009
416.276262	13300.865133
416.655997	13740.972987
417.035670	13776.737453
417.415283	14450.507829
417.794834	14546.446028
418.174324	14281.969453
418.553753	14182.257951
418.933121	14690.875086
419.312428	14488.203057
419.691674	14399.047731
420.070859	14871.408887
420.449983	14526.767884
420.829045	15081.264560
421.208047	14821.609849
421.586988	15282.436846
421.965867	15556.539504
422.344686	15549.134049
422.723444	16129.799354
423.102141	14788.469304
423.480777	16001.953172
423.859352	15505.916237
424.237866	16640.811037
424.616319	16324.851679
424.994712	17003.343096
425.373044	16797.603525
425.751314	17489.872415
426.129524	16589.754231
426.507673	17728.737408
426.885762	17402.617604
427.263789	17617.138865
427.641756	17790.499104
428.019662	17850.030090
428.397508	17898.606648
428.775292	18206.817753
429.153016	18169.167896
429.530679	18241.700018
429.908282	18269.247403
430.285824	17985.284248
430.663305	18709.017500
431.040726	18296.015930
431.418086	18125.650135
431.795385	18777.569630
432.172624	19202.566626
432.549802	18746.795907
432.926920	18935.493857
433.303977	18832.724894
433.680974	19096.019319
434.057910	19385.787362
434.434786	19412.417258
434.811601	19316.887392
435.188355	20385.869106
435.565050	20020.203971
435.941683	19973.946343
436.318257	20868.557067
436.694770	20675.188487
437.071222	21283.539810
437.447614	20336.808597
437.823946	20373.795543
438.200218	20531.041734
438.576429	20304.126797
438.952580	20564.915768
439.328670	20537.191942
439.704700	20972.092284
440.080670	20520.609066
440.456580	21121.542331
440.832429	21307.661731
441.208218	20269.259656
441.583947	20739.143086
441.959616	20844.725012
442.335224	21084.305848
442.710773	21221.705017
443.086261	21774.664141
443.461689	21118.318513
443.837057	21246.386506
444.212365	21903.556363
444.587612	21910.112383
444.962800	21470.155764
445.337927	21905.393863
445.712995	20604.740883
446.088002	22505.225636
446.462949	22703.869783
446.837837	22896.809864
447.212664	22844.613757
447.587431	25763.623315
447.962139	28758.000644
448.336786	31163.117500
448.711374	29558.820700
449.085901	25799.884335
449.460369	25745.649081
449.834776	25683.577354
450.209124	28235.782476
450.583412	27732.892092
450.957640	28261.895653
451.331808	26884.748204
451.705917	25495.595248
452.079965	25540.945468
452.453954	25910.280563
452.827883	25793.103983
453.201752	25592.176194
453.575562	25751.280050
453.949311	26908.161843
454.323001	26968.842212
454.696632	26728.961427
455.070202	28322.636516
455.443713	28441.481718
455.817164	29065.120340
456.190556	29595.638767
456.563888	29033.411482
456.937160	29472.369953
457.310373	27775.454554
457.683526	28241.267252
458.056619	28230.222084
458.429653	28155.355908
458.802628	28749.261804
459.175542	28856.880357
459.548398	30178.484372
459.921194	31802.534934
460.293930	32447.419498
460.666607	34521.592166
461.039224	36302.906563
461.411782	36701.775258
461.784280	35492.901524
462.156719	35022.922313
462.529099	34462.731654
462.901419	33158.779238
463.273680	32079.621955
463.645882	32170.992868
464.018024	32144.219300
464.390106	32992.053157
464.762130	35745.554073
465.134094	39853.658398
465.505999	45196.248038
465.877845	49796.142126
466.249631	50965.200827
466.621358	49291.091608
466.993026	47203.733802
467.364634	45142.995809
467.736184	43137.196311
468.107674	41871.639844
468.479105	41065.952554
468.850477	40359.923834
469.221790	38903.433665
469.593043	37138.261043
469.964238	36234.140183
470.335373	36154.137072
470.706449	37923.042668
471.077467	40562.190050
471.448425	45148.611655
471.819324	47939.659085
472.190164	46068.375215
472.560945	42475.938079
472.931667	39338.679327
473.302330	38223.538287
473.672934	37395.924498
474.043479	37918.818181
474.413965	37102.899869
474.784393	36715.444347
475.154761	37641.237127
475.525070	37665.676641
475.895321	37192.299692
476.265513	37812.848086
476.635645	38784.414543
477.005719	38604.999878
477.375734	39075.495808
477.745691	39786.507708
478.115588	41142.946097
478.485427	43144.556396
478.855207	46534.089610
479.224928	49144.956119
479.594591	50783.512601
479.964194	49795.806890
480.333739	49967.831223
480.703226	50020.828874
481.072653	50647.847589
481.442022	51131.596712
481.811333	51377.375648
482.180584	50096.763774
482.549777	49575.921841
482.918912	49049.428775
483.287988	48748.950800
483.657005	47930.219524
484.025964	47282.824465
484.394864	47309.464442
484.763706	46869.311218
485.132489	46010.533016
485.501213	45825.479820
485.869879	45991.391755
486.238487	45576.061172
486.607036	45782.314940
486.975527	45237.986271
487.343959	45438.520851
487.712333	45515.045566
488.080648	45444.887828
488.448905	45897.853145
488.817104	45715.474281
489.185244	46686.120728
489.553326	48400.002130
489.921350	51101.095211
490.289315	53928.328043
490.657222	54496.803839
491.025070	54770.520849
491.392861	53906.746863
491.760593	52701.086866
492.128267	51076.786767
492.495883	49552.828315
492.863440	48162.551181
493.230939	46817.115111
493.598380	45704.159412
493.965763	45379.360390
494.333088	44537.344025
494.700354	44061.698556
495.067563	43759.922484
495.434713	43652.876103
495.801805	43725.529212
496.168839	43321.294209
496.535815	42979.085562
496.902733	43019.308929
497.269593	42593.797735
497.636395	42529.031511
498.003139	42949.662868
498.369825	42392.998495
498.736453	42731.501894
499.103023	42234.998652
499.469535	42102.214659
499.835989	42199.763507
500.202385	41864.872095
500.568723	41892.391754
500.935003	42079.257245
501.301226	41874.125133
501.667390	42513.719007
502.033497	42775.082669
502.399546	42195.496170
502.765537	41516.480473
503.131470	41895.368555
503.497345	42257.882969
503.863163	40912.855232
504.228923	41524.132945
504.594625	41960.265849
504.960269	41241.624163
505.325856	41933.252826
505.691385	41300.590539
506.056856	41438.448453
506.422270	41881.684343
506.787625	41463.568522
507.152924	41659.702175
507.518164	41755.226999
507.883347	40951.422580
508.248472	41231.370456
508.613540	41699.139121
508.978550	42005.910977
509.343503	41758.007195
509.708398	41949.321504
510.073236	42488.190603
510.438016	42491.414421
510.802738	41939.060236
511.167403	42575.490785
511.532010	42797.982110
511.896561	43124.462357
512.261053	43992.959903
512.625488	43514.224208
512.989866	43382.506419
513.354186	43217.010380
513.718449	43210.038464
514.082655	43900.754679
514.446803	43577.536059
514.810894	44111.293428
515.174927	44019.040313
515.538904	43904.583435
515.902822	44599.289723
516.266684	44017.873285
516.630488	44467.549250
516.994235	44323.992312
517.357925	44909.343370
517.721558	45080.654380
518.085133	45376.723866
518.448651	45526.136105
518.812112	45288.322192
519.175516	45398.733544
519.538863	45724.041722
519.902152	45679.644280
520.265385	46161.984401
520.628560	46195.621500
520.991678	45980.265928
521.354739	46221.038998
521.717743	46522.744494
522.080690	46426.781089
522.443580	46990.109867
522.806413	47029.219138
523.169189	46962.360835
523.531908	47149.243970
523.894569	47020.976852
524.257174	47177.338321
524.619722	47483.661513
524.982213	47466.244327
525.344647	47402.914832
525.707025	47436.672918
526.069345	47814.308274
526.431608	47737.239114
526.793815	48067.469979
527.155964	47602.184082
527.518057	47745.756143
527.880093	47533.132877
528.242072	48063.414370
528.603995	47764.579812
528.965860	47773.374104
529.327669	47841.888426
529.689421	47759.526055
530.051117	47693.862505
530.412755	47841.802727
530.774337	47917.876259
531.135862	47706.891367
531.497331	47916.999098
531.858743	47806.960792
532.220098	48157.157147
532.581396	47862.602528
532.942638	47519.436062
533.303824	47817.733738
533.664953	47783.443809
534.026025	47478.441399
534.387040	47977.442533
534.747999	47920.918595
535.108902	48076.508768
535.469748	47576.910257
535.830537	47702.029175
536.191270	47898.155265
536.551947	47536.341571
536.912567	47864.903814
537.273131	47969.449783
537.633638	47442.316490
537.994089	47799.653639
538.354483	47381.764671
538.714821	47948.644941
539.075103	48302.281884
539.435328	48058.562260
539.795497	47935.469886
540.155609	47932.450235
540.515665	48408.640148
540.875665	47849.586268
541.235609	48166.548816
541.595496	48145.023089
541.955328	48822.254218
542.315102	48191.353814
542.674821	47959.821179
543.034483	48008.223818
543.394090	47991.146909
543.753640	47944.390208
544.113134	48945.175192
544.472571	47954.301116
544.831953	49210.307117
545.191278	48412.728523
545.550548	48100.756717
545.909761	48586.451726
546.268918	48811.508998
546.628019	49113.491758
546.987064	48672.960447
547.346053	47931.832693
547.704986	48834.703347
548.063863	48368.981390
548.422684	48556.923167
548.781449	48425.613713
549.140158	48815.446139
549.498811	48661.789250
549.857408	48096.875029
550.215949	48939.292166
550.574434	48875.549296
550.932864	48621.404566
551.291237	49362.769254
551.649555	48953.399835
552.007817	49203.967866
552.366022	48835.028502
552.724173	49013.084576
553.082267	49425.539181
553.440305	49727.978165
553.798288	49036.339419
554.156215	49345.087407
554.514086	49566.825079
554.871902	49309.010389
555.229661	49327.645014
555.587365	49152.331328
555.945014	49248.713148
556.302606	49162.706022
556.660143	49420.371998
557.017625	49498.963587
557.375050	49286.635228
557.732421	49632.720522
558.089735	49629.232043
558.446994	49526.523575
558.804197	50025.534791
559.161345	49953.897474
559.518437	49200.804542
559.875474	49492.105097
560.232455	49651.108130
560.589381	49855.920129
560.946251	49556.384849
561.303065	50242.911865
561.659825	50067.197407
562.016528	49727.564790
562.373177	49441.471747
562.729770	49928.510223
563.086307	49434.220048
563.442789	49911.965157
563.799216	49957.935438
564.155587	49730.365151
564.511904	49750.449108
564.868164	49857.301405
565.224370	50114.042329
565.580520	49823.361837
565.936615	50053.495551
566.292654	49768.957704
566.648638	50025.035717
567.004567	49975.206432
567.360441	50022.437002
567.716260	49885.065560
568.072023	50170.639363
568.427732	50149.461476
568.783385	49702.853054
569.138982	50097.623291
569.494525	50057.349513
569.850013	49843.896977
570.205445	49800.512807
570.560823	49773.086409
570.916145	49646.155197
571.271412	49689.133554
571.626625	49435.208114
571.981782	49491.873204
572.336884	49179.750163
572.691931	49522.432678
573.046923	49098.695971
573.401860	48957.445361
573.756743	48957.006781
574.111570	49073.926262
574.466342	48906.166744
574.821059	49034.355725
575.175722	48546.654337
575.530330	48560.308302
575.884882	48279.102658
576.239380	48247.242566
576.593823	48224.706088
576.948211	48151.997526
577.302544	47660.268256
577.656823	47690.800004
578.011047	47923.411446
578.365216	47646.836102
578.719330	47444.161552
579.073389	47287.101884
579.427394	47362.880508
579.781344	47336.774893
580.135239	46984.531830
580.489080	47083.260308
580.842866	46559.464258
581.196597	47011.280192
581.550273	46944.550439
581.903895	46807.509192
582.257463	47245.991274
582.610975	46618.183618
582.964434	46888.984321
583.317837	46539.881896
583.671186	46377.337452
584.024481	46619.776623
584.377721	46132.150853
584.730906	46439.988912
585.084037	46479.325036
585.437113	46187.220417
585.790135	46209.404015
586.143103	45816.483881
586.496016	45942.721935
586.848874	45989.745818
587.201679	45988.483009
587.554428	45466.398432
587.907124	45643.554660
588.259765	45398.778914
588.612352	45659.519994
588.964884	45036.171239
589.317362	45344.546181
589.669786	45285.597449
590.022155	45048.784206
590.374470	45486.041288
590.726731	45000.313512
591.078937	44506.860167
591.431090	44601.956493
591.783188	44269.532727
592.135232	43934.232981
592.487222	44191.591447
592.839157	44282.105364
593.191038	43951.849293
593.542866	43708.853075
593.894639	43090.250566
594.246358	43368.912948
594.598022	43358.823078
594.949633	42940.805560
595.301190	42892.551636
595.652692	42715.738206
596.004141	43076.392434
596.355535	42056.551888
596.706876	42011.978005
597.058162	41847.948942
597.409395	42338.085207
597.760573	42402.138107
598.111698	41964.631488
598.462768	42003.115657
598.813785	42013.565969
599.164748	41454.756586
599.515657	41869.399051
599.866511	41315.524957
600.217312	41963.885398
600.568060	40881.831972
600.918753	41653.403253
601.269392	41608.108486
601.619978	41233.916238
601.970510	41461.108439
602.320988	41650.444096
602.671412	41951.831999
603.021783	41689.266021
603.372100	41330.736639
603.722363	41470.174955
604.072572	41530.991435
604.422728	41564.399161
604.772830	41374.599719
605.122878	41462.789664
605.472872	41379.277910
605.822813	41676.615246
606.172701	41484.759013
606.522534	41750.695002
606.872314	42006.561286
607.222041	41750.826072
607.571714	42134.001655
607.921333	41554.747872
608.270899	41857.895138
608.620411	42214.309756
608.969870	42013.507996
609.319276	42012.451874
609.668627	42055.725138
610.017926	42563.596183
610.367171	42723.753640
610.716362	42798.019919
611.065500	42735.038263
611.414585	42917.641458
611.763616	43230.684509
612.112594	43140.803257
612.461518	43367.367834
612.810389	43651.351154
613.159207	43498.261394
613.507971	43584.586112
613.856682	44067.105194
614.205340	43939.140545
614.553945	44665.749775
614.902496	44091.217033
615.250994	44559.935956
615.599439	44643.571218
615.947830	44842.737125
616.296169	44871.756527
616.644454	45008.636457
616.992686	45188.056163
617.340864	45695.191199
617.688990	45397.649696
618.037063	46008.438417
618.385082	45962.891592
618.733048	46277.255425
619.080961	46285.747248
619.428821	46288.487116
619.776628	46407.791063
620.124382	46229.916470
620.472083	46366.055350
620.819731	46503.499889
621.167326	46187.686724
621.514868	46172.386822
621.862357	45727.817547
622.209793	45751.074910
622.557176	45428.912412
622.904506	45168.856929
623.251783	44824.541080
623.599007	44620.613804
623.946179	44366.222057
624.293297	44325.807127
624.640363	43701.939133
624.987376	43701.245974
625.334336	43427.092904
625.681243	43077.405706
626.028097	43010.247455
626.374899	42874.831980
626.721647	42819.107065
627.068343	42686.134030
627.414987	42454.213227
627.761577	42223.434245
628.108115	42553.065212
628.454600	41979.293684
628.801032	42169.786285
629.147412	42108.387552
629.493739	42127.017136
629.840014	41753.732297
630.186236	42059.415263
630.532405	41685.036493
630.878521	41888.016032
631.224585	41756.628440
631.570597	41467.203194
631.916556	41637.357260
632.262462	41560.194839
632.608316	41577.685122
632.954117	41481.131902
633.299866	41460.178347
633.645562	41397.973029
633.991206	40899.503736
634.336797	40448.696033
634.682336	40448.375920
635.027823	40198.992560
635.373257	40023.908245
635.718639	39787.813367
636.063968	39629.727823
636.409245	39052.659381
636.754470	39100.073953
637.099642	38833.734672
637.444762	38334.685647
637.789829	38480.566557
638.134845	38109.134342
638.479808	38059.746158
638.824719	37957.181362
639.169577	37560.452637
639.514383	37603.935109
639.859137	37285.795452
640.203839	37540.146869
640.548489	37155.345513
640.893086	37216.272899
641.237632	36947.024872
641.582125	37063.324291
641.926566	36988.574062
642.270955	36957.581048
642.615292	36973.503532
642.959576	36930.550381
643.303809	36928.528878
643.647990	37074.024140
643.992118	37035.970990
644.336195	37017.737137
644.680219	37091.317818
645.024192	37382.804896
645.368112	37894.877742
645.711981	37906.517766
646.055797	38788.336561
646.399562	38704.943274
646.743274	39664.799131
647.086935	40121.177309
647.430544	40016.275938
647.774101	40152.704685
648.117606	40378.782791
648.461059	40710.432741
648.804460	40346.385816
649.147810	39717.244775
649.491108	39476.171757
649.834354	39100.046227
650.177548	38239.054959
650.520690	37779.405072
650.863781	37809.309196
651.206820	37639.482805
651.549807	37191.893879
651.892742	36688.832095
652.235626	36478.643706
652.578458	36333.276994
652.921238	35706.406993
653.263967	36041.285802
653.606644	35707.876489
653.949269	35641.277806
654.291843	35226.693313
654.634365	35632.806147
654.976836	35204.734047
655.319255	35195.458324
655.661622	35217.074792
656.003938	34973.413141
656.346203	34836.565979
656.688416	35051.886263
657.030577	34842.993450
657.372687	34692.076427
657.714746	34965.475844
658.056753	35094.068117
658.398708	34526.645923
658.740612	34571.797017
659.082465	34847.535530
659.424266	34653.834234
659.766016	34788.203669
660.107715	34654.355994
660.449362	34772.084580
660.790958	34773.155825
661.132503	34786.472033
661.473996	34806.155218
661.815438	34931.034681
662.156829	35121.030729
662.498168	34887.279987
662.839456	34895.431532
663.180693	35034.111154
663.521879	35202.808326
663.863013	35159.656049
664.204097	35164.603942
664.545129	35618.726204
664.886110	35565.844500
665.227040	35638.427033
665.567918	35751.878200
665.908746	35798.665149
666.249522	35982.057285
666.590248	35974.646789
666.930922	36102.868537
667.271545	36064.359163
667.612118	36150.857801
667.952639	35935.461900
668.293109	35988.711608
668.633528	35880.495679
668.973896	35814.159136
669.314213	35846.571234
669.654480	35587.891986
669.994695	35614.927694
670.334859	35488.682079
670.674973	35387.130555
671.015035	35547.235081
671.355047	35489.024877
671.695008	35435.538235
672.034918	35323.438097
672.374777	35383.654679
672.714585	35220.848095
673.054342	35441.907733
673.394049	35199.266916
673.733705	35500.324623
674.073310	35157.122870
674.412864	35240.327114
674.752368	34822.193649
675.091820	35145.586189
675.431223	34718.683637
675.770574	34419.995272
676.109875	34290.225890
676.449125	33998.537166
676.788324	33918.753345
677.127473	33352.793085
677.466571	33295.470125
677.805619	32919.145469
678.144616	32927.412962
678.483562	32842.633357
678.822458	32480.779334
679.161303	32406.903745
679.500098	32312.611483
679.838842	32186.290250
680.177535	32324.521209
680.516179	32597.817282
680.854771	32825.712724
681.193314	33707.781057
681.531805	34821.049307
681.870247	35578.281027
682.208638	36335.457293
682.546978	36573.830773
682.885268	36684.254728
683.223508	36164.940264
683.561697	35835.004307
683.899836	35632.647350
684.237925	35123.725225
684.575963	34964.187830
684.913951	34479.538861
685.251889	34631.635513
685.589776	34619.934995
685.927614	34590.199749
686.265401	34709.642328
686.603137	34789.194256
686.940824	35283.313033
687.278460	35648.660575
687.616046	35776.791583
687.953582	36393.377630
688.291068	36257.488287
688.628504	36580.611125
688.965889	36524.966869
689.303224	36145.141133
689.640510	35833.630592
689.977745	35110.469511
690.314930	34320.382072
690.652065	33804.460305
690.989150	33073.387133
691.326185	32138.684113
691.663170	31428.025094
692.000105	30655.516158
692.336990	29953.921133
692.673825	29483.679782
693.010610	28948.026939
693.347345	28334.568927
693.684030	27633.866187
694.020665	27342.273245
694.357251	26648.416392
694.693786	26577.656236
695.030272	26330.894275
695.366707	25750.463383
695.703093	25453.675533
696.039429	25444.944254
696.375716	25163.852037
696.711952	25115.830005
697.048139	24946.006135
697.384276	24756.869604
697.720363	24881.186979
698.056400	24662.751262
698.392388	24456.126969
698.728326	24411.290946
699.064214	24206.854514
699.400053	24156.712677
699.735842	23794.616679
700.071581	23493.266584
700.407270	23195.891439
700.742910	23007.511082
701.078501	22725.544224
701.414042	22434.283998
701.749533	22127.250003
702.084974	21754.028178
702.420366	21980.708702
702.755709	21522.109895
703.091002	21200.017973
703.426246	21223.421530
703.761440	21123.863782
704.096584	20827.358237
704.431679	20787.283584
704.766725	20685.855569
705.101721	20610.417222
705.436668	20712.072089
705.771565	20362.644511
706.106413	20712.876153
706.441212	20697.001560
706.775961	20816.330713
707.110661	20873.154599
707.445311	21242.895507
707.779913	21054.840304
708.114465	21290.073145
708.448967	21575.125190
708.783421	22292.027678
709.117825	22564.688566
709.452180	22766.768259
709.786485	23161.649402
710.120742	23989.999199
710.454949	23989.361493
710.789107	24458.735766
711.123216	25185.554204
711.457275	25295.060668
711.791286	25873.643978
712.125247	25964.480529
712.459159	25664.448696
712.793023	26389.903502
713.126837	25249.317238
713.460602	25559.015484
713.794318	25193.889752
714.127985	24815.228522
714.461602	23920.254835
714.795171	23884.329052
715.128691	22841.682326
715.462162	22289.819653
715.795584	21851.251871
716.128957	21591.138415
716.462281	21161.468270
716.795556	20923.455232
717.128782	20391.605939
717.461960	19832.398305
717.795088	19747.038968
718.128167	19328.693774
718.461198	18838.953240
718.794180	18695.839923
719.127113	18311.535122
719.459997	18114.400801
719.792833	17738.628152
720.125619	17712.789718
720.458357	17360.685286
720.791046	17171.573961
721.123686	17006.982809
721.456278	16760.011641
721.788821	16713.993468
722.121315	16438.607836
722.453761	16504.672157
722.786158	16423.761638
723.118506	16427.350940
723.450805	16277.895852
723.783056	16450.378930
724.115259	16337.625963
724.447412	16253.768889
724.779518	16511.684402
725.111574	16524.551948
725.443582	16722.964201
725.775542	16693.463369
726.107453	17197.238476
726.439315	17054.803194
726.771129	17464.742263
727.102895	17844.048761
727.434612	18057.990289
727.766281	18187.482408
728.097901	18458.230178
728.429473	18509.639865
728.760996	18490.049941
729.092471	18602.119832
729.423897	18489.823089
729.755276	18349.855453
730.086606	18475.049988
730.417887	18999.161109
730.749120	19500.579477
731.080305	19682.590336
731.411442	20045.172806
731.742530	20121.942017
732.073570	20242.309648
732.404562	20552.713655
732.735506	20393.670292
733.066401	20110.231417
733.397249	19580.784234
733.728048	18929.356252
734.058798	18080.025173
734.389501	17355.603803
734.720156	16869.457611
735.050762	16329.829818
735.381320	15935.669561
735.711831	15681.388720
736.042293	15310.823583
736.372707	15301.746985
736.703073	15072.792901
737.033391	15258.529173
737.363661	15198.143712
737.693883	15298.969310
738.024056	15465.897037
738.354182	15634.546318
738.684260	15911.920685
739.014290	16138.598688
739.344272	16323.049467
739.674207	16617.173067
740.004093	16748.502687
740.333931	16736.802168
740.663722	16800.013197
740.993464	16805.649207
741.323159	16637.146119
741.652806	16373.294647
741.982405	16167.184551
742.311956	15817.943495
742.641460	15716.989348
742.970915	15397.549073
743.300323	15043.914651
743.629683	14837.938146
743.958996	14558.391042
744.288260	14282.050112
744.617477	13975.351353
744.946647	13890.198703
745.275768	13606.023819
745.604842	13426.236108
745.933869	13236.328281
746.262847	13188.449923
746.591778	13111.897481
746.920662	13004.352025
747.249498	12996.669307
747.578286	13109.026544
747.907027	13250.589706
748.235720	13467.734887
748.564365	13493.144823
748.892963	13388.820665
749.221514	13440.167337
749.550017	13295.755923
749.878473	13255.938370
750.206881	13029.691385
750.535242	12929.032146
750.863555	12849.563397
751.191821	12734.693144
751.520039	12759.871187
751.848210	12656.940908
752.176334	12695.896424
752.504411	12590.143099
752.832440	12425.181422
753.160421	12486.416318
753.488356	12346.673012
753.816243	12252.829413
754.144082	12108.934717
754.471875	12044.859132
754.799620	11984.695481
755.127318	11953.566356
755.454969	11915.014132
755.782572	11866.631658
756.110129	11878.392670
756.437638	11794.230606
756.765100	11785.438834
757.092515	11779.283585
757.419882	11794.883436
757.747203	11785.360696
758.074477	11869.948737
758.401703	11817.412352
758.728882	11977.433699
759.056014	12019.769309
759.383099	12141.235911
759.710138	12239.777866
760.037129	12322.392295
760.364073	12345.906757
760.690970	12332.429232
761.017820	12327.642657
761.344623	12535.665870
761.671379	12894.923699
761.998088	13543.412688
762.324751	15159.505788
762.651366	18129.557030
762.977935	21853.558199
763.304456	24125.873418
763.630931	24659.598020
763.957359	23519.311705
764.283740	21573.275086
764.610074	19663.491925
764.936362	17456.968804
765.262602	15887.060235
765.588796	14345.641747
765.914943	13296.743990
766.241044	12376.705686
766.567097	11705.720548
766.893104	11122.658173
767.219064	10749.627912
767.544978	10337.082567
767.870845	10008.646352
768.196665	9814.438421
768.522438	9598.079660
768.848165	9426.476262
769.173846	9260.155994
769.499479	9133.391139
769.825066	8967.517013
770.150607	8770.518803
770.476101	8710.619813
770.801548	8592.296371
771.126949	8448.389072
771.452303	8354.447170
771.777611	8181.601128
772.102872	8155.692118
772.428087	8047.773617
772.753256	7912.229593
773.078378	7819.250552
773.403453	7662.979824
773.728482	7559.457209
774.053465	7484.245714
774.378401	7393.467136
774.703291	7295.900645
775.028135	7192.589758
775.352932	7154.955024
775.677683	7067.102836
776.002388	6976.470452
776.327046	6973.556665
776.651658	6879.284567
776.976224	6793.884901
777.300743	6782.580113
777.625216	6712.014042
777.949643	6667.684655
778.274024	6668.665160
778.598359	6595.654128
778.922647	6599.044304
779.246889	6554.853550
779.571086	6557.800104
779.895236	6567.915179
780.219339	6555.854219
780.543397	6552.574948
780.867409	6604.569409
781.191374	6608.453618
781.515294	6573.173103
781.839167	6624.015660
782.162995	6595.356700
782.486776	6547.632097
782.810511	6508.321179
783.134201	6429.598521
783.457844	6419.649804
783.781441	6369.155086
784.104993	6328.135217
784.428498	6302.745446
784.751958	6279.442712
785.075372	6258.103508
785.398739	6215.082301
785.722061	6239.597432
786.045337	6242.576754
786.368568	6351.004412
786.691752	6372.386466
787.014891	6632.298276
787.337983	6905.002014
787.661030	7349.339396
787.984031	7793.457488
788.306987	8060.689053
788.629897	8159.878797
788.952760	8078.431394
789.275579	7904.136021
789.598351	7597.822910
789.921078	7328.436252
790.243759	7043.424537
790.566395	6829.984603
790.888984	6634.476054
791.211529	6487.677654
791.534027	6314.650131
791.856480	6169.868192
792.178888	6107.680518
792.501249	6033.169744
792.823566	5919.756385
793.145836	5911.403193
793.468062	5891.215893
793.790241	5850.158215
794.112375	5891.011726
794.434464	5992.565770
794.756507	6013.957907
795.078505	6139.782586
795.400457	6354.986923
795.722364	6596.115394
796.044226	6794.615868
796.366042	6956.434386
796.687812	6906.842035
797.009538	6947.221677
797.331218	6858.862853
797.652852	6797.149048
797.974442	6668.886970
798.295986	6600.473472
798.617484	6471.760211
798.938938	6356.955494
799.260346	6285.310615
799.581709	6141.252083
799.903026	6089.330718
800.224299	6014.882958
800.545526	5886.429317
800.866708	5818.076312
801.187845	5766.999342
801.508936	5686.071178
801.829983	5655.637732
802.150984	5543.056164
802.471940	5517.379047
802.792851	5492.725284
803.113717	5469.951872
803.434538	5438.742088
803.755314	5408.275875
804.076045	5403.753960
804.396731	5351.724211
804.717372	5368.115523
805.037967	5366.346078
805.358518	5392.623092
805.679024	5446.858346
805.999485	5453.701712
806.319901	5470.589578
806.640272	5487.900900
806.960598	5539.703797
807.280879	5529.888670
807.601115	5566.353857
807.921306	5538.458632
808.241453	5526.027147
808.561554	5540.296132
808.881611	5511.727914
809.201623	5516.474160
809.521590	5467.055729
809.841513	5451.390343
810.161390	5470.602181
810.481223	5377.882758
810.801011	5368.566706
811.120755	5344.689281
811.440453	5287.129386
811.760107	5260.300366
812.079716	5233.607456
812.399281	5183.707595
812.718801	5176.347510
813.038276	5141.293847
813.357707	5106.477118
813.677093	5130.793123
813.996434	5062.649326
814.315731	5088.480198
814.634983	5085.553809
814.954191	5088.747380
815.273354	5156.273635
815.592473	5197.560685
815.911547	5280.384323
816.230577	5331.594884
816.549562	5427.717085
816.868502	5482.169108
817.187399	5545.342327
817.506250	5635.213498
817.825058	5667.136604
818.143821	5829.464279
818.462539	6012.188462
818.781213	6256.634012
819.099843	6632.358770
819.418429	7287.519726
819.736970	7936.285979
820.055466	8682.868261
820.373919	9667.612295
820.692327	11241.427758
821.010691	14139.824038
821.329011	20734.200234
821.647286	30645.592647
821.965517	41273.660695
822.283704	46807.471383
822.601847	48385.193741
822.919945	43841.329557
823.237999	38696.209475
823.556010	33380.698392
823.873976	28488.515683
824.191897	24074.919956
824.509775	20812.960701
824.827609	17880.672744
825.145398	16210.215841
825.463144	15394.300049
825.780845	15705.835795
826.098502	17019.026125
826.416116	19519.075470
826.733685	21794.738016
827.051210	22247.922623
827.368692	20741.719115
827.686129	18140.677815
828.003522	15567.872017
828.320872	13281.862503
828.638177	11525.849658
828.955439	10213.440707
829.272656	9106.516748
829.589830	8218.096562
829.906960	7440.750639
830.224046	6873.275512
830.541088	6441.697290
830.858086	6161.459548
831.175041	5942.242452
831.491952	5882.678699
831.808819	5917.442496
832.125642	6176.744326
832.442421	6771.106447
832.759157	7936.371679
833.075849	9757.261654
833.392497	11657.181798
833.709101	12806.305255
834.025662	12527.090867
834.342179	11452.193359
834.658653	10113.320871
834.975083	8970.670255
835.291469	8024.763271
835.607811	7247.639158
835.924110	6693.991917
836.240366	6175.872207
836.556578	5697.517118
836.872746	5321.996527
837.188871	5036.077404
837.504952	4802.130057
837.820990	4624.600783
838.136984	4497.598994
838.452935	4450.179381
838.768842	4484.171881
839.084706	4781.733549
839.400526	5554.066044
839.716303	6493.250650
840.032037	7077.182623
840.347727	6921.284941
840.663373	6306.460776
840.978977	5705.625814
841.294537	5244.519033
841.610054	4892.207915
841.925527	4631.481958
842.240957	4418.652005
842.556344	4220.612796
842.871687	4050.191549
843.186987	3889.242631
843.502244	3761.570368
843.817458	3667.600740
844.132629	3591.519646
844.447756	3540.505690
844.762840	3490.804954
845.077881	3447.244344
845.392879	3410.055752
845.707833	3383.856875
846.022745	3356.642206
846.337613	3340.369362
846.652438	3314.238541
846.967221	3303.019453
847.281960	3280.936678
847.596656	3273.140534
847.911309	3261.727362
848.225919	3245.487284
848.540485	3233.176787
848.855009	3229.660582
849.169490	3213.765824
849.483928	3209.115359
849.798323	3201.929195
850.112675	3188.118954
850.426984	3190.637010
850.741251	3184.010413
851.055474	3179.155782
851.369654	3183.307172
851.683792	3173.358455
851.997887	3180.405988
852.311938	3178.215607
852.625947	3177.933302
852.939914	3168.559277
853.253837	3178.888601
853.567718	3173.930626
853.881555	3167.719925
854.195350	3171.745286
854.509103	3170.479956
854.822812	3168.203875
855.136479	3161.978050
855.450103	3166.552897
855.763685	3159.331445
856.077224	3161.441167
856.390720	3168.733197
856.704173	3179.919517
857.017584	3184.166689
857.330953	3190.427802
857.644278	3204.220399
857.957561	3204.268290
858.270802	3199.398535
858.584000	3199.327959
858.897155	3196.883000
859.210268	3186.684745
859.523339	3175.188394
859.836367	3171.546160
860.149352	3165.569872
860.462295	3157.940086
860.775195	3154.010507
861.088054	3148.119918
861.400869	3144.815442
861.713642	3143.910555
862.026373	3152.674601
862.339062	3157.642658
862.651708	3165.637928
862.964312	3181.746935
863.276873	3191.476362
863.589392	3223.772514
863.901869	3250.041967
864.214303	3270.365379
864.526696	3290.005714
864.839045	3308.118580
865.151353	3321.714572
865.463619	3324.557783
865.775842	3326.748164
866.088023	3332.963907
866.400162	3326.483503
866.712258	3328.648679
867.024313	3328.721776
867.336325	3329.442661
867.648296	3329.241014
867.960224	3323.821774
868.272110	3328.832681
868.583954	3331.771674
868.895755	3339.444310
869.207515	3336.550688
869.519233	3355.613811
869.830909	3361.764018
870.142542	3371.087633
870.454134	3380.002913
870.765684	3396.752147
871.077191	3415.205290
871.388657	3425.895057
871.700081	3445.837862
872.011463	3466.746047
872.322803	3488.866630
872.634101	3501.280472
872.945357	3525.992208
873.256571	3556.493709
873.567744	3572.025504
873.878874	3579.715784
874.189963	3597.589195
874.501010	3599.260338
874.812015	3596.999380
875.122979	3615.525621
875.433900	3616.256588
875.744780	3613.967904
876.055618	3630.230667
876.366415	3625.151704
876.677169	3635.203765
876.987882	3656.706807
877.298554	3678.756813
877.609183	3717.450190
877.919771	3772.197121
878.230317	3848.615972
878.540822	3961.615956
878.851285	4127.333806
879.161707	4374.720869
879.472087	4782.129279
879.782425	5462.743022
880.092722	6739.533700
880.402977	8792.853635
880.713191	11275.417738
881.023363	13750.866252
881.333494	15122.566734
881.643583	15624.272447
881.953631	15231.790893
882.263637	14387.208581
882.573602	13349.797093
882.883526	12334.382679
883.193408	11333.257416
883.503248	10359.503098
883.813048	9473.956370
884.122806	8652.482706
884.432522	7839.296700
884.742197	7117.532019
885.051831	6511.091293
885.361424	5977.021373
885.670975	5546.012801
885.980485	5190.261095
886.289954	4902.209564
886.599382	4664.234335
886.908768	4469.560097
887.218113	4293.996873
887.527417	4148.514214
887.836680	4015.203421
888.145901	3907.983120
888.455082	3825.078824
888.764221	3745.421032
889.073319	3685.517001
889.382376	3651.678256
889.691392	3623.152887
890.000366	3608.004219
890.309300	3601.846450
890.618193	3601.586830
890.927044	3599.746809
891.235855	3605.279476
891.544625	3626.800161
891.853353	3656.580778
892.162041	3719.905232
892.470687	3818.588339
892.779293	3948.531641
893.087858	4135.230774
893.396381	4439.845015
893.704864	4884.084095
894.013306	5478.511751
894.321707	6072.442853
894.630068	6439.007834
894.938387	6476.105686
895.246665	6298.155475
895.554903	5966.936544
895.863100	5616.717504
896.171256	5330.939534
896.479371	5078.423097
896.787446	4841.569524
897.095480	4626.448366
897.403473	4466.840394
897.711425	4309.571518
898.019336	4176.333822
898.327207	4045.992268
898.635038	3945.454017
898.942827	3827.647292
899.250576	3740.014394
899.558284	3648.028460
899.865952	3589.861107
900.173579	3521.911394
900.481165	3472.941625
900.788711	3426.169800
901.096216	3392.167217
901.403681	3362.802496
901.711105	3350.330682
902.018489	3343.424301
902.325832	3382.092471
902.633135	3449.144859
902.940397	3631.339720
903.247619	4070.625867
903.554800	4873.636304
903.861941	5896.209156
904.169041	6636.028730
904.476101	6860.491146
904.783121	6585.410504
905.090100	6165.106823
905.397039	5728.111881
905.703938	5348.371844
906.010796	5003.078011
906.317614	4730.102051
906.624391	4467.258810
906.931129	4252.225872
907.237826	4056.099782
907.544483	3874.499776
907.851099	3687.478010
908.157675	3514.510980
908.464211	3361.784183
908.770707	3252.673449
909.077163	3166.099194
909.383578	3102.000922
909.689954	3051.375135
909.996289	3017.995135
910.302584	2994.377329
910.608839	2982.724702
910.915054	2968.372537
911.221229	2960.180662
911.527363	2969.859677
911.833458	2975.725060
912.139513	2989.525218
912.445527	3005.571211
912.751502	3039.848537
913.057436	3088.777976
913.363331	3151.129487
913.669186	3249.293356
913.975000	3378.898900
914.280775	3589.120057
914.586510	3879.503121
914.892205	4285.825163
915.197859	4814.619516
915.503475	5426.403864
915.809050	5937.070228
916.114585	6232.809519
916.420081	6300.403830
916.725536	6240.222535
917.030952	5987.322970
917.336328	5777.419407
917.641665	5551.316095
917.946961	5317.371268
918.252218	5107.782777
918.557435	4859.856310
918.862612	4654.018437
919.167750	4468.529181
919.472848	4260.798354
919.777906	4084.189091
920.082925	3913.397319
920.387904	3747.971856
920.692843	3632.189155
920.997743	3522.062628
921.302603	3418.466917
921.607423	3351.008717
921.912204	3277.576749
922.216946	3221.687997
922.521647	3169.156653
922.826310	3124.938172
923.130932	3082.317737
923.435516	3042.086809
923.740059	3013.483302
924.044564	2976.851758
924.349028	2947.761779
924.653454	2917.696338
924.957840	2888.046792
925.262186	2867.141127
925.566493	2843.641788
925.870761	2817.243786
926.174989	2805.555871
926.479178	2787.599281
926.783328	2768.309305
927.087438	2756.689446
927.391509	2742.130593
927.695541	2730.808162
927.999533	2719.213508
928.303486	2708.753114
928.607400	2702.955787
928.911275	2699.500076
929.215110	2691.464477
929.518906	2686.589681
929.822663	2685.657067
930.126381	2683.554906
930.430060	2688.422140
930.733699	2688.573375
931.037299	2692.258458
931.340861	2689.581606
931.644383	2695.247863
931.947866	2693.657379
932.251309	2689.193437
932.554714	2689.868952
932.858080	2690.103365
933.161407	2683.774197
933.464694	2677.891170
933.767943	2674.863957
934.071153	2672.968483
934.374323	2667.249294
934.677455	2666.730055
934.980548	2663.372647
935.283602	2660.554642
935.586617	2659.004487
935.889593	2662.926505
936.192530	2660.879796
936.495428	2666.205775
936.798287	2678.954853
937.101108	2691.106555
937.403890	2713.358208
937.706632	2740.333422
938.009336	2773.834410
938.312002	2805.815490
938.614628	2828.362051
938.917216	2851.004393
939.219765	2863.400590
939.522275	2877.833414
939.824747	2878.836603
940.127179	2870.180942
940.429573	2864.499562
940.731929	2861.593337
941.034246	2854.618900
941.336524	2853.472038
941.638763	2842.981397
941.940964	2840.110460
942.243126	2823.391473
942.545250	2811.484267
942.847335	2795.453398
943.149381	2781.711213
943.451389	2768.296702
943.753359	2757.622059
944.055290	2745.798033
944.357182	2735.307392
944.659036	2728.789180
944.960851	2724.393294
945.262628	2718.543035
945.564367	2719.727706
945.866067	2717.237376
946.167729	2717.880123
946.469352	2714.696634
946.770937	2715.261243
947.072484	2708.390151
947.373992	2704.581559
947.675462	2701.201465
947.976893	2698.189376
948.278286	2693.942204
948.579641	2690.594878
948.880958	2687.615556
949.182236	2689.682429
949.483476	2683.832170
949.784678	2682.312262
950.085841	2682.297138
950.386967	2688.606142
950.688054	2693.785928
950.989103	2700.672144
951.290114	2710.923331
951.591087	2722.873386
951.892021	2734.344531
952.192917	2749.226017
952.493776	2757.987543
952.794596	2760.528284
953.095378	2763.590785
953.396122	2761.927205
953.696828	2759.101638
953.997496	2752.769949
954.298126	2743.330388
954.598718	2738.322002
954.899272	2724.872203
955.199788	2715.583877
955.500266	2700.024356
955.800706	2685.583971
956.101108	2665.517658
956.401472	2654.560710
956.701798	2640.203504
957.002087	2625.024590
957.302337	2614.821294
957.602550	2605.495160
957.902724	2591.475711
958.202861	2583.132601
958.502960	2573.214131
958.803022	2566.285065
959.103045	2555.287788
959.403031	2548.605738
959.702979	2546.228834
960.002889	2539.519059
960.302762	2534.293903
960.602596	2526.583458
960.902393	2524.186389
961.202153	2521.539783
961.501875	2517.345543
961.801559	2515.495440
962.101205	2511.840603
962.400814	2508.778103
962.700385	2508.873884
962.999918	2506.938081
963.299414	2504.132679
963.598873	2504.044459
963.898293	2501.717967
964.197677	2499.620847
964.497022	2497.589262
964.796331	2493.889055
965.095601	2495.076246
965.394835	2497.770743
965.694030	2496.175218
965.993189	2495.328304
966.292309	2493.372336
966.591393	2494.741010
966.890439	2493.052223
967.189447	2492.215392
967.488419	2493.352172
967.787353	2490.793786
968.086249	2493.921822
968.385108	2492.210350
968.683930	2494.423417
968.982714	2496.759992
969.281462	2496.850733
969.580172	2499.325939
969.878844	2500.843326
970.177480	2505.266939
970.476078	2507.411950
970.774639	2509.793895
971.073162	2512.684997
971.371649	2512.178361
971.670098	2514.222549
971.968510	2515.132477
972.266885	2516.370080
972.565223	2521.842253
972.863524	2522.364012
973.161788	2524.814013
973.460014	2525.267717
973.758204	2528.005063
974.056356	2527.218643
974.354471	2524.579599
974.652550	2522.313601
974.950591	2526.225536
975.248595	2527.669827
975.546563	2524.816533
975.844493	2522.348889
976.142386	2518.230266
976.440243	2519.165400
976.738062	2516.753208
977.035845	2513.247085
977.333590	2511.384379
977.631299	2507.810201
977.928971	2508.268946
978.226606	2504.069665
978.524204	2505.370283
978.821765	2503.303409
979.119290	2504.987155
979.416777	2501.589417
979.714228	2502.257370
980.011642	2505.471106
980.309020	2510.106447
980.606360	2510.343381
980.903664	2523.669671
981.200931	2537.081661
981.498162	2557.553787
981.795356	2590.210381
982.092513	2632.911475
982.389633	2680.673887
982.686717	2725.971175
982.983764	2755.474528
983.280775	2779.293980
983.577749	2778.283228
983.874686	2770.892897
984.171587	2750.428333
984.468451	2733.961404
984.765279	2716.773590
985.062070	2695.520085
985.358824	2677.835717
985.655543	2653.602891
985.952224	2628.548356
986.248869	2599.972576
986.545478	2567.706670
986.842050	2547.847045
987.138586	2525.547501
987.435086	2512.354801
987.731549	2497.826196
988.027975	2495.547594
988.324366	2487.045688
988.620719	2484.081490
988.917037	2478.458083
989.213318	2476.741570
989.509563	2473.555561
989.805772	2469.721763
990.101944	2467.317133
990.398080	2467.848974
990.694180	2468.920220
990.990244	2469.908286
991.286271	2470.248564
991.582262	2466.651700
991.878217	2471.695375
992.174136	2470.311578
992.470019	2472.529686
992.765865	2472.960704
993.061676	2475.509008
993.357450	2480.169554
993.653188	2480.159472
993.948890	2489.215905
994.244556	2493.876452
994.540186	2503.628564
994.835780	2517.801768
995.131337	2534.462781
995.426859	2553.001625
995.722345	2574.396282
996.017795	2595.775815
996.313208	2606.261415
996.608586	2619.945627
996.903928	2620.457304
997.199234	2620.548045
997.494504	2616.540328
997.789738	2608.287959
998.084936	2598.629108
998.380099	2584.218970
998.675225	2571.661456
998.970316	2557.931873
999.265371	2542.243802
999.560390	2528.451205
999.855373	2519.137674
1000.150320	2507.590911
1000.445232	2495.139261
1000.740108	2488.792448
1001.034948	2485.482931
1001.329752	2476.010603
1001.624521	2474.425160
1001.919254	2464.907461
1002.213951	2462.409569
1002.508613	2458.815227
1002.803239	2460.451081
1003.097829	2454.368929
1003.392384	2458.283385
1003.686903	2455.702314
1003.981386	2453.668209
1004.275834	2452.843980
1004.570246	2451.518157
1004.864623	2452.730554
1005.158964	2450.023454
1005.453270	2450.429267
1005.747540	2447.916252
1006.041775	2448.778289
1006.335974	2448.622014
1006.630138	2447.943978
1006.924266	2445.826694
1007.218359	2448.082610
1007.512416	2444.382403
1007.806438	2445.758638
1008.100425	2446.461879
1008.394376	2445.728391
1008.688292	2445.982970
1008.982172	2444.236210
1009.276017	2444.878957
1009.569827	2442.489450
1009.863602	2443.545572
1010.157341	2443.467434
1010.451045	2442.282763
1010.744714	2441.829059
1011.038347	2442.252516
1011.331945	2441.067845
1011.625508	2442.683534
1011.919036	2441.934923
1012.212528	2441.869388
1012.505986	2439.111877
1012.799408	2441.110694
1013.092795	2440.112546
1013.386147	2439.018616
1013.679464	2439.222782
1013.972745	2440.939295
1014.265992	2439.805036
1014.559204	2441.645057
1014.852380	2439.429470
1015.145521	2439.326126
1015.438628	2439.421908
1015.731699	2442.547423
1016.024736	2437.816300
1016.317737	2441.375355
1016.610703	2440.956939
1016.903635	2439.237906
1017.196531	2435.404108
1017.489393	2439.948708
1017.782219	2435.351176
1018.075011	2441.317382
1018.367768	2442.897783
1018.660490	2442.227310
1018.953177	2442.227310
1019.245829	2442.227310
