Dividing Wavelength (nm)	Counts (n)	Blue Motor Position (mm): 0.000000	Red Motor Position (mm): 46.000000	
326.493990	1997.143837
326.888308	1997.143837
327.282561	1997.143837
327.676750	1973.820939
328.070874	1976.427215
328.464933	1982.002731
328.858929	1990.650831
329.252859	2003.299086
329.646726	2019.067815
330.040528	2032.880577
330.434265	2053.821530
330.827938	2072.519169
331.221547	2094.576738
331.615091	2113.090375
332.008571	2133.933026
332.401986	2153.981695
332.795338	2173.899294
333.188625	2193.201872
333.581847	2214.999821
333.975006	2230.342573
334.368100	2249.725809
334.761129	2265.053438
335.154095	2283.068001
335.546996	2321.373208
335.939833	2407.229099
336.332606	2420.331058
336.725315	2432.424786
337.117960	2440.117587
337.510540	2446.459359
337.903056	2458.815227
338.295508	2463.493418
338.687896	2472.786785
339.080220	2477.747280
339.472480	2480.837507
339.864676	2488.396717
340.256807	2489.467963
340.648875	2486.985194
341.040879	2493.480721
341.432818	2494.289826
341.824694	2494.065495
342.216506	2496.757471
342.608253	2497.077584
342.999937	2493.926863
343.391557	2491.993581
343.783113	2492.628766
344.174605	2490.236739
344.566033	2488.595843
344.957397	2487.953096
345.348697	2486.070225
345.739934	2485.404793
346.131106	2483.645430
346.522215	2481.840697
346.913260	2481.744915
347.304241	2479.292394
347.695159	2475.158647
348.086012	2476.746611
348.476802	2474.271404
348.867528	2471.763430
349.258191	2473.550519
349.648789	2468.826958
350.039324	2473.616054
350.429796	2470.843420
350.820203	2470.079685
351.210548	2468.516927
351.600828	2470.813173
351.991045	2468.632874
352.381198	2466.896196
352.771288	2467.433079
353.161314	2467.256639
353.551276	2467.012143
353.941175	2465.812348
354.331010	2468.264870
354.720782	2467.662452
355.110490	2473.064048
355.500135	2470.271249
355.889717	2468.519448
356.279235	2469.658749
356.668689	2470.505663
357.058080	2470.180508
357.447408	2466.397122
357.836672	2467.019705
358.225873	2469.283183
358.615010	2468.443831
359.004084	2472.958184
359.393095	2474.634368
359.782043	2476.005561
360.170927	2477.560757
360.559748	2476.663432
360.948505	2477.084368
361.337199	2479.045377
361.725830	2480.605614
362.114398	2481.094606
362.502903	2483.405975
362.891344	2483.660553
363.279722	2482.732981
363.668037	2485.321614
364.056289	2486.735657
364.444478	2487.663230
364.832603	2486.440750
365.220665	2487.141470
365.608665	2489.944352
365.996601	2491.610453
366.384474	2492.036431
366.772284	2493.389980
367.160031	2494.005001
367.547715	2493.576503
367.935336	2493.962151
368.322893	2495.814775
368.710388	2499.761999
369.097820	2498.615136
369.485189	2500.684530
369.872495	2501.831392
370.259738	2502.580004
370.646918	2508.374810
371.034035	2510.746673
371.421090	2512.803464
371.808081	2515.071983
372.195010	2520.546676
372.581875	2525.391225
372.968678	2533.956145
373.355418	2535.594520
373.742096	2551.325441
374.128710	2559.325752
374.515262	2573.859399
374.901751	2587.911615
375.288177	2609.218052
375.674540	2627.948459
376.060841	2647.268681
376.447079	2676.078875
376.833254	2699.270703
377.219367	2723.967316
377.605417	2757.979981
377.991404	2785.590381
378.377329	2829.929849
378.763191	2859.445805
379.148991	2913.981008
379.534727	2966.298102
379.920402	3014.443642
380.306013	3063.209244
380.691563	3131.716004
381.077049	3187.375383
381.462474	3245.605752
381.847835	3323.078204
382.233134	3395.738875
382.618371	3457.009059
383.003545	3545.924930
383.388657	3628.579689
383.773706	3724.288515
384.158693	3798.275009
384.543618	3899.259403
384.928480	3979.300323
385.313280	4087.039863
385.698017	4192.634393
386.082692	4316.803053
386.467305	4386.534813
386.851856	4514.391078
387.236344	4676.973331
387.620770	4738.354420
388.005133	4866.881158
388.389435	5017.704919
388.773674	5105.413434
389.157851	5241.315380
389.541965	5379.727821
389.926018	5402.707921
390.310008	5588.870170
390.693936	5714.720056
391.077802	5836.710938
391.461606	5972.711186
391.845348	6091.836172
392.229027	6214.726900
392.612645	6444.853052
392.996200	6560.416463
393.379694	6744.161480
393.763125	6973.506253
394.146494	7072.471665
394.529801	7215.093469
394.913047	7462.848537
395.296230	7465.716953
395.679351	7519.995057
396.062410	7799.595093
396.445408	7690.403701
396.828343	7850.109975
397.211217	7986.435378
397.594028	7870.629992
397.976778	8082.398782
398.359466	8249.785255
398.742092	8222.205102
399.124656	8375.022640
399.507158	8568.756703
399.889598	8588.702028
400.271977	8806.288310
400.654294	8838.387857
401.036549	9041.301861
401.418742	9071.405112
401.800874	9385.501764
402.182944	9466.487900
402.564952	9843.230971
402.946898	9659.644751
403.328783	9719.064831
403.710606	9923.551675
404.092367	10197.334220
404.474067	10565.202340
404.855705	10340.437454
405.237282	10297.322986
405.618797	10739.467467
406.000250	10988.293779
406.381642	11368.757222
406.762972	11319.820221
407.144240	11116.349169
407.525447	11372.223015
407.906593	11316.591362
408.287677	11578.285220
408.668700	11737.963768
409.049661	11704.792975
409.430560	11868.902698
409.811399	11840.931856
410.192176	12003.841783
410.572891	12085.057292
410.953545	12598.806322
411.334138	12053.030842
411.714669	12684.274044
412.095139	11952.474946
412.475547	12485.829023
412.855894	12314.903661
413.236180	12662.150941
413.616405	12323.894559
413.996568	12618.797018
414.376670	12592.290631
414.756711	12460.585445
415.136691	12765.240016
415.516609	12956.093060
415.896466	13020.899613
416.276262	13313.548676
416.655997	13759.244649
417.035670	13789.410914
417.415283	14465.563235
417.794834	14559.215271
418.174324	14295.565445
418.553753	14190.880844
418.933121	14714.003900
419.312428	14504.112939
419.691674	14415.560030
420.070859	14880.281318
420.449983	14529.628739
420.829045	15097.277785
421.208047	14829.955479
421.586988	15307.531709
421.965867	15568.739096
422.344686	15560.280040
422.723444	16145.943650
423.102141	14798.130675
423.480777	16018.863723
423.859352	15521.150604
424.237866	16659.077658
424.616319	16339.778536
424.994712	17029.052980
425.373044	16816.137327
425.751314	17507.186258
426.129524	16615.103673
426.507673	17748.281961
426.885762	17416.763082
427.263789	17638.987225
427.641756	17807.850756
428.019662	17871.933903
428.397508	17904.338440
428.775292	18231.995796
429.153016	18181.669957
429.530679	18279.339793
429.908282	18296.280590
430.285824	18010.361468
430.663305	18735.319720
431.040726	18319.374116
431.418086	18139.772928
431.795385	18805.888312
432.172624	19225.123269
432.549802	18774.532335
432.926920	18967.744638
433.303977	18849.345579
433.680974	19110.431978
434.057910	19412.729809
434.434786	19432.090360
434.811601	19334.453293
435.188355	20408.178733
435.565050	20041.510408
435.941683	19992.149950
436.318257	20900.391953
436.694770	20707.366172
437.071222	21306.817338
437.447614	20365.956549
437.823946	20388.881196
438.200218	20543.629495
438.576429	20319.338478
438.952580	20595.666806
439.328670	20567.857281
439.704700	20996.178917
440.080670	20543.374917
440.456580	21148.754480
440.832429	21339.423521
441.208218	20295.559356
441.583947	20752.907956
441.959616	20858.704131
442.335224	21111.795260
442.710773	21248.773493
443.086261	21797.719858
443.461689	21147.345477
443.837057	21267.750916
444.212365	21923.138725
444.587612	21920.655957
444.962800	21491.300883
445.337927	21924.048653
445.712995	20634.387909
446.088002	22526.143904
446.462949	22716.979303
446.837837	22922.713833
447.212664	22865.708465
447.587431	25793.502234
447.962139	28786.838565
448.336786	31196.878108
448.711374	29592.062069
449.085901	25829.206206
449.460369	25787.137778
449.834776	25705.730705
450.209124	28261.888092
450.583412	27767.368543
450.957640	28293.160889
451.331808	26909.563284
451.705917	25527.283941
452.079965	25571.759521
452.453954	25939.201663
452.827883	25806.566384
453.201752	25611.279646
453.575562	25778.996314
453.949311	26943.764993
454.323001	27001.433272
454.696632	26747.023881
455.070202	28350.385547
455.443713	28468.814854
455.817164	29097.608056
456.190556	29639.794234
456.563888	29066.191585
456.937160	29499.108233
457.310373	27786.892932
457.683526	28276.237736
458.056619	28251.447862
458.429653	28188.340177
458.802628	28782.891342
459.175542	28897.630524
459.548398	30211.151049
459.921194	31823.420434
460.293930	32488.330982
460.666607	34562.705296
461.039224	36331.794895
461.411782	36745.628255
461.784280	35534.435591
462.156719	35060.993107
462.529099	34493.681818
462.901419	33189.656305
463.273680	32107.060955
463.645882	32185.869313
464.018024	32181.233972
464.390106	33040.279355
464.762130	35783.455988
465.134094	39893.778421
465.505999	45247.894659
465.877845	49849.243120
466.249631	51015.851820
466.621358	49340.263022
466.993026	47247.138137
467.364634	45183.894691
467.736184	43173.164944
468.107674	41908.505802
468.479105	41107.073246
468.850477	40399.680894
469.221790	38933.199158
469.593043	37158.029928
469.964238	36265.004647
470.335373	36197.448145
470.706449	37960.884089
471.077467	40611.714346
471.448425	45195.227204
471.819324	48016.282103
472.190164	46123.608617
472.560945	42541.425188
472.931667	39403.380016
473.302330	38275.915876
473.672934	37449.206974
474.043479	37959.389387
474.413965	37139.735581
474.784393	36753.444564
475.154761	37678.564351
475.525070	37697.221661
475.895321	37242.580160
476.265513	37842.989145
476.635645	38836.681227
477.005719	38650.226590
477.375734	39132.307091
477.745691	39844.922078
478.115588	41203.460107
478.485427	43194.161350
478.855207	46611.874614
479.224928	49213.598991
479.594591	50856.909280
479.964194	49871.872860
480.333739	50052.278112
480.703226	50080.085117
481.072653	50718.343085
481.442022	51192.587112
481.811333	51451.253757
482.180584	50163.128044
482.549777	49665.533392
482.918912	49120.279671
483.287988	48814.185851
483.657005	47978.581833
484.025964	47345.380143
484.394864	47365.166672
484.763706	46939.950386
485.132489	46062.212405
485.501213	45898.604277
485.869879	46050.879891
486.238487	45635.897147
486.607036	45824.138873
486.975527	45289.655578
487.343959	45473.710625
487.712333	45574.931953
488.080648	45472.074771
488.448905	45935.198013
488.817104	45764.287774
489.185244	46728.431132
489.553326	48419.304708
489.921350	51127.568830
490.289315	53945.929232
490.657222	54536.762545
491.025070	54803.810108
491.392861	53930.450369
491.760593	52711.151529
492.128267	51077.137127
492.495883	49555.979037
492.863440	48176.157256
493.230939	46804.756722
493.598380	45699.440892
493.965763	45370.775305
494.333088	44556.273557
494.700354	44056.722938
495.067563	43753.681536
495.434713	43630.826096
495.801805	43695.856981
496.168839	43295.707832
496.535815	42956.160915
496.902733	42989.992098
497.269593	42589.472425
497.636395	42508.498892
498.003139	42916.655913
498.369825	42358.065820
498.736453	42673.853779
499.103023	42189.572814
499.469535	42063.909452
499.835989	42161.274297
500.202385	41830.012516
500.568723	41854.830117
500.935003	42032.346788
501.301226	41827.267608
501.667390	42457.162302
502.033497	42717.885737
502.399546	42130.795481
502.765537	41448.450102
503.131470	41846.872655
503.497345	42197.938609
503.863163	40856.994207
504.228923	41484.905206
504.594625	41899.366190
504.960269	41187.459485
505.325856	41895.189594
505.691385	41231.761145
506.056856	41383.802345
506.422270	41805.615852
506.787625	41400.193657
507.152924	41597.602721
507.518164	41691.466485
507.883347	40880.707794
508.248472	41168.577843
508.613540	41649.178766
508.978550	41959.469347
509.343503	41711.321069
509.708398	41917.753799
510.073236	42446.971609
510.438016	42459.461068
510.802738	41903.000862
511.167403	42530.528734
511.532010	42770.928758
511.896561	43074.575098
512.261053	43943.065083
512.625488	43460.054489
512.989866	43356.526833
513.354186	43193.826113
513.718449	43192.328890
514.082655	43881.943613
514.446803	43543.382241
514.810894	44063.064709
515.174927	43994.598278
515.538904	43897.563628
515.902822	44578.409264
516.266684	44004.819218
516.630488	44454.273371
516.994235	44304.286441
517.357925	44893.584723
517.721558	45042.540737
518.085133	45384.094033
518.448651	45515.416091
518.812112	45280.296676
519.175516	45373.868053
519.538863	45714.513942
519.902152	45678.358786
520.265385	46157.172620
520.628560	46199.815740
520.991678	45981.407750
521.354739	46225.336581
521.717743	46552.862867
522.080690	46434.806606
522.443580	46980.133423
522.806413	47028.851134
523.169189	46976.370202
523.531908	47162.015733
523.894569	47018.899896
524.257174	47192.189560
524.619722	47504.123557
524.982213	47499.843617
525.344647	47393.187925
525.707025	47443.599464
526.069345	47837.638734
526.431608	47769.091644
526.793815	48095.007282
527.155964	47623.727453
527.518057	47770.369577
527.880093	47555.873522
528.242072	48069.433508
528.603995	47775.100700
528.965860	47777.737223
529.327669	47872.321872
529.689421	47766.031664
530.051117	47710.808344
530.412755	47868.286428
530.774337	47937.705637
531.135862	47721.072133
531.497331	47933.067776
531.858743	47824.957711
532.220098	48182.751085
532.581396	47884.816372
532.942638	47553.257163
533.303824	47848.194910
533.664953	47802.927869
534.026025	47527.421249
534.387040	48002.330709
534.747999	47947.160322
535.108902	48108.235269
535.469748	47626.484964
535.830537	47725.009274
536.191270	47934.655739
536.551947	47573.895647
536.912567	47890.878359
537.273131	48024.055562
537.633638	47474.763877
537.994089	47838.168055
538.354483	47425.806711
538.714821	47990.909975
539.075103	48359.844299
539.435328	48102.188405
539.795497	47978.569231
540.155609	47972.350967
540.515665	48436.331206
540.875665	47887.102535
541.235609	48213.313080
541.595496	48186.171508
541.955328	48857.970793
542.315102	48232.078775
542.674821	48008.506123
543.034483	48050.047751
543.394090	48023.027166
543.753640	47987.300509
544.113134	48994.265949
544.472571	47986.773708
544.831953	49254.225650
545.191278	48454.955748
545.550548	48162.142848
545.909761	48634.037698
546.268918	48841.713072
546.628019	49162.670734
546.987064	48715.167507
547.346053	47964.789237
547.704986	48860.491370
548.063863	48400.223941
548.422684	48604.007544
548.781449	48469.907811
549.140158	48850.620790
549.498811	48699.413901
549.857408	48127.379051
550.215949	48968.424994
550.574434	48906.774203
550.932864	48669.030867
551.291237	49384.095855
551.649555	48987.646914
552.007817	49212.363908
552.366022	48858.295947
552.724173	49061.162060
553.082267	49454.069591
553.440305	49754.880282
553.798288	49059.813552
554.156215	49365.383092
554.514086	49587.808882
554.871902	49331.529223
555.229661	49353.213747
555.587365	49175.641623
555.945014	49260.796794
556.302606	49174.272950
556.660143	49422.615312
557.017625	49508.733343
557.375050	49305.804215
557.732421	49637.093722
558.089735	49631.377054
558.446994	49544.507891
558.804197	50035.231450
559.161345	49972.506894
559.518437	49222.872193
559.875474	49506.114463
560.232455	49667.557415
560.589381	49845.946206
560.946251	49553.334951
561.303065	50263.308374
561.659825	50046.143028
562.016528	49711.002079
562.373177	49426.318039
562.729770	49909.250495
563.086307	49429.980437
563.442789	49880.556248
563.799216	49941.884405
564.155587	49725.371888
564.511904	49734.519062
564.868164	49842.213231
565.224370	50077.186453
565.580520	49815.898408
565.936615	50022.807527
566.292654	49770.550709
566.648638	50004.407315
567.004567	49950.172062
567.360441	50000.906234
567.716260	49861.596468
568.072023	50127.424072
568.427732	50114.778337
568.783385	49655.793883
569.138982	50050.932124
569.494525	50029.124093
569.850013	49809.286935
570.205445	49749.264437
570.560823	49729.475387
570.916145	49619.086721
571.271412	49639.959618
571.626625	49396.640766
571.981782	49434.255336
572.336884	49135.229213
572.691931	49464.141816
573.046923	49059.715249
573.401860	48911.457435
573.756743	48906.885108
574.111570	49027.779539
574.466342	48853.912664
574.821059	48974.993618
575.175722	48488.166870
575.530330	48514.038072
575.884882	48223.092918
576.239380	48196.558805
576.593823	48164.118980
576.948211	48101.633878
577.302544	47592.646218
577.656823	47620.448182
578.011047	47839.284670
578.365216	47575.039989
578.719330	47382.598982
579.073389	47217.702839
579.427394	47293.536917
579.781344	47248.519413
580.135239	46923.564115
580.489080	47022.663118
580.842866	46480.988616
581.196597	46939.544573
581.550273	46878.443268
581.903895	46743.650376
582.257463	47163.018923
582.610975	46527.765483
582.964434	46814.924729
583.317837	46454.383927
583.671186	46290.493495
584.024481	46537.172276
584.377721	46061.579740
584.730906	46361.437653
585.084037	46387.076961
585.437113	46085.167299
585.790135	46120.883874
586.143103	45736.001860
586.496016	45864.016921
586.848874	45897.948927
587.201679	45907.716163
587.554428	45381.560853
587.907124	45566.407362
588.259765	45300.889789
588.612352	45562.941569
588.964884	44963.845805
589.317362	45260.671464
589.669786	45190.135639
590.022155	44959.979240
590.374470	45391.491927
590.726731	44912.463844
591.078937	44421.004276
591.431090	44517.008010
591.783188	44190.305953
592.135232	43844.434908
592.487222	44094.977733
592.839157	44186.005848
593.191038	43864.183628
593.542866	43603.505563
593.894639	42998.809077
594.246358	43289.910505
594.598022	43272.301755
594.949633	42858.007129
595.301190	42805.488388
595.652692	42638.512770
596.004141	42972.658091
596.355535	41968.069555
596.706876	41921.355703
597.058162	41767.305603
597.409395	42253.083791
597.760573	42318.752382
598.111698	41896.664132
598.462768	41911.064188
598.813785	41945.772532
599.164748	41389.138407
599.515657	41781.423355
599.866511	41249.909299
600.217312	41868.153886
600.568060	40793.021964
600.918753	41566.816394
601.269392	41534.888247
601.619978	41189.060052
601.970510	41398.827504
602.320988	41574.108423
602.671412	41875.571944
603.021783	41633.309214
603.372100	41274.638679
603.722363	41393.161247
604.072572	41464.118008
604.422728	41478.903713
604.772830	41290.359518
605.122878	41392.553788
605.472872	41324.110043
605.822813	41608.794082
606.172701	41441.170676
606.522534	41687.226875
606.872314	41945.810341
607.222041	41686.816021
607.571714	42081.185486
607.921333	41504.419513
608.270899	41808.575009
608.620411	42154.970334
608.969870	41958.693009
609.319276	41957.457927
609.668627	41995.722805
610.017926	42503.072090
610.367171	42671.030733
610.716362	42740.613779
611.065500	42689.650235
611.414585	42873.543965
611.763616	43182.468393
612.112594	43091.956997
612.461518	43314.145853
612.810389	43612.146100
613.159207	43466.199655
613.507971	43568.519955
613.856682	44048.105085
614.205340	43911.835135
614.553945	44625.150842
614.902496	44067.821038
615.250994	44521.552610
615.599439	44594.815699
615.947830	44804.429397
616.296169	44858.548704
616.644454	44972.193955
616.992686	45140.717208
617.340864	45677.837027
617.688990	45367.601898
618.037063	45988.946795
618.385082	45940.599609
618.733048	46254.204749
619.080961	46246.345590
619.428821	46261.098527
619.776628	46387.450007
620.124382	46209.595578
620.472083	46366.128447
620.819731	46497.251379
621.167326	46148.126269
621.514868	46125.942672
621.862357	45693.550303
622.209793	45728.634213
622.557176	45411.394402
622.904506	45172.055541
623.251783	44819.893136
623.599007	44590.382004
623.946179	44352.535325
624.293297	44304.389785
624.640363	43700.449472
624.987376	43675.457952
625.334336	43426.001495
625.681243	43051.887385
626.028097	43016.551417
626.374899	42850.931870
626.721647	42818.565141
627.068343	42704.362842
627.414987	42461.011223
627.761577	42217.914181
628.108115	42534.233982
628.454600	41984.302071
628.801032	42170.348374
629.147412	42122.485139
629.493739	42113.597585
629.840014	41741.381470
630.186236	42074.926893
630.532405	41676.516943
630.878521	41892.923596
631.224585	41756.008378
631.570597	41461.322688
631.916556	41624.121711
632.262462	41550.130175
632.608316	41565.457803
632.954117	41459.359159
633.299866	41465.494243
633.645562	41377.687426
633.991206	40879.124872
634.336797	40445.184869
634.682336	40455.763731
635.027823	40194.921828
635.373257	40011.701091
635.718639	39762.403431
636.063968	39618.768355
636.409245	39038.092967
636.754470	39095.995660
637.099642	38824.501799
637.444762	38322.352464
637.789829	38459.572672
638.134845	38098.381561
638.479808	38037.844865
638.824719	37946.988149
639.169577	37520.619959
639.514383	37582.273271
639.859137	37279.370501
640.203839	37518.807665
640.548489	37139.140724
640.893086	37200.398305
641.237632	36933.567512
641.582125	37047.537918
641.926566	36967.154199
642.270955	36934.444673
642.615292	36939.601773
642.959576	36905.722698
643.303809	36904.568274
643.647990	37041.153297
643.992118	36991.734865
644.336195	36980.530901
644.680219	37050.481952
645.024192	37339.768565
645.368112	37871.549802
645.711981	37856.386011
646.055797	38740.864015
646.399562	38651.665839
646.743274	39609.273342
647.086935	40062.531046
647.430544	39943.408580
647.774101	40082.494015
648.117606	40315.317185
648.461059	40632.922480
648.804460	40261.570923
649.147810	39631.519953
649.491108	39383.777489
649.834354	39011.579018
650.177548	38154.628235
650.520690	37681.405041
650.863781	37701.965387
651.206820	37549.273878
651.549807	37088.172138
651.892742	36586.216888
652.235626	36383.859932
652.578458	36226.707002
652.921238	35605.669615
653.263967	35915.624960
653.606644	35589.237974
653.949269	35524.237337
654.291843	35113.796673
654.634365	35516.317684
654.976836	35090.325061
655.319255	35069.469807
655.661622	35078.110345
656.003938	34834.408365
656.346203	34679.221485
656.688416	34910.655817
657.030577	34692.356211
657.372687	34544.015218
657.714746	34815.095705
658.056753	34929.323210
658.398708	34345.832337
658.740612	34392.054677
659.082465	34677.421793
659.424266	34473.053416
659.766016	34588.057259
660.107715	34454.721260
660.449362	34587.217907
660.790958	34560.797219
661.132503	34577.566618
661.473996	34589.320068
661.815438	34706.763829
662.156829	34906.133902
662.498168	34654.827342
662.839456	34656.218700
663.180693	34819.723484
663.521879	34960.147345
663.863013	34914.257721
664.204097	34894.587139
664.545129	35372.049943
664.886110	35298.741484
665.227040	35344.300912
665.567918	35473.271271
665.908746	35514.787694
666.249522	35672.704359
666.590248	35667.469120
666.930922	35782.510772
667.271545	35742.544504
667.612118	35809.662426
667.952639	35585.820072
668.293109	35636.705479
668.633528	35539.259975
668.973896	35453.472140
669.314213	35492.813304
669.654480	35212.948607
669.994695	35246.227784
670.334859	35120.914782
670.674973	35012.955952
671.015035	35157.765617
671.355047	35110.051096
671.695008	35032.124939
672.034918	34920.203762
672.374777	34976.493286
672.714585	34792.942354
673.054342	35027.368611
673.394049	34747.410652
673.733705	35052.697888
674.073310	34698.214032
674.412864	34758.707878
674.752368	34356.829614
675.091820	34670.124723
675.431223	34242.385340
675.770574	33945.698312
676.109875	33805.952487
676.449125	33505.285468
676.788324	33429.174128
677.127473	32863.339896
677.466571	32801.116934
677.805619	32433.521037
678.144616	32429.752775
678.483562	32329.837105
678.822458	31991.242966
679.161303	31917.069949
679.500098	31797.176187
679.838842	31676.430470
680.177535	31817.499599
680.516179	32055.386608
680.854771	32294.687660
681.193314	33143.655777
681.531805	34235.768825
681.870247	34958.592149
682.208638	35673.813412
682.546978	35899.100057
682.885268	36007.890678
683.223508	35491.663921
683.561697	35141.709542
683.899836	34956.638702
684.237925	34440.364054
684.575963	34284.723470
684.913951	33787.295176
685.251889	33938.827220
685.589776	33881.537027
685.927614	33856.245558
686.265401	33967.690346
686.603137	34010.837582
686.940824	34502.017366
687.278460	34842.128892
687.616046	34951.300120
687.953582	35524.116349
688.291068	35387.216255
688.628504	35678.801634
688.965889	35611.953414
689.303224	35253.618116
689.640510	34929.991163
689.977745	34217.348449
690.314930	33440.864563
690.652065	32938.805969
690.989150	32223.088152
691.326185	31313.848000
691.663170	30614.536618
692.000105	29859.429745
692.336990	29177.278451
692.673825	28713.577997
693.010610	28181.597634
693.347345	27576.712105
693.684030	26892.501499
694.020665	26621.748688
694.357251	25935.486332
694.693786	25857.882810
695.030272	25617.520595
695.366707	25053.486055
695.703093	24747.067081
696.039429	24723.202258
696.375716	24461.246260
696.711952	24410.197016
697.048139	24220.795825
697.384276	24032.400344
697.720363	24131.625375
698.056400	23937.016672
698.392388	23715.004257
698.728326	23674.838863
699.064214	23458.424649
699.400053	23403.619745
699.735842	23052.906672
700.071581	22761.369183
700.407270	22465.231642
700.742910	22280.170884
701.078501	21999.378615
701.414042	21716.811860
701.749533	21412.595869
702.084974	21057.144111
702.420366	21264.897623
702.755709	20814.057152
703.091002	20512.442397
703.426246	20528.432937
703.761440	20416.098385
704.096584	20136.495828
704.431679	20089.512275
704.766725	19983.506892
705.101721	19902.654346
705.436668	19994.852008
705.771565	19642.946702
706.106413	19991.993674
706.441212	19950.910791
706.775961	20070.146682
707.110661	20128.787904
707.445311	20455.374015
707.779913	20275.256109
708.114465	20499.622743
708.448967	20763.449009
708.783421	21431.734610
709.117825	21678.320129
709.452180	21861.661854
709.786485	22233.625911
710.120742	22995.402230
710.454949	22976.399601
710.789107	23414.412856
711.123216	24090.968469
711.457275	24192.308264
711.791286	24726.000099
712.125247	24801.836697
712.459159	24519.469067
712.793023	25180.707134
713.126837	24102.573205
713.460602	24382.453026
713.794318	24038.679101
714.127985	23668.683614
714.461602	22793.186426
714.795171	22776.840485
715.128691	21784.423815
715.462162	21248.360118
715.795584	20829.624235
716.128957	20572.477498
716.462281	20179.113743
716.795556	19939.187587
717.128782	19435.432645
717.461960	18895.862826
717.795088	18816.275609
718.128167	18403.077434
718.461198	17931.608562
718.794180	17791.691337
719.127113	17419.611333
719.459997	17229.695945
719.792833	16880.338942
720.125619	16833.814133
720.458357	16514.653642
720.791046	16335.236456
721.123686	16174.920202
721.456278	15931.314004
721.788821	15888.978394
722.121315	15610.207628
722.453761	15677.592731
722.786158	15591.124340
723.118506	15598.434013
723.450805	15444.237719
723.783056	15598.224805
724.115259	15490.102137
724.447412	15399.164763
724.779518	15623.060049
725.111574	15632.844929
725.443582	15816.587425
725.775542	15784.939061
726.107453	16228.991618
726.439315	16096.981443
726.771129	16467.753267
727.102895	16807.365719
727.434612	16985.280642
727.766281	17097.325327
728.097901	17347.716918
728.429473	17384.287968
728.760996	17369.227521
729.092471	17468.021534
729.423897	17337.342223
729.755276	17211.134416
730.086606	17320.661045
730.417887	17809.063153
730.749120	18275.226211
731.080305	18435.663453
731.411442	18757.505838
731.742530	18837.198918
732.073570	18931.077806
732.404562	19215.504747
732.735506	19043.548469
733.066401	18775.230535
733.397249	18283.176111
733.728048	17663.401533
734.058798	16874.854167
734.389501	16226.367697
734.720156	15779.061076
735.050762	15264.439926
735.381320	14904.846861
735.711831	14665.704605
736.042293	14312.176047
736.372707	14306.131704
736.703073	14098.511782
737.033391	14249.842180
737.363661	14185.481769
737.693883	14270.694913
738.024056	14409.608948
738.354182	14570.043669
738.684260	14819.157328
739.014290	15014.008006
739.344272	15175.380382
739.674207	15438.821000
740.004093	15534.134095
740.333931	15533.423293
740.663722	15573.709674
740.993464	15579.524645
741.323159	15408.541309
741.652806	15161.444112
741.982405	14963.956910
742.311956	14651.254137
742.641460	14550.904929
742.970915	14257.156894
743.300323	13952.497282
743.629683	13745.837701
743.958996	13479.634531
744.288260	13218.732134
744.617477	12923.300354
744.946647	12840.617869
745.275768	12570.684245
745.604842	12395.398285
745.933869	12227.293448
746.262847	12169.940241
746.591778	12099.747215
746.920662	11995.632264
747.249498	11984.818989
747.578286	12081.372209
747.907027	12193.056452
748.235720	12390.843602
748.564365	12403.958164
748.892963	12308.244297
749.221514	12347.925739
749.550017	12208.948689
749.878473	12171.387052
750.206881	11971.374232
750.535242	11883.832075
750.863555	11798.180350
751.191821	11702.070752
751.520039	11717.158926
751.848210	11621.354317
752.176334	11641.960034
752.504411	11552.421580
752.832440	11402.200236
753.160421	11450.640684
753.488356	11329.022847
753.816243	11236.063970
754.144082	11097.490213
754.471875	11038.049968
754.799620	10980.621143
755.127318	10949.686103
755.454969	10911.058261
755.782572	10860.755108
756.110129	10863.225273
756.437638	10786.065372
756.765100	10769.575758
757.092515	10765.600808
757.419882	10768.164235
757.747203	10763.496126
758.074477	10830.364512
758.401703	10782.448344
758.728882	10926.496795
759.056014	10956.562236
759.383099	11063.643906
759.710138	11146.770012
760.037129	11215.735517
760.364073	11222.261291
760.690970	11205.038189
761.017820	11203.525843
761.344623	11370.854342
761.671379	11666.306286
761.998088	12210.665202
762.324751	13657.531809
762.651366	16219.216821
762.977935	19504.035188
763.304456	21511.142865
763.630931	21960.670115
763.957359	20946.699992
764.283740	19247.153111
764.610074	17539.278243
764.936362	15625.192457
765.262602	14243.588628
765.588796	12886.401628
765.914943	11940.673605
766.241044	11157.855509
766.567097	10567.231404
766.893104	10054.626717
767.219064	9722.840656
767.544978	9353.702165
767.870845	9058.653513
768.196665	8888.350733
768.522438	8706.365079
768.848165	8541.773927
769.173846	8383.234679
769.499479	8274.282742
769.825066	8126.902089
770.150607	7957.400852
770.476101	7897.776605
770.801548	7789.210316
771.126949	7658.286509
771.452303	7574.578150
771.777611	7421.301867
772.102872	7395.150882
772.428087	7285.049561
772.753256	7172.173085
773.078378	7096.961590
773.403453	6959.370858
773.728482	6861.491815
774.053465	6803.878988
774.378401	6721.864456
774.703291	6635.673328
775.028135	6546.061777
775.352932	6508.096848
775.677683	6429.762358
776.002388	6344.665161
776.327046	6345.282702
776.651658	6260.669455
776.976224	6192.069434
777.300743	6170.924314
777.625216	6109.906188
777.949643	6063.545217
778.274024	6066.738788
778.598359	6003.837790
778.922647	6005.718141
779.246889	5968.320341
779.571086	5967.919569
779.895236	5972.935517
780.219339	5963.518642
780.543397	5960.993024
780.867409	6001.821329
781.191374	6000.082131
781.515294	5965.351101
781.839167	6008.727710
782.162995	5982.254090
782.486776	5938.355723
782.810511	5898.472634
783.134201	5832.350339
783.457844	5822.981355
783.781441	5780.426455
784.104993	5738.784003
784.428498	5712.297781
784.751958	5693.718609
785.075372	5674.373181
785.398739	5635.566378
785.722061	5648.479294
786.045337	5647.387884
786.368568	5740.296350
786.691752	5761.020533
787.014891	5976.822247
787.337983	6212.498710
787.661030	6592.760506
787.984031	6948.897861
788.306987	7171.232910
788.629897	7243.086996
788.952760	7178.789600
789.275579	7021.482914
789.598351	6766.398009
789.921078	6531.535693
790.243759	6293.351256
790.566395	6114.922136
790.888984	5944.042144
791.211529	5817.826775
791.534027	5673.395197
791.856480	5552.125200
792.178888	5503.044526
792.501249	5430.431746
792.823566	5342.095607
793.145836	5331.297456
793.468062	5311.576462
793.790241	5276.694198
794.112375	5303.878620
794.434464	5385.265528
794.756507	5408.301081
795.078505	5502.847921
795.400457	5688.521179
795.722364	5893.963322
796.044226	6054.138423
796.366042	6192.061872
796.687812	6146.923381
797.009538	6171.365415
797.331218	6090.522951
797.652852	6035.947420
797.974442	5927.693682
798.295986	5866.368046
798.617484	5752.639615
798.938938	5654.765613
799.260346	5604.384321
799.581709	5474.627542
799.903026	5435.629176
800.224299	5368.264237
800.545526	5266.755563
800.866708	5207.443867
801.187845	5162.943082
801.508936	5095.787351
801.829983	5073.197941
802.150984	4973.617508
802.471940	4957.571515
802.792851	4935.675264
803.113717	4913.380761
803.434538	4890.987955
803.755314	4860.630127
804.076045	4847.452551
804.396731	4816.731759
804.717372	4826.965302
805.037967	4822.052697
805.358518	4846.156974
805.679024	4892.233120
805.999485	4900.732506
806.319901	4911.107200
806.640272	4920.133386
806.960598	4962.690807
807.280879	4950.213951
807.601115	4983.271318
807.921306	4951.872491
808.241453	4949.697233
808.561554	4959.716526
808.881611	4926.583543
809.201623	4924.032719
809.521590	4885.344384
809.841513	4872.184452
810.161390	4886.047625
810.481223	4807.859328
810.801011	4796.645282
811.120755	4774.945635
811.440453	4730.114654
811.760107	4703.910736
812.079716	4683.501625
812.399281	4638.037979
812.718801	4631.146722
813.038276	4601.845015
813.357707	4569.997525
813.677093	4590.446966
813.996434	4533.834808
814.315731	4551.816604
814.634983	4546.372158
814.954191	4552.393816
815.273354	4601.194706
815.592473	4631.350888
815.911547	4693.079817
816.230577	4741.633690
816.549562	4812.542560
816.868502	4856.607286
817.187399	4903.323659
817.506250	4970.716324
817.825058	4990.104602
818.143821	5114.754692
818.462539	5259.284573
818.781213	5441.363488
819.099843	5741.791052
819.418429	6261.551657
819.736970	6767.214676
820.055466	7348.666402
820.373919	8126.415617
820.692327	9356.888174
821.010691	11640.926597
821.329011	17019.961259
821.647286	25474.422402
821.965517	34619.314933
822.283704	39432.792628
822.601847	40594.793713
822.919945	36380.351289
823.237999	31828.340600
823.556010	27294.115103
823.873976	23241.748295
824.191897	19638.228182
824.509775	16969.892519
824.827609	14630.086332
825.145398	13280.622380
825.463144	12590.309457
825.780845	12836.673166
826.098502	13881.469945
826.416116	15843.081209
826.733685	17669.055187
827.051210	18033.243265
827.368692	16774.293230
827.686129	14715.599425
828.003522	12683.739682
828.320872	10882.497604
828.638177	9531.362509
828.955439	8498.989654
829.272656	7611.136598
829.589830	6918.434168
829.906960	6312.210212
830.224046	5865.616914
830.541088	5526.211149
830.858086	5307.462880
831.175041	5138.188496
831.491952	5082.723201
831.808819	5106.129278
832.125642	5299.719668
832.442421	5745.014870
832.759157	6650.549773
833.075849	8083.528001
833.392497	9566.998426
833.709101	10450.127921
834.025662	10234.938707
834.342179	9377.735866
834.658653	8333.279365
834.975083	7437.040349
835.291469	6719.699281
835.607811	6121.019412
835.924110	5689.665521
836.240366	5292.238596
836.556578	4927.614459
836.872746	4636.785252
837.188871	4415.909617
837.504952	4233.200558
837.820990	4099.577213
838.136984	4001.667923
838.452935	3962.510761
838.768842	3984.643947
839.084706	4216.232034
839.400526	4815.163960
839.716303	5538.430906
840.032037	5982.904399
840.347727	5857.667014
840.663373	5374.243045
840.978977	4914.729269
841.294537	4561.364549
841.610054	4293.986791
841.925527	4101.833129
842.240957	3937.809107
842.556344	3784.706744
842.871687	3651.161537
843.186987	3530.700646
843.502244	3436.572221
843.817458	3367.142930
844.132629	3307.400215
844.447756	3266.718104
844.762840	3229.209399
845.077881	3196.888041
845.392879	3169.877538
845.707833	3145.513642
846.022745	3124.131588
846.337613	3115.662449
846.652438	3099.939091
846.967221	3091.578337
847.281960	3073.941860
847.596656	3064.545149
847.911309	3053.557955
848.225919	3042.270811
848.540485	3033.380736
848.855009	3030.046013
849.169490	3018.022861
849.483928	3012.202849
849.798323	3010.740914
850.112675	3000.424193
850.426984	3001.031652
850.741251	2991.214005
851.055474	2988.816936
851.369654	2991.937411
851.683792	2989.144611
851.997887	2987.392810
852.311938	2992.181907
852.625947	2991.559324
852.939914	2985.787203
853.253837	2989.527739
853.567718	2985.383911
853.881555	2979.193374
854.195350	2985.411637
854.509103	2980.713282
854.822812	2979.800833
855.136479	2975.392344
855.450103	2976.105667
855.763685	2972.738176
856.077224	2971.407312
856.390720	2979.372335
856.704173	2989.361381
857.017584	2992.398676
857.330953	2995.105776
857.644278	2999.035355
857.957561	3004.041221
858.270802	3000.580469
858.584000	2997.381857
858.897155	2995.078049
859.210268	2986.810557
859.523339	2976.423260
859.836367	2976.632468
860.149352	2971.450161
860.462295	2967.399594
860.775195	2961.602267
861.088054	2952.203036
861.400869	2955.968778
861.713642	2953.276802
862.026373	2959.679067
862.339062	2959.933645
862.651708	2968.543936
862.964312	2982.293683
863.276873	2989.757112
863.589392	3008.462313
863.901869	3030.882845
864.214303	3049.877912
864.526696	3059.945097
864.839045	3073.069741
865.151353	3084.576174
865.463619	3082.252202
865.775842	3082.111050
866.088023	3088.173038
866.400162	3084.104826
866.712258	3082.201791
867.024313	3085.226483
867.336325	3081.259095
867.648296	3083.620876
867.960224	3080.447469
868.272110	3082.315217
868.583954	3083.827563
868.895755	3087.726895
869.207515	3085.975094
869.519233	3097.660489
869.830909	3103.974534
870.142542	3112.574743
870.454134	3117.255454
870.765684	3125.941362
871.077191	3139.302940
871.388657	3145.838796
871.700081	3161.622649
872.011463	3176.002540
872.322803	3192.592978
872.634101	3204.694267
872.945357	3222.519787
873.256571	3246.167840
873.567744	3255.108327
873.878874	3259.501692
874.189963	3273.385030
874.501010	3274.897376
874.812015	3269.047117
875.122979	3282.106226
875.433900	3280.157820
875.744780	3282.617903
876.055618	3287.376752
876.366415	3285.526649
876.677169	3289.408337
876.987882	3300.990388
877.298554	3318.309272
877.609183	3347.464786
877.919771	3382.044580
878.230317	3433.272786
878.540822	3515.226824
878.851285	3628.909884
879.161707	3797.110503
879.472087	4085.885439
879.782425	4579.371551
880.092722	5537.311769
880.402977	7143.962788
880.713191	9193.895068
881.023363	11218.593852
881.333494	12353.511337
881.643583	12702.475130
881.953631	12283.048610
882.263637	11533.446677
882.573602	10665.937197
882.883526	9862.657058
883.193408	9075.251512
883.503248	8319.965678
883.813048	7631.084443
884.122806	7010.581419
884.432522	6392.755248
884.742197	5850.090160
885.051831	5389.875663
885.361424	4984.201411
885.670975	4664.468748
885.980485	4402.210281
886.289954	4190.575081
886.599382	4017.066127
886.908768	3877.675703
887.218113	3748.216352
887.527417	3643.108294
887.836680	3547.225548
888.145901	3469.458188
888.455082	3407.242788
888.764221	3356.556507
889.073319	3308.352993
889.382376	3285.206536
889.691392	3262.299532
890.000366	3256.623193
890.309300	3253.369128
890.618193	3256.378697
890.927044	3252.638161
891.235855	3256.784510
891.544625	3270.771192
891.853353	3288.571506
892.162041	3336.225533
892.470687	3407.872932
892.779293	3497.877693
893.087858	3629.885347
893.396381	3850.536651
893.704864	4170.715456
894.013306	4606.064461
894.321707	5037.141088
894.630068	5293.259429
894.938387	5320.274973
895.246665	5170.444319
895.554903	4931.007155
895.863100	4676.552394
896.171256	4471.412721
896.479371	4289.938744
896.787446	4120.828197
897.095480	3972.159529
897.403473	3859.777086
897.711425	3746.366248
898.019336	3656.749656
898.327207	3560.672826
898.635038	3485.731033
898.942827	3404.162643
899.250576	3340.084536
899.558284	3280.614044
899.865952	3240.662900
900.173579	3186.962009
900.481165	3154.325579
900.788711	3122.127729
901.096216	3100.967486
901.403681	3076.969073
901.711105	3068.494893
902.018489	3065.772670
902.325832	3091.361567
902.633135	3134.849081
902.940397	3266.350100
903.247619	3581.517997
903.554800	4175.595293
903.861941	4930.039254
904.169041	5477.788345
904.476101	5633.882633
904.783121	5411.209827
905.090100	5092.772741
905.397039	4772.432620
905.703938	4495.832070
906.010796	4248.419801
906.317614	4055.338567
906.624391	3869.332593
906.931129	3715.222000
907.237826	3575.178746
907.544483	3445.621092
907.851099	3313.941113
908.157675	3190.052236
908.464211	3081.974939
908.770707	3002.906961
909.077163	2939.027980
909.383578	2898.439130
909.689954	2862.215919
909.996289	2837.494101
910.302584	2824.518171
910.608839	2811.615337
910.915054	2805.402115
911.221229	2800.066054
911.527363	2803.408339
911.833458	2809.155254
912.139513	2816.464927
912.445527	2826.559838
912.751502	2852.567151
913.057436	2883.625700
913.363331	2928.260076
913.669186	2995.035200
913.975000	3083.714137
914.280775	3227.621435
914.586510	3436.015173
914.892205	3723.973443
915.197859	4111.194552
915.503475	4558.710382
915.809050	4929.814922
916.114585	5146.254342
916.420081	5186.991906
916.725536	5128.970746
917.030952	4943.831851
917.336328	4780.311943
917.641665	4623.141369
917.946961	4452.944454
918.252218	4302.337462
918.557435	4129.357829
918.862612	3983.333247
919.167750	3845.984489
919.472848	3705.709342
919.777906	3578.223603
920.082925	3457.666929
920.387904	3341.861543
920.692843	3257.255858
920.997743	3183.869261
921.302603	3110.472582
921.607423	3061.706980
921.912204	3010.309896
922.216946	2977.209680
922.521647	2938.233999
922.826310	2906.956160
923.130932	2880.386758
923.435516	2851.644620
923.740059	2830.184428
924.044564	2805.744914
924.349028	2787.571554
924.653454	2765.350148
924.957840	2746.856675
925.262186	2731.249263
925.566493	2714.699155
925.870761	2696.369519
926.174989	2689.062367
926.479178	2678.170954
926.783328	2667.902124
927.087438	2660.854591
927.391509	2651.578867
927.695541	2638.350880
927.999533	2632.606485
928.303486	2623.333282
928.607400	2618.463528
928.911275	2613.072014
929.215110	2609.855758
929.518906	2608.096395
929.822663	2607.534306
930.126381	2610.347270
930.430060	2612.038577
930.733699	2612.978752
931.037299	2612.814915
931.340861	2612.341047
931.644383	2614.964967
931.947866	2613.513115
932.251309	2611.179061
932.554714	2613.591253
932.858080	2609.081941
933.161407	2607.461210
933.464694	2603.634974
933.767943	2599.705394
934.071153	2600.131372
934.374323	2596.158943
934.677455	2595.233891
934.980548	2591.077460
935.283602	2590.341451
935.586617	2587.962027
935.889593	2590.389342
936.192530	2592.466297
936.495428	2594.815475
936.798287	2602.735128
937.101108	2610.672425
937.403890	2625.226236
937.706632	2643.336581
938.009336	2668.312978
938.312002	2688.573375
938.614628	2702.928061
938.917216	2718.888354
939.219765	2727.024776
939.522275	2732.809500
939.824747	2732.640621
940.127179	2725.525033
940.429573	2722.868345
940.731929	2725.449415
941.034246	2717.751573
941.336524	2719.727706
941.638763	2712.836448
941.940964	2705.985520
942.243126	2696.757688
942.545250	2688.349044
942.847335	2678.075172
943.149381	2674.642146
943.451389	2661.870383
943.753359	2652.380411
944.055290	2646.063845
944.357182	2639.835500
944.659036	2634.461630
944.960851	2632.697226
945.262628	2630.463995
945.564367	2630.290075
945.866067	2628.132461
946.167729	2624.407048
946.469352	2625.629528
946.770937	2626.287399
947.072484	2621.354630
947.373992	2620.545524
947.675462	2618.708024
947.976893	2614.932200
948.278286	2611.030347
948.579641	2609.099585
948.880958	2606.354676
949.182236	2606.697475
949.483476	2600.169181
949.784678	2598.296392
950.085841	2601.197576
950.386967	2603.478698
950.688054	2607.284769
950.989103	2615.713578
951.290114	2620.464866
951.591087	2629.725466
951.892021	2635.207720
952.192917	2646.673825
952.493776	2652.027530
952.794596	2656.988026
953.095378	2658.949034
953.396122	2656.385608
953.696828	2657.779487
953.997496	2649.229690
954.298126	2644.188536
954.598718	2639.613689
954.899272	2630.879890
955.199788	2623.461832
955.500266	2616.099227
955.800706	2604.287803
956.101108	2591.024527
956.401472	2582.615883
956.701798	2571.351425
957.002087	2564.508058
957.302337	2554.861810
957.602550	2549.067004
957.902724	2538.420087
958.202861	2533.414221
958.502960	2526.787625
958.803022	2522.603467
959.103045	2517.466531
959.403031	2512.165758
959.702979	2509.415808
960.002889	2505.904645
960.302762	2502.368275
960.602596	2500.099756
960.902393	2497.727893
961.202153	2496.301247
961.501875	2493.546256
961.801559	2488.961327
962.101205	2489.173055
962.400814	2487.844711
962.700385	2485.034268
962.999918	2483.055615
963.299414	2484.328506
963.598873	2482.596870
963.898293	2481.092086
964.197677	2477.986735
964.497022	2479.163844
964.796331	2479.524287
965.095601	2476.439101
965.394835	2475.950109
965.694030	2479.322641
965.993189	2479.368011
966.292309	2474.515900
966.591393	2475.284676
966.890439	2476.650829
967.189447	2475.614872
967.488419	2474.369707
967.787353	2474.538586
968.086249	2477.152424
968.385108	2476.184522
968.683930	2475.423308
968.982714	2478.216107
969.281462	2477.873309
969.580172	2480.920686
969.878844	2476.797023
970.177480	2481.923876
970.476078	2481.893629
970.774639	2487.169197
971.073162	2486.100472
971.371649	2486.160966
971.670098	2486.917139
971.968510	2489.838487
972.266885	2485.314052
972.565223	2494.468787
972.863524	2494.451143
973.161788	2496.787718
973.460014	2491.887717
973.758204	2497.685043
974.056356	2495.666061
974.354471	2498.330311
974.652550	2496.142450
974.950591	2495.935763
975.248595	2495.126658
975.546563	2495.663541
975.844493	2494.509117
976.142386	2494.017604
976.440243	2490.897130
976.738062	2492.464929
977.035845	2489.402428
977.333590	2488.931080
977.631299	2485.598877
977.928971	2483.542086
978.226606	2483.554689
978.524204	2482.564102
978.821765	2479.587301
979.119290	2481.210553
979.416777	2480.504791
979.714228	2480.862713
980.011642	2482.092755
980.309020	2484.121819
980.606360	2488.411841
980.903664	2494.110865
981.200931	2498.330311
981.498162	2516.546521
981.795356	2538.263811
982.092513	2568.861095
982.389633	2601.179932
982.686717	2635.263173
982.983764	2660.355516
983.280775	2675.978052
983.577749	2675.292455
983.874686	2668.444048
984.171587	2654.964002
984.468451	2644.133083
984.765279	2631.298306
985.062070	2615.476644
985.358824	2602.246136
985.655543	2586.545462
985.952224	2562.647872
986.248869	2547.673125
986.545478	2525.774353
986.842050	2513.950326
987.138586	2498.257214
987.435086	2485.621562
987.731549	2475.204018
988.027975	2474.258802
988.324366	2468.020374
988.620719	2468.390898
988.917037	2463.690022
989.213318	2460.120886
989.509563	2460.342696
989.805772	2457.393621
990.101944	2460.070474
990.398080	2458.830350
990.694180	2457.625514
990.990244	2457.617953
991.286271	2456.299691
991.582262	2455.435133
991.878217	2458.464867
992.174136	2458.462346
992.470019	2457.464197
992.765865	2459.762964
993.061676	2461.156843
993.357450	2463.657255
993.653188	2465.862760
993.948890	2470.765282
994.244556	2472.312916
994.540186	2482.680049
994.835780	2487.585092
995.131337	2500.636639
995.426859	2513.027795
995.722345	2525.708818
996.017795	2537.482433
996.313208	2551.080945
996.608586	2557.352140
996.903928	2557.367264
997.199234	2561.072512
997.494504	2555.484393
997.789738	2549.956768
998.084936	2540.129038
998.380099	2532.045548
998.675225	2523.112623
998.970316	2515.427384
999.265371	2505.526558
999.560390	2494.798983
999.855373	2487.811944
1000.150320	2480.666108
1000.445232	2476.245016
1000.740108	2471.037504
1001.034948	2465.099025
1001.329752	2462.127265
1001.624521	2458.764815
1001.919254	2452.849021
1002.213951	2451.434978
1002.508613	2449.768876
1002.803239	2450.845162
1003.097829	2443.906014
1003.392384	2448.596808
1003.686903	2445.740994
1003.981386	2445.461210
1004.275834	2443.018771
1004.570246	2445.612445
1004.864623	2447.482713
1005.158964	2442.761672
1005.453270	2442.917948
1005.747540	2443.197732
1006.041775	2445.022630
1006.335974	2441.309820
1006.630138	2442.023143
1006.924266	2440.389809
1007.218359	2439.820159
1007.512416	2439.338729
1007.806438	2439.084151
1008.100425	2442.512135
1008.394376	2438.401074
1008.688292	2441.309820
1008.982172	2438.469130
1009.276017	2440.288986
1009.569827	2439.679007
1009.863602	2442.139090
1010.157341	2437.501228
1010.451045	2438.932916
1010.744714	2435.540219
1011.038347	2438.706064
1011.331945	2434.499221
1011.625508	2438.885025
1011.919036	2435.126845
1012.212528	2437.700354
1012.505986	2437.133224
1012.799408	2435.895621
1013.092795	2435.401588
1013.386147	2434.741197
1013.679464	2437.536516
1013.972745	2439.361414
1014.265992	2436.697164
1014.559204	2437.539037
1014.852380	2435.880497
1015.145521	2437.133224
1015.438628	2436.051897
1015.731699	2437.647422
1016.024736	2434.728594
1016.317737	2434.438727
1016.610703	2438.224634
1016.903635	2431.373706
1017.196531	2431.782039
1017.489393	2436.813111
1017.782219	2431.592996
1018.075011	2439.684048
1018.367768	2436.213213
1018.660490	2436.137596
1018.953177	2436.137596
1019.245829	2436.137596
