Dividing Wavelength (nm)	Counts (n)	Blue Motor Position (mm): 0.000000	Red Motor Position (mm): 49.600000	
326.493990	1998.905720
326.888308	1998.905720
327.282561	1998.905720
327.676750	1975.592904
328.070874	1979.245220
328.464933	1983.794862
328.858929	1990.542446
329.252859	2006.691782
329.646726	2020.731396
330.040528	2033.414939
330.434265	2052.896478
330.827938	2073.522359
331.221547	2092.701429
331.615091	2113.460900
332.008571	2134.406894
332.401986	2156.703918
332.795338	2176.132525
333.188625	2195.430062
333.581847	2212.610314
333.975006	2231.081102
334.368100	2250.330748
334.761129	2265.703746
335.154095	2281.008689
335.546996	2325.320432
335.939833	2415.801582
336.332606	2429.410176
336.725315	2437.987700
337.117960	2450.436829
337.510540	2454.242900
337.903056	2468.297637
338.295508	2471.471043
338.687896	2481.389514
339.080220	2489.283961
339.472480	2492.170021
339.864676	2496.583551
340.256807	2497.216216
340.648875	2500.293841
341.040879	2504.273832
341.432818	2501.370127
341.824694	2504.596465
342.216506	2504.374655
342.608253	2505.609737
342.999937	2502.033039
343.391557	2503.099243
343.783113	2503.074037
344.174605	2500.087153
344.566033	2496.966679
344.957397	2495.401401
345.348697	2493.815958
345.739934	2493.735299
346.131106	2492.033910
346.522215	2491.930566
346.913260	2488.512664
347.304241	2487.370843
347.695159	2483.741212
348.086012	2485.263640
348.476802	2480.973618
348.867528	2481.989411
349.258191	2480.018320
349.648789	2480.754328
350.039324	2480.605614
350.429796	2479.241982
350.820203	2476.537403
351.210548	2478.397589
351.600828	2476.126549
351.991045	2475.025057
352.381198	2474.284007
352.771288	2478.861375
353.161314	2473.237968
353.551276	2475.135962
353.941175	2474.546147
354.331010	2477.510346
354.720782	2478.286683
355.110490	2478.619400
355.500135	2478.286683
355.889717	2477.379276
356.279235	2478.052270
356.668689	2478.647126
357.058080	2477.036477
357.447408	2479.337764
357.836672	2476.464306
358.225873	2477.190233
358.615010	2476.383648
359.004084	2485.601398
359.393095	2485.104844
359.782043	2484.436891
360.170927	2482.561582
360.559748	2488.041316
360.948505	2486.130719
361.337199	2488.240442
361.725830	2487.706079
362.114398	2488.686584
362.502903	2491.640700
362.891344	2488.951244
363.279722	2488.212715
363.668037	2495.124137
364.056289	2490.960144
364.444478	2495.502224
364.832603	2497.022132
365.220665	2492.585916
365.608665	2498.355517
365.996601	2498.627739
366.384474	2498.108500
366.772284	2503.459685
367.160031	2502.136382
367.547715	2502.869870
367.935336	2503.300889
368.322893	2505.410612
368.710388	2504.203255
369.097820	2505.294665
369.485189	2508.231137
369.872495	2509.735922
370.259738	2510.305572
370.646918	2513.776407
371.034035	2516.480986
371.421090	2519.024248
371.808081	2521.484331
372.195010	2528.264683
372.581875	2531.130579
372.968678	2539.909748
373.355418	2548.119267
373.742096	2561.180897
374.128710	2570.055848
374.515262	2585.131419
374.901751	2596.715990
375.288177	2616.063939
375.674540	2636.679737
376.060841	2656.448622
376.447079	2680.328568
376.833254	2705.186497
377.219367	2728.033007
377.605417	2766.895262
377.991404	2794.596402
378.377329	2836.770695
378.763191	2869.671786
379.148991	2920.955444
379.534727	2971.568628
379.920402	3017.909435
380.306013	3071.418763
380.691563	3137.097436
381.077049	3197.293854
381.462474	3249.179930
381.847835	3330.410562
382.233134	3403.610637
382.618371	3464.527940
383.003545	3551.069428
383.388657	3639.274497
383.773706	3728.455029
384.158693	3807.520486
384.543618	3903.052872
384.928480	3985.873988
385.313280	4095.239300
385.698017	4198.973643
386.082692	4324.468127
386.467305	4390.673601
386.851856	4520.826111
387.236344	4677.336294
387.620770	4741.565635
388.005133	4870.044482
388.389435	5025.125498
388.773674	5105.610039
389.157851	5244.158591
389.541965	5378.936360
389.926018	5403.149022
390.310008	5589.560808
390.693936	5714.357092
391.077802	5839.828891
391.461606	5977.646476
391.845348	6093.161995
392.229027	6219.364761
392.612645	6446.866993
392.996200	6566.128090
393.379694	6744.738692
393.763125	6977.027499
394.146494	7075.274547
394.529801	7213.482820
394.913047	7469.036553
395.296230	7463.816438
395.679351	7524.010336
396.062410	7792.209802
396.445408	7688.281375
396.828343	7846.853390
397.211217	7992.620874
397.594028	7868.142182
397.976778	8082.091272
398.359466	8251.174093
398.742092	8222.305925
399.124656	8378.349801
399.507158	8571.554543
399.889598	8587.446781
400.271977	8807.805697
400.654294	8836.666303
401.036549	9039.257673
401.418742	9070.139782
401.800874	9383.875992
402.182944	9466.765164
402.564952	9837.569755
402.946898	9653.766766
403.328783	9718.737156
403.710606	9918.550851
404.092367	10186.556233
404.474067	10557.224714
404.855705	10344.359472
405.237282	10293.660588
405.618797	10728.891126
406.000250	10990.705971
406.381642	11364.527694
406.762972	11309.478294
407.144240	11109.016811
407.525447	11373.896678
407.906593	11308.275978
408.287677	11566.952706
408.668700	11738.614077
409.049661	11703.363808
409.430560	11861.126718
409.811399	11839.081752
410.192176	12004.018224
410.572891	12082.952611
410.953545	12584.030700
411.334138	12050.074205
411.714669	12685.877131
412.095139	11951.386057
412.475547	12480.147643
412.855894	12314.442395
413.236180	12657.755054
413.616405	12330.304386
413.996568	12622.096453
414.376670	12589.349117
414.756711	12457.275928
415.136691	12759.788008
415.516609	12938.842231
415.896466	13012.763191
416.276262	13307.897543
416.655997	13749.013628
417.035670	13794.739413
417.415283	14449.214773
417.794834	14555.119333
418.174324	14287.595381
418.553753	14187.536039
418.933121	14701.552250
419.312428	14493.395446
419.691674	14400.383637
420.070859	14866.183731
420.449983	14520.690773
420.829045	15088.932155
421.208047	14822.265199
421.586988	15295.715245
421.965867	15562.510750
422.344686	15560.416151
422.723444	16132.798841
423.102141	14783.188695
423.480777	16014.094791
423.859352	15509.331618
424.237866	16647.223385
424.616319	16340.113772
424.994712	17011.043458
425.373044	16812.956359
425.751314	17504.257348
426.129524	16607.491531
426.507673	17731.338643
426.885762	17406.027944
427.263789	17620.130789
427.641756	17801.503943
428.019662	17850.337600
428.397508	17899.168737
428.775292	18221.963900
429.153016	18172.177465
429.530679	18265.945447
429.908282	18275.707641
430.285824	18004.932145
430.663305	18716.886741
431.040726	18306.098237
431.418086	18128.427811
431.795385	18791.838616
432.172624	19222.214523
432.549802	18770.925389
432.926920	18945.298901
433.303977	18839.606069
433.680974	19100.493343
434.057910	19395.239526
434.434786	19413.939686
434.811601	19323.685388
435.188355	20396.586599
435.565050	20031.370127
435.941683	19982.909515
436.318257	20884.071217
436.694770	20693.427382
437.071222	21294.446346
437.447614	20347.117757
437.823946	20378.201511
438.200218	20535.185563
438.576429	20308.479833
438.952580	20583.389076
439.328670	20542.926254
439.704700	20964.119699
440.080670	20534.550377
440.456580	21139.254425
440.832429	21315.352011
441.208218	20278.921028
441.583947	20749.490054
441.959616	20846.731391
442.335224	21103.184969
442.710773	21232.261193
443.086261	21776.942743
443.461689	21136.456585
443.837057	21248.075293
444.212365	21915.022467
444.587612	21907.382598
444.962800	21464.822223
445.337927	21911.612127
445.712995	20617.633634
446.088002	22504.388804
446.462949	22713.122821
446.837837	22891.191498
447.212664	22857.622454
447.587431	25782.515039
447.962139	28780.423697
448.336786	31173.235096
448.711374	29565.510312
449.085901	25811.988145
449.460369	25760.071822
449.834776	25692.303591
450.209124	28241.012673
450.583412	27734.724552
450.957640	28268.154246
451.331808	26901.016008
451.705917	25505.359963
452.079965	25556.799897
452.453954	25917.839773
452.827883	25794.855784
453.201752	25595.246256
453.575562	25762.431083
453.949311	26923.749091
454.323001	26975.259601
454.696632	26736.281182
455.070202	28324.849582
455.443713	28458.246075
455.817164	29064.429702
456.190556	29608.597053
456.563888	29037.527584
456.937160	29479.293978
457.310373	27776.452703
457.683526	28245.753879
458.056619	28240.753054
458.429653	28159.693821
458.802628	28755.464944
459.175542	28886.973524
459.548398	30181.834219
459.921194	31783.749074
460.293930	32478.006699
460.666607	34544.879776
461.039224	36315.421227
461.411782	36711.595426
461.784280	35498.741701
462.156719	35035.694076
462.529099	34469.552335
462.901419	33170.036135
463.273680	32092.986054
463.645882	32157.984171
464.018024	32155.435868
464.390106	33007.542102
464.762130	35762.068893
465.134094	39878.171008
465.505999	45218.381224
465.877845	49824.833853
466.249631	50982.706233
466.621358	49323.745682
466.993026	47218.622850
467.364634	45141.334749
467.736184	43151.346830
468.107674	41888.129458
468.479105	41070.272823
468.850477	40378.087112
469.221790	38923.361346
469.593043	37134.684344
469.964238	36241.328868
470.335373	36158.507752
470.706449	37942.405740
471.077467	40582.377351
471.448425	45176.456468
471.819324	47970.770566
472.190164	46080.443738
472.560945	42491.568177
472.931667	39365.425168
473.302330	38237.293075
473.672934	37413.351767
474.043479	37931.902496
474.413965	37122.005842
474.784393	36743.387462
475.154761	37662.127668
475.525070	37683.910494
475.895321	37204.370735
476.265513	37810.889598
476.635645	38799.248139
477.005719	38634.112542
477.375734	39105.278945
477.745691	39805.752313
478.115588	41167.244458
478.485427	43162.669262
478.855207	46561.006851
479.224928	49174.953505
479.594591	50817.179947
479.964194	49831.082364
480.333739	49989.243524
480.703226	50027.856242
481.072653	50688.776717
481.442022	51132.970427
481.811333	51394.442474
482.180584	50109.926227
482.549777	49585.759653
482.918912	49059.082584
483.287988	48752.981202
483.657005	47923.272814
484.025964	47297.380797
484.394864	47320.562542
484.763706	46888.515493
485.132489	46015.571649
485.501213	45842.269383
485.869879	46006.858015
486.238487	45575.536892
486.607036	45762.876251
486.975527	45230.343882
487.343959	45431.874089
487.712333	45520.079158
488.080648	45427.344613
488.448905	45891.148411
488.817104	45705.465070
489.185244	46676.615633
489.553326	48374.398110
489.921350	51084.361101
490.289315	53898.217231
490.657222	54470.630168
491.025070	54739.797537
491.392861	53873.760073
491.760593	52664.586391
492.128267	51027.572503
492.495883	49507.957005
492.863440	48130.285276
493.230939	46756.898528
493.598380	45670.862590
493.965763	45335.993864
494.333088	44495.167211
494.700354	44005.971121
495.067563	43703.491808
495.434713	43600.561529
495.801805	43645.468127
496.168839	43275.238227
496.535815	42921.381995
496.902733	42951.369298
497.269593	42543.464335
497.636395	42464.882829
498.003139	42881.224163
498.369825	42317.242556
498.736453	42653.495079
499.103023	42159.512414
499.469535	42021.906558
499.835989	42132.290183
500.202385	41795.067238
500.568723	41815.098263
500.935003	42015.819365
501.301226	41800.773824
501.667390	42428.100050
502.033497	42701.688510
502.399546	42117.728810
502.765537	41409.902919
503.131470	41806.248517
503.497345	42183.798172
503.863163	40826.429691
504.228923	41450.804321
504.594625	41867.231355
504.960269	41157.822542
505.325856	41870.634134
505.691385	41210.986550
506.056856	41344.718279
506.422270	41804.857158
506.787625	41383.676316
507.152924	41557.144941
507.518164	41671.584174
507.883347	40844.114058
508.248472	41129.897070
508.613540	41602.802671
508.978550	41926.611106
509.343503	41648.006698
509.708398	41862.197763
510.073236	42407.587595
510.438016	42412.601022
510.802738	41853.862215
511.167403	42488.704801
511.532010	42732.434507
511.896561	43027.079867
512.261053	43896.343669
512.625488	43434.972228
512.989866	43303.428359
513.354186	43144.500943
513.718449	43125.394970
514.082655	43824.711393
514.446803	43486.923839
514.810894	44007.024722
515.174927	43940.131131
515.538904	43836.749669
515.902822	44535.062903
516.266684	43941.530052
516.630488	44408.335857
516.994235	44256.546714
517.357925	44826.892778
517.721558	44997.361916
518.085133	45307.949925
518.448651	45436.108659
518.812112	45210.370831
519.175516	45325.110013
519.538863	45662.038051
519.902152	45608.170801
520.265385	46082.742504
520.628560	46113.463295
520.991678	45914.473829
521.354739	46162.339802
521.717743	46479.090622
522.080690	46367.799589
522.443580	46924.469003
522.806413	46962.665825
523.169189	46909.698422
523.531908	47098.396372
523.894569	46952.064279
524.257174	47128.398799
524.619722	47431.213349
524.982213	47414.438909
525.344647	47328.630909
525.707025	47376.030358
526.069345	47762.028988
526.431608	47691.888894
526.793815	48025.313330
527.155964	47540.233342
527.518057	47707.297180
527.880093	47496.473606
528.242072	48021.615643
528.603995	47725.561281
528.965860	47721.046927
529.327669	47799.683886
529.689421	47711.100731
530.051117	47673.556738
530.412755	47810.376174
530.774337	47880.922081
531.135862	47663.333278
531.497331	47879.167759
531.858743	47783.816855
532.220098	48126.136407
532.581396	47842.329527
532.942638	47486.983634
533.303824	47789.626784
533.664953	47762.470089
534.026025	47464.205180
534.387040	47958.918813
534.747999	47908.890402
535.108902	48066.227334
535.469748	47571.702745
535.830537	47683.026545
536.191270	47882.948624
536.551947	47528.154737
536.912567	47837.968929
537.273131	47973.424733
537.633638	47439.075028
537.994089	47794.123494
538.354483	47375.009525
538.714821	47958.548288
539.075103	48306.327410
539.435328	48046.481135
539.795497	47941.788972
540.155609	47932.425029
540.515665	48408.816588
540.875665	47848.404118
541.235609	48173.344292
541.595496	48138.272984
541.955328	48820.164659
542.315102	48185.107824
542.674821	47980.215167
543.034483	48032.418836
543.394090	47998.484309
543.753640	47945.466494
544.113134	48956.658941
544.472571	47945.171586
544.831953	49213.384742
545.191278	48415.753216
545.550548	48123.295716
545.909761	48597.597717
546.268918	48811.813988
546.628019	49114.260534
546.987064	48664.624899
547.346053	47931.704144
547.704986	48826.022480
548.063863	48355.604688
548.422684	48573.405220
548.781449	48412.577289
549.140158	48814.609308
549.498811	48664.420732
549.857408	48087.972351
550.215949	48933.756979
550.574434	48859.515906
550.932864	48621.031521
551.291237	49347.829794
551.649555	48934.989541
552.007817	49175.145069
552.366022	48821.767746
552.724173	49005.442187
553.082267	49399.945243
553.440305	49720.381146
553.798288	49013.243372
554.156215	49313.381069
554.514086	49542.740967
554.871902	49296.793153
555.229661	49302.328340
555.587365	49131.992792
555.945014	49222.438654
556.302606	49131.027411
556.660143	49358.310353
557.017625	49454.987081
557.375050	49253.179610
557.732421	49591.443554
558.089735	49569.509493
558.446994	49494.101394
558.804197	49964.763681
559.161345	49904.577346
559.518437	49160.392133
559.875474	49469.044338
560.232455	49616.258634
560.589381	49813.619807
560.946251	49497.022742
561.303065	50188.162414
561.659825	49995.897848
562.016528	49664.482311
562.373177	49372.783506
562.729770	49868.434793
563.086307	49366.812259
563.442789	49828.357620
563.799216	49887.397093
564.155587	49666.564308
564.511904	49686.398728
564.868164	49790.306991
565.224370	50038.019208
565.580520	49765.827148
565.936615	49982.977370
566.292654	49694.525068
566.648638	49951.323965
567.004567	49907.798643
567.360441	49947.787596
567.716260	49796.343773
568.072023	50083.480334
568.427732	50077.002451
568.783385	49612.707141
569.138982	50019.225787
569.494525	49976.154168
569.850013	49755.868348
570.205445	49706.833045
570.560823	49672.805256
570.916145	49563.656714
571.271412	49597.714749
571.626625	49347.514722
571.981782	49407.607797
572.336884	49099.225292
572.691931	49407.050749
573.046923	49023.207213
573.401860	48882.702693
573.756743	48866.628974
574.111570	48982.406634
574.466342	48818.803548
574.821059	48932.952915
575.175722	48458.333322
575.530330	48469.267584
575.884882	48182.448616
576.239380	48161.051438
576.593823	48132.344587
576.948211	48051.436589
577.302544	47573.998990
577.656823	47590.198738
578.011047	47824.955191
578.365216	47534.519194
578.719330	47336.719441
579.073389	47184.426183
579.427394	47270.909698
579.781344	47238.928618
580.135239	46883.481901
580.489080	46990.067017
580.842866	46450.696323
581.196597	46914.187569
581.550273	46848.198865
581.903895	46713.380767
582.257463	47145.105183
582.610975	46507.913419
582.964434	46782.936088
583.317837	46431.832325
583.671186	46267.430216
584.024481	46503.973757
584.377721	46032.270471
584.730906	46330.752149
585.084037	46370.620115
585.437113	46064.959833
585.790135	46114.264839
586.143103	45690.979315
586.496016	45826.664491
586.848874	45860.994749
587.201679	45884.070631
587.554428	45345.488877
587.907124	45537.481221
588.259765	45280.929340
588.612352	45548.697789
588.964884	44931.184169
589.317362	45232.771198
589.669786	45148.614175
590.022155	44929.296257
590.374470	45371.410490
590.726731	44886.683383
591.078937	44383.256116
591.431090	44492.583620
591.783188	44168.502962
592.135232	43812.113550
592.487222	44069.187190
592.839157	44163.134133
593.191038	43821.336341
593.542866	43576.111933
593.894639	42961.285248
594.246358	43248.673867
594.598022	43237.600973
594.949633	42830.298427
595.301190	42776.839511
595.652692	42591.012498
596.004141	42951.253352
596.355535	41945.984260
596.706876	41885.114848
597.058162	41724.707853
597.409395	42209.644168
597.760573	42295.343784
598.111698	41863.195911
598.462768	41871.165976
598.813785	41915.008891
599.164748	41340.156035
599.515657	41727.588873
599.866511	41201.758718
600.217312	41816.124137
600.568060	40762.417119
600.918753	41533.806919
601.269392	41488.726401
601.619978	41134.900415
601.970510	41342.096879
602.320988	41525.741073
602.671412	41841.493744
603.021783	41585.851791
603.372100	41220.869732
603.722363	41340.856756
604.072572	41414.457602
604.422728	41439.025665
604.772830	41232.683676
605.122878	41339.909019
605.472872	41254.549681
605.822813	41552.408777
606.172701	41384.550957
606.522534	41620.088788
606.872314	41907.590833
607.222041	41632.530355
607.571714	42029.654811
607.921333	41457.998047
608.270899	41760.038780
608.620411	42107.081893
608.969870	41905.095462
609.319276	41880.865156
609.668627	41937.550410
610.017926	42447.289202
610.367171	42612.011424
610.716362	42681.372660
611.065500	42634.805001
611.414585	42816.233608
611.763616	43121.989671
612.112594	43033.703943
612.461518	43272.054738
612.810389	43553.840115
613.159207	43396.515786
613.507971	43493.371475
613.856682	43980.147811
614.205340	43853.153583
614.553945	44578.195015
614.902496	44004.720915
615.250994	44472.527389
615.599439	44541.939036
615.947830	44742.370272
616.296169	44797.588551
616.644454	44917.988949
616.992686	45084.379793
617.340864	45616.672707
617.688990	45319.824363
618.037063	45931.588547
618.385082	45885.600621
618.733048	46210.492904
619.080961	46221.628813
619.428821	46212.040538
619.776628	46341.751947
620.124382	46166.539083
620.472083	46305.155691
620.819731	46436.785259
621.167326	46121.037629
621.514868	46090.621827
621.862357	45664.813206
622.209793	45699.367795
622.557176	45358.394231
622.904506	45115.803826
623.251783	44772.881856
623.599007	44543.385847
623.946179	44306.980938
624.293297	44267.848981
624.640363	43661.819110
624.987376	43647.582891
625.334336	43385.763005
625.681243	43021.436296
626.028097	42964.340187
626.374899	42819.775018
626.721647	42785.686736
627.068343	42655.284689
627.414987	42416.558328
627.761577	42175.119826
628.108115	42516.426106
628.454600	41949.979375
628.801032	42128.675676
629.147412	42087.723863
629.493739	42069.784917
629.840014	41689.881042
630.186236	42052.075343
630.532405	41644.429999
630.878521	41863.458051
631.224585	41727.646846
631.570597	41445.453136
631.916556	41604.935079
632.262462	41555.803994
632.608316	41550.535988
632.954117	41451.638632
633.299866	41442.993053
633.645562	41358.195804
633.991206	40879.823072
634.336797	40434.217839
634.682336	40434.411924
635.027823	40182.462616
635.373257	40001.417137
635.718639	39745.908775
636.063968	39622.128284
636.409245	39042.698061
636.754470	39092.542469
637.099642	38824.050616
637.444762	38332.941408
637.789829	38483.631579
638.134845	38115.264385
638.479808	38065.414935
638.824719	37943.166954
639.169577	37549.384783
639.514383	37607.413505
639.859137	37300.187946
640.203839	37547.552324
640.548489	37141.517628
640.893086	37221.404793
641.237632	36956.905533
641.582125	37055.094608
641.926566	37010.578698
642.270955	36961.339228
642.615292	36980.994687
642.959576	36937.907945
643.303809	36937.842410
643.647990	37077.494975
643.992118	37043.202526
644.336195	37009.744387
644.680219	37101.004396
645.024192	37393.028356
645.368112	37931.133720
645.711981	37905.196983
646.055797	38814.704316
646.399562	38713.447700
646.743274	39689.548675
647.086935	40153.947329
647.430544	40030.456704
647.774101	40147.333336
648.117606	40414.701012
648.461059	40734.141287
648.804460	40371.248787
649.147810	39743.829299
649.491108	39492.822688
649.834354	39123.646389
650.177548	38250.793285
650.520690	37798.982393
650.863781	37818.040475
651.206820	37677.404885
651.549807	37217.306335
651.892742	36723.858032
652.235626	36509.964395
652.578458	36362.044338
652.921238	35730.370117
653.263967	36053.336680
653.606644	35726.470785
653.949269	35674.756108
654.291843	35264.237307
654.634365	35668.684038
654.976836	35242.154532
655.319255	35228.936627
655.661622	35249.260038
656.003938	35012.497207
656.346203	34867.526225
656.688416	35087.973362
657.030577	34892.169906
657.372687	34720.148092
657.714746	34999.992625
658.056753	35106.804592
658.398708	34557.308741
658.740612	34599.800627
659.082465	34877.653903
659.424266	34680.184345
659.766016	34826.055173
660.107715	34695.010379
660.449362	34827.756562
660.790958	34812.539840
661.132503	34820.489739
661.473996	34849.178946
661.815438	34963.857634
662.156829	35168.082338
662.498168	34919.296355
662.839456	34942.120179
663.180693	35093.846307
663.521879	35253.487046
663.863013	35203.279674
664.204097	35204.978543
664.545129	35665.729922
664.886110	35618.418693
665.227040	35678.864649
665.567918	35793.707174
665.908746	35861.044387
666.249522	36035.155758
666.590248	36026.147217
666.930922	36157.497001
667.271545	36116.063757
667.612118	36197.306993
667.952639	35958.154654
668.293109	36032.559564
668.633528	35932.154903
668.973896	35863.300303
669.314213	35896.486219
669.654480	35634.046270
669.994695	35666.299573
670.334859	35521.658787
670.674973	35438.741888
671.015035	35609.584071
671.355047	35549.065019
671.695008	35489.304661
672.034918	35374.247886
672.374777	35445.371005
672.714585	35272.905571
673.054342	35519.876739
673.394049	35248.070326
673.733705	35557.962656
674.073310	35210.622115
674.412864	35290.090864
674.752368	34875.884458
675.091820	35198.689704
675.431223	34760.726860
675.770574	34480.017770
676.109875	34349.063717
676.449125	34055.978594
676.788324	33961.096517
677.127473	33404.863163
677.466571	33341.332022
677.805619	32980.854234
678.144616	32978.038749
678.483562	32893.002046
678.822458	32541.573129
679.161303	32471.322129
679.500098	32357.744933
679.838842	32234.007291
680.177535	32399.170615
680.516179	32653.867351
680.854771	32910.542740
681.193314	33767.110396
681.531805	34888.696551
681.870247	35665.218245
682.208638	36391.227578
682.546978	36641.924159
682.885268	36756.214678
683.223508	36227.808494
683.561697	35898.031333
683.899836	35702.595880
684.237925	35180.407959
684.575963	35028.213004
684.913951	34534.472314
685.251889	34689.223134
685.589776	34673.938356
685.927614	34654.872712
686.265401	34777.397956
686.603137	34856.402919
686.940824	35367.926279
687.278460	35723.909879
687.616046	35846.719948
687.953582	36473.973077
688.291068	36335.353949
688.628504	36648.621332
688.965889	36578.057781
689.303224	36214.688891
689.640510	35901.731540
689.977745	35159.935833
690.314930	34385.806167
690.652065	33865.463308
690.989150	33122.175420
691.326185	32201.789277
691.663170	31489.068426
692.000105	30708.589426
692.336990	30013.424392
692.673825	29531.739622
693.010610	28995.418826
693.347345	28394.785510
693.684030	27682.755297
694.020665	27391.502633
694.357251	26687.966764
694.693786	26632.037683
695.030272	26372.113270
695.366707	25807.302393
695.703093	25516.170717
696.039429	25491.915205
696.375716	25215.609563
696.711952	25167.466544
697.048139	24997.153682
697.384276	24808.954806
697.720363	24924.677013
698.056400	24704.688621
698.392388	24501.918290
698.728326	24458.667710
699.064214	24253.656586
699.400053	24195.685837
699.735842	23834.706455
700.071581	23542.969840
700.407270	23240.480445
700.742910	23055.041601
701.078501	22773.846039
701.414042	22470.708856
701.749533	22161.260147
702.084974	21786.178137
702.420366	22007.875480
702.755709	21563.253272
703.091002	21240.490877
703.426246	21261.391501
703.761440	21160.018938
704.096584	20872.476564
704.431679	20827.459060
704.766725	20717.151052
705.101721	20644.964249
705.436668	20739.853888
705.771565	20388.659385
706.106413	20751.945096
706.441212	20725.166487
706.775961	20851.091989
707.110661	20913.798902
707.445311	21273.336515
707.779913	21085.349367
708.114465	21313.408647
708.448967	21613.710181
708.783421	22325.619407
709.117825	22584.202873
709.452180	22795.921252
709.786485	23204.153890
710.120742	24017.342417
710.454949	24029.413460
710.789107	24496.438555
711.123216	25217.063936
711.457275	25325.930174
711.791286	25914.237869
712.125247	25997.520251
712.459159	25697.206113
712.793023	26420.223522
713.126837	25287.088083
713.460602	25586.333496
713.794318	25230.085236
714.127985	24851.192113
714.461602	23954.320432
714.795171	23928.885291
715.128691	22863.583619
715.462162	22315.673210
715.795584	21871.605530
716.128957	21616.311417
716.462281	21197.462108
716.795556	20943.307296
717.128782	20417.129301
717.461960	19857.790597
717.795088	19767.143089
718.128167	19350.640438
718.461198	18857.940746
718.794180	18718.855311
719.127113	18333.038163
719.459997	18125.670300
719.792833	17758.825535
720.125619	17720.865646
720.458357	17369.600567
720.791046	17181.081578
721.123686	17023.439656
721.456278	16772.324659
721.788821	16729.679018
722.121315	16448.450689
722.453761	16514.741862
722.786158	16440.019359
723.118506	16437.226560
723.450805	16297.420240
723.783056	16457.701206
724.115259	16347.312540
724.447412	16265.088800
724.779518	16507.540574
725.111574	16533.464708
725.443582	16731.153556
725.775542	16704.319494
726.107453	17198.259309
726.439315	17063.156386
726.771129	17476.972102
727.102895	17861.647429
727.434612	18071.372032
727.766281	18191.555660
728.097901	18474.656778
728.429473	18526.096712
728.760996	18503.419081
729.092471	18614.795814
729.423897	18495.116301
729.755276	18367.776755
730.086606	18486.329570
730.417887	19006.715278
730.749120	19515.216467
731.080305	19695.558704
731.411442	20049.515760
731.742530	20138.116559
732.073570	20263.217833
732.404562	20576.056718
732.735506	20390.640558
733.066401	20114.866758
733.397249	19581.875644
733.728048	18928.990768
734.058798	18071.548472
734.389501	17355.697064
734.720156	16883.363634
735.050762	16320.226420
735.381320	15944.337825
735.711831	15678.172464
736.042293	15305.076668
736.372707	15307.589683
736.703073	15073.486060
737.033391	15261.337096
737.363661	15203.714187
737.693883	15302.782942
738.024056	15468.394929
738.354182	15636.648479
738.684260	15915.499904
739.014290	16139.939635
739.344272	16322.857903
739.674207	16624.729757
740.004093	16748.106956
740.333931	16746.244250
740.663722	16806.102910
740.993464	16815.083726
741.323159	16645.161553
741.652806	16371.086622
741.982405	16163.585167
742.311956	15825.568240
742.641460	15716.999431
742.970915	15400.102418
743.300323	15047.635023
743.629683	14839.034597
743.958996	14554.063212
744.288260	14282.307211
744.617477	13968.177791
744.946647	13883.574627
745.275768	13602.558026
745.604842	13415.775714
745.933869	13232.771747
746.262847	13185.876414
746.591778	13103.534207
746.920662	12987.650683
747.249498	12983.403511
747.578286	13103.299793
747.907027	13233.248136
748.235720	13463.903610
748.564365	13487.755829
748.892963	13383.472000
749.221514	13451.850211
749.550017	13291.670068
749.878473	13253.150612
750.206881	13020.811393
750.535242	12930.602465
750.863555	12838.167868
751.191821	12736.659194
751.520039	12760.309768
751.848210	12651.453612
752.176334	12689.975589
752.504411	12586.490783
752.832440	12418.663210
753.160421	12478.852066
753.488356	12347.282992
753.816243	12243.135274
754.144082	12092.513159
754.471875	12038.426619
754.799620	11975.465128
755.127318	11951.176849
755.454969	11906.270251
755.782572	11855.490708
756.110129	11872.398738
756.437638	11781.862135
756.765100	11777.224274
757.092515	11765.289342
757.419882	11793.033332
757.747203	11783.883638
758.074477	11855.195800
758.401703	11804.075980
758.728882	11965.186216
759.056014	12021.488342
759.383099	12134.175775
759.710138	12234.305693
760.037129	12319.158395
760.364073	12338.072804
760.690970	12321.835247
761.017820	12323.992861
761.344623	12528.159592
761.671379	12880.722768
761.998088	13538.154765
762.324751	15150.540096
762.651366	18127.044014
762.977935	21832.965085
763.304456	24112.600060
763.630931	24645.573530
763.957359	23498.736236
764.283740	21562.839898
764.610074	19653.144957
764.936362	17447.095704
765.262602	15866.071391
765.588796	14339.473895
765.914943	13288.731076
766.241044	12359.885877
766.567097	11692.729494
766.893104	11112.349014
767.219064	10735.580737
767.544978	10326.100413
767.870845	10001.553449
768.196665	9803.184045
768.522438	9597.757026
768.848165	9425.520963
769.173846	9246.050845
769.499479	9122.857648
769.825066	8952.890105
770.150607	8765.492773
770.476101	8697.716980
770.801548	8584.802695
771.126949	8436.902803
771.452303	8344.763114
771.777611	8174.283894
772.102872	8154.114237
772.428087	8033.812142
772.753256	7900.236688
773.078378	7809.596742
773.403453	7654.893813
773.728482	7548.656537
774.053465	7481.999880
774.378401	7386.233080
774.703291	7287.348327
775.028135	7181.816812
775.352932	7145.104610
775.677683	7062.976652
776.002388	6965.085006
776.327046	6961.515869
776.651658	6869.451797
776.976224	6786.252594
777.300743	6774.302538
777.625216	6700.510128
777.949643	6656.014384
778.274024	6656.694940
778.598359	6588.059630
778.922647	6588.115083
779.246889	6549.058743
779.571086	6551.304578
779.895236	6558.047121
780.219339	6553.157202
780.543397	6542.737137
780.867409	6598.467092
781.191374	6596.130518
781.515294	6566.962401
781.839167	6615.339834
782.162995	6585.715494
782.486776	6544.521705
782.810511	6500.638461
783.134201	6419.463281
783.457844	6412.201499
783.781441	6365.858172
784.104993	6318.665410
784.428498	6295.332429
784.751958	6274.121774
785.075372	6246.392908
785.398739	6198.958171
785.722061	6234.084931
786.045337	6228.370783
786.368568	6345.096179
786.691752	6367.758687
787.014891	6626.498428
787.337983	6900.170068
787.661030	7347.736309
787.984031	7783.788555
788.306987	8049.590953
788.629897	8149.345306
788.952760	8070.383192
789.275579	7895.061944
789.598351	7590.523319
789.921078	7318.641290
790.243759	7031.814759
790.566395	6821.770043
790.888984	6620.940556
791.211529	6482.061809
791.534027	6307.310211
791.856480	6163.241596
792.178888	6095.972439
792.501249	6023.168095
792.823566	5913.621301
793.145836	5902.742491
793.468062	5883.329008
793.790241	5841.071536
794.112375	5883.271034
794.434464	5981.921374
794.756507	6010.721486
795.078505	6129.112984
795.400457	6342.419327
795.722364	6584.215750
796.044226	6788.216123
796.366042	6946.737726
796.687812	6905.634678
797.009538	6937.933351
797.331218	6849.632500
797.652852	6790.356093
797.974442	6663.074520
798.295986	6588.122645
798.617484	6457.395443
798.938938	6350.772519
799.260346	6274.247803
799.581709	6133.972656
799.903026	6072.490744
800.224299	6001.143294
800.545526	5881.541919
800.866708	5811.404345
801.187845	5761.532210
801.508936	5673.372512
801.829983	5650.896527
802.150984	5531.143918
802.471940	5505.398745
802.792851	5484.576259
803.113717	5460.701354
803.434538	5436.612201
803.755314	5397.966715
804.076045	5386.306527
804.396731	5343.625597
804.717372	5361.849369
805.037967	5358.746538
805.358518	5382.223192
805.679024	5442.956493
805.999485	5449.691474
806.319901	5465.903825
806.640272	5479.494776
806.960598	5530.060070
807.280879	5517.991547
807.601115	5558.890428
807.921306	5526.763155
808.241453	5520.950705
808.561554	5536.119537
808.881611	5499.830791
809.201623	5504.115771
809.521590	5456.935612
809.841513	5444.892296
810.161390	5466.392817
810.481223	5371.117530
810.801011	5361.113360
811.120755	5335.317776
811.440453	5276.578251
811.760107	5252.416001
812.079716	5227.051435
812.399281	5177.086039
812.718801	5172.062529
813.038276	5130.258761
813.357707	5096.311631
813.677093	5119.629488
813.996434	5055.846289
814.315731	5077.644238
814.634983	5078.566769
814.954191	5088.036577
815.273354	5144.356348
815.592473	5189.262946
815.911547	5265.638948
816.230577	5321.434438
816.549562	5414.146299
816.868502	5471.461697
817.187399	5537.536101
817.506250	5625.098422
817.825058	5651.259490
818.143821	5817.612526
818.462539	6003.346278
818.781213	6236.577781
819.099843	6611.319514
819.418429	7269.006089
819.736970	7915.581961
820.055466	8663.648862
820.373919	9644.498604
820.692327	11204.332427
821.010691	14099.825003
821.329011	20665.529637
821.647286	30557.339687
821.965517	41147.326859
822.283704	46662.167686
822.601847	48199.664156
822.919945	43647.693797
823.237999	38530.983137
823.556010	33239.747731
823.873976	28375.563590
824.191897	23975.165604
824.509775	20743.072665
824.827609	17816.849215
825.145398	16155.421019
825.463144	15348.286918
825.780845	15665.133519
826.098502	16967.911346
826.416116	19459.113466
826.733685	21727.168910
827.051210	22186.581863
827.368692	20670.621202
827.686129	18064.019509
828.003522	15504.413973
828.320872	13234.379875
828.638177	11495.259936
828.955439	10184.600266
829.272656	9070.071726
829.589830	8187.554731
829.906960	7419.187103
830.224046	6855.470157
830.541088	6425.419404
830.858086	6145.721065
831.175041	5931.038488
831.491952	5870.063211
831.808819	5904.141411
832.125642	6158.664228
832.442421	6748.300267
832.759157	7917.928618
833.075849	9737.273479
833.392497	11622.251643
833.709101	12770.722271
834.025662	12491.901093
834.342179	11417.777402
834.658653	10080.008926
834.975083	8943.155637
835.291469	8005.906835
835.607811	7224.396918
835.924110	6676.105903
836.240366	6158.442417
836.556578	5685.148647
836.872746	5312.551925
837.188871	5020.558212
837.504952	4787.886277
837.820990	4610.437662
838.136984	4486.873940
838.452935	4439.343421
838.768842	4474.782732
839.084706	4775.487559
839.400526	5545.362492
839.716303	6478.137271
840.032037	7062.328863
840.347727	6906.766417
840.663373	6292.148941
840.978977	5697.204567
841.294537	5235.107199
841.610054	4884.235330
841.925527	4628.590857
842.240957	4406.822937
842.556344	4209.358420
842.871687	4041.979510
843.186987	3881.766599
843.502244	3756.927466
843.817458	3660.989267
844.132629	3586.478492
844.447756	3534.602499
844.762840	3483.928820
845.077881	3442.853499
845.392879	3405.291861
845.707833	3378.130124
846.022745	3349.254395
846.337613	3335.232426
846.652438	3307.465750
846.967221	3302.235553
847.281960	3278.348046
847.596656	3267.731376
847.911309	3258.405241
848.225919	3243.324629
848.540485	3233.320460
848.855009	3221.897205
849.169490	3210.047973
849.483928	3202.345090
849.798323	3197.404759
850.112675	3187.168696
850.426984	3189.001156
850.741251	3180.085875
851.055474	3174.109587
851.369654	3174.585976
851.683792	3172.201510
851.997887	3172.446006
852.311938	3175.306861
852.625947	3174.686799
852.939914	3166.389060
853.253837	3175.702592
853.567718	3169.799401
853.881555	3162.618277
854.195350	3171.203362
854.509103	3166.298319
854.822812	3162.071312
855.136479	3159.863286
855.450103	3164.947290
855.763685	3157.309942
856.077224	3157.950168
856.390720	3167.903927
856.704173	3179.327181
857.017584	3183.360104
857.330953	3185.863037
857.644278	3197.939121
857.957561	3197.329142
858.270802	3199.174204
858.584000	3195.174048
858.897155	3192.255220
859.210268	3182.767769
859.523339	3168.380316
859.836367	3168.216478
860.149352	3162.706497
860.462295	3158.577792
860.775195	3149.082779
861.088054	3145.657315
861.400869	3143.928199
861.713642	3140.953918
862.026373	3150.330464
862.339062	3152.606545
862.651708	3162.101559
862.964312	3179.755679
863.276873	3188.219777
863.589392	3219.853017
863.901869	3245.572984
864.214303	3267.678444
864.526696	3284.558747
864.839045	3305.091367
865.151353	3318.367246
865.463619	3319.758604
865.775842	3321.966629
866.088023	3331.050789
866.400162	3324.262875
866.712258	3321.286074
867.024313	3325.475273
867.336325	3321.114674
867.648296	3324.991322
867.960224	3321.268430
868.272110	3327.549707
868.583954	3322.657268
868.895755	3330.060202
869.207515	3331.081036
869.519233	3352.856300
869.830909	3359.339223
870.142542	3368.582179
870.454134	3377.290772
870.765684	3389.399624
871.077191	3410.839651
871.388657	3421.942793
871.700081	3442.036832
872.011463	3462.445943
872.322803	3480.707523
872.634101	3498.210409
872.945357	3521.190509
873.256571	3548.485836
873.567744	3565.315728
873.878874	3573.124476
874.189963	3589.384717
874.501010	3592.225408
874.812015	3587.761466
875.122979	3609.307357
875.433900	3603.315946
875.744780	3609.456072
876.055618	3618.930920
876.366415	3618.754480
876.677169	3625.154225
876.987882	3645.948984
877.298554	3668.482942
877.609183	3711.105898
877.919771	3766.132613
878.230317	3838.407635
878.540822	3951.873926
878.851285	4116.172692
879.161707	4358.440463
879.472087	4766.088328
879.782425	5444.310043
880.092722	6708.303752
880.402977	8748.340247
880.713191	11218.387164
881.023363	13672.960260
881.333494	15032.025090
881.643583	15525.238979
881.953631	15132.475122
882.263637	14297.826403
882.573602	13268.435390
882.883526	12254.969383
883.193408	11261.466344
883.503248	10294.787286
883.813048	9415.547041
884.122806	8602.398843
884.432522	7791.672920
884.742197	7082.813592
885.051831	6481.580379
885.361424	5947.555828
885.670975	5524.542527
885.980485	5173.501779
886.289954	4884.663828
886.599382	4652.012057
886.908768	4456.979897
887.218113	4275.894089
887.527417	4136.382677
887.836680	4005.756299
888.145901	3898.755288
888.455082	3812.919561
888.764221	3738.544898
889.073319	3672.309178
889.382376	3640.509579
889.691392	3610.731483
890.000366	3605.975155
890.309300	3594.869493
890.618193	3598.025255
890.927044	3591.509564
891.235855	3601.380143
891.544625	3617.622741
891.853353	3650.793533
892.162041	3714.622102
892.470687	3809.267245
892.779293	3940.145682
893.087858	4124.011686
893.396381	4428.953602
893.704864	4870.175552
894.013306	5463.163958
894.321707	6049.510644
894.630068	6410.316107
894.938387	6446.703156
895.246665	6263.863026
895.554903	5934.446308
895.863100	5593.011478
896.171256	5315.601823
896.479371	5058.303852
896.787446	4823.439014
897.095480	4615.188949
897.403473	4451.961429
897.711425	4297.157676
898.019336	4169.198068
898.327207	4041.152761
898.635038	3931.878189
898.942827	3817.955674
899.250576	3725.735326
899.558284	3635.791059
899.865952	3579.720826
900.173579	3513.762369
900.481165	3465.145481
900.788711	3421.431115
901.096216	3385.505333
901.403681	3354.114068
901.711105	3343.772140
902.018489	3336.031449
902.325832	3375.324722
902.633135	3437.882921
902.940397	3624.090541
903.247619	4061.556831
903.554800	4854.162327
903.861941	5865.362335
904.169041	6604.473627
904.476101	6819.793911
904.783121	6550.233332
905.090100	6138.471886
905.397039	5703.266554
905.703938	5321.109284
906.010796	4979.573631
906.317614	4707.661355
906.624391	4451.535451
906.931129	4242.990478
907.237826	4042.937329
907.544483	3860.185420
907.851099	3675.197759
908.157675	3509.192563
908.464211	3353.461238
908.770707	3244.133735
909.077163	3160.211126
909.383578	3094.696291
909.689954	3046.452448
909.996289	3015.356091
910.302584	2987.707883
910.608839	2977.113898
910.915054	2962.572689
911.221229	2958.365847
911.527363	2960.785600
911.833458	2971.671972
912.139513	2983.639671
912.445527	3000.580469
912.751502	3037.065820
913.057436	3080.671801
913.363331	3146.330309
913.669186	3247.380238
913.975000	3371.440513
914.280775	3574.568766
914.586510	3869.642624
914.892205	4271.049541
915.197859	4793.232421
915.503475	5399.186675
915.809050	5906.752729
916.114585	6203.328851
916.420081	6266.323109
916.725536	6207.825560
917.030952	5955.805677
917.336328	5742.043109
917.641665	5529.150141
917.946961	5291.822701
918.252218	5082.324950
918.557435	4840.773022
918.862612	4628.961381
919.167750	4448.561170
919.472848	4245.004419
919.777906	4067.142429
920.082925	3902.563880
920.387904	3734.116244
920.692843	3619.976960
920.997743	3514.276566
921.302603	3411.109353
921.607423	3342.708457
921.912204	3267.433948
922.216946	3218.441494
922.521647	3162.265396
922.826310	3121.699231
923.130932	3082.652974
923.435516	3034.885521
923.740059	3006.576921
924.044564	2974.008547
924.349028	2943.857406
924.653454	2915.085020
924.957840	2886.209291
925.262186	2862.394880
925.566493	2840.407888
925.870761	2811.910245
926.174989	2803.844399
926.479178	2784.670370
926.783328	2767.739655
927.087438	2754.317583
927.391509	2739.867115
927.695541	2727.856566
927.999533	2714.792416
928.303486	2707.633978
928.607400	2702.237422
928.911275	2695.978830
929.215110	2689.571523
929.518906	2682.534073
929.822663	2684.389217
930.126381	2683.325534
930.430060	2686.090607
930.733699	2685.742767
931.037299	2692.757533
931.340861	2691.517409
931.644383	2692.487831
931.947866	2690.925073
932.251309	2690.617563
932.554714	2689.367357
932.858080	2685.939372
933.161407	2680.046263
933.464694	2679.025430
933.767943	2674.742969
934.071153	2671.244409
934.374323	2666.021773
934.677455	2664.595127
934.980548	2660.211843
935.283602	2661.366268
935.586617	2658.351658
935.889593	2659.269148
936.192530	2660.582368
936.495428	2667.506393
936.798287	2675.783968
937.101108	2689.120340
937.403890	2710.383927
937.706632	2740.547671
938.009336	2768.331991
938.312002	2803.768782
938.614628	2827.747030
938.917216	2845.733867
939.219765	2856.922708
939.522275	2869.177753
939.824747	2868.839995
940.127179	2864.849922
940.429573	2859.554190
940.731929	2861.827750
941.034246	2850.739732
941.336524	2850.192767
941.638763	2842.497446
941.940964	2837.441169
942.243126	2817.941986
942.545250	2806.869091
942.847335	2793.709159
943.149381	2781.219700
943.451389	2766.691095
943.753359	2751.113930
944.055290	2743.579925
944.357182	2733.616085
944.659036	2727.929663
944.960851	2725.310784
945.262628	2715.203270
945.564367	2717.363405
945.866067	2714.091696
946.167729	2715.586398
946.469352	2714.169834
946.770937	2712.148331
947.072484	2704.437886
947.373992	2704.957125
947.675462	2702.925540
947.976893	2695.076463
948.278286	2692.931452
948.579641	2686.687983
948.880958	2684.180009
949.182236	2684.290915
949.483476	2680.371418
949.784678	2681.992149
950.085841	2680.789833
950.386967	2685.707479
950.688054	2689.483303
950.989103	2697.778522
951.290114	2705.859492
951.591087	2719.480689
951.892021	2731.178687
952.192917	2745.699730
952.493776	2754.186513
952.794596	2758.705907
953.095378	2761.203799
953.396122	2760.059457
953.696828	2757.090217
953.997496	2748.666449
954.298126	2740.676221
954.598718	2735.935015
954.899272	2720.234342
955.199788	2712.629761
955.500266	2698.643080
955.800706	2681.732529
956.101108	2663.881803
956.401472	2656.481390
956.701798	2639.061682
957.002087	2623.066101
957.302337	2614.675101
957.602550	2602.294027
957.902724	2590.333889
958.202861	2581.799216
958.502960	2569.488718
958.803022	2567.121897
959.103045	2552.222766
959.403031	2548.900646
959.702979	2543.652805
960.002889	2540.681045
960.302762	2532.642925
960.602596	2526.853160
960.902393	2525.789476
961.202153	2521.582633
961.501875	2518.157169
961.801559	2513.516787
962.101205	2514.555265
962.400814	2508.500839
962.700385	2507.600993
962.999918	2506.202073
963.299414	2504.568739
963.598873	2501.251660
963.898293	2502.111177
964.197677	2500.535816
964.497022	2496.122286
964.796331	2499.089005
965.095601	2495.444251
965.394835	2493.689929
965.694030	2493.183293
965.993189	2491.691112
966.292309	2491.491986
966.591393	2494.456184
966.890439	2491.877634
967.189447	2493.362254
967.488419	2491.756647
967.787353	2493.148005
968.086249	2492.205309
968.385108	2489.707417
968.683930	2493.979795
968.982714	2498.791577
969.281462	2495.272851
969.580172	2498.698315
969.878844	2500.709736
970.177480	2504.301558
970.476078	2506.575118
970.774639	2510.116529
971.073162	2512.896725
971.371649	2514.429236
971.670098	2513.408402
971.968510	2515.518125
972.266885	2514.388907
972.565223	2520.463497
972.863524	2520.597088
973.161788	2525.237470
973.460014	2520.612211
973.758204	2525.572707
974.056356	2524.884589
974.354471	2526.651513
974.652550	2528.191586
974.950591	2529.214940
975.248595	2525.713859
975.546563	2523.916688
975.844493	2518.202540
976.142386	2520.163548
976.440243	2521.365864
976.738062	2514.552744
977.035845	2509.998062
977.333590	2510.308093
977.631299	2508.357166
977.928971	2510.388751
978.226606	2503.331136
978.524204	2503.779798
978.821765	2503.326095
979.119290	2501.775940
979.416777	2502.396002
979.714228	2502.559839
980.011642	2505.017402
980.309020	2508.331960
980.606360	2513.998217
980.903664	2521.469207
981.200931	2535.471012
981.498162	2556.515309
981.795356	2593.149374
982.092513	2626.577265
982.389633	2678.448217
982.686717	2722.061760
982.983764	2753.311873
983.280775	2773.688217
983.577749	2775.681993
983.874686	2764.672113
984.171587	2745.956829
984.468451	2730.230950
984.765279	2715.609083
985.062070	2693.009590
985.358824	2671.136024
985.655543	2649.517036
985.952224	2627.391411
986.248869	2595.241453
986.545478	2567.797411
986.842050	2548.446942
987.138586	2525.239990
987.435086	2511.011334
987.731549	2496.911226
988.027975	2493.359733
988.324366	2488.016110
988.620719	2483.365646
988.917037	2475.486322
989.213318	2475.539255
989.509563	2469.192442
989.805772	2470.883749
990.101944	2471.408029
990.398080	2468.126238
990.694180	2468.194293
990.990244	2467.155816
991.286271	2467.450723
991.582262	2466.671865
991.878217	2469.578090
992.174136	2470.505663
992.470019	2470.137658
992.765865	2471.788636
993.061676	2473.777371
993.357450	2479.642754
993.653188	2481.805409
993.948890	2488.396717
994.244556	2496.475167
994.540186	2504.173008
994.835780	2515.608866
995.131337	2531.788449
995.426859	2550.987684
995.722345	2570.151630
996.017795	2591.508478
996.313208	2603.382916
996.608586	2616.673918
996.903928	2619.285236
997.199234	2613.855913
997.494504	2614.763321
997.789738	2605.031373
998.084936	2595.548963
998.380099	2583.356932
998.675225	2569.289593
998.970316	2555.902809
999.265371	2544.156920
999.560390	2527.175793
999.855373	2517.272447
1000.150320	2506.789367
1000.445232	2496.394508
1000.740108	2489.775473
1001.034948	2479.597383
1001.329752	2478.841210
1001.624521	2470.533389
1001.919254	2466.296299
1002.213951	2463.972327
1002.508613	2456.471090
1002.803239	2460.887141
1003.097829	2453.390945
1003.392384	2458.706842
1003.686903	2455.382201
1003.981386	2451.220728
1004.275834	2450.860286
1004.570246	2451.863476
1004.864623	2448.604370
1005.158964	2451.714762
1005.453270	2450.774586
1005.747540	2450.025975
1006.041775	2448.397682
1006.335974	2448.458176
1006.630138	2446.368618
1006.924266	2449.088320
1007.218359	2446.474482
1007.512416	2449.239555
1007.806438	2449.668053
1008.100425	2445.070521
1008.394376	2445.647733
1008.688292	2443.711930
1008.982172	2442.532300
1009.276017	2446.416509
1009.569827	2444.415171
1009.863602	2446.434153
1010.157341	2442.756631
1010.451045	2442.416353
1010.744714	2442.834769
1011.038347	2441.854265
1011.331945	2443.054059
1011.625508	2440.783019
1011.919036	2443.482557
1012.212528	2443.316199
1012.505986	2440.039449
1012.799408	2442.129007
1013.092795	2437.874274
1013.386147	2440.886363
1013.679464	2441.569439
1013.972745	2439.931064
1014.265992	2441.198915
1014.559204	2441.881991
1014.852380	2439.411826
1015.145521	2440.606579
1015.438628	2440.369645
1015.731699	2440.097422
1016.024736	2440.460386
1016.317737	2440.609100
1016.610703	2440.936775
1016.903635	2436.699685
1017.196531	2437.528955
1017.489393	2440.180602
1017.782219	2438.711105
1018.075011	2444.596652
1018.367768	2440.609100
1018.660490	2442.141610
1018.953177	2442.141610
1019.245829	2442.141610
