Dividing Wavelength (nm)	Counts (n)	Blue Motor Position (mm): 0.000000	Red Motor Position (mm): 26.200000	
326.493990	1985.506333
326.888308	1985.506333
327.282561	1985.506333
327.676750	1962.995061
328.070874	1964.285596
328.464933	1970.491257
328.858929	1977.868985
329.252859	1991.832981
329.646726	2005.832266
330.040528	2021.500172
330.434265	2041.921886
330.827938	2061.736141
331.221547	2082.115006
331.615091	2098.831472
332.008571	2123.417179
332.401986	2144.118677
332.795338	2162.201296
333.188625	2181.390448
333.581847	2203.352235
333.975006	2218.127857
334.368100	2239.240209
334.761129	2254.434247
335.154095	2270.006371
335.546996	2290.181069
335.939833	2312.462969
336.332606	2326.646255
336.725315	2337.583038
337.117960	2346.878926
337.510540	2353.419823
337.903056	2363.129086
338.295508	2367.988758
338.687896	2376.349512
339.080220	2384.753115
339.472480	2384.579195
339.864676	2393.106307
340.256807	2396.751061
340.648875	2394.338869
341.040879	2399.117883
341.432818	2398.452451
341.824694	2400.027811
342.216506	2401.182235
342.608253	2402.140055
342.999937	2399.243912
343.391557	2399.513613
343.783113	2395.626884
344.174605	2393.474311
344.566033	2393.081101
344.957397	2392.372819
345.348697	2388.337375
345.739934	2391.513302
346.131106	2390.535318
346.522215	2386.792262
346.913260	2383.429812
347.304241	2384.806047
347.695159	2382.855121
348.086012	2380.054760
348.476802	2378.950747
348.867528	2376.707433
349.258191	2376.248688
349.648789	2375.404295
350.039324	2373.448328
350.429796	2376.538555
350.820203	2372.919006
351.210548	2373.231558
351.600828	2372.576208
351.991045	2371.056300
352.381198	2368.782740
352.771288	2372.238451
353.161314	2372.503111
353.551276	2372.389685
353.941175	2372.311547
354.331010	2374.096116
354.720782	2371.371372
355.110490	2372.898842
355.500135	2371.996475
355.889717	2372.162833
356.279235	2376.989738
356.668689	2375.631147
357.058080	2374.854809
357.447408	2373.796167
357.836672	2372.387165
358.225873	2375.374048
358.615010	2371.794829
359.004084	2377.929913
359.393095	2378.451673
359.782043	2380.876468
360.170927	2378.204656
360.559748	2382.441746
360.948505	2384.180944
361.337199	2382.484596
361.725830	2383.351674
362.114398	2384.211191
362.502903	2385.108516
362.891344	2387.409803
363.279722	2384.813609
363.668037	2388.491131
364.056289	2388.279402
364.444478	2388.160935
364.832603	2393.582696
365.220665	2392.178735
365.608665	2393.373488
365.996601	2392.544218
366.384474	2395.442882
366.772284	2396.433468
367.160031	2397.552605
367.547715	2397.106462
367.935336	2397.020763
368.322893	2397.766854
368.710388	2396.869528
369.097820	2401.668707
369.485189	2399.420352
369.872495	2404.700961
370.259738	2403.680127
370.646918	2409.878226
371.034035	2407.410581
371.421090	2411.531724
371.808081	2412.965933
372.195010	2418.054977
372.581875	2423.612849
372.968678	2430.425969
373.355418	2436.737493
373.742096	2448.133022
374.128710	2460.370423
374.515262	2472.116311
374.901751	2484.807416
375.288177	2503.063955
375.674540	2520.771008
376.060841	2542.581560
376.447079	2564.649211
376.833254	2592.516709
377.219367	2618.138373
377.605417	2653.628097
377.991404	2678.889318
378.377329	2720.940103
378.763191	2755.146853
379.148991	2801.170067
379.534727	2849.912983
379.920402	2898.464336
380.306013	2948.109619
380.691563	3011.260153
381.077049	3068.739389
381.462474	3124.131588
381.847835	3201.712425
382.233134	3268.381685
382.618371	3329.596416
383.003545	3416.858789
383.388657	3500.698218
383.773706	3591.630552
384.158693	3664.492869
384.543618	3757.582816
384.928480	3840.444261
385.313280	3942.187349
385.698017	4051.923186
386.082692	4173.931712
386.467305	4234.914550
386.851856	4365.112430
387.236344	4520.044732
387.620770	4584.281635
388.005133	4703.315880
388.389435	4853.297769
388.773674	4941.485193
389.157851	5073.190379
389.541965	5205.908836
389.926018	5224.777875
390.310008	5409.770577
390.693936	5533.631727
391.077802	5652.512217
391.461606	5783.720849
391.845348	5898.472634
392.229027	6019.556108
392.612645	6246.773515
392.996200	6360.295258
393.379694	6540.728237
393.763125	6765.004130
394.146494	6856.647266
394.529801	6995.604151
394.913047	7243.465083
395.296230	7238.307982
395.679351	7291.759337
396.062410	7560.324287
396.445408	7449.355888
396.828343	7602.057479
397.211217	7744.127277
397.594028	7620.435006
397.976778	7833.385947
398.359466	7995.915268
398.742092	7970.308727
399.124656	8122.601984
399.507158	8309.396899
399.889598	8327.287954
400.271977	8532.442751
400.654294	8566.737721
401.036549	8767.345397
401.418742	8791.724417
401.800874	9099.552394
402.182944	9177.586935
402.564952	9544.996310
402.946898	9366.960400
403.328783	9421.336806
403.710606	9622.004976
404.092367	9879.655828
404.474067	10240.577238
404.855705	10025.715699
405.237282	9989.762190
405.618797	10419.029043
406.000250	10662.199181
406.381642	11023.571774
406.762972	10975.204423
407.144240	10773.139854
407.525447	11028.653257
407.906593	10969.210491
408.287677	11223.539223
408.668700	11381.781043
409.049661	11354.271466
409.430560	11519.964111
409.811399	11490.483443
410.192176	11653.070737
410.572891	11723.351983
410.953545	12207.675798
411.334138	11690.203876
411.714669	12289.143365
412.095139	11588.922054
412.475547	12087.996285
412.855894	11945.520674
413.236180	12268.666198
413.616405	11953.621809
413.996568	12220.981923
414.376670	12198.379910
414.756711	12075.887433
415.136691	12357.924868
415.516609	12532.540355
415.896466	12606.216818
416.276262	12896.708267
416.655997	13347.702493
417.035670	13390.166653
417.415283	14024.875648
417.794834	14113.138690
418.174324	13861.564949
418.553753	13764.109363
418.933121	14252.876954
419.312428	14057.496955
419.691674	13973.534017
420.070859	14416.164969
420.449983	14085.858486
420.829045	14629.977947
421.208047	14383.614238
421.586988	14833.534698
421.965867	15090.923411
422.344686	15081.844293
422.723444	15646.332536
423.102141	14336.539944
423.480777	15528.966913
423.859352	15027.702301
424.237866	16141.441899
424.616319	15837.853532
424.994712	16501.695356
425.373044	16290.140814
425.751314	16965.153835
426.129524	16086.480719
426.507673	17186.916713
426.885762	16874.851646
427.263789	17075.217347
427.641756	17238.737254
428.019662	17305.066236
428.397508	17347.230447
428.775292	17636.174262
429.153016	17608.029500
429.530679	17673.534253
429.908282	17697.749435
430.285824	17424.821366
430.663305	18129.894787
431.040726	17728.858396
431.418086	17556.367755
431.795385	18210.606181
432.172624	18624.159757
432.549802	18177.919339
432.926920	18367.408750
433.303977	18249.642355
433.680974	18510.900153
434.057910	18804.343198
434.434786	18822.332556
434.811601	18729.610613
435.188355	19771.894377
435.565050	19423.207847
435.941683	19376.972905
436.318257	20253.201061
436.694770	20062.736186
437.071222	20654.255096
437.447614	19723.494258
437.823946	19732.538088
438.200218	19886.416789
438.576429	19658.349948
438.952580	19944.115315
439.328670	19917.185472
439.704700	20321.221349
440.080670	19893.439116
440.456580	20476.645164
440.832429	20653.564458
441.208218	19633.875146
441.583947	20091.881617
441.959616	20193.014725
442.335224	20422.024262
442.710773	20553.313552
443.086261	21087.428843
443.461689	20446.569640
443.837057	20572.137220
444.212365	21210.758151
444.587612	21206.170701
444.962800	20760.084039
445.337927	21198.430010
445.712995	19935.794891
446.088002	21780.448865
446.462949	21957.668108
446.837837	22132.815437
447.212664	22083.828024
447.587431	24908.686473
447.962139	27829.871289
448.336786	30172.498002
448.711374	28593.810264
449.085901	24914.718213
449.460369	24844.837739
449.834776	24767.897128
450.209124	27213.166775
450.583412	26734.453764
450.957640	27226.949289
451.331808	25870.710026
451.705917	24505.195040
452.079965	24509.147304
452.453954	24844.472255
452.827883	24700.050759
453.201752	24485.365661
453.575562	24600.465286
453.949311	25667.115466
454.323001	25687.229670
454.696632	25423.476501
455.070202	26893.532415
455.443713	26974.203479
455.817164	27496.209919
456.190556	27951.834445
456.563888	27353.520059
456.937160	27715.537920
457.310373	26039.112291
457.683526	26407.718939
458.056619	26312.413405
458.429653	26186.535794
458.802628	26649.853120
459.175542	26677.168612
459.548398	27816.928127
459.921194	29201.881802
460.293930	29730.043491
460.666607	31494.245691
461.039224	33018.539379
461.411782	33241.345776
461.784280	31991.268172
462.156719	31420.861614
462.529099	30758.269997
462.901419	29463.157244
463.273680	28358.103554
463.645882	28290.035374
464.018024	28143.942736
464.390106	28742.110927
464.762130	30980.405920
465.134094	34388.465375
465.505999	38895.755988
465.877845	42811.681446
466.249631	43664.982434
466.621358	41839.600791
466.993026	39724.415816
467.364634	37637.912486
467.736184	35686.043252
468.107674	34414.228192
468.479105	33498.908409
468.850477	32685.361960
469.221790	31273.932144
469.593043	29634.248965
469.964238	28691.596045
470.335373	28404.920750
470.706449	29537.345385
471.077467	31329.457933
471.448425	34740.718521
471.819324	36784.987064
472.190164	35051.409873
472.560945	31981.465648
472.931667	29323.960904
473.302330	28209.066882
473.672934	27341.070930
474.043479	27478.870870
474.413965	26634.485163
474.784393	26116.572140
475.154761	26522.248914
475.525070	26298.507383
475.895321	25721.970782
476.265513	25884.210236
476.635645	26296.332125
477.005719	25930.898882
477.375734	25973.305068
477.745691	26157.377760
478.115588	26783.557123
478.485427	27792.052553
478.855207	29732.097761
479.224928	31187.569617
479.594591	31946.714454
479.964194	30909.930590
480.333739	30636.707613
480.703226	30290.183739
481.072653	30341.245586
481.442022	30288.225250
481.811333	30096.028739
482.180584	28919.201621
482.549777	28227.202433
482.918912	27549.550368
483.287988	27012.672524
483.657005	26178.666553
484.025964	25473.686393
484.394864	25131.397088
484.763706	24555.246136
485.132489	23748.832919
485.501213	23327.301717
485.869879	23077.439447
486.238487	22541.642931
486.607036	22314.244043
486.975527	21724.638251
487.343959	21508.450889
487.712333	21231.056357
488.080648	20877.240454
488.448905	20762.647465
488.817104	20360.144098
489.185244	20465.781477
489.553326	20876.948067
489.921350	21759.828025
490.289315	22769.591305
490.657222	22706.579403
491.025070	22480.874342
491.392861	21688.984690
491.760593	20756.182186
492.128267	19694.570638
492.495883	18754.062730
492.863440	17885.729021
493.230939	17073.800782
493.598380	16394.066721
493.965763	15981.846530
494.333088	15440.741679
494.700354	15006.791594
495.067563	14649.429239
495.434713	14352.021327
495.801805	14113.405872
496.168839	13752.938166
496.535815	13410.442173
496.902733	13160.131241
497.269593	12798.113380
497.636395	12533.097402
498.003139	12398.720405
498.369825	12028.447655
498.736453	11875.814120
499.103023	11536.892305
499.469535	11283.483584
499.835989	11078.767367
500.202385	10793.400251
500.568723	10592.636299
500.935003	10422.328478
501.301226	10177.978710
501.667390	10097.547100
502.033497	9949.720305
502.399546	9630.743816
502.765537	9315.754880
503.131470	9189.726033
503.497345	9062.746930
503.863163	8659.928491
504.228923	8572.172084
504.594625	8455.071122
504.960269	8180.207249
505.325856	8103.422915
505.691385	7844.456321
506.056856	7699.530710
506.422270	7596.698733
506.787625	7380.897019
507.152924	7240.909218
507.518164	7105.392920
507.883347	6868.773762
508.248472	6754.231184
508.613540	6662.880436
508.978550	6553.333642
509.343503	6391.711729
509.708398	6282.812724
510.073236	6200.619231
510.438016	6074.819757
510.802738	5896.647736
511.167403	5828.027550
511.532010	5734.105813
511.896561	5643.307070
512.261053	5600.769814
512.625488	5453.237926
512.989866	5338.581923
513.354186	5228.001693
513.718449	5119.069920
514.082655	5071.705759
514.446803	4961.364984
514.810894	4900.455242
515.174927	4813.719670
515.538904	4716.896748
515.902822	4675.203886
516.266684	4570.294953
516.630488	4515.331253
516.994235	4432.893264
517.357925	4390.976070
517.721558	4334.016073
518.085133	4279.218730
518.448651	4227.567068
518.812112	4156.191891
519.175516	4103.292543
519.538863	4059.230338
519.902152	4007.810569
520.265385	3973.192966
520.628560	3926.453908
520.991678	3873.463819
521.354739	3838.823530
521.717743	3802.214671
522.080690	3762.639093
522.443580	3737.456009
522.806413	3705.338818
523.169189	3668.740041
523.531908	3641.051503
523.894569	3607.205196
524.257174	3581.228131
524.619722	3560.128381
524.982213	3536.160215
525.344647	3504.766430
525.707025	3481.234323
526.069345	3464.865697
526.431608	3442.946760
526.793815	3428.128288
527.155964	3400.903537
527.518057	3381.512739
527.880093	3360.846528
528.242072	3353.660364
528.603995	3330.264369
528.965860	3312.824497
529.327669	3300.834113
529.689421	3287.885909
530.051117	3271.855040
530.412755	3258.238883
530.774337	3248.877460
531.135862	3233.640573
531.497331	3222.756722
531.858743	3211.283056
532.220098	3204.089329
532.581396	3191.461239
532.942638	3175.463137
533.303824	3174.926254
533.664953	3163.928977
534.026025	3149.690238
534.387040	3149.949857
534.747999	3138.529123
535.108902	3137.427631
535.469748	3121.847945
535.830537	3112.345370
536.191270	3108.781274
536.551947	3098.267948
536.912567	3094.522371
537.273131	3089.955085
537.633638	3076.316244
537.994089	3075.300451
538.354483	3062.291754
538.714821	3063.882238
539.075103	3066.279306
539.435328	3057.230435
539.795497	3052.340516
540.155609	3044.120915
540.515665	3047.029660
540.875665	3034.459543
541.235609	3030.177083
541.595496	3029.695653
541.955328	3033.552136
542.315102	3018.196781
542.674821	3011.663446
543.034483	3008.391737
543.394090	3005.946777
543.753640	2997.520488
544.113134	3005.598937
544.472571	2993.409428
544.831953	3002.055006
545.191278	2991.750888
545.550548	2983.332161
545.909761	2984.922645
546.268918	2983.513643
546.628019	2986.462718
546.987064	2971.092239
547.346053	2965.307515
547.704986	2969.095943
548.063863	2959.668985
548.422684	2959.921043
548.781449	2953.884261
549.140158	2960.125209
549.498811	2955.550362
549.857408	2944.946295
550.215949	2949.601801
550.574434	2945.042077
550.932864	2940.520162
551.291237	2945.364711
551.649555	2940.557971
552.007817	2939.920265
552.366022	2938.690223
552.724173	2931.877104
553.082267	2936.794749
553.440305	2938.191149
553.798288	2927.400559
554.156215	2930.084973
554.514086	2931.753595
554.871902	2922.964344
555.229661	2923.478541
555.587365	2918.218097
555.945014	2914.069228
556.302606	2912.115781
556.660143	2916.733478
557.017625	2913.098806
557.375050	2910.520255
557.732421	2909.280132
558.089735	2910.079154
558.446994	2906.051273
558.804197	2908.125707
559.161345	2908.370203
559.518437	2896.715056
559.875474	2898.749161
560.232455	2899.394429
560.589381	2897.236815
560.946251	2896.233625
561.303065	2895.800086
561.659825	2896.586506
562.016528	2890.406052
562.373177	2886.801627
562.729770	2889.644837
563.086307	2882.004969
563.442789	2886.126112
563.799216	2885.150649
564.155587	2879.340719
564.511904	2880.971532
564.868164	2879.181923
565.224370	2879.242416
565.580520	2876.530276
565.936615	2875.806870
566.292654	2872.023484
566.648638	2872.031046
567.004567	2873.866026
567.360441	2867.514172
567.716260	2866.536188
568.072023	2866.831096
568.427732	2860.902699
568.783385	2857.149560
569.138982	2857.406658
569.494525	2855.516226
569.850013	2851.115298
570.205445	2851.029599
570.560823	2847.848631
570.916145	2848.430884
571.271412	2845.237313
571.626625	2845.189422
571.981782	2841.020388
572.336884	2835.701971
572.691931	2837.932681
573.046923	2830.988492
573.401860	2828.132678
573.756743	2829.471104
574.111570	2825.551607
574.466342	2822.040444
574.821059	2818.322593
575.175722	2816.560709
575.530330	2813.462920
575.884882	2806.871612
576.239380	2805.102167
576.593823	2806.697692
576.948211	2799.279634
577.302544	2795.665127
577.656823	2793.056330
578.011047	2792.390897
578.365216	2788.594908
578.719330	2786.429733
579.073389	2781.219700
579.427394	2781.726336
579.781344	2779.248609
580.135239	2770.842485
580.489080	2770.590427
580.842866	2761.972575
581.196597	2769.022629
581.550273	2763.568100
581.903895	2757.145670
582.257463	2759.792276
582.610975	2755.058632
582.964434	2753.858838
583.317837	2750.940010
583.671186	2746.357601
584.024481	2744.686458
584.377721	2737.911148
584.730906	2737.598596
585.084037	2735.118348
585.437113	2730.974520
585.790135	2728.945456
586.143103	2727.176011
586.496016	2723.627038
586.848874	2718.653940
587.201679	2718.580843
587.554428	2709.849565
587.907124	2711.613969
588.259765	2706.524924
588.612352	2709.973073
588.964884	2703.958977
589.317362	2703.590972
589.669786	2701.335056
590.022155	2699.280786
590.374470	2698.640559
590.726731	2694.658048
591.078937	2689.596729
591.431090	2688.906091
591.783188	2685.047088
592.135232	2682.062725
592.487222	2678.861592
592.839157	2679.852179
593.191038	2674.276663
593.542866	2674.657270
593.894639	2669.081754
594.246358	2666.011691
594.598022	2663.894406
594.949633	2663.579334
595.301190	2659.717810
595.652692	2659.266627
596.004141	2658.923829
596.355535	2655.258910
596.706876	2653.434012
597.058162	2646.368835
597.409395	2651.357057
597.760573	2648.198774
598.111698	2646.131901
598.462768	2645.388331
598.813785	2644.170892
599.164748	2640.576549
599.515657	2640.185860
599.866511	2639.928761
600.217312	2640.200983
600.568060	2635.477422
600.918753	2636.742752
601.269392	2633.569345
601.619978	2632.281331
601.970510	2631.494911
602.320988	2633.644963
602.671412	2633.728142
603.021783	2629.639766
603.372100	2625.382512
603.722363	2628.515589
604.072572	2629.196144
604.422728	2626.153808
604.772830	2624.008797
605.122878	2624.056688
605.472872	2622.561986
605.822813	2618.778600
606.172701	2622.146091
606.522534	2622.720782
606.872314	2626.037862
607.222041	2622.841770
607.571714	2622.521657
607.921333	2618.191306
608.270899	2620.734568
608.620411	2622.090638
608.969870	2622.350257
609.319276	2617.155348
609.668627	2616.570575
610.017926	2622.256996
610.367171	2621.626852
610.716362	2619.504526
611.065500	2618.844135
611.414585	2620.543004
611.763616	2621.258848
612.112594	2618.884464
612.461518	2621.142901
612.810389	2623.308077
613.159207	2618.513939
613.507971	2619.123919
613.856682	2619.922942
614.205340	2621.886471
614.553945	2623.169445
614.902496	2621.500823
615.250994	2619.224742
615.599439	2620.580812
615.947830	2620.663992
616.296169	2619.617952
616.644454	2622.161214
616.992686	2622.236832
617.340864	2622.877058
617.688990	2621.624331
618.037063	2625.029631
618.385082	2621.949486
618.733048	2623.547532
619.080961	2623.381173
619.428821	2622.377984
619.776628	2622.196502
620.124382	2623.436626
620.472083	2622.456122
620.819731	2621.624331
621.167326	2619.542335
621.514868	2620.197685
621.862357	2613.843310
622.209793	2616.179885
622.557176	2612.270470
622.904506	2610.490943
623.251783	2606.692434
623.599007	2607.602362
623.946179	2605.101950
624.293297	2607.105808
624.640363	2602.888883
624.987376	2602.387288
625.334336	2603.768564
625.681243	2601.552977
626.028097	2600.232195
626.374899	2597.613316
626.721647	2600.665734
627.068343	2597.782194
627.414987	2595.453181
627.761577	2595.145671
628.108115	2595.516196
628.454600	2591.039651
628.801032	2594.523088
629.147412	2592.609970
629.493739	2591.921853
629.840014	2590.457398
630.186236	2592.652820
630.532405	2590.618715
630.878521	2589.005545
631.224585	2591.677357
631.570597	2588.486307
631.916556	2589.736513
632.262462	2588.183837
632.608316	2588.816502
632.954117	2586.958837
633.299866	2588.919846
633.645562	2584.818867
633.991206	2582.008424
634.336797	2582.956161
634.682336	2581.539597
635.027823	2578.209914
635.373257	2580.491037
635.718639	2576.581622
636.063968	2574.413926
636.409245	2574.665983
636.754470	2573.360324
637.099642	2570.121383
637.444762	2568.924109
637.789829	2567.971331
638.134845	2569.574418
638.479808	2567.258008
638.824719	2564.790363
639.169577	2566.305230
639.514383	2566.375806
639.859137	2562.358006
640.203839	2565.874211
640.548489	2559.197203
640.893086	2559.943293
641.237632	2558.657799
641.582125	2558.592264
641.926566	2556.606050
642.270955	2562.189128
642.615292	2560.858263
642.959576	2559.973540
643.303809	2560.570917
643.647990	2559.832388
643.992118	2558.584702
644.336195	2561.707697
644.680219	2558.161246
645.024192	2564.445044
645.368112	2561.248952
645.711981	2564.497976
646.055797	2563.318346
646.399562	2565.912020
646.743274	2567.452092
647.086935	2568.513255
647.430544	2570.542319
647.774101	2568.334294
648.117606	2568.346897
648.461059	2572.536096
648.804460	2570.617937
649.147810	2568.104922
649.491108	2564.712225
649.834354	2563.242729
650.177548	2560.964127
650.520690	2558.188972
650.863781	2558.017573
651.206820	2559.870197
651.549807	2556.800134
651.892742	2554.415668
652.235626	2551.496840
652.578458	2551.083466
652.921238	2550.173537
653.263967	2551.761501
653.606644	2548.855276
653.949269	2546.639688
654.291843	2547.607590
654.634365	2548.451983
654.976836	2544.519883
655.319255	2545.409647
655.661622	2545.187836
656.003938	2547.196736
656.346203	2544.522404
656.688416	2546.362425
657.030577	2545.581046
657.372687	2544.547610
657.714746	2545.941489
658.056753	2544.567774
658.398708	2536.060827
658.740612	2539.244316
659.082465	2537.542926
659.424266	2542.972249
659.766016	2540.479398
660.107715	2539.924872
660.449362	2540.396219
660.790958	2540.547454
661.132503	2541.578370
661.473996	2537.928575
661.815438	2543.398227
662.156829	2542.183308
662.498168	2544.666077
662.839456	2543.322609
663.180693	2541.626261
663.521879	2543.589790
663.863013	2540.005530
664.204097	2541.013761
664.545129	2542.563916
664.886110	2543.892260
665.227040	2544.600542
665.567918	2545.288659
665.908746	2542.397557
666.249522	2544.237579
666.590248	2544.313196
666.930922	2544.577857
667.271545	2544.754297
667.612118	2545.276056
667.952639	2541.724563
668.293109	2546.188505
668.633528	2543.993083
668.973896	2545.245809
669.314213	2542.100129
669.654480	2540.116435
669.994695	2539.478729
670.334859	2538.200797
670.674973	2541.101981
671.015035	2543.335212
671.355047	2540.318082
671.695008	2541.636343
672.034918	2538.394881
672.374777	2540.277752
672.714585	2539.922351
673.054342	2542.689944
673.394049	2541.233051
673.733705	2543.594832
674.073310	2543.415871
674.412864	2541.626261
674.752368	2538.178112
675.091820	2540.882691
675.431223	2536.577545
675.770574	2537.356404
676.109875	2527.692512
676.449125	2529.587986
676.788324	2531.717873
677.127473	2531.727955
677.466571	2527.352234
677.805619	2531.609488
678.144616	2529.356093
678.483562	2531.395239
678.822458	2525.643283
679.161303	2530.175280
679.500098	2529.787111
679.838842	2529.666123
680.177535	2527.563962
680.516179	2529.318284
680.854771	2530.520599
681.193314	2534.805580
681.531805	2538.896476
681.870247	2539.410674
682.208638	2542.024512
682.546978	2545.064328
682.885268	2542.800850
683.223508	2545.288659
683.561697	2542.190870
683.899836	2539.594676
684.237925	2536.917823
684.575963	2539.025026
684.913951	2535.279448
685.251889	2537.588297
685.589776	2536.448996
685.927614	2536.617875
686.265401	2533.298275
686.603137	2538.364634
686.940824	2538.044521
687.278460	2538.755324
687.616046	2541.966539
687.953582	2542.682383
688.291068	2542.029553
688.628504	2545.492826
688.965889	2542.521066
689.303224	2539.922351
689.640510	2542.868905
689.977745	2535.924716
690.314930	2534.760209
690.652065	2532.819365
690.989150	2531.163346
691.326185	2526.873324
691.663170	2526.341482
692.000105	2520.728158
692.336990	2519.261182
692.673825	2518.590708
693.010610	2519.508198
693.347345	2513.305059
693.684030	2508.084944
694.020665	2508.800788
694.357251	2506.623009
694.693786	2508.631909
695.030272	2504.059583
695.366707	2508.170643
695.703093	2501.992709
696.039429	2503.101763
696.375716	2505.317350
696.711952	2505.614778
697.048139	2500.228306
697.384276	2504.588904
697.720363	2501.168481
698.056400	2503.071516
698.392388	2499.900631
698.728326	2503.721825
699.064214	2499.388953
699.400053	2497.841319
699.735842	2496.460043
700.071581	2498.957935
700.407270	2493.868890
700.742910	2497.677482
701.078501	2494.463746
701.414042	2492.255721
701.749533	2494.768736
702.084974	2490.690443
702.420366	2493.579024
702.755709	2491.186996
703.091002	2487.143991
703.426246	2489.760350
703.761440	2488.873107
704.096584	2490.887047
704.431679	2485.918990
704.766725	2486.692807
705.101721	2488.565596
705.436668	2486.221460
705.771565	2486.181130
706.106413	2486.672643
706.441212	2486.798672
706.775961	2489.813282
707.110661	2488.089207
707.445311	2490.221615
707.779913	2489.301605
708.114465	2492.323776
708.448967	2490.120792
708.783421	2492.008704
709.117825	2495.855105
709.452180	2498.615136
709.786485	2498.746206
710.120742	2499.764519
710.454949	2503.741990
710.789107	2498.887359
711.123216	2500.800477
711.457275	2503.177381
711.791286	2504.147803
712.125247	2505.798781
712.459159	2506.217196
712.793023	2510.983607
713.126837	2507.245592
713.460602	2508.778103
713.794318	2504.719974
714.127985	2503.505056
714.461602	2499.696464
714.795171	2500.170332
715.128691	2495.514827
715.462162	2494.277223
715.795584	2491.907881
716.128957	2495.436689
716.462281	2489.510813
716.795556	2488.540390
717.128782	2486.501244
717.461960	2485.477889
717.795088	2484.411685
718.128167	2485.702221
718.461198	2481.787765
718.794180	2482.909422
719.127113	2480.305666
719.459997	2482.327168
719.792833	2480.106540
720.125619	2477.217959
720.458357	2478.972280
720.791046	2476.295428
721.123686	2473.701754
721.456278	2477.838021
721.788821	2474.538586
722.121315	2475.445993
722.453761	2472.938019
722.786158	2473.719398
723.118506	2471.118163
723.450805	2472.532206
723.783056	2476.928092
724.115259	2472.963225
724.447412	2475.072948
724.779518	2475.877012
725.111574	2472.539768
725.443582	2479.115953
725.775542	2478.483288
726.107453	2479.451190
726.439315	2478.294245
726.771129	2481.548310
727.102895	2480.388845
727.434612	2482.327168
727.766281	2483.133753
728.097901	2481.981849
728.429473	2477.724595
728.760996	2482.838845
729.092471	2478.647126
729.423897	2481.513022
729.755276	2483.695842
730.086606	2482.866572
730.417887	2483.637868
730.749120	2487.146511
731.080305	2488.759681
731.411442	2492.074239
731.742530	2490.027531
732.073570	2491.502068
732.404562	2492.800165
732.735506	2494.115907
733.066401	2492.210350
733.397249	2487.738847
733.728048	2488.651296
734.058798	2482.869092
734.389501	2482.102837
734.720156	2475.377938
735.050762	2476.182002
735.381320	2474.137814
735.711831	2472.570015
736.042293	2473.308544
736.372707	2472.315437
736.703073	2472.355766
737.033391	2471.395426
737.363661	2473.507670
737.693883	2472.572536
738.024056	2475.163689
738.354182	2471.632360
738.684260	2475.894656
739.014290	2477.427167
739.344272	2480.358598
739.674207	2477.031436
740.004093	2482.264154
740.333931	2478.737867
740.663722	2481.790285
740.993464	2480.615697
741.323159	2478.755511
741.652806	2476.260140
741.982405	2477.696868
742.311956	2475.022536
742.641460	2476.325675
742.970915	2473.679069
743.300323	2473.593369
743.629683	2470.747638
743.958996	2470.883749
744.288260	2469.749489
744.617477	2467.173460
744.946647	2461.050978
745.275768	2465.635908
745.604842	2463.183387
745.933869	2459.493262
746.262847	2460.002418
746.591778	2462.976699
746.920662	2464.804117
747.249498	2460.856894
747.578286	2466.321505
747.907027	2465.492235
748.235720	2466.656742
748.564365	2466.755044
748.892963	2466.999540
749.221514	2466.666824
749.550017	2467.118007
749.878473	2465.305712
750.206881	2466.460137
750.535242	2463.861422
750.863555	2462.868314
751.191821	2464.315126
751.520039	2463.901751
751.848210	2465.461988
752.176334	2465.005764
752.504411	2461.439147
752.832440	2463.816051
753.160421	2465.295630
753.488356	2462.596092
753.816243	2465.209930
754.144082	2462.893520
754.471875	2464.002574
754.799620	2459.107614
755.127318	2460.322532
755.454969	2459.969651
755.782572	2461.207254
756.110129	2459.987295
756.437638	2461.071143
756.765100	2459.825978
757.092515	2459.694908
757.419882	2457.779270
757.747203	2461.817234
758.074477	2463.508541
758.401703	2461.184569
758.728882	2460.682974
759.056014	2462.192800
759.383099	2462.926288
759.710138	2462.943932
760.037129	2464.743624
760.364073	2464.768829
760.690970	2463.140537
761.017820	2465.726649
761.344623	2467.990127
761.671379	2467.090281
761.998088	2465.817389
762.324751	2474.334419
762.651366	2490.269506
762.977935	2512.659791
763.304456	2520.271933
763.630931	2526.759898
763.957359	2523.682274
764.283740	2512.012003
764.610074	2502.116218
764.936362	2491.444095
765.262602	2483.244658
765.588796	2476.252578
765.914943	2467.554067
766.241044	2467.801083
766.567097	2467.062554
766.893104	2459.420165
767.219064	2458.636266
767.544978	2456.793724
767.870845	2454.295832
768.196665	2454.804989
768.522438	2452.980091
768.848165	2450.325924
769.173846	2451.024123
769.499479	2448.516149
769.825066	2449.083279
770.150607	2444.863833
770.476101	2446.459359
770.801548	2447.008844
771.126949	2442.244954
771.452303	2444.221086
771.777611	2445.955243
772.102872	2443.381734
772.428087	2441.261929
772.753256	2440.893925
773.078378	2441.571960
773.403453	2441.735798
773.728482	2440.961980
774.053465	2438.111208
774.378401	2438.920313
774.703291	2440.866198
775.028135	2438.196907
775.352932	2437.801177
775.677683	2436.916454
776.002388	2438.428801
776.327046	2437.533996
776.651658	2438.443924
776.976224	2438.101126
777.300743	2438.199428
777.625216	2434.700867
777.949643	2435.782195
778.274024	2435.499890
778.598359	2432.628953
778.922647	2431.721545
779.246889	2433.705239
779.571086	2429.846236
779.895236	2436.273707
780.219339	2434.736155
780.543397	2435.653645
780.867409	2436.513162
781.191374	2436.689603
781.515294	2435.308326
781.839167	2438.254881
782.162995	2435.144489
782.486776	2435.053748
782.810511	2437.476022
783.134201	2435.154571
783.457844	2435.497370
783.781441	2434.479057
784.104993	2435.119283
784.428498	2435.820003
784.751958	2434.905034
785.075372	2438.028029
785.398739	2434.325301
785.722061	2432.185332
786.045337	2434.935281
786.368568	2435.961156
786.691752	2434.277410
787.014891	2435.537699
787.337983	2437.163471
787.661030	2442.323092
787.984031	2444.957095
788.306987	2446.313165
788.629897	2448.601849
788.952760	2446.605552
789.275579	2447.180244
789.598351	2445.088165
789.921078	2443.595983
790.243759	2440.931733
790.566395	2439.736980
790.888984	2438.721187
791.211529	2437.977617
791.534027	2434.237081
791.856480	2433.669951
792.178888	2433.566608
792.501249	2435.646084
792.823566	2433.674993
793.145836	2437.455858
793.468062	2434.531989
793.790241	2434.640373
794.112375	2437.667586
794.434464	2434.910075
794.756507	2433.218768
795.078505	2435.827565
795.400457	2434.907555
795.722364	2434.537030
796.044226	2438.632967
796.366042	2437.473502
796.687812	2438.330498
797.009538	2442.388627
797.331218	2438.711105
797.652852	2441.559357
797.974442	2440.478030
798.295986	2438.305292
798.617484	2436.682041
798.938938	2437.292020
799.260346	2437.201280
799.581709	2438.383430
799.903026	2438.174222
800.224299	2434.758841
800.545526	2435.406629
800.866708	2434.189190
801.187845	2434.877308
801.508936	2435.441917
801.829983	2432.306319
802.150984	2431.282965
802.471940	2430.983016
802.792851	2431.502255
803.113717	2435.081474
803.434538	2433.314550
803.755314	2431.381268
804.076045	2433.364962
804.396731	2431.472008
804.717372	2431.325815
805.037967	2431.847574
805.358518	2429.022008
805.679024	2432.374375
805.999485	2434.257246
806.319901	2431.247677
806.640272	2433.427976
806.960598	2435.290682
807.280879	2430.458736
807.601115	2433.281783
807.921306	2429.631987
808.241453	2432.843202
808.561554	2431.650969
808.881611	2433.916968
809.201623	2432.467636
809.521590	2433.221289
809.841513	2430.090732
810.161390	2433.296906
810.481223	2431.194745
810.801011	2430.128541
811.120755	2431.224992
811.440453	2433.760692
811.760107	2432.820517
812.079716	2429.649631
812.399281	2425.601585
812.718801	2429.710125
813.038276	2427.678540
813.357707	2431.910589
813.677093	2430.652821
813.996434	2429.977306
814.315731	2430.085691
814.634983	2427.764240
814.954191	2430.705753
815.273354	2430.526792
815.592473	2430.947728
815.911547	2432.437389
816.230577	2431.638366
816.549562	2434.158943
816.868502	2434.579880
817.187399	2435.252874
817.506250	2435.830086
817.825058	2437.571804
818.143821	2437.740683
818.462539	2439.671445
818.781213	2440.972063
819.099843	2446.877774
819.418429	2451.964299
819.736970	2458.832871
820.055466	2462.971658
820.373919	2472.496918
820.692327	2486.115595
821.010691	2511.089472
821.329011	2565.307081
821.647286	2649.943013
821.965517	2739.410891
822.283704	2788.824281
822.601847	2805.192907
822.919945	2770.378699
823.237999	2727.851525
823.556010	2683.996007
823.873976	2643.772641
824.191897	2605.333843
824.509775	2578.552713
824.827609	2550.624721
825.145398	2535.697864
825.463144	2529.061185
825.780845	2531.775846
826.098502	2538.157947
826.416116	2561.347255
826.733685	2581.237127
827.051210	2586.663929
827.368692	2577.007599
827.686129	2553.082283
828.003522	2528.516740
828.320872	2509.191477
828.638177	2494.277223
828.955439	2479.806591
829.272656	2467.057513
829.589830	2458.704321
829.906960	2453.610235
830.224046	2449.269802
830.541088	2448.299380
830.858086	2443.963987
831.175041	2438.322936
831.491952	2445.486416
831.808819	2443.575819
832.125642	2444.795778
832.442421	2452.453291
832.759157	2462.492748
833.075849	2479.698207
833.392497	2493.120279
833.709101	2506.358349
834.025662	2503.704181
834.342179	2496.245794
834.658653	2483.534525
834.975083	2472.154120
835.291469	2467.395271
835.607811	2457.214660
835.924110	2453.012859
836.240366	2446.340892
836.556578	2443.626230
836.872746	2436.916454
837.188871	2436.498039
837.504952	2429.790783
837.820990	2428.018818
838.136984	2431.955959
838.452935	2428.732141
838.768842	2428.056627
839.084706	2431.983685
839.400526	2440.104984
839.716303	2447.049174
840.032037	2455.956893
840.347727	2452.551593
840.663373	2445.022630
840.978977	2441.672783
841.294537	2436.334201
841.610054	2433.347318
841.925527	2430.504107
842.240957	2428.490166
842.556344	2428.061668
842.871687	2423.433888
843.186987	2422.549166
843.502244	2420.094124
843.817458	2419.658064
844.132629	2417.528177
844.447756	2418.591860
844.762840	2413.079358
845.077881	2415.352919
845.392879	2412.171951
845.707833	2416.096489
846.022745	2412.189595
846.337613	2417.903743
846.652438	2414.972312
846.967221	2414.352250
847.281960	2417.742426
847.596656	2416.759401
847.911309	2414.185892
848.225919	2416.083886
848.540485	2416.129257
848.855009	2413.006262
849.169490	2413.522980
849.483928	2414.281674
849.798323	2413.520459
850.112675	2414.004410
850.426984	2412.174471
850.741251	2412.686148
851.055474	2413.356622
851.369654	2414.823598
851.683792	2411.123391
851.997887	2416.540111
852.311938	2413.097003
852.625947	2416.429205
852.939914	2412.824780
853.253837	2416.189750
853.567718	2415.136149
853.881555	2411.854358
854.195350	2415.650347
854.509103	2412.643299
854.822812	2414.848803
855.136479	2411.319996
855.450103	2411.698082
855.763685	2415.231931
856.077224	2413.160017
856.390720	2414.402661
856.704173	2413.855696
857.017584	2412.728998
857.330953	2414.793351
857.644278	2415.335275
857.957561	2419.842066
858.270802	2413.167579
858.584000	2415.272260
858.897155	2415.501633
859.210268	2413.933834
859.523339	2414.851324
859.836367	2414.707651
860.149352	2415.879719
860.462295	2416.247724
860.775195	2410.828483
861.088054	2411.904770
861.400869	2411.342681
861.713642	2407.912176
862.026373	2413.654050
862.339062	2414.599266
862.651708	2416.129257
862.964312	2416.119174
863.276873	2413.238155
863.589392	2413.533062
863.901869	2414.942065
864.214303	2414.901736
864.526696	2415.536921
864.839045	2416.164545
865.151353	2416.751839
865.463619	2416.303176
865.775842	2416.219997
866.088023	2415.831828
866.400162	2416.807292
866.712258	2412.708834
867.024313	2415.045408
867.336325	2415.695717
867.648296	2416.030954
867.960224	2418.425502
868.272110	2417.384504
868.583954	2416.313259
868.895755	2415.277302
869.207515	2415.836870
869.519233	2419.300142
869.830909	2417.465162
870.142542	2420.590678
870.454134	2418.135636
870.765684	2418.274267
871.077191	2417.001376
871.388657	2420.134453
871.700081	2417.039185
872.011463	2418.246541
872.322803	2418.221335
872.634101	2418.478434
872.945357	2419.403486
873.256571	2420.857859
873.567744	2421.939186
873.878874	2419.930287
874.189963	2422.599578
874.501010	2420.943558
874.812015	2422.912129
875.122979	2421.326686
875.433900	2419.910122
875.744780	2424.369023
876.055618	2420.999011
876.366415	2423.542273
876.677169	2423.418765
876.987882	2420.918353
877.298554	2420.827612
877.609183	2424.384146
877.919771	2422.314752
878.230317	2424.237953
878.540822	2429.074940
878.851285	2434.605085
879.161707	2433.962338
879.472087	2442.436518
879.782425	2452.060081
880.092722	2472.469192
880.402977	2500.515651
880.713191	2538.253729
881.023363	2571.611044
881.333494	2595.642224
881.643583	2602.478029
881.953631	2598.908892
882.263637	2586.873137
882.573602	2571.568194
882.883526	2558.204095
883.193408	2546.566592
883.503248	2528.075639
883.813048	2521.544825
884.122806	2505.486229
884.432522	2495.187152
884.742197	2482.596870
885.051831	2475.254429
885.361424	2462.767491
885.670975	2455.546038
885.980485	2449.663012
886.289954	2444.417691
886.599382	2440.611620
886.908768	2438.343101
887.218113	2434.045517
887.527417	2434.287493
887.836680	2430.776329
888.145901	2428.333890
888.455082	2426.342634
888.764221	2424.795000
889.073319	2422.947417
889.382376	2425.785587
889.691392	2424.318611
890.000366	2423.360792
890.309300	2423.315421
890.618193	2426.070412
890.927044	2423.201995
891.235855	2424.210226
891.544625	2424.487490
891.853353	2423.348189
892.162041	2426.327511
892.470687	2426.619898
892.779293	2431.920671
893.087858	2429.594178
893.396381	2431.724066
893.704864	2442.199584
894.013306	2453.330451
894.321707	2465.983748
894.630068	2469.802422
894.938387	2474.218472
895.246665	2472.348204
895.554903	2465.782101
895.863100	2461.381174
896.171256	2456.728189
896.479371	2452.115533
896.787446	2448.508588
897.095480	2445.357867
897.403473	2440.823349
897.711425	2436.372010
898.019336	2435.237750
898.327207	2431.978644
898.635038	2432.654159
898.942827	2432.356731
899.250576	2427.154260
899.558284	2428.265834
899.865952	2427.834816
900.173579	2423.698549
900.481165	2423.882551
900.788711	2420.583116
901.096216	2420.333579
901.403681	2421.369536
901.711105	2420.053795
902.018489	2422.140833
902.325832	2423.184351
902.633135	2420.452046
902.940397	2425.825916
903.247619	2435.567946
903.554800	2450.068825
903.861941	2466.679427
904.169041	2481.150059
904.476101	2486.642396
904.783121	2480.920686
905.090100	2477.361632
905.397039	2466.739921
905.703938	2462.424693
906.010796	2452.208795
906.317614	2449.453804
906.624391	2439.363935
906.931129	2441.690427
907.237826	2436.225816
907.544483	2430.932605
907.851099	2428.049065
908.157675	2425.664599
908.464211	2423.514547
908.770707	2416.691345
909.077163	2415.715882
909.383578	2410.629358
909.689954	2415.473907
909.996289	2408.968297
910.302584	2413.734708
910.608839	2413.220511
910.915054	2413.628844
911.221229	2413.311252
911.527363	2414.364853
911.833458	2414.926941
912.139513	2414.808474
912.445527	2413.245717
912.751502	2416.691345
913.057436	2417.041705
913.363331	2415.431057
913.669186	2418.778383
913.975000	2421.729978
914.280775	2428.285999
914.586510	2429.740372
914.892205	2439.066507
915.197859	2451.187961
915.503475	2461.499641
915.809050	2475.178812
916.114585	2482.304483
916.420081	2482.135604
916.725536	2482.599391
917.030952	2482.430512
917.336328	2473.653863
917.641665	2468.731176
917.946961	2461.393777
918.252218	2458.454784
918.557435	2454.555452
918.862612	2449.239555
919.167750	2445.277208
919.472848	2441.783688
919.777906	2440.825869
920.082925	2435.630960
920.387904	2431.837492
920.692843	2430.713315
920.997743	2424.225350
921.302603	2422.428178
921.607423	2420.343661
921.912204	2423.615370
922.216946	2421.387180
922.521647	2418.768301
922.826310	2417.437436
923.130932	2420.109248
923.435516	2416.648495
923.740059	2416.678742
924.044564	2413.142373
924.349028	2412.605490
924.653454	2406.072155
924.957840	2407.095509
925.262186	2408.930489
925.566493	2411.849317
925.870761	2407.392937
926.174989	2409.921076
926.479178	2408.915365
926.783328	2409.376631
927.087438	2410.200860
927.391509	2409.817732
927.695541	2408.222207
927.999533	2409.840417
928.303486	2408.093657
928.607400	2408.320509
928.911275	2408.151631
929.215110	2407.637433
929.518906	2405.636095
929.822663	2408.842269
930.126381	2405.983934
930.430060	2406.553585
930.733699	2408.754048
931.037299	2406.530900
931.340861	2407.327402
931.644383	2406.165416
931.947866	2407.433266
932.251309	2407.816394
932.554714	2404.277504
932.858080	2409.542989
933.161407	2404.040570
933.464694	2408.978380
933.767943	2404.854716
934.071153	2407.029974
934.374323	2408.733884
934.677455	2405.444531
934.980548	2406.092319
935.283602	2405.384037
935.586617	2406.626682
935.889593	2404.315312
936.192530	2405.212638
936.495428	2406.122566
936.798287	2405.870508
937.101108	2403.733059
937.403890	2405.716753
937.706632	2410.238668
938.009336	2407.158523
938.312002	2409.744635
938.614628	2408.265057
938.917216	2412.025757
939.219765	2412.093813
939.522275	2411.080541
939.824747	2413.336457
940.127179	2409.603483
940.429573	2411.072979
940.731929	2409.918555
941.034246	2405.767165
941.336524	2411.985428
941.638763	2414.314441
941.940964	2411.756056
942.243126	2408.887639
942.545250	2412.970974
942.847335	2410.896539
943.149381	2409.379152
943.451389	2406.906466
943.753359	2409.815211
944.055290	2410.500808
944.357182	2406.901424
944.659036	2409.966446
944.960851	2409.545510
945.262628	2407.708009
945.564367	2409.351425
945.866067	2408.189439
946.167729	2406.724984
946.469352	2408.340674
946.770937	2404.222051
947.072484	2407.990314
947.373992	2407.403019
947.675462	2409.096847
947.976893	2407.806312
948.278286	2407.856723
948.579641	2407.791188
948.880958	2407.264388
949.182236	2406.598955
949.483476	2406.099881
949.784678	2406.966959
950.085841	2406.520817
950.386967	2407.919738
950.688054	2407.753379
950.989103	2407.372772
951.290114	2409.313617
951.591087	2406.488050
951.892021	2409.616086
952.192917	2406.843451
952.493776	2407.271949
952.794596	2407.660118
953.095378	2409.931158
953.396122	2408.300345
953.696828	2409.379152
953.997496	2409.817732
954.298126	2408.219686
954.598718	2407.985272
954.899272	2408.789337
955.199788	2408.370921
955.500266	2406.044428
955.800706	2405.101732
956.101108	2402.329098
956.401472	2404.090981
956.701798	2401.562843
957.002087	2402.765158
957.302337	2405.250447
957.602550	2405.562998
957.902724	2403.009654
958.202861	2402.180384
958.502960	2401.585528
958.803022	2403.980076
959.103045	2405.651218
959.403031	2402.054355
959.702979	2401.835065
960.002889	2403.617113
960.302762	2404.242216
960.602596	2402.258522
960.902393	2402.114849
961.202153	2402.223234
961.501875	2400.768861
961.801559	2402.099725
962.101205	2399.558984
962.400814	2399.879097
962.700385	2398.976731
962.999918	2402.661814
963.299414	2399.589231
963.598873	2399.586710
963.898293	2400.662997
964.197677	2400.438665
964.497022	2401.225085
964.796331	2399.342214
965.095601	2399.997564
965.394835	2400.927657
965.694030	2401.940929
965.993189	2401.363717
966.292309	2403.443193
966.591393	2400.761299
966.890439	2403.697771
967.189447	2401.807338
967.488419	2402.220713
967.787353	2401.537637
968.086249	2404.088461
968.385108	2401.620816
968.683930	2401.356155
968.982714	2398.351627
969.281462	2401.119221
969.580172	2399.969838
969.878844	2401.613254
970.177480	2402.160219
970.476078	2401.542678
970.774639	2401.860271
971.073162	2399.337173
971.371649	2399.170815
971.670098	2396.385578
971.968510	2400.874725
972.266885	2397.918088
972.565223	2403.123080
972.863524	2399.932029
973.161788	2401.041083
973.460014	2401.792215
973.758204	2402.293810
974.056356	2398.432286
974.354471	2402.475291
974.652550	2401.144427
974.950591	2402.462688
975.248595	2403.506207
975.546563	2402.351783
975.844493	2401.714077
976.142386	2404.630385
976.440243	2399.745507
976.738062	2401.643501
977.035845	2401.348593
977.333590	2400.562173
977.631299	2399.458161
977.928971	2401.290620
978.226606	2401.842627
978.524204	2401.489746
978.821765	2402.732390
979.119290	2400.836916
979.416777	2400.945301
979.714228	2398.654097
980.011642	2399.417832
980.309020	2404.456465
980.606360	2403.014695
980.903664	2403.433111
981.200931	2401.157030
981.498162	2405.908317
981.795356	2405.399161
982.092513	2406.251116
982.389633	2405.424366
982.686717	2408.481826
982.983764	2408.285221
983.280775	2410.528535
983.577749	2410.750345
983.874686	2410.342012
984.171587	2410.778072
984.468451	2408.554923
984.765279	2407.493760
985.062070	2405.830179
985.358824	2406.072155
985.655543	2405.091650
985.952224	2404.116187
986.248869	2403.470919
986.545478	2399.400188
986.842050	2398.649056
987.138586	2397.497152
987.435086	2397.252656
987.731549	2396.148643
988.027975	2401.363717
988.324366	2400.713408
988.620719	2401.426731
988.917037	2401.580487
989.213318	2399.400188
989.509563	2400.993192
989.805772	2400.579817
990.101944	2398.671741
990.398080	2398.530588
990.694180	2401.275497
990.990244	2397.575290
991.286271	2398.691905
991.582262	2399.576628
991.878217	2402.818090
992.174136	2399.415311
992.470019	2402.533265
992.765865	2401.827503
993.061676	2400.592420
993.357450	2401.381361
993.653188	2397.280382
993.948890	2399.357338
994.244556	2401.333470
994.540186	2401.661145
994.835780	2401.265414
995.131337	2403.702812
995.426859	2399.654766
995.722345	2403.191135
996.017795	2405.285735
996.313208	2403.750703
996.608586	2402.389592
996.903928	2401.971176
997.199234	2404.771537
997.494504	2405.520148
997.789738	2406.263718
998.084936	2400.910013
998.380099	2403.022257
998.675225	2402.450086
998.970316	2401.386402
999.265371	2402.752555
999.560390	2400.226937
999.855373	2400.403377
1000.150320	2400.809190
1000.445232	2401.792215
1000.740108	2399.536299
1001.034948	2398.112173
1001.329752	2400.806669
1001.624521	2400.521844
1001.919254	2391.987171
1002.213951	2396.388098
1002.508613	2395.263921
1002.803239	2396.188972
1003.097829	2394.301060
1003.392384	2398.341545
1003.686903	2398.114693
1003.981386	2397.356000
1004.275834	2399.198541
1004.570246	2399.896741
1004.864623	2397.217368
1005.158964	2399.344735
1005.453270	2395.710063
1005.747540	2401.981258
1006.041775	2395.500855
1006.335974	2400.138717
1006.630138	2396.612429
1006.924266	2399.526216
1007.218359	2398.384395
1007.512416	2399.241391
1007.806438	2398.462533
1008.100425	2397.847512
1008.394376	2396.594785
1008.688292	2399.248953
1008.982172	2396.897255
1009.276017	2396.819117
1009.569827	2399.795918
1009.863602	2398.497821
1010.157341	2396.982954
1010.451045	2399.942112
1010.744714	2396.867008
1011.038347	2397.101421
1011.331945	2397.257697
1011.625508	2397.482028
1011.919036	2397.076216
1012.212528	2397.139230
1012.505986	2397.832389
1012.799408	2398.326422
1013.092795	2396.226781
1013.386147	2395.624363
1013.679464	2397.965979
1013.972745	2395.488252
1014.265992	2399.080074
1014.559204	2396.627553
1014.852380	2397.184600
1015.145521	2399.090157
1015.438628	2398.407080
1015.731699	2397.217368
1016.024736	2396.667882
1016.317737	2395.584034
1016.610703	2398.235681
1016.903635	2395.173180
1017.196531	2394.414486
1017.489393	2397.005639
1017.782219	2389.675802
1018.075011	2397.945815
1018.367768	2399.226268
1018.660490	2397.197203
1018.953177	2397.197203
1019.245829	2397.197203
