Dividing Wavelength (nm)	Counts (n)	Blue Motor Position (mm): 0.000000	Red Motor Position (mm): 12.600000	
326.493990	1980.392083
326.888308	1980.392083
327.282561	1980.392083
327.676750	1956.975923
328.070874	1957.104472
328.464933	1961.220575
328.858929	1973.810856
329.252859	1985.939872
329.646726	1999.079640
330.040528	2014.490447
330.434265	2032.265556
330.827938	2052.919163
331.221547	2073.398851
331.615091	2092.146902
332.008571	2113.536518
332.401986	2136.070475
332.795338	2155.478918
333.188625	2176.021619
333.581847	2192.546522
333.975006	2213.500078
334.368100	2230.992882
334.761129	2246.118864
335.154095	2263.820875
335.546996	2278.699841
335.939833	2290.647376
336.332606	2307.668832
336.725315	2314.565130
337.117960	2324.236584
337.510540	2329.091215
337.903056	2340.678307
338.295508	2346.470593
338.687896	2355.537108
339.080220	2361.949456
339.472480	2363.988602
339.864676	2370.887421
340.256807	2372.409850
340.648875	2374.471682
341.040879	2376.294059
341.432818	2378.960829
341.824694	2380.780686
342.216506	2378.023175
342.608253	2378.499564
342.999937	2377.350181
343.391557	2377.065355
343.783113	2374.635519
344.174605	2373.191229
344.566033	2372.472864
344.957397	2371.731815
345.348697	2366.884745
345.739934	2366.826772
346.131106	2364.918695
346.522215	2363.902903
346.913260	2360.583303
347.304241	2359.038189
347.695159	2355.557272
348.086012	2357.818230
348.476802	2353.971830
348.867528	2354.919567
349.258191	2353.692046
349.648789	2350.868999
350.039324	2351.645337
350.429796	2351.973012
350.820203	2348.461848
351.210548	2349.689369
351.600828	2347.708196
351.991045	2348.537466
352.381198	2348.731550
352.771288	2349.742302
353.161314	2347.171313
353.551276	2347.811540
353.941175	2348.517301
354.331010	2348.986128
354.720782	2348.146776
355.110490	2350.904288
355.500135	2350.470748
355.889717	2351.907477
356.279235	2351.010152
356.668689	2355.683301
357.058080	2351.728516
357.447408	2349.018896
357.836672	2348.056036
358.225873	2348.413958
358.615010	2348.822291
359.004084	2353.417303
359.393095	2354.181038
359.782043	2358.266893
360.170927	2357.787983
360.559748	2358.145905
360.948505	2357.304032
361.337199	2359.081039
361.725830	2359.728827
362.114398	2360.018694
362.502903	2359.960720
362.891344	2362.425845
363.279722	2362.539271
363.668037	2366.073119
364.056289	2362.559435
364.444478	2362.123375
364.832603	2365.243850
365.220665	2367.285517
365.608665	2364.520444
365.996601	2364.074302
366.384474	2365.269055
366.772284	2366.955321
367.160031	2368.591176
367.547715	2366.310054
367.935336	2367.426669
368.322893	2367.640918
368.710388	2369.841382
369.097820	2372.883718
369.485189	2370.032946
369.872495	2377.698020
370.259738	2373.133255
370.646918	2380.914276
371.034035	2376.019316
371.421090	2380.316900
371.808081	2383.018958
372.195010	2389.731254
372.581875	2392.221584
372.968678	2398.210475
373.355418	2405.373955
373.742096	2414.382497
374.128710	2425.336924
374.515262	2438.068358
374.901751	2448.609411
375.288177	2463.470732
375.674540	2484.910760
376.060841	2506.680983
376.447079	2529.532533
376.833254	2551.028013
377.219367	2577.529359
377.605417	2612.010851
377.991404	2640.266518
378.377329	2679.632889
378.763191	2712.213866
379.148991	2760.044334
379.534727	2803.093267
379.920402	2851.145545
380.306013	2899.543143
380.691563	2962.499593
381.077049	3016.210566
381.462474	3072.439596
381.847835	3143.623209
382.233134	3213.619630
382.618371	3272.379320
383.003545	3353.761187
383.388657	3435.710184
383.773706	3524.716796
384.158693	3598.572220
384.543618	3687.843493
384.928480	3764.695884
385.313280	3868.135319
385.698017	3971.567193
386.082692	4089.872992
386.467305	4150.795336
386.851856	4274.923667
387.236344	4426.511163
387.620770	4490.841328
388.005133	4606.356847
388.389435	4757.183129
388.773674	4831.724151
389.157851	4966.877485
389.541965	5095.943627
389.926018	5115.082367
390.310008	5292.818328
390.693936	5411.303088
391.077802	5526.438001
391.461606	5653.328884
391.845348	5768.504126
392.229027	5879.994284
392.612645	6095.821204
392.996200	6214.618515
393.379694	6380.432147
393.763125	6593.630105
394.146494	6677.323341
394.529801	6800.483771
394.913047	7027.809562
395.296230	7009.553024
395.679351	7053.743778
396.062410	7292.583565
396.445408	7178.293046
396.828343	7303.384238
397.211217	7413.087307
397.594028	7278.133098
397.976778	7442.809950
398.359466	7577.307935
398.742092	7517.222422
399.124656	7621.433154
399.507158	7761.342818
399.889598	7734.050011
400.271977	7883.472331
400.654294	7864.467181
401.036549	7980.736353
401.418742	7950.345757
401.800874	8152.924525
402.182944	8153.779000
402.564952	8398.993326
402.946898	8175.705499
403.328783	8145.909759
403.710606	8227.442861
404.092367	8355.946914
404.474067	8555.551400
404.855705	8293.597923
405.237282	8160.849219
405.618797	8382.859113
406.000250	8463.764592
406.381642	8620.209239
406.762972	8466.930436
407.144240	8214.255202
407.525447	8266.201772
407.906593	8105.381403
408.287677	8159.573807
408.668700	8126.990309
409.049661	7982.422619
409.430560	7948.344419
409.811399	7792.466901
410.192176	7760.843743
410.572891	7663.420925
410.953545	7787.962630
411.334138	7356.838112
411.714669	7528.645677
412.095139	7040.334309
412.475547	7148.456977
412.855894	6935.248937
413.236180	6939.460821
413.616405	6661.879767
413.996568	6637.357074
414.376670	6486.576162
414.756711	6302.727802
415.136691	6267.757318
415.516609	6196.372059
415.896466	6086.883238
416.276262	6043.332710
416.655997	6050.866715
417.035670	5925.785605
417.415283	5981.076981
417.794834	5864.777562
418.174324	5653.636394
418.553753	5487.497608
418.933121	5471.403724
419.312428	5286.201814
419.691674	5140.008353
420.070859	5104.400162
420.449983	4907.003701
420.829045	4895.283018
421.208047	4724.304724
421.586988	4688.792316
421.965867	4610.483032
422.344686	4497.450280
422.723444	4467.997339
423.102141	4166.201102
423.480777	4226.899115
423.859352	4064.793252
424.237866	4099.665433
424.616319	3969.341524
424.994712	3939.981844
425.373044	3824.715861
425.751314	3796.782828
426.129524	3634.772746
426.507673	3636.070843
426.885762	3537.785987
427.263789	3476.296513
427.641756	3408.308992
428.019662	3346.204497
428.397508	3281.753345
428.775292	3236.846747
429.153016	3177.104032
429.530679	3122.684777
429.908282	3069.699729
430.285824	3010.859382
430.663305	2990.268789
431.040726	2928.398708
431.418086	2886.090824
431.795385	2866.513503
432.172624	2843.863599
432.549802	2802.092598
432.926920	2772.866508
433.303977	2744.048752
433.680974	2723.019579
434.057910	2701.619881
434.434786	2682.657581
434.811601	2664.148985
435.188355	2661.162101
435.565050	2640.871457
435.941683	2620.908487
436.318257	2617.576285
436.694770	2593.290526
437.071222	2591.649631
437.447614	2567.283213
437.823946	2563.260373
438.200218	2557.470607
438.576429	2544.998793
438.952580	2541.275901
439.328670	2534.366999
439.704700	2532.988244
440.080670	2526.248221
440.456580	2523.077335
440.832429	2519.107427
441.208218	2507.860613
441.583947	2507.379182
441.959616	2503.464726
442.335224	2503.265601
442.710773	2499.167143
443.086261	2500.734942
443.461689	2494.294868
443.837057	2493.798314
444.212365	2494.355361
444.587612	2490.350165
444.962800	2486.022334
445.337927	2487.426295
445.712995	2477.674183
446.088002	2487.169197
446.462949	2484.325986
446.837837	2483.698362
447.212664	2482.440594
447.587431	2491.766729
447.962139	2503.394150
448.336786	2512.813546
448.711374	2502.728718
449.085901	2483.244658
449.460369	2484.656181
449.834776	2484.633496
450.209124	2492.900988
450.583412	2490.836636
450.957640	2490.390494
451.331808	2483.622745
451.705917	2477.512866
452.079965	2478.760552
452.453954	2479.010089
452.827883	2474.190746
453.201752	2476.005561
453.575562	2475.294759
453.949311	2479.604945
454.323001	2477.689307
454.696632	2478.836169
455.070202	2482.798516
455.443713	2481.664257
455.817164	2482.833804
456.190556	2482.445635
456.563888	2483.489154
456.937160	2479.539410
457.310373	2478.962198
457.683526	2479.272229
458.056619	2479.942703
458.429653	2477.502784
458.802628	2479.637713
459.175542	2479.970429
459.548398	2483.945379
459.921194	2487.330513
460.293930	2491.297902
460.666607	2498.632780
461.039224	2502.519510
461.411782	2502.229644
461.784280	2499.262925
462.156719	2495.633294
462.529099	2494.670433
462.901419	2490.841677
463.273680	2488.452170
463.645882	2488.371512
464.018024	2486.009731
464.390106	2488.515185
464.762130	2497.528768
465.134094	2510.592918
465.505999	2522.966430
465.877845	2540.275232
466.249631	2544.300593
466.621358	2538.737680
466.993026	2532.673172
467.364634	2526.659075
467.736184	2516.796058
468.107674	2512.642147
468.479105	2511.764986
468.850477	2509.720798
469.221790	2504.556136
469.593043	2497.264107
469.964238	2496.903665
470.335373	2495.411483
470.706449	2499.209992
471.077467	2506.307937
471.448425	2522.364012
471.819324	2528.433561
472.190164	2523.089938
472.560945	2515.185409
472.931667	2503.605879
473.302330	2501.281907
473.672934	2496.268479
474.043479	2499.164622
474.413965	2498.393326
474.784393	2488.895792
475.154761	2496.142450
475.525070	2494.935094
475.895321	2495.293016
476.265513	2492.817809
476.635645	2502.910199
477.005719	2501.160919
477.375734	2500.830723
477.745691	2501.186125
478.115588	2506.292814
478.485427	2512.052332
478.855207	2521.791841
479.224928	2529.199817
479.594591	2531.206196
479.964194	2531.672503
480.333739	2531.284334
480.703226	2529.499765
481.072653	2531.561597
481.442022	2536.859850
481.811333	2535.642411
482.180584	2531.480939
482.549777	2530.175280
482.918912	2525.368540
483.287988	2529.865249
483.657005	2522.003570
484.025964	2523.021883
484.394864	2523.412572
484.763706	2520.259330
485.132489	2517.431243
485.501213	2518.033661
485.869879	2517.007786
486.238487	2519.740092
486.607036	2517.990811
486.975527	2519.969464
487.343959	2518.701614
487.712333	2520.342509
488.080648	2517.446367
488.448905	2519.641789
488.817104	2519.737571
489.185244	2518.691532
489.553326	2526.918695
489.921350	2533.893131
490.289315	2542.092568
490.657222	2543.685572
491.025070	2547.330327
491.392861	2542.568957
491.760593	2539.062834
492.128267	2533.378933
492.495883	2531.642256
492.863440	2524.695546
493.230939	2519.674557
493.598380	2516.221366
493.965763	2514.315810
494.333088	2512.012003
494.700354	2510.108967
495.067563	2514.353619
495.434713	2510.146776
495.801805	2515.215656
496.168839	2513.481499
496.535815	2514.797240
496.902733	2512.354801
497.269593	2511.013854
497.636395	2510.945799
498.003139	2513.993176
498.369825	2514.320851
498.736453	2516.453259
499.103023	2514.565347
499.469535	2513.516787
499.835989	2517.179185
500.202385	2512.649709
500.568723	2514.172137
500.935003	2517.335461
501.301226	2516.304545
501.667390	2521.186903
502.033497	2522.401821
502.399546	2522.926101
502.765537	2521.174300
503.131470	2523.442819
503.497345	2525.698735
503.863163	2523.334434
504.228923	2526.938859
504.594625	2531.054961
504.960269	2525.973478
505.325856	2529.971113
505.691385	2532.912627
506.056856	2536.799356
506.422270	2537.590817
506.787625	2541.495191
507.152924	2540.607948
507.518164	2545.255892
507.883347	2541.437218
508.248472	2544.572815
508.613540	2551.091027
508.978550	2556.646379
509.343503	2555.169321
509.708398	2560.112172
510.073236	2564.258521
510.438016	2566.055693
510.802738	2564.109807
511.167403	2569.282031
511.532010	2569.889490
511.896561	2577.337795
512.261053	2584.213929
512.625488	2579.520614
512.989866	2582.736871
513.354186	2583.533373
513.718449	2580.543969
514.082655	2592.279775
514.446803	2592.274734
514.810894	2596.489138
515.174927	2597.492328
515.538904	2596.005187
515.902822	2603.047679
516.266684	2601.832761
516.630488	2602.004161
516.994235	2602.344438
517.357925	2609.155037
517.721558	2611.481530
518.085133	2612.638475
518.448651	2612.640995
518.812112	2612.320882
519.175516	2613.180399
519.538863	2612.842641
519.902152	2617.881275
520.265385	2619.917901
520.628560	2619.628034
520.991678	2619.393621
521.354739	2619.605349
521.717743	2619.484362
522.080690	2620.517798
522.443580	2621.712552
522.806413	2623.814713
523.169189	2623.209774
523.531908	2619.791872
523.894569	2616.252982
524.257174	2617.296501
524.619722	2617.367077
524.982213	2618.448404
525.344647	2616.149638
525.707025	2617.477982
526.069345	2614.972529
526.431608	2614.264247
526.793815	2611.355501
527.155964	2608.436673
527.518057	2607.380551
527.880093	2607.688062
528.242072	2602.488111
528.603995	2604.239912
528.965860	2601.638677
529.327669	2598.472832
529.689421	2595.753130
530.051117	2592.438571
530.412755	2590.744743
530.774337	2589.429002
531.135862	2587.962027
531.497331	2582.578074
531.858743	2573.574573
532.220098	2577.052970
532.581396	2570.917885
532.942638	2563.278017
533.303824	2567.658779
533.664953	2565.644838
534.026025	2557.420196
534.387040	2560.028993
534.747999	2555.277706
535.108902	2554.329969
535.469748	2549.762683
535.830537	2546.783361
536.191270	2543.756148
536.551947	2540.605427
536.912567	2537.565612
537.273131	2536.212062
537.633638	2535.370189
537.994089	2528.380629
538.354483	2526.444826
538.714821	2525.696215
539.075103	2521.670853
539.435328	2518.968795
539.795497	2516.276819
540.155609	2515.470234
540.515665	2512.324554
540.875665	2509.730881
541.235609	2506.065962
541.595496	2507.222907
541.955328	2505.201404
542.315102	2501.433141
542.674821	2499.411639
543.034483	2499.666217
543.394090	2494.163797
543.753640	2493.546256
544.113134	2494.229333
544.472571	2489.692294
544.831953	2491.446616
545.191278	2491.754126
545.550548	2485.160297
545.909761	2490.299753
546.268918	2486.476038
546.628019	2488.510143
546.987064	2486.413023
547.346053	2483.287508
547.704986	2482.433032
548.063863	2479.083186
548.422684	2479.521766
548.781449	2480.230048
549.140158	2479.448669
549.498811	2478.079996
549.857408	2478.586632
550.215949	2471.541620
550.574434	2471.660087
550.932864	2472.564974
551.291237	2471.284521
551.649555	2473.137145
552.007817	2474.120170
552.366022	2474.611682
552.724173	2472.002885
553.082267	2473.795015
553.440305	2473.427011
553.798288	2472.184367
554.156215	2469.515076
554.514086	2472.436424
554.871902	2469.807463
555.229661	2469.956177
555.587365	2468.080868
555.945014	2470.997175
556.302606	2468.920220
556.660143	2469.474747
557.017625	2468.736218
557.375050	2472.096147
557.732421	2469.399129
558.089735	2468.166567
558.446994	2467.390229
558.804197	2468.559777
559.161345	2469.489870
559.518437	2466.560960
559.875474	2468.403501
560.232455	2467.417956
560.589381	2465.547688
560.946251	2471.070272
561.303065	2466.646659
561.659825	2467.987606
562.016528	2464.680609
562.373177	2469.053810
562.729770	2468.015332
563.086307	2465.308233
563.442789	2467.498614
563.799216	2467.377627
564.155587	2470.293934
564.511904	2464.496607
564.868164	2465.988789
565.224370	2469.631022
565.580520	2464.282358
565.936615	2467.307050
566.292654	2464.239508
566.648638	2466.437451
567.004567	2463.498459
567.360441	2465.434262
567.716260	2467.060034
568.072023	2464.100877
568.427732	2462.961576
568.783385	2462.734724
569.138982	2463.233798
569.494525	2461.726493
569.850013	2460.483849
570.205445	2462.399487
570.560823	2460.524178
570.916145	2463.352265
571.271412	2461.078705
571.626625	2463.795887
571.981782	2463.778243
572.336884	2461.260186
572.691931	2461.295474
573.046923	2460.967799
573.401860	2462.651545
573.756743	2461.355968
574.111570	2460.922429
574.466342	2461.930660
574.821059	2460.040227
575.175722	2462.729683
575.530330	2458.800103
575.884882	2459.717593
576.239380	2460.458643
576.593823	2461.066102
576.948211	2457.204578
577.302544	2460.274641
577.656823	2457.449074
578.011047	2460.826647
578.365216	2456.763477
578.719330	2458.570731
579.073389	2458.933694
579.427394	2459.432768
579.781344	2457.756584
580.135239	2457.018055
580.489080	2458.066615
580.842866	2453.673250
581.196597	2457.194496
581.550273	2455.712397
581.903895	2456.483693
582.257463	2458.485031
582.610975	2454.305915
582.964434	2456.950000
583.317837	2459.962089
583.671186	2455.581327
584.024481	2456.955041
584.377721	2454.086624
584.730906	2455.236008
585.084037	2456.702983
585.437113	2456.894547
585.790135	2455.977057
586.143103	2455.377160
586.496016	2456.254321
586.848874	2451.157714
587.201679	2452.619649
587.554428	2448.667384
587.907124	2452.501182
588.259765	2447.379369
588.612352	2451.815585
588.964884	2451.089658
589.317362	2453.030503
589.669786	2451.934052
590.022155	2455.843467
590.374470	2451.760132
590.726731	2452.135698
591.078937	2451.805502
591.431090	2453.070832
591.783188	2450.278033
592.135232	2450.830039
592.487222	2451.626541
592.839157	2451.140070
593.191038	2449.531942
593.542866	2452.642334
593.894639	2448.347271
594.246358	2449.037909
594.598022	2449.229473
594.949633	2449.657971
595.301190	2448.644699
595.652692	2448.828701
596.004141	2449.065635
596.355535	2447.926334
596.706876	2446.900460
597.058162	2449.194185
597.409395	2446.222424
597.760573	2450.197374
598.111698	2448.342230
598.462768	2447.223093
598.813785	2446.930707
599.164748	2448.962292
599.515657	2448.894236
599.866511	2446.373659
600.217312	2446.338371
600.568060	2446.124122
600.918753	2448.400203
601.269392	2446.545058
601.619978	2446.174533
601.970510	2449.632765
602.320988	2447.702003
602.671412	2448.382559
603.021783	2446.960953
603.372100	2446.424071
603.722363	2446.766869
604.072572	2446.807198
604.422728	2446.666046
604.772830	2444.407609
605.122878	2442.237392
605.472872	2443.769903
605.822813	2440.800663
606.172701	2447.165120
606.522534	2444.047167
606.872314	2447.081941
607.222041	2444.165634
607.571714	2449.428598
607.921333	2447.931376
608.270899	2446.882816
608.620411	2445.383072
608.969870	2446.613114
609.319276	2448.528752
609.668627	2444.195881
610.017926	2448.990018
610.367171	2445.952723
610.716362	2445.040274
611.065500	2444.841148
611.414585	2445.194029
611.763616	2446.529935
612.112594	2448.619493
612.461518	2447.696962
612.810389	2449.065635
613.159207	2445.229317
613.507971	2445.027671
613.856682	2447.654112
614.205340	2444.147990
614.553945	2445.932558
614.902496	2446.940789
615.250994	2445.919955
615.599439	2446.832404
615.947830	2446.512291
616.296169	2448.269133
616.644454	2447.089503
616.992686	2447.800306
617.340864	2445.259564
617.688990	2448.042281
618.037063	2446.295521
618.385082	2444.019440
618.733048	2449.531942
619.080961	2446.066149
619.428821	2445.834256
619.776628	2444.710078
620.124382	2448.334668
620.472083	2444.137907
620.819731	2447.734771
621.167326	2446.101437
621.514868	2444.571447
621.862357	2447.518001
622.209793	2446.282918
622.557176	2444.624379
622.904506	2444.241251
623.251783	2438.469130
623.599007	2443.996755
623.946179	2441.380396
624.293297	2442.948195
624.640363	2442.703699
624.987376	2441.763524
625.334336	2442.151693
625.681243	2441.377876
626.028097	2442.560026
626.374899	2442.033226
626.721647	2441.665221
627.068343	2442.010540
627.414987	2439.265632
627.761577	2444.253854
628.108115	2441.685386
628.454600	2439.943667
628.801032	2437.453337
629.147412	2439.782350
629.493739	2439.827721
629.840014	2439.691610
630.186236	2440.243616
630.532405	2440.654470
630.878521	2441.647577
631.224585	2437.102977
631.570597	2438.837134
631.916556	2440.949377
632.262462	2440.888884
632.608316	2442.358380
632.954117	2436.581218
633.299866	2439.550457
633.645562	2436.051897
633.991206	2438.786722
634.336797	2436.586259
634.682336	2439.479881
635.027823	2435.114242
635.373257	2437.627257
635.718639	2433.952256
636.063968	2435.172215
636.409245	2434.226999
636.754470	2437.612134
637.099642	2432.901175
637.444762	2433.838830
637.789829	2435.439396
638.134845	2435.850250
638.479808	2434.448810
638.824719	2435.925868
639.169577	2435.192380
639.514383	2433.634663
639.859137	2432.815476
640.203839	2432.545774
640.548489	2436.039294
640.893086	2434.158943
641.237632	2429.574014
641.582125	2431.013263
641.926566	2428.495207
642.270955	2431.580393
642.615292	2434.143820
642.959576	2432.293716
643.303809	2431.315733
643.647990	2434.794129
643.992118	2434.037956
644.336195	2432.593665
644.680219	2429.969744
645.024192	2433.314550
645.368112	2434.282452
645.711981	2433.541402
646.055797	2434.484098
646.399562	2435.091557
646.743274	2434.839499
647.086935	2434.809252
647.430544	2433.188521
647.774101	2435.436876
648.117606	2434.705908
648.461059	2435.207503
648.804460	2438.166661
649.147810	2434.756320
649.491108	2435.953594
649.834354	2431.610640
650.177548	2432.170208
650.520690	2431.275403
650.863781	2430.715835
651.206820	2436.006526
651.549807	2431.988727
651.892742	2430.746082
652.235626	2431.731628
652.578458	2433.256577
652.921238	2432.291196
653.263967	2431.431679
653.606644	2429.710125
653.949269	2427.812131
654.291843	2430.670465
654.634365	2431.104004
654.976836	2429.788263
655.319255	2433.518717
655.661622	2427.504620
656.003938	2433.760692
656.346203	2427.297933
656.688416	2429.609302
657.030577	2430.395722
657.372687	2431.199786
657.714746	2429.826072
658.056753	2428.969075
658.398708	2424.762233
658.740612	2427.129054
659.082465	2423.547314
659.424266	2426.014959
659.766016	2424.527819
660.107715	2429.238777
660.449362	2429.440423
660.790958	2427.953283
661.132503	2428.558221
661.473996	2428.885896
661.815438	2429.100145
662.156829	2429.158119
662.498168	2428.172573
662.839456	2428.298602
663.180693	2426.307346
663.521879	2429.326997
663.863013	2427.446647
664.204097	2429.490835
664.545129	2430.171391
664.886110	2428.283478
665.227040	2426.201482
665.567918	2430.768767
665.908746	2428.545618
666.249522	2427.466812
666.590248	2429.652152
666.930922	2431.905547
667.271545	2430.244487
667.612118	2428.127203
667.952639	2427.539908
668.293109	2428.694333
668.633528	2429.543767
668.973896	2431.368665
669.314213	2428.774991
669.654480	2427.461770
669.994695	2429.889086
670.334859	2428.107038
670.674973	2426.415731
671.015035	2430.415887
671.355047	2428.011256
671.695008	2428.028900
672.034918	2428.865732
672.374777	2427.638211
672.714585	2429.531164
673.054342	2431.527461
673.394049	2428.616195
673.733705	2428.404466
674.073310	2429.062337
674.412864	2428.084353
674.752368	2426.524116
675.091820	2424.873138
675.431223	2426.529157
675.770574	2427.252562
676.109875	2419.622776
676.449125	2423.315421
676.788324	2424.482448
677.127473	2426.216605
677.466571	2423.683426
677.805619	2427.721390
678.144616	2425.281471
678.483562	2425.084866
678.822458	2426.226688
679.161303	2426.660227
679.500098	2425.291554
679.838842	2423.499423
680.177535	2425.586461
680.516179	2426.690474
680.854771	2425.712490
681.193314	2428.084353
681.531805	2424.674012
681.870247	2427.469332
682.208638	2429.982347
682.546978	2431.025866
682.885268	2429.783222
683.223508	2428.346493
683.561697	2427.968406
683.899836	2429.692481
684.237925	2428.618715
684.575963	2428.404466
684.913951	2425.737696
685.251889	2428.638880
685.589776	2427.055958
685.927614	2426.534198
686.265401	2425.054619
686.603137	2425.321801
686.940824	2427.789445
687.278460	2430.819179
687.616046	2428.228026
687.953582	2428.175094
688.291068	2430.289858
688.628504	2429.193407
688.965889	2429.629467
689.303224	2427.978489
689.640510	2427.852460
689.977745	2427.834816
690.314930	2424.986564
690.652065	2428.996802
690.989150	2428.291040
691.326185	2426.377922
691.663170	2422.879362
692.000105	2423.522109
692.336990	2422.770977
692.673825	2423.665782
693.010610	2422.458425
693.347345	2423.035637
693.684030	2418.785945
694.020665	2421.109917
694.357251	2413.971643
694.693786	2422.765936
695.030272	2420.683939
695.366707	2421.762746
695.703093	2419.577406
696.039429	2420.472211
696.375716	2419.216963
696.711952	2422.781059
697.048139	2420.091603
697.384276	2418.664957
697.720363	2421.082190
698.056400	2419.703435
698.392388	2418.087745
698.728326	2418.584298
699.064214	2421.389701
699.400053	2419.839546
699.735842	2416.298135
700.071581	2416.144380
700.407270	2419.068249
700.742910	2419.710996
701.078501	2417.414751
701.414042	2417.099679
701.749533	2417.913825
702.084974	2418.244021
702.420366	2415.269740
702.755709	2417.215625
703.091002	2415.375604
703.426246	2416.537590
703.761440	2417.581109
704.096584	2417.366860
704.431679	2416.716551
704.766725	2415.597415
705.101721	2414.899215
705.436668	2414.994997
705.771565	2415.476427
706.106413	2416.222518
706.441212	2418.899371
706.775961	2419.388363
707.110661	2419.403486
707.445311	2417.568506
707.779913	2418.488517
708.114465	2414.944585
708.448967	2415.090779
708.783421	2417.079514
709.117825	2416.585481
709.452180	2417.205543
709.786485	2416.199833
710.120742	2418.405337
710.454949	2418.286870
710.789107	2419.761408
711.123216	2414.105233
711.457275	2415.478948
711.791286	2417.175296
712.125247	2420.194947
712.459159	2419.630338
712.793023	2421.697211
713.126837	2422.405493
713.460602	2419.025399
713.794318	2421.228384
714.127985	2418.579257
714.461602	2419.224525
714.795171	2419.955492
715.128691	2417.215625
715.462162	2416.277971
715.795584	2418.475914
716.128957	2417.351736
716.462281	2416.993814
716.795556	2417.412230
717.128782	2416.625810
717.461960	2417.813002
717.795088	2415.683114
718.128167	2416.434246
718.461198	2414.848803
718.794180	2415.443660
719.127113	2411.718247
719.459997	2415.337795
719.792833	2414.589184
720.125619	2412.953330
720.458357	2411.493916
720.791046	2413.129770
721.123686	2408.774213
721.456278	2411.491395
721.788821	2412.411406
722.121315	2414.508526
722.453761	2416.363670
722.786158	2411.201529
723.118506	2409.578277
723.450805	2410.634399
723.783056	2412.418967
724.115259	2412.913000
724.447412	2412.837383
724.779518	2414.004410
725.111574	2413.361663
725.443582	2415.972981
725.775542	2413.190264
726.107453	2413.515418
726.439315	2414.125398
726.771129	2417.646644
727.102895	2414.448032
727.434612	2415.398289
727.766281	2414.478279
728.097901	2411.398134
728.429473	2412.570202
728.760996	2416.005748
729.092471	2413.651529
729.423897	2416.640934
729.755276	2416.005748
730.086606	2414.213618
730.417887	2415.690676
730.749120	2418.294432
731.080305	2414.100192
731.411442	2416.923238
731.742530	2417.006417
732.073570	2415.365522
732.404562	2418.312076
732.735506	2417.424833
733.066401	2416.751839
733.397249	2417.865934
733.728048	2418.899371
734.058798	2414.556417
734.389501	2414.248906
734.720156	2415.662950
735.050762	2413.943916
735.381320	2415.494071
735.711831	2416.502302
736.042293	2413.744791
736.372707	2412.212280
736.703073	2413.470048
737.033391	2411.395613
737.363661	2412.900398
737.693883	2410.364697
738.024056	2414.349729
738.354182	2411.383010
738.684260	2414.695048
739.014290	2411.761097
739.344272	2415.468865
739.674207	2415.123546
740.004093	2415.000038
740.333931	2412.429050
740.663722	2412.986097
740.993464	2414.886612
741.323159	2416.610687
741.652806	2414.080028
741.982405	2411.612383
742.311956	2413.333937
742.641460	2413.321334
742.970915	2412.280336
743.300323	2413.459966
743.629683	2410.780592
743.958996	2411.120870
744.288260	2414.390058
744.617477	2412.265212
744.946647	2407.831517
745.275768	2409.459810
745.604842	2406.954357
745.933869	2407.796229
746.262847	2403.115518
746.591778	2412.910480
746.920662	2410.815880
747.249498	2409.618606
747.578286	2412.610531
747.907027	2412.721437
748.235720	2411.917373
748.564365	2413.691859
748.892963	2409.837897
749.221514	2410.405026
749.550017	2408.527197
749.878473	2410.742784
750.206881	2408.701116
750.535242	2410.715057
750.863555	2409.389234
751.191821	2409.797567
751.520039	2409.890829
751.848210	2412.734039
752.176334	2411.070459
752.504411	2411.506518
752.832440	2411.161199
753.160421	2411.259502
753.488356	2411.841755
753.816243	2410.515932
754.144082	2409.419481
754.471875	2409.827814
754.799620	2409.467372
755.127318	2410.916703
755.454969	2411.294790
755.782572	2408.907804
756.110129	2408.905283
756.437638	2408.743966
756.765100	2409.401837
757.092515	2408.000396
757.419882	2412.156827
757.747203	2410.609193
758.074477	2408.575087
758.401703	2410.173133
758.728882	2410.611714
759.056014	2412.350912
759.383099	2406.800601
759.710138	2411.826632
760.037129	2410.447876
760.364073	2411.640109
760.690970	2409.023750
761.017820	2412.822260
761.344623	2413.704462
761.671379	2411.130953
761.998088	2407.886970
762.324751	2410.634399
762.651366	2415.988104
762.977935	2421.301480
763.304456	2420.111768
763.630931	2427.033272
763.957359	2425.793148
764.283740	2422.826429
764.610074	2419.794175
764.936362	2417.407189
765.262602	2413.714544
765.588796	2414.236303
765.914943	2415.294946
766.241044	2410.281518
766.567097	2410.049625
766.893104	2411.067938
767.219064	2411.937537
767.544978	2408.638102
767.870845	2406.243554
768.196665	2406.934192
768.522438	2406.755231
768.848165	2409.495098
769.173846	2406.299007
769.499479	2405.235323
769.825066	2407.536610
770.150607	2402.432442
770.476101	2404.746331
770.801548	2406.435118
771.126949	2407.932340
771.452303	2407.178688
771.777611	2406.818245
772.102872	2403.846485
772.428087	2405.520148
772.753256	2407.965108
773.078378	2405.522669
773.403453	2404.811866
773.728482	2404.723646
774.053465	2404.698440
774.378401	2404.854716
774.703291	2403.531413
775.028135	2403.052503
775.352932	2404.406053
775.677683	2404.577452
776.002388	2402.432442
776.327046	2403.470919
776.651658	2405.484860
776.976224	2403.155847
777.300743	2403.148285
777.625216	2403.097874
777.949643	2402.994530
778.274024	2402.044273
778.598359	2401.890518
778.922647	2399.518655
779.246889	2400.569735
779.571086	2398.071843
779.895236	2402.520662
780.219339	2403.503687
780.543397	2402.152658
780.867409	2403.143244
781.191374	2402.107287
781.515294	2405.000909
781.839167	2406.064593
782.162995	2404.552247
782.486776	2402.906310
782.810511	2401.643501
783.134201	2405.386558
783.457844	2401.698954
783.781441	2403.128121
784.104993	2402.218192
784.428498	2403.390261
784.751958	2400.176525
785.075372	2403.581825
785.398739	2403.395302
785.722061	2403.639798
786.045337	2403.130641
786.368568	2399.490928
786.691752	2405.777247
787.014891	2404.390930
787.337983	2405.643657
787.661030	2406.735066
787.984031	2406.311609
788.306987	2406.833369
788.629897	2404.201887
788.952760	2407.481157
789.275579	2404.842113
789.598351	2406.992165
789.921078	2405.537792
790.243759	2405.878070
790.566395	2403.972514
790.888984	2401.058727
791.211529	2401.930847
791.534027	2405.741959
791.856480	2404.027967
792.178888	2403.685168
792.501249	2402.835734
792.823566	2403.919582
793.145836	2402.172822
793.468062	2403.896897
793.790241	2401.373799
794.112375	2403.460837
794.434464	2402.132493
794.756507	2404.842113
795.078505	2404.902607
795.400457	2401.525034
795.722364	2401.275497
796.044226	2402.739952
796.366042	2399.448078
796.687812	2402.545867
797.009538	2401.567884
797.331218	2407.259346
797.652852	2404.146434
797.974442	2403.962432
798.295986	2401.948491
798.617484	2406.404871
798.938938	2404.585014
799.260346	2405.865467
799.581709	2404.411094
799.903026	2405.701630
800.224299	2403.672565
800.545526	2402.485374
800.866708	2401.489746
801.187845	2405.328584
801.508936	2399.281720
801.829983	2401.404046
802.150984	2402.477812
802.471940	2401.446896
802.792851	2403.680127
803.113717	2400.723490
803.434538	2403.218862
803.755314	2402.064437
804.076045	2403.917061
804.396731	2403.544016
804.717372	2401.880435
805.037967	2401.267935
805.358518	2401.945970
805.679024	2402.714746
805.999485	2402.061917
806.319901	2404.630385
806.640272	2404.063255
806.960598	2406.689696
807.280879	2398.923798
807.601115	2401.489746
807.921306	2400.428583
808.241453	2401.492266
808.561554	2403.927144
808.881611	2403.556619
809.201623	2401.759448
809.521590	2401.835065
809.841513	2402.248439
810.161390	2404.267422
810.481223	2403.402864
810.801011	2400.468912
811.120755	2399.148130
811.440453	2403.019736
811.760107	2403.135682
812.079716	2397.328273
812.399281	2396.781308
812.718801	2399.339694
813.038276	2397.469426
813.357707	2401.935888
813.677093	2401.275497
813.996434	2401.948491
814.315731	2399.196021
814.634983	2398.301216
814.954191	2397.976062
815.273354	2402.293810
815.592473	2400.988151
815.911547	2404.345559
816.230577	2402.538306
816.549562	2402.518141
816.868502	2401.709036
817.187399	2402.742472
817.506250	2404.045611
817.825058	2405.633574
818.143821	2405.409243
818.462539	2406.495612
818.781213	2406.551064
819.099843	2408.305386
819.418429	2406.805643
819.736970	2408.133987
820.055466	2408.910324
820.373919	2412.779410
820.692327	2414.954668
821.010691	2425.326842
821.329011	2439.558019
821.647286	2464.136165
821.965517	2487.965699
822.283704	2500.203100
822.601847	2504.460354
822.919945	2493.105155
823.237999	2481.732312
823.556010	2471.120683
823.873976	2460.385546
824.191897	2448.642178
824.509775	2443.255705
824.827609	2436.019129
825.145398	2427.910433
825.463144	2427.451688
825.780845	2428.540577
826.098502	2432.883531
826.416116	2437.334870
826.733685	2441.390478
827.051210	2443.275870
827.368692	2442.368462
827.686129	2435.280600
828.003522	2429.455547
828.320872	2418.725451
828.638177	2417.802920
828.955439	2414.574061
829.272656	2411.279667
829.589830	2405.200035
829.906960	2409.023750
830.224046	2406.969480
830.541088	2406.483009
830.858086	2405.878070
831.175041	2406.031825
831.491952	2402.283728
831.808819	2406.175498
832.125642	2408.106260
832.442421	2407.660118
832.759157	2410.399985
833.075849	2413.737229
833.392497	2419.398445
833.709101	2421.523291
834.025662	2421.440112
834.342179	2419.292581
834.658653	2415.292425
834.975083	2412.996179
835.291469	2416.169586
835.607811	2408.834707
835.924110	2407.745818
836.240366	2406.107443
836.556578	2404.297668
836.872746	2405.860426
837.188871	2402.906310
837.504952	2402.041752
837.820990	2402.003943
838.136984	2404.055693
838.452935	2399.679972
838.768842	2400.315157
839.084706	2403.095353
839.400526	2403.922103
839.716303	2406.273801
840.032037	2407.529048
840.347727	2409.497619
840.663373	2405.812535
840.978977	2407.035015
841.294537	2404.711043
841.610054	2401.358676
841.925527	2399.816083
842.240957	2402.177863
842.556344	2398.828017
842.871687	2401.693912
843.186987	2399.972358
843.502244	2399.720301
843.817458	2401.015877
844.132629	2399.135527
844.447756	2398.885990
844.762840	2391.644372
845.077881	2395.359703
845.392879	2396.345248
845.707833	2396.317522
846.022745	2394.797614
846.337613	2396.803993
846.652438	2395.949518
846.967221	2397.051010
847.281960	2397.799621
847.596656	2399.349776
847.911309	2397.184600
848.225919	2398.281051
848.540485	2397.802142
848.855009	2396.483880
849.169490	2397.529919
849.483928	2397.194683
849.798323	2394.928684
850.112675	2397.005639
850.426984	2395.042110
850.741251	2399.324570
851.055474	2394.941287
851.369654	2397.353479
851.683792	2396.937584
851.997887	2398.671741
852.311938	2396.176370
852.625947	2397.416493
852.939914	2397.434138
853.253837	2396.836761
853.567718	2396.796432
853.881555	2399.281720
854.195350	2398.941443
854.509103	2397.136709
854.822812	2397.771895
855.136479	2397.383726
855.450103	2396.115876
855.763685	2396.987995
856.077224	2397.935732
856.390720	2397.862636
856.704173	2395.750392
857.017584	2396.982954
857.330953	2394.401883
857.644278	2399.745507
857.957561	2404.819428
858.270802	2397.973541
858.584000	2397.565207
858.897155	2399.150650
859.210268	2396.703170
859.523339	2399.130486
859.836367	2397.716442
860.149352	2398.954045
860.462295	2400.763820
860.775195	2397.655948
861.088054	2391.157901
861.400869	2392.377860
861.713642	2388.692777
862.026373	2398.636453
862.339062	2398.543191
862.651708	2395.841133
862.964312	2398.144940
863.276873	2399.944632
863.589392	2400.161402
863.901869	2396.766185
864.214303	2395.387429
864.526696	2399.596792
864.839045	2399.042266
865.151353	2397.590413
865.463619	2397.650907
865.775842	2399.430434
866.088023	2397.013201
866.400162	2398.598644
866.712258	2397.529919
867.024313	2396.340207
867.336325	2396.872049
867.648296	2397.839950
867.960224	2397.459343
868.272110	2398.069323
868.583954	2395.137892
868.895755	2396.829199
869.207515	2398.444889
869.519233	2398.288613
869.830909	2397.277862
870.142542	2399.811042
870.454134	2396.100752
870.765684	2397.938253
871.077191	2398.631412
871.388657	2398.092008
871.700081	2397.015722
872.011463	2398.767523
872.322803	2399.821124
872.634101	2398.132337
872.945357	2398.628891
873.256571	2399.533778
873.567744	2399.276679
873.878874	2399.662328
874.189963	2397.459343
874.501010	2401.104098
874.812015	2399.049827
875.122979	2399.112842
875.433900	2397.688716
875.744780	2400.098387
876.055618	2397.580331
876.366415	2399.448078
876.677169	2397.108983
876.987882	2397.875238
877.298554	2395.803324
877.609183	2395.914230
877.919771	2395.536143
878.230317	2397.356000
878.540822	2401.535116
878.851285	2401.540157
879.161707	2403.823800
879.472087	2405.620971
879.782425	2407.345046
880.092722	2415.836870
880.402977	2421.160328
880.713191	2430.057965
881.023363	2443.081786
881.333494	2448.753084
881.643583	2449.393310
881.953631	2448.387600
882.263637	2445.632609
882.573602	2441.183791
882.883526	2439.086671
883.193408	2435.058789
883.503248	2429.695002
883.813048	2426.718200
884.122806	2421.916501
884.432522	2420.187385
884.742197	2413.275963
885.051831	2414.435429
885.361424	2409.762279
885.670975	2411.380490
885.980485	2405.941085
886.289954	2405.827659
886.599382	2404.617782
886.908768	2402.044273
887.218113	2400.594941
887.527417	2404.103584
887.836680	2402.218193
888.145901	2401.542678
888.455082	2399.037224
888.764221	2401.467061
889.073319	2398.873387
889.382376	2399.299364
889.691392	2401.716598
890.000366	2399.652245
890.309300	2399.458161
890.618193	2400.226937
890.927044	2399.513613
891.235855	2398.651576
891.544625	2400.095867
891.853353	2400.184087
892.162041	2401.444375
892.470687	2401.439334
892.779293	2400.163922
893.087858	2400.973028
893.396381	2398.820455
893.704864	2404.141393
894.013306	2404.126269
894.321707	2407.816394
894.630068	2413.182702
894.938387	2411.839235
895.246665	2411.355284
895.554903	2409.893349
895.863100	2410.793195
896.171256	2407.735735
896.479371	2408.010478
896.787446	2406.785478
897.095480	2403.120559
897.403473	2405.010992
897.711425	2402.883625
898.019336	2403.541495
898.327207	2404.282545
898.635038	2402.266083
898.942827	2401.519993
899.250576	2400.998233
899.558284	2399.493449
899.865952	2398.860784
900.173579	2401.088974
900.481165	2399.533778
900.788711	2398.487739
901.096216	2398.719632
901.403681	2399.309447
901.711105	2398.011350
902.018489	2397.739127
902.325832	2399.909344
902.633135	2398.170146
902.940397	2401.020918
903.247619	2401.976217
903.554800	2406.722463
903.861941	2413.898546
904.169041	2415.312590
904.476101	2415.231931
904.783121	2414.644637
905.090100	2411.458627
905.397039	2410.334450
905.703938	2409.918555
906.010796	2410.470561
906.317614	2403.969993
906.624391	2405.323543
906.931129	2405.129459
907.237826	2401.832544
907.544483	2401.126783
907.851099	2397.764333
908.157675	2399.087636
908.464211	2397.565208
908.770707	2395.321894
909.077163	2394.805176
909.383578	2394.842984
909.689954	2392.657644
909.996289	2393.126472
910.302584	2396.481359
910.608839	2396.032697
910.915054	2396.309960
911.221229	2395.173180
911.527363	2394.996740
911.833458	2396.496483
912.139513	2396.204096
912.445527	2396.199055
912.751502	2395.823489
913.057436	2394.903478
913.363331	2398.316339
913.669186	2399.163253
913.975000	2400.617626
914.280775	2399.037224
914.586510	2402.311454
914.892205	2401.830024
915.197859	2407.642474
915.503475	2410.611714
915.809050	2414.619431
916.114585	2414.269071
916.420081	2414.009451
916.725536	2415.736047
917.030952	2411.652712
917.336328	2414.004410
917.641665	2414.543814
917.946961	2413.006262
918.252218	2412.103895
918.557435	2405.744480
918.862612	2404.259860
919.167750	2403.296999
919.472848	2404.360683
919.777906	2400.763820
920.082925	2403.375137
920.387904	2402.182904
920.692843	2400.947822
920.997743	2398.762482
921.302603	2398.820455
921.607423	2400.645353
921.912204	2395.042110
922.216946	2397.701319
922.521647	2398.313819
922.826310	2396.788870
923.130932	2397.139230
923.435516	2396.415824
923.740059	2395.793242
924.044564	2397.487070
924.349028	2396.057903
924.653454	2390.673950
924.957840	2392.435833
925.262186	2390.421893
925.566493	2393.030690
925.870761	2390.595812
926.174989	2395.705022
926.479178	2394.565721
926.783328	2395.563869
927.087438	2394.512789
927.391509	2396.688047
927.695541	2394.643859
927.999533	2396.675444
928.303486	2393.922974
928.607400	2394.200237
928.911275	2393.852398
929.215110	2393.754095
929.518906	2391.838457
929.822663	2394.938766
930.126381	2395.337017
930.430060	2395.286606
930.733699	2395.551267
931.037299	2395.203427
931.340861	2395.357182
931.644383	2394.129661
931.947866	2394.049003
932.251309	2393.663354
932.554714	2395.934394
932.858080	2396.146123
933.161407	2394.142264
933.464694	2390.971378
933.767943	2393.381050
934.071153	2394.805176
934.374323	2395.901627
934.677455	2394.280896
934.980548	2395.226112
935.283602	2395.359703
935.586617	2392.582027
935.889593	2391.702346
936.192530	2393.446585
936.495428	2394.449774
936.798287	2394.033879
937.101108	2394.215361
937.403890	2394.081770
937.706632	2392.186296
938.009336	2394.911040
938.312002	2393.998591
938.614628	2392.667727
938.917216	2396.251987
939.219765	2394.543036
939.522275	2394.240567
939.824747	2394.336348
940.127179	2390.915926
940.429573	2391.934239
940.731929	2393.184445
941.034246	2389.668240
941.336524	2392.982799
941.638763	2393.063457
941.940964	2393.945659
942.243126	2392.042623
942.545250	2394.608571
942.847335	2395.170659
943.149381	2393.612943
943.451389	2395.402553
943.753359	2394.994219
944.055290	2393.529764
944.357182	2391.888868
944.659036	2394.331307
944.960851	2396.194014
945.262628	2393.602861
945.564367	2393.877603
945.866067	2393.418858
946.167729	2391.377191
946.469352	2392.960113
946.770937	2393.446585
947.072484	2392.529095
947.373992	2393.275186
947.675462	2396.360372
947.976893	2394.573283
948.278286	2393.751575
948.579641	2395.130330
948.880958	2393.048334
949.182236	2392.992881
949.483476	2393.741492
949.784678	2394.333828
950.085841	2393.648231
950.386967	2393.418858
950.688054	2391.954403
950.989103	2394.033879
951.290114	2392.055226
951.591087	2395.160577
951.892021	2392.269475
952.192917	2394.648900
952.493776	2392.604712
952.794596	2392.287119
953.095378	2396.388098
953.396122	2393.562531
953.696828	2397.368603
953.997496	2393.436503
954.298126	2392.813920
954.598718	2394.893396
954.899272	2393.209651
955.199788	2395.284085
955.500266	2393.234856
955.800706	2393.209651
956.101108	2388.682694
956.401472	2393.232336
956.701798	2385.035420
957.002087	2394.245608
957.302337	2393.686040
957.602550	2391.409959
957.902724	2392.937428
958.202861	2394.225443
958.502960	2391.725031
958.803022	2393.365926
959.103045	2392.950031
959.403031	2393.023128
959.702979	2391.437685
960.002889	2392.128323
960.302762	2389.637993
960.602596	2394.782491
960.902393	2389.499361
961.202153	2390.600853
961.501875	2391.316697
961.801559	2393.378529
962.101205	2390.752088
962.400814	2393.035731
962.700385	2392.513971
962.999918	2390.437016
963.299414	2390.734444
963.598873	2390.542880
963.898293	2392.062788
964.197677	2390.754609
964.497022	2393.028169
964.796331	2393.323077
965.095601	2390.326111
965.394835	2390.394166
965.694030	2390.963817
965.993189	2393.164280
966.292309	2393.769219
966.591393	2393.635628
966.890439	2392.927346
967.189447	2391.450288
967.488419	2390.658827
967.787353	2391.407438
968.086249	2391.541029
968.385108	2394.263252
968.683930	2391.815772
968.982714	2392.340052
969.281462	2390.447098
969.580172	2392.463560
969.878844	2391.223436
970.177480	2391.034393
970.476078	2393.128992
970.774639	2391.941800
971.073162	2393.091183
971.371649	2388.770915
971.670098	2388.196223
971.968510	2389.640514
972.266885	2385.877292
972.565223	2392.516492
972.863524	2389.675802
973.161788	2392.203940
973.460014	2393.358365
973.758204	2391.155380
974.056356	2391.107489
974.354471	2390.280740
974.652550	2393.076060
974.950591	2394.845505
975.248595	2390.757129
975.546563	2392.695453
975.844493	2393.207130
976.142386	2391.893909
976.440243	2391.752757
976.738062	2389.610267
977.035845	2389.547252
977.333590	2389.096069
977.631299	2389.683363
977.928971	2391.450288
978.226606	2391.432644
978.524204	2394.157388
978.821765	2389.189330
979.119290	2388.322252
979.416777	2391.286450
979.714228	2390.389125
980.011642	2390.132026
980.309020	2394.757285
980.606360	2391.662016
980.903664	2393.149157
981.200931	2391.266286
981.498162	2392.574465
981.795356	2393.058416
982.092513	2393.491955
982.389633	2391.120092
982.686717	2393.219733
982.983764	2389.552293
983.280775	2392.413148
983.577749	2394.313663
983.874686	2395.924312
984.171587	2393.592778
984.468451	2392.781152
984.765279	2393.008004
985.062070	2391.964486
985.358824	2392.115720
985.655543	2392.934908
985.952224	2391.717469
986.248869	2390.893240
986.545478	2386.083980
986.842050	2387.901316
987.138586	2387.427447
987.435086	2389.373332
987.731549	2387.649258
988.027975	2393.171842
988.324366	2392.098076
988.620719	2391.828374
988.917037	2390.447098
989.213318	2391.599002
989.509563	2390.174876
989.805772	2392.377860
990.101944	2389.874927
990.398080	2392.455998
990.694180	2392.350134
990.990244	2392.072870
991.286271	2389.171686
991.582262	2392.587068
991.878217	2389.895092
992.174136	2389.479197
992.470019	2391.004146
992.765865	2391.132695
993.061676	2390.333672
993.357450	2391.175545
993.653188	2391.742675
993.948890	2392.776111
994.244556	2389.103631
994.540186	2389.423744
994.835780	2390.558004
995.131337	2393.005484
995.426859	2390.275699
995.722345	2394.316184
996.017795	2392.748385
996.313208	2391.230998
996.608586	2391.740154
996.903928	2390.961296
997.199234	2392.024979
997.494504	2390.953734
997.789738	2390.895761
998.084936	2392.244270
998.380099	2394.754764
998.675225	2391.190668
998.970316	2390.797458
999.265371	2391.616646
999.560390	2390.270658
999.855373	2392.985319
1000.150320	2391.170504
1000.445232	2389.191851
1000.740108	2390.888199
1001.034948	2390.177397
1001.329752	2390.162273
1001.624521	2388.871738
1001.919254	2382.308155
1002.213951	2386.777138
1002.508613	2387.934083
1002.803239	2388.818806
1003.097829	2384.173382
1003.392384	2390.205123
1003.686903	2391.097407
1003.981386	2391.719990
1004.275834	2393.116389
1004.570246	2391.833416
1004.864623	2387.455173
1005.158964	2392.156049
1005.453270	2391.523385
1005.747540	2388.299567
1006.041775	2389.953065
1006.335974	2390.736965
1006.630138	2390.593292
1006.924266	2389.612787
1007.218359	2387.893754
1007.512416	2391.044475
1007.806438	2389.262427
1008.100425	2390.363919
1008.394376	2391.835936
1008.688292	2391.878786
1008.982172	2390.157232
1009.276017	2393.002963
1009.569827	2390.416851
1009.863602	2391.510782
1010.157341	2389.915257
1010.451045	2388.352499
1010.744714	2389.857283
1011.038347	2387.162787
1011.331945	2389.562376
1011.625508	2390.820144
1011.919036	2390.996584
1012.212528	2387.850904
1012.505986	2387.349309
1012.799408	2389.733775
1013.092795	2386.562889
1013.386147	2388.138250
1013.679464	2390.197561
1013.972745	2389.756460
1014.265992	2388.481048
1014.559204	2388.493651
1014.852380	2390.636142
1015.145521	2391.266286
1015.438628	2387.142622
1015.731699	2391.631769
1016.024736	2389.128837
1016.317737	2389.262427
1016.610703	2392.549259
1016.903635	2386.762015
1017.196531	2386.900647
1017.489393	2389.058260
1017.782219	2387.752602
1018.075011	2391.316697
1018.367768	2392.009856
1018.660490	2389.953065
1018.953177	2389.953065
1019.245829	2389.953065
