Dividing Wavelength (nm)	Counts (n)	Blue Motor Position (mm): 0.000000	Red Motor Position (mm): 22.200000	
326.493990	1985.891982
326.888308	1985.891982
327.282561	1985.891982
327.676750	1962.047324
328.070874	1963.670575
328.464933	1967.547223
328.858929	1977.750518
329.252859	1991.699391
329.646726	2005.572646
330.040528	2019.939935
330.434265	2039.287883
330.827938	2057.751109
331.221547	2074.659139
331.615091	2100.381627
332.008571	2117.977774
332.401986	2141.434263
332.795338	2160.835143
333.188625	2178.673266
333.581847	2197.277645
333.975006	2216.411344
334.368100	2232.764847
334.761129	2252.937024
335.154095	2265.943201
335.546996	2284.759308
335.939833	2306.837041
336.332606	2316.536221
336.725315	2329.154229
337.117960	2334.812924
337.510540	2344.207115
337.903056	2353.467714
338.295508	2357.520802
338.687896	2365.299302
339.080220	2373.864223
339.472480	2377.950078
339.864676	2382.083824
340.256807	2386.683877
340.648875	2391.840977
341.040879	2390.036244
341.432818	2392.350134
341.824694	2389.970709
342.216506	2392.271996
342.608253	2391.475494
342.999937	2390.973899
343.391557	2387.767725
343.783113	2387.866028
344.174605	2385.640358
344.566033	2384.677498
344.957397	2382.126674
345.348697	2379.109543
345.739934	2379.815305
346.131106	2378.441590
346.522215	2377.705582
346.913260	2372.974459
347.304241	2374.469161
347.695159	2372.835827
348.086012	2368.341639
348.476802	2369.848944
348.867528	2367.346011
349.258191	2367.792153
349.648789	2365.261494
350.039324	2365.697553
350.429796	2364.033973
350.820203	2362.372913
351.210548	2365.508510
351.600828	2362.995495
351.991045	2361.672192
352.381198	2361.125227
352.771288	2363.827285
353.161314	2362.526668
353.551276	2363.542460
353.941175	2364.217975
354.331010	2362.635053
354.720782	2360.822758
355.110490	2361.420134
355.500135	2364.775022
355.889717	2366.337780
356.279235	2365.420290
356.668689	2366.851978
357.058080	2364.530526
357.447408	2364.215454
357.836672	2363.187059
358.225873	2367.860208
358.615010	2363.272758
359.004084	2368.255939
359.393095	2365.279138
359.782043	2372.591331
360.170927	2370.784078
360.559748	2371.630992
360.948505	2372.228368
361.337199	2372.805580
361.725830	2374.476723
362.114398	2374.103677
362.502903	2375.429501
362.891344	2377.743391
363.279722	2376.946888
363.668037	2377.090561
364.056289	2377.052753
364.444478	2377.912269
364.832603	2378.580222
365.220665	2381.849410
365.608665	2382.754297
365.996601	2383.013917
366.384474	2381.672970
366.772284	2383.349154
367.160031	2384.627086
367.547715	2385.491644
367.935336	2385.252189
368.322893	2386.560369
368.710388	2385.184134
369.097820	2390.263096
369.485189	2387.878630
369.872495	2392.017418
370.259738	2392.670247
370.646918	2397.154353
371.034035	2395.836092
371.421090	2400.027811
371.808081	2404.514438
372.195010	2405.293296
372.581875	2413.649009
372.968678	2419.952972
373.355418	2426.793818
373.742096	2434.259766
374.128710	2447.936417
374.515262	2456.975206
374.901751	2472.322998
375.288177	2490.501399
375.674540	2508.306755
376.060841	2528.947759
376.447079	2553.800648
376.833254	2580.508681
377.219367	2603.418204
377.605417	2640.087557
377.991404	2664.338028
378.377329	2706.824872
378.763191	2741.437435
379.148991	2787.702624
379.534727	2832.460509
379.920402	2879.131511
380.306013	2929.328800
380.691563	2991.208964
381.077049	3047.422870
381.462474	3104.975203
381.847835	3177.136800
382.233134	3248.789240
382.618371	3307.768220
383.003545	3392.504975
383.388657	3474.143941
383.773706	3566.618867
384.158693	3638.767861
384.543618	3735.351327
384.928480	3808.135506
385.313280	3917.432763
385.698017	4015.150489
386.082692	4139.636742
386.467305	4201.579920
386.851856	4327.061801
387.236344	4480.383454
387.620770	4543.866704
388.005133	4663.304242
388.389435	4809.326304
388.773674	4898.332917
389.157851	5027.555334
389.541965	5157.425539
389.926018	5180.095608
390.310008	5358.776785
390.693936	5480.104756
391.077802	5598.546665
391.461606	5728.797478
391.845348	5845.217885
392.229027	5961.771882
392.612645	6185.624319
392.996200	6308.404141
393.379694	6474.545448
393.763125	6702.486261
394.146494	6792.007071
394.529801	6925.491783
394.913047	7169.501274
395.296230	7165.521283
395.679351	7224.245684
396.062410	7477.309086
396.445408	7372.241358
396.828343	7531.763630
397.211217	7660.454206
397.594028	7544.527832
397.976778	7749.828822
398.359466	7915.939883
398.742092	7882.874954
399.124656	8036.874643
399.507158	8223.432623
399.889598	8235.097853
400.271977	8445.109802
400.654294	8481.116243
401.036549	8672.274276
401.418742	8699.730921
401.800874	8999.596396
402.182944	9074.220596
402.564952	9444.248850
402.946898	9270.197972
403.328783	9320.415426
403.710606	9517.446404
404.092367	9770.159446
404.474067	10135.930446
404.855705	9922.213249
405.237282	9879.802022
405.618797	10304.133585
406.000250	10544.480677
406.381642	10908.578013
406.762972	10859.996414
407.144240	10658.098202
407.525447	10910.269321
407.906593	10847.315391
408.287677	11105.593868
408.668700	11256.621796
409.049661	11231.166489
409.430560	11388.619368
409.811399	11363.650533
410.192176	11525.537106
410.572891	11594.915986
410.953545	12070.639592
411.334138	11558.581870
411.714669	12145.137764
412.095139	11464.410595
412.475547	11959.714043
412.855894	11808.481948
413.236180	12123.100360
413.616405	11815.907568
413.996568	12086.957807
414.376670	12056.587376
414.756711	11945.238370
415.136691	12217.357334
415.516609	12393.187739
415.896466	12455.140999
416.276262	12751.102100
416.655997	13197.521479
417.035670	13228.164133
417.415283	13862.434548
417.794834	13950.727837
418.174324	13699.698540
418.553753	13589.148557
418.933121	14082.213732
419.312428	13884.408937
419.691674	13807.806084
420.070859	14253.388632
420.449983	13912.672167
420.829045	14454.971771
421.208047	14199.632288
421.586988	14650.472758
421.965867	14896.980140
422.344686	14892.569131
422.723444	15446.418018
423.102141	14160.712059
423.480777	15318.781044
423.859352	14829.816848
424.237866	15929.209322
424.616319	15619.286746
424.994712	16278.180677
425.373044	16059.288736
425.751314	16725.736836
426.129524	15864.327152
426.507673	16929.999348
426.885762	16629.067670
427.263789	16812.346379
427.641756	16972.513919
428.019662	17022.068462
428.397508	17051.286989
428.775292	17335.784507
429.153016	17279.958769
429.530679	17345.685333
429.908282	17349.289758
430.285824	17066.246613
430.663305	17739.265858
431.040726	17316.260118
431.418086	17127.489071
431.795385	17745.786590
432.172624	18116.734855
432.549802	17650.934760
432.926920	17798.315413
433.303977	17649.447620
433.680974	17855.366151
434.057910	18096.650898
434.434786	18068.004541
434.811601	17957.666286
435.188355	18901.871881
435.565050	18497.077310
435.941683	18395.389675
436.318257	19163.701850
436.694770	18902.088651
437.071222	19378.311331
437.447614	18428.326053
437.823946	18379.194968
438.200218	18428.336136
438.576429	18120.858519
438.952580	18290.442934
439.328670	18156.436462
439.704700	18434.766128
440.080670	17929.864323
440.456580	18352.643211
440.832429	18388.780722
441.208218	17369.179630
441.583947	17647.882341
441.959616	17622.066592
442.335224	17676.891661
442.710773	17655.925502
443.086261	17986.534454
443.461689	17296.644988
443.837057	17256.761900
444.212365	17638.820867
444.587612	17467.681256
444.962800	16982.674365
445.337927	17150.708626
445.712995	16015.733166
446.088002	17271.779497
446.462949	17242.263541
446.837837	17200.469855
447.212664	16986.266187
447.587431	18876.177120
447.962139	20798.822785
448.336786	22306.919247
448.711374	20962.851849
449.085901	18136.120612
449.460369	17823.450606
449.834776	17533.528807
450.209124	18973.244537
450.583412	18449.307336
450.957640	18546.810813
451.331808	17418.908093
451.705917	16322.028633
452.079965	16091.952892
452.453954	16067.614201
452.827883	15763.557007
453.201752	15423.722744
453.575562	15286.878102
453.949311	15667.255845
454.323001	15447.527072
454.696632	15082.308079
455.070202	15660.475493
455.443713	15488.962836
455.817164	15531.512695
456.190556	15530.133940
456.563888	14999.033259
456.937160	14942.438745
457.310373	13910.595211
457.683526	13843.585674
458.056619	13585.241662
458.429653	13304.789671
458.802628	13298.268939
459.175542	13106.390020
459.548398	13385.052402
459.921194	13757.397066
460.293930	13782.436478
460.666607	14297.647442
461.039224	14701.227095
461.411782	14537.361869
461.784280	13805.696361
462.156719	13326.103670
462.529099	12815.606184
462.901419	12087.224988
463.273680	11490.367497
463.645882	11257.035170
464.018024	11000.082518
464.390106	11003.631490
464.762130	11529.290245
465.134094	12478.630255
465.505999	13762.811266
465.877845	14761.678092
466.249631	14722.036978
466.621358	13853.544473
466.993026	12905.142118
467.364634	12027.701564
467.736184	11261.209246
468.107674	10697.852742
468.479105	10265.480538
468.850477	9869.954128
469.221790	9338.510648
469.593043	8777.493239
469.964238	8390.713231
470.335373	8169.313316
470.706449	8243.012465
471.077467	8460.288716
471.448425	9002.245522
471.819324	9269.812324
472.190164	8773.505687
472.560945	8025.458950
472.931667	7380.352574
473.302330	7030.380551
473.672934	6749.736996
474.043479	6640.424616
474.413965	6387.557818
474.784393	6193.307037
475.154761	6138.562627
475.525070	5998.932748
475.895321	5817.927598
476.265513	5728.540379
476.635645	5692.102919
477.005719	5540.598602
477.375734	5460.552640
477.745691	5383.785950
478.115588	5367.805492
478.485427	5397.697014
478.855207	5535.905288
479.224928	5617.566939
479.594591	5592.421663
479.964194	5384.000199
480.333739	5250.129838
480.703226	5124.335405
481.072653	5052.531730
481.442022	4974.635821
481.811333	4877.449937
482.180584	4704.795459
482.549777	4580.024380
482.918912	4460.617090
483.287988	4358.415257
483.657005	4237.193151
484.025964	4124.969505
484.394864	4050.526786
484.763706	3964.388590
485.132489	3865.319835
485.501213	3793.780821
485.869879	3739.694281
486.238487	3676.495856
486.607036	3626.532980
486.975527	3564.753640
487.343959	3522.821322
487.712333	3481.667863
488.080648	3438.006429
488.448905	3411.401740
488.817104	3368.831716
489.185244	3355.142463
489.553326	3358.230170
489.921350	3381.424518
490.289315	3408.331677
490.657222	3395.443967
491.025070	3374.755072
491.392861	3327.925273
491.760593	3274.554577
492.128267	3218.128942
492.495883	3170.245543
492.863440	3130.725417
493.230939	3088.518357
493.598380	3051.687687
493.965763	3027.984181
494.333088	3006.753362
494.700354	2984.784013
495.067563	2971.354379
495.434713	2954.978191
495.801805	2948.795216
496.168839	2935.259718
496.535815	2919.352357
496.902733	2910.369021
497.269593	2899.033986
497.636395	2885.483365
498.003139	2884.492778
498.369825	2869.752444
498.736453	2868.290510
499.103023	2852.925073
499.469535	2847.727643
499.835989	2845.602797
500.202385	2834.749192
500.568723	2825.372646
500.935003	2827.316011
501.301226	2816.520380
501.667390	2820.223108
502.033497	2817.871409
502.399546	2806.801036
502.765537	2798.195786
503.131470	2801.497742
503.497345	2800.434058
503.863163	2785.247582
504.228923	2789.714045
504.594625	2788.700773
504.960269	2781.101233
505.325856	2782.711882
505.691385	2774.779626
506.056856	2776.531427
506.422270	2779.215842
506.787625	2775.616458
507.152924	2773.663011
507.518164	2775.205604
507.883347	2767.036414
508.248472	2769.602361
508.613540	2773.615120
508.978550	2774.245264
509.343503	2773.113525
509.708398	2773.211827
510.073236	2777.577467
510.438016	2780.413116
510.802738	2773.791560
511.167403	2779.641819
511.532010	2781.436470
511.896561	2784.816564
512.261053	2792.937862
512.625488	2786.308745
512.989866	2785.547531
513.354186	2783.493261
513.718449	2785.552572
514.082655	2793.285702
514.446803	2789.983746
514.810894	2794.866104
515.174927	2798.692340
515.538904	2794.525826
515.902822	2798.934315
516.266684	2798.649490
516.630488	2798.568831
516.994235	2799.771147
517.357925	2804.093936
517.721558	2805.729790
518.085133	2809.238433
518.448651	2807.852116
518.812112	2809.233392
519.175516	2808.388999
519.538863	2811.401088
519.902152	2811.748928
520.265385	2816.822849
520.628560	2816.666574
520.991678	2815.534835
521.354739	2815.396203
521.717743	2821.276709
522.080690	2820.838128
522.443580	2823.073880
522.806413	2827.086639
523.169189	2827.212667
523.531908	2823.605722
523.894569	2824.613953
524.257174	2824.661844
524.619722	2829.796259
524.982213	2831.132165
525.344647	2828.455312
525.707025	2828.941783
526.069345	2829.246773
526.431608	2832.294151
526.793815	2833.143585
527.155964	2830.474294
527.518057	2832.417659
527.880093	2828.530929
528.242072	2836.178360
528.603995	2828.543532
528.965860	2830.381033
529.327669	2831.626198
529.689421	2832.344562
530.051117	2829.760971
530.412755	2834.383709
530.774337	2832.682319
531.135862	2829.037565
531.497331	2831.744665
531.858743	2828.362051
532.220098	2831.409428
532.581396	2828.667040
532.942638	2825.349961
533.303824	2829.874397
533.664953	2826.940445
534.026025	2824.961792
534.387040	2831.260714
534.747999	2828.160404
535.108902	2830.383553
535.469748	2827.353820
535.830537	2826.534632
536.191270	2828.397339
536.551947	2828.160404
536.912567	2827.517657
537.273131	2827.689057
537.633638	2824.271154
537.994089	2824.830722
538.354483	2821.029692
538.714821	2824.578665
539.075103	2827.817606
539.435328	2824.006494
539.795497	2823.756957
540.155609	2824.147646
540.515665	2826.123778
540.875665	2822.000114
541.235609	2821.702686
541.595496	2823.275526
541.955328	2827.169818
542.315102	2823.091524
542.674821	2822.365598
543.034483	2818.567089
543.394090	2816.754794
543.753640	2819.328303
544.113134	2823.923315
544.472571	2815.691110
544.831953	2824.608912
545.191278	2820.170176
545.550548	2814.100626
545.909761	2817.939465
546.268918	2822.405927
546.628019	2824.109837
546.987064	2820.739826
547.346053	2811.373362
547.704986	2816.880823
548.063863	2814.340081
548.422684	2814.445945
548.781449	2812.522745
549.140158	2817.939465
549.498811	2812.812612
549.857408	2805.848257
550.215949	2809.679534
550.574434	2809.266160
550.932864	2805.596200
551.291237	2809.465285
551.649555	2810.062662
552.007817	2811.030564
552.366022	2809.626602
552.724173	2806.725418
553.082267	2808.565439
553.440305	2811.262457
553.798288	2802.327012
554.156215	2804.638381
554.514086	2807.184163
554.871902	2800.771816
555.229661	2799.219140
555.587365	2798.525982
555.945014	2794.596402
556.302606	2792.771504
556.660143	2794.223357
557.017625	2792.582461
557.375050	2788.741102
557.732421	2786.764970
558.089735	2788.572223
558.446994	2785.053498
558.804197	2787.758077
559.161345	2784.715741
559.518437	2776.889349
559.875474	2774.585542
560.232455	2772.039759
560.589381	2772.075047
560.946251	2770.189656
561.303065	2769.057917
561.659825	2767.288472
562.016528	2764.024325
562.373177	2757.783376
562.729770	2756.747419
563.086307	2755.086359
563.442789	2749.679721
563.799216	2748.457242
564.155587	2742.675038
564.511904	2741.739904
564.868164	2738.775706
565.224370	2740.797208
565.580520	2731.511403
565.936615	2728.285064
566.292654	2725.184755
566.648638	2726.185424
567.004567	2721.965978
567.360441	2721.292984
567.716260	2716.329968
568.072023	2712.017261
568.427732	2705.269677
568.783385	2701.781198
569.138982	2700.508307
569.494525	2698.748944
569.850013	2690.751153
570.205445	2694.499251
570.560823	2690.236956
570.916145	2687.544980
571.271412	2683.096161
571.626625	2680.847807
571.981782	2677.089627
572.336884	2674.049811
572.691931	2672.832372
573.046923	2668.144099
573.401860	2662.540857
573.756743	2660.408448
574.111570	2661.275527
574.466342	2657.340906
574.821059	2654.996770
575.175722	2653.663385
575.530330	2647.417395
575.884882	2643.603762
576.239380	2642.061169
576.593823	2640.334574
576.948211	2636.780560
577.302544	2635.951291
577.656823	2631.366361
578.011047	2631.653707
578.365216	2629.947276
578.719330	2626.768829
579.073389	2624.444857
579.427394	2626.786473
579.781344	2624.162552
580.135239	2619.683487
580.489080	2616.802468
580.842866	2614.859103
581.196597	2614.649895
581.550273	2611.047991
581.903895	2612.232662
582.257463	2611.259719
582.610975	2610.100254
582.964434	2605.797629
583.317837	2605.895931
583.671186	2605.318719
584.024481	2604.761672
584.377721	2601.043821
584.730906	2603.234202
585.084037	2597.540219
585.437113	2596.960486
585.790135	2598.296392
586.143103	2597.273038
586.496016	2593.033427
586.848874	2590.931266
587.201679	2591.516040
587.554428	2588.506471
587.907124	2589.754157
588.259765	2582.827611
588.612352	2587.999835
588.964884	2588.503951
589.317362	2587.299115
589.669786	2587.266347
590.022155	2588.393045
590.374470	2586.590833
590.726731	2582.021027
591.078937	2581.685790
591.431090	2580.932137
591.783188	2578.240161
592.135232	2579.313927
592.487222	2579.878536
592.839157	2580.503639
593.191038	2578.464493
593.542866	2575.482650
593.894639	2573.630026
594.246358	2572.515931
594.598022	2572.601631
594.949633	2572.082392
595.301190	2571.709347
595.652692	2571.207752
596.004141	2571.066599
596.355535	2567.134499
596.706876	2567.620971
597.058162	2565.302040
597.409395	2569.372772
597.760573	2567.515107
598.111698	2565.213820
598.462768	2564.971844
598.813785	2567.855384
599.164748	2561.987481
599.515657	2564.056875
599.866511	2562.421021
600.217312	2565.523851
600.568060	2561.380022
600.918753	2563.560321
601.269392	2562.504200
601.619978	2564.205589
601.970510	2562.605023
602.320988	2562.063099
602.671412	2562.070660
603.021783	2560.311298
603.372100	2560.218036
603.722363	2560.954045
604.072572	2560.182748
604.422728	2561.785835
604.772830	2559.028324
605.122878	2552.189999
605.472872	2559.000598
605.822813	2554.214022
606.172701	2561.501010
606.522534	2560.142419
606.872314	2558.425906
607.222041	2557.314332
607.571714	2556.454815
607.921333	2557.319373
608.270899	2558.733417
608.620411	2560.754919
608.969870	2558.572100
609.319276	2554.839125
609.668627	2557.142932
610.017926	2558.892213
610.367171	2557.606719
610.716362	2558.935063
611.065500	2555.345761
611.414585	2559.033365
611.763616	2557.223591
612.112594	2557.589075
612.461518	2557.594116
612.810389	2558.231822
613.159207	2557.914229
613.507971	2557.311811
613.856682	2562.237018
614.205340	2559.093859
614.553945	2559.764332
614.902496	2558.287274
615.250994	2559.476987
615.599439	2559.703839
615.947830	2557.001780
616.296169	2558.567058
616.644454	2561.180897
616.992686	2558.846843
617.340864	2559.567727
617.688990	2558.861966
618.037063	2560.190310
618.385082	2560.828016
618.733048	2562.955383
619.080961	2560.901113
619.428821	2559.885320
619.776628	2559.766853
620.124382	2559.461863
620.472083	2556.601008
620.819731	2558.231822
621.167326	2556.117058
621.514868	2560.197872
621.862357	2553.283929
622.209793	2554.113199
622.557176	2552.812581
622.904506	2549.069525
623.251783	2545.969215
623.599007	2545.707075
623.946179	2545.291180
624.293297	2545.752445
624.640363	2545.328988
624.987376	2545.548279
625.334336	2543.418391
625.681243	2543.022661
626.028097	2542.924358
626.374899	2541.603576
626.721647	2540.348328
627.068343	2544.270346
627.414987	2537.366486
627.761577	2538.525951
628.108115	2538.979655
628.454600	2537.633667
628.801032	2538.329346
629.147412	2537.416898
629.493739	2535.667617
629.840014	2538.914120
630.186236	2537.726928
630.532405	2534.082174
630.878521	2534.452699
631.224585	2534.246012
631.570597	2535.778522
631.916556	2534.596372
632.262462	2532.463964
632.608316	2532.307688
632.954117	2531.586803
633.299866	2531.896834
633.645562	2531.609488
633.991206	2527.175793
634.336797	2529.764426
634.682336	2524.690505
635.027823	2526.744775
635.373257	2525.161852
635.718639	2521.204547
636.063968	2523.480628
636.409245	2522.280833
636.754470	2521.867458
637.099642	2521.418796
637.444762	2518.298322
637.789829	2517.544669
638.134845	2517.494257
638.479808	2519.765297
638.824719	2516.405368
639.169577	2515.467714
639.514383	2515.896212
639.859137	2512.886643
640.203839	2518.033661
640.548489	2511.916221
640.893086	2513.632734
641.237632	2507.104439
641.582125	2510.595438
641.926566	2504.641836
642.270955	2508.541168
642.615292	2510.350942
642.959576	2509.829183
643.303809	2512.821108
643.647990	2510.890346
643.992118	2510.083761
644.336195	2512.110305
644.680219	2511.588546
645.024192	2510.998731
645.368112	2511.747342
645.711981	2512.997548
646.055797	2512.042250
646.399562	2514.739267
646.743274	2514.754390
647.086935	2517.262364
647.430544	2517.532066
647.774101	2518.167252
648.117606	2519.329238
648.461059	2517.421161
648.804460	2519.987108
649.147810	2514.376304
649.491108	2513.405882
649.834354	2513.171468
650.177548	2508.551251
650.520690	2508.669718
650.863781	2507.399347
651.206820	2510.161899
651.549807	2506.706188
651.892742	2504.364572
652.235626	2506.262567
652.578458	2505.864316
652.921238	2500.427431
653.263967	2503.681496
653.606644	2501.959942
653.949269	2501.634788
654.291843	2499.003305
654.634365	2499.371309
654.976836	2500.014057
655.319255	2499.182266
655.661622	2500.598830
656.003938	2500.240908
656.346203	2498.466422
656.688416	2496.986844
657.030577	2497.349807
657.372687	2498.133706
657.714746	2498.337873
658.056753	2499.078923
658.398708	2494.816627
658.740612	2496.437358
659.082465	2492.227994
659.424266	2492.845536
659.766016	2491.577686
660.107715	2497.629591
660.449362	2496.006339
660.790958	2498.073212
661.132503	2495.308139
661.473996	2496.306288
661.815438	2496.460043
662.156829	2495.524909
662.498168	2498.393326
662.839456	2496.185300
663.180693	2496.830568
663.521879	2496.969200
663.863013	2493.495845
664.204097	2495.116576
664.545129	2498.630260
664.886110	2497.760661
665.227040	2499.303254
665.567918	2499.777122
665.908746	2497.095228
666.249522	2498.284941
666.590248	2495.885352
666.930922	2498.637822
667.271545	2496.727224
667.612118	2500.097236
667.952639	2496.152533
668.293109	2496.810403
668.633528	2496.870897
668.973896	2494.632625
669.314213	2496.928870
669.654480	2495.688747
669.994695	2496.540702
670.334859	2495.056082
670.674973	2492.961482
671.015035	2492.888386
671.355047	2494.068016
671.695008	2491.907881
672.034918	2494.264621
672.374777	2495.507265
672.714585	2497.601864
673.054342	2494.763695
673.394049	2490.788745
673.733705	2496.928870
674.073310	2495.426607
674.412864	2492.860659
674.752368	2493.999960
675.091820	2494.788901
675.431223	2490.219095
675.770574	2490.524084
676.109875	2486.634834
676.449125	2487.751450
676.788324	2486.511326
677.127473	2486.657519
677.466571	2483.879844
677.805619	2487.322952
678.144616	2486.977633
678.483562	2484.888074
678.822458	2486.836480
679.161303	2487.310349
679.500098	2485.072077
679.838842	2484.857828
680.177535	2486.496202
680.516179	2487.668271
680.854771	2486.534011
681.193314	2487.403610
681.531805	2493.044661
681.870247	2490.929897
682.208638	2493.228663
682.546978	2495.177069
682.885268	2494.584734
683.223508	2491.844867
683.561697	2493.992398
683.899836	2493.795793
684.237925	2489.200782
684.575963	2490.423261
684.913951	2488.222798
685.251889	2491.091214
685.589776	2491.945690
685.927614	2491.484424
686.265401	2489.994763
686.603137	2492.472490
686.940824	2489.873776
687.278460	2491.209681
687.616046	2493.301760
687.953582	2497.049858
688.291068	2494.088180
688.628504	2495.663541
688.965889	2495.792090
689.303224	2496.505413
689.640510	2494.506596
689.977745	2491.328148
690.314930	2490.718169
690.652065	2492.414517
690.989150	2485.898826
691.326185	2484.746922
691.663170	2482.745584
692.000105	2481.326499
692.336990	2477.049080
692.673825	2477.737198
693.010610	2477.384317
693.347345	2470.916517
693.684030	2468.847123
694.020665	2471.080354
694.357251	2465.590538
694.693786	2469.313430
695.030272	2468.151444
695.366707	2471.367700
695.703093	2466.888635
696.039429	2468.090950
696.375716	2466.301340
696.711952	2469.048769
697.048139	2468.519448
697.384276	2467.672534
697.720363	2466.666824
698.056400	2468.007771
698.392388	2465.461988
698.728326	2463.352265
699.064214	2465.885445
699.400053	2466.293778
699.735842	2466.349231
700.071581	2462.273458
700.407270	2462.896041
700.742910	2461.355968
701.078501	2464.602471
701.414042	2462.031483
701.749533	2461.270269
702.084974	2458.159877
702.420366	2459.720114
702.755709	2459.483180
703.091002	2459.125258
703.426246	2457.476800
703.761440	2456.932356
704.096584	2457.701132
704.431679	2459.029476
704.766725	2458.575772
705.101721	2457.534774
705.436668	2457.489403
705.771565	2457.323045
706.106413	2457.136523
706.441212	2458.026286
706.775961	2456.846656
707.110661	2455.881275
707.445311	2458.583334
707.779913	2458.968982
708.114465	2458.033848
708.448967	2461.580300
708.783421	2458.956379
709.117825	2462.643983
709.452180	2463.934518
709.786485	2464.370578
710.120742	2464.264714
710.454949	2464.441154
710.789107	2465.991309
711.123216	2465.189766
711.457275	2468.186732
711.791286	2469.016002
712.125247	2468.642956
712.459159	2469.273100
712.793023	2474.039511
713.126837	2471.609675
713.460602	2470.286372
713.794318	2470.117494
714.127985	2468.539613
714.461602	2465.633387
714.795171	2467.203707
715.128691	2461.313118
715.462162	2461.439147
715.795584	2459.904116
716.128957	2459.445371
716.462281	2458.911009
716.795556	2460.682974
717.128782	2459.049640
717.461960	2456.909671
717.795088	2455.044444
718.128167	2455.135184
718.461198	2452.261727
718.794180	2454.300873
719.127113	2451.583692
719.459997	2451.256017
719.792833	2449.342899
720.125619	2450.704010
720.458357	2452.110492
720.791046	2448.674946
721.123686	2451.140070
721.456278	2447.581015
721.788821	2447.253340
722.121315	2450.419185
722.453761	2448.385079
722.786158	2449.390790
723.118506	2447.036571
723.450805	2449.665532
723.783056	2447.447425
724.115259	2447.744853
724.447412	2442.950716
724.779518	2447.218052
725.111574	2449.715944
725.443582	2448.566561
725.775542	2449.960440
726.107453	2451.455142
726.439315	2449.156376
726.771129	2456.213991
727.102895	2450.184771
727.434612	2453.653085
727.766281	2452.503702
728.097901	2450.467076
728.429473	2451.288784
728.760996	2455.049485
729.092471	2444.873916
729.423897	2455.324228
729.755276	2455.120061
730.086606	2455.001594
730.417887	2456.050154
730.749120	2458.883282
731.080305	2457.464197
731.411442	2460.584672
731.742530	2460.062912
732.073570	2460.498972
732.404562	2461.272789
732.735506	2460.894703
733.066401	2455.863631
733.397249	2459.084928
733.728048	2455.777932
734.058798	2454.782304
734.389501	2454.684001
734.720156	2447.379369
735.050762	2449.279884
735.381320	2445.216714
735.711831	2446.718978
736.042293	2446.532455
736.372707	2449.559668
736.703073	2446.343412
737.033391	2446.401385
737.363661	2444.515994
737.693883	2448.281736
738.024056	2451.041767
738.354182	2446.474482
738.684260	2449.383228
739.014290	2446.910542
739.344272	2451.215687
739.674207	2451.117385
740.004093	2453.171655
740.333931	2453.703497
740.663722	2452.697787
740.993464	2453.343054
741.323159	2449.479010
741.652806	2451.961778
741.982405	2448.629575
742.311956	2448.309462
742.641460	2447.742332
742.970915	2447.873402
743.300323	2448.730398
743.629683	2443.863164
743.958996	2445.622527
744.288260	2447.717127
744.617477	2443.202773
744.946647	2440.808225
745.275768	2440.314192
745.604842	2440.304110
745.933869	2438.832093
746.262847	2438.529624
746.591778	2440.687237
746.920662	2439.797474
747.249498	2440.740170
747.578286	2440.193204
747.907027	2440.122628
748.235720	2441.687907
748.564365	2444.697475
748.892963	2445.574636
749.221514	2442.570108
749.550017	2442.983483
749.878473	2442.378545
750.206881	2440.452824
750.535242	2440.147834
750.863555	2440.687238
751.191821	2440.112546
751.520039	2442.358380
751.848210	2441.380396
752.176334	2443.185129
752.504411	2440.228493
752.832440	2440.679676
753.160421	2441.183791
753.488356	2438.406115
753.816243	2440.861157
754.144082	2438.993410
754.471875	2439.089192
754.799620	2437.841506
755.127318	2439.603389
755.454969	2437.372679
755.782572	2441.241764
756.110129	2438.363266
756.437638	2440.730087
756.765100	2435.230188
757.092515	2440.533482
757.419882	2438.310333
757.747203	2440.016764
758.074477	2437.476022
758.401703	2437.889397
758.728882	2438.690941
759.056014	2439.552978
759.383099	2437.455858
759.710138	2442.844851
760.037129	2439.404264
760.364073	2441.445931
760.690970	2439.885694
761.017820	2444.763010
761.344623	2440.097422
761.671379	2444.231169
761.998088	2441.012392
762.324751	2448.679987
762.651366	2459.243725
762.977935	2471.851651
763.304456	2476.174440
763.630931	2484.331027
763.957359	2478.626961
764.283740	2472.910293
764.610074	2466.702112
764.936362	2462.459981
765.262602	2456.017386
765.588796	2449.398351
765.914943	2447.041612
766.241044	2441.652618
766.567097	2439.716815
766.893104	2436.666917
767.219064	2437.455858
767.544978	2436.840837
767.870845	2435.391505
768.196665	2434.292534
768.522438	2432.560897
768.848165	2432.074426
769.173846	2429.800866
769.499479	2432.636515
769.825066	2430.849426
770.150607	2433.241453
770.476101	2428.147367
770.801548	2428.124682
771.126949	2427.335742
771.452303	2427.902871
771.777611	2427.854980
772.102872	2427.028231
772.428087	2428.238108
772.753256	2427.912954
773.078378	2423.955648
773.403453	2427.852460
773.728482	2423.789290
774.053465	2424.613518
774.378401	2425.321801
774.703291	2423.693508
775.028135	2422.833991
775.352932	2426.491348
775.677683	2423.857345
776.002388	2423.973292
776.327046	2421.719896
776.651658	2424.946235
776.976224	2424.815165
777.300743	2423.174269
777.625216	2425.967068
777.949643	2424.479928
778.274024	2425.019331
778.598359	2420.557910
778.922647	2420.371387
779.246889	2420.021027
779.571086	2418.788465
779.895236	2424.207706
780.219339	2421.818199
780.543397	2423.144022
780.867409	2420.580595
781.191374	2421.399783
781.515294	2423.338107
781.839167	2425.031934
782.162995	2423.116296
782.486776	2421.029258
782.810511	2423.144022
783.134201	2420.938517
783.457844	2421.798034
783.781441	2420.288208
784.104993	2420.197468
784.428498	2421.848446
784.751958	2419.963054
785.075372	2419.968095
785.398739	2419.718558
785.722061	2421.119999
786.045337	2421.987077
786.368568	2422.105544
786.691752	2421.019176
787.014891	2424.674012
787.337983	2425.336924
787.661030	2426.287182
787.984031	2425.962027
788.306987	2427.345824
788.629897	2429.243818
788.952760	2431.701381
789.275579	2429.420259
789.598351	2427.214754
789.921078	2425.704928
790.243759	2422.904567
790.566395	2423.895154
790.888984	2424.898344
791.211529	2421.503127
791.534027	2423.328024
791.856480	2423.345668
792.178888	2424.076636
792.501249	2419.469021
792.823566	2423.108734
793.145836	2423.385997
793.468062	2422.186203
793.790241	2421.447674
794.112375	2422.985226
794.434464	2423.927922
794.756507	2422.773497
795.078505	2423.592685
795.400457	2421.661923
795.722364	2418.566654
796.044226	2422.060174
796.366042	2420.835174
796.687812	2422.735689
797.009538	2426.763571
797.331218	2423.718714
797.652852	2426.970258
797.974442	2425.369692
798.295986	2427.426482
798.617484	2424.182500
798.938938	2424.895823
799.260346	2421.460277
799.581709	2422.680236
799.903026	2422.229053
800.224299	2421.704773
800.545526	2423.791810
800.866708	2421.193096
801.187845	2422.846594
801.508936	2420.552869
801.829983	2421.946748
802.150984	2419.307704
802.471940	2419.131264
802.792851	2418.591860
803.113717	2421.210740
803.434538	2417.999525
803.755314	2418.659916
804.076045	2421.402303
804.396731	2419.204360
804.717372	2421.059505
805.037967	2418.848959
805.358518	2421.268713
805.679024	2419.496747
805.999485	2419.965575
806.319901	2420.250400
806.640272	2419.542118
806.960598	2417.853331
807.280879	2420.668816
807.601115	2419.060687
807.921306	2419.040523
808.241453	2421.828281
808.561554	2420.688980
808.881611	2423.995977
809.201623	2421.140163
809.521590	2418.281829
809.841513	2418.294432
810.161390	2419.095976
810.481223	2419.348033
810.801011	2418.158321
811.120755	2419.269895
811.440453	2420.636048
811.760107	2421.009093
812.079716	2415.879719
812.399281	2414.523649
812.718801	2415.574730
813.038276	2411.690521
813.357707	2419.804258
813.677093	2418.428023
813.996434	2420.147056
814.315731	2418.191088
814.634983	2420.542787
814.954191	2418.869124
815.273354	2419.073290
815.592473	2420.958682
815.911547	2418.433064
816.230577	2418.521284
816.549562	2420.739392
816.868502	2420.842735
817.187399	2422.594536
817.506250	2421.213260
817.825058	2421.603950
818.143821	2422.534042
818.462539	2422.806265
818.781213	2424.313570
819.099843	2429.848757
819.418429	2431.925712
819.736970	2437.004675
820.055466	2439.580704
820.373919	2448.435491
820.692327	2456.760957
821.010691	2474.951960
821.329011	2514.099040
821.647286	2566.751372
821.965517	2634.827113
822.283704	2669.941270
822.601847	2681.830832
822.919945	2657.179589
823.237999	2623.892851
823.556010	2595.269179
823.873976	2565.735579
824.191897	2538.871270
824.509775	2518.399145
824.827609	2502.146465
825.145398	2491.897799
825.463144	2486.695328
825.780845	2484.126860
826.098502	2492.311173
826.416116	2506.915396
826.733685	2522.817716
827.051210	2525.660927
827.368692	2518.752025
827.686129	2503.568070
828.003522	2485.104844
828.320872	2469.522638
828.638177	2461.865125
828.955439	2450.272992
829.272656	2443.850562
829.589830	2437.397885
829.906960	2438.698502
830.224046	2431.840013
830.541088	2429.805907
830.858086	2424.651327
831.175041	2427.837336
831.491952	2426.692994
831.808819	2426.206523
832.125642	2427.683581
832.442421	2431.272883
832.759157	2439.018616
833.075849	2450.555296
833.392497	2463.279168
833.709101	2472.328040
834.025662	2469.688996
834.342179	2463.203551
834.658653	2454.847839
834.975083	2448.165789
835.291469	2446.217383
835.607811	2436.866043
835.924110	2432.066864
836.240366	2429.057296
836.556578	2425.735175
836.872746	2422.970102
837.188871	2421.621594
837.504952	2418.745615
837.820990	2417.155131
838.136984	2416.966088
838.452935	2416.530028
838.768842	2414.180851
839.084706	2420.336099
839.400526	2424.303487
839.716303	2433.014601
840.032037	2436.026691
840.347727	2434.045517
840.663373	2430.665424
840.978977	2426.496389
841.294537	2422.934814
841.610054	2421.056984
841.925527	2416.575399
842.240957	2416.293094
842.556344	2416.956006
842.871687	2417.165214
843.186987	2414.798392
843.502244	2410.488205
843.817458	2412.154307
844.132629	2410.931827
844.447756	2409.653894
844.762840	2406.316651
845.077881	2407.753379
845.392879	2406.498132
845.707833	2408.270098
846.022745	2403.912020
846.337613	2408.275139
846.652438	2409.046435
846.967221	2408.045766
847.281960	2403.886814
847.596656	2408.335633
847.911309	2408.257495
848.225919	2409.671538
848.540485	2407.287073
848.855009	2409.812691
849.169490	2405.353790
849.483928	2408.348236
849.798323	2408.834707
850.112675	2408.469223
850.426984	2409.444687
850.741251	2407.876888
851.055474	2407.745818
851.369654	2407.576939
851.683792	2406.178019
851.997887	2407.481157
852.311938	2405.815056
852.625947	2407.113153
852.939914	2408.335633
853.253837	2410.793195
853.567718	2408.501991
853.881555	2408.093657
854.195350	2407.450910
854.509103	2406.495612
854.822812	2408.829666
855.136479	2406.987124
855.450103	2408.678431
855.763685	2408.630540
856.077224	2408.040725
856.390720	2405.968811
856.704173	2407.156003
857.017584	2410.105078
857.330953	2408.101219
857.644278	2407.171126
857.957561	2411.816549
858.270802	2406.483009
858.584000	2408.386044
858.897155	2406.674573
859.210268	2408.121384
859.523339	2408.625499
859.836367	2409.548030
860.149352	2404.995868
860.462295	2408.438976
860.775195	2404.393450
861.088054	2402.583676
861.400869	2407.720612
861.713642	2403.112997
862.026373	2408.431415
862.339062	2406.984603
862.651708	2407.556774
862.964312	2407.912176
863.276873	2408.660787
863.589392	2406.740107
863.901869	2407.420663
864.214303	2408.204563
864.526696	2408.728843
864.839045	2409.074162
865.151353	2406.762793
865.463619	2409.666497
865.775842	2409.883267
866.088023	2408.693555
866.400162	2406.588873
866.712258	2411.632547
867.024313	2408.254974
867.336325	2409.696744
867.648296	2410.021899
867.960224	2409.472413
868.272110	2409.432084
868.583954	2409.701785
868.895755	2409.369069
869.207515	2408.829666
869.519233	2409.684141
869.830909	2410.578946
870.142542	2408.423853
870.454134	2408.749007
870.765684	2408.806981
871.077191	2409.800088
871.388657	2411.609862
871.700081	2411.466189
872.011463	2411.622465
872.322803	2410.825963
872.634101	2409.845458
872.945357	2411.299831
873.256571	2412.174471
873.567744	2413.190264
873.878874	2412.323185
874.189963	2409.658936
874.501010	2410.888977
874.812015	2412.849986
875.122979	2411.766138
875.433900	2412.038360
875.744780	2414.448032
876.055618	2416.197312
876.366415	2412.360994
876.677169	2412.303021
876.987882	2410.808319
877.298554	2408.126425
877.609183	2413.142373
877.919771	2410.195818
878.230317	2414.690007
878.540822	2416.615728
878.851285	2421.152766
879.161707	2424.157294
879.472087	2426.572007
879.782425	2432.220620
880.092722	2450.194854
880.402977	2467.148254
880.713191	2493.813437
881.023363	2517.809330
881.333494	2532.421114
881.643583	2539.927392
881.953631	2536.184335
882.263637	2529.242667
882.573602	2519.835873
882.883526	2508.589059
883.193408	2498.814262
883.503248	2487.822026
883.813048	2478.972280
884.122806	2472.635550
884.432522	2460.105762
884.742197	2452.574278
885.051831	2446.038422
885.361424	2443.845520
885.670975	2436.074582
885.980485	2430.854467
886.289954	2432.805393
886.599382	2425.326842
886.908768	2426.231729
887.218113	2420.691501
887.527417	2419.678229
887.836680	2416.782086
888.145901	2419.572365
888.455082	2419.423651
888.764221	2413.195305
889.073319	2414.851324
889.382376	2414.962229
889.691392	2414.324523
890.000366	2411.007444
890.309300	2413.706982
890.618193	2412.514749
890.927044	2415.967940
891.235855	2412.363515
891.544625	2417.230749
891.853353	2413.265881
892.162041	2413.606159
892.470687	2418.362488
892.779293	2420.343661
893.087858	2418.407858
893.396381	2419.385842
893.704864	2426.640062
894.013306	2431.343459
894.321707	2444.468103
894.630068	2451.127467
894.938387	2451.392128
895.246665	2447.734771
895.554903	2445.168823
895.863100	2441.655139
896.171256	2436.671958
896.479371	2432.709612
896.787446	2434.239602
897.095480	2428.601071
897.403473	2426.216605
897.711425	2422.985226
898.019336	2420.018507
898.327207	2421.545976
898.635038	2418.816192
898.942827	2416.827456
899.250576	2414.841242
899.558284	2414.450552
899.865952	2414.891653
900.173579	2412.736560
900.481165	2414.153124
900.788711	2410.538617
901.096216	2410.818401
901.403681	2413.051632
901.711105	2411.733370
902.018489	2412.429050
902.325832	2416.083886
902.633135	2410.722619
902.940397	2419.383321
903.247619	2420.850297
903.554800	2431.338418
903.861941	2445.015068
904.169041	2454.386573
904.476101	2457.106276
904.783121	2454.303394
905.090100	2446.111519
905.397039	2444.062290
905.703938	2438.627926
906.010796	2435.588110
906.317614	2429.589137
906.624391	2427.456729
906.931129	2424.812644
907.237826	2421.452715
907.544483	2420.003383
907.851099	2418.415420
908.157675	2413.162538
908.464211	2412.761766
908.770707	2405.550395
909.077163	2408.938051
909.383578	2404.113666
909.689954	2405.731877
909.996289	2404.814387
910.302584	2407.350087
910.608839	2404.491753
910.915054	2406.291445
911.221229	2409.043915
911.527363	2407.526528
911.833458	2404.123749
912.139513	2408.091137
912.445527	2408.282701
912.751502	2406.719943
913.057436	2408.098698
913.363331	2409.676580
913.669186	2407.657597
913.975000	2414.521128
914.280775	2411.130953
914.586510	2416.058680
914.892205	2427.373550
915.197859	2435.162133
915.503475	2439.172371
915.809050	2450.676284
916.114585	2454.066460
916.420081	2455.868672
916.725536	2456.403035
917.030952	2451.850873
917.336328	2449.733588
917.641665	2446.930707
917.946961	2438.975766
918.252218	2438.638008
918.557435	2438.012905
918.862612	2430.189035
919.167750	2429.800866
919.472848	2424.396749
919.777906	2424.363981
920.082925	2422.130750
920.387904	2419.647982
920.692843	2417.571027
920.997743	2415.854514
921.302603	2413.863258
921.607423	2413.545665
921.912204	2411.864440
922.216946	2409.918555
922.521647	2410.984759
922.826310	2409.147258
923.130932	2408.547361
923.435516	2409.913514
923.740059	2408.696075
924.044564	2407.004768
924.349028	2406.762793
924.653454	2401.585528
924.957840	2404.050652
925.262186	2403.203738
925.566493	2402.850857
925.870761	2398.162584
926.174989	2404.297668
926.479178	2405.903276
926.783328	2405.263049
927.087438	2401.983779
927.391509	2401.073851
927.695541	2402.412277
927.999533	2403.740621
928.303486	2403.896897
928.607400	2402.162740
928.911275	2402.253481
929.215110	2405.104253
929.518906	2402.467730
929.822663	2400.305075
930.126381	2407.304717
930.430060	2402.127452
930.733699	2402.175343
931.037299	2403.450755
931.340861	2398.911196
931.644383	2401.570404
931.947866	2400.496638
932.251309	2403.440672
932.554714	2403.133162
932.858080	2400.471433
933.161407	2403.085271
933.464694	2399.238871
933.767943	2401.227606
934.071153	2403.859088
934.374323	2398.790208
934.677455	2404.763975
934.980548	2401.590569
935.283602	2401.588048
935.586617	2401.746845
935.889593	2400.136196
936.192530	2401.638460
936.495428	2404.209448
936.798287	2402.787843
937.101108	2401.381361
937.403890	2403.107956
937.706632	2403.881773
938.009336	2404.655590
938.312002	2404.877401
938.614628	2405.870508
938.917216	2405.782288
939.219765	2406.954357
939.522275	2405.401681
939.824747	2405.484860
940.127179	2402.989489
940.429573	2399.508572
940.731929	2402.979407
941.034246	2400.148799
941.336524	2406.034346
941.638763	2406.974521
941.940964	2407.377813
942.243126	2405.313461
942.545250	2403.932185
942.847335	2402.054355
943.149381	2402.802966
943.451389	2403.707853
943.753359	2404.469068
944.055290	2404.254819
944.357182	2402.624005
944.659036	2398.598644
944.960851	2405.169788
945.262628	2403.261711
945.564367	2401.860271
945.866067	2402.256001
946.167729	2403.395302
946.469352	2401.751886
946.770937	2404.325395
947.072484	2399.891700
947.373992	2401.464540
947.675462	2401.824983
947.976893	2404.194325
948.278286	2399.808521
948.579641	2403.687689
948.880958	2401.993861
949.182236	2400.625188
949.483476	2400.259704
949.784678	2401.162071
950.085841	2401.073851
950.386967	2402.760117
950.688054	2402.382030
950.989103	2400.547050
951.290114	2400.947822
951.591087	2404.955539
951.892021	2403.760786
952.192917	2402.634088
952.493776	2402.119890
952.794596	2404.088461
953.095378	2403.639798
953.396122	2406.130128
953.696828	2404.927813
953.997496	2401.948491
954.298126	2402.276166
954.598718	2404.930333
954.899272	2402.883625
955.199788	2404.562329
955.500266	2402.858419
955.800706	2396.751061
956.101108	2398.575959
956.401472	2398.802811
956.701798	2393.922974
957.002087	2399.201062
957.302337	2399.770712
957.602550	2399.833727
957.902724	2400.761299
958.202861	2400.080743
958.502960	2399.793397
958.803022	2402.853378
959.103045	2393.885165
959.403031	2401.298182
959.702979	2401.058727
960.002889	2399.057389
960.302762	2400.257184
960.602596	2399.188459
960.902393	2399.097718
961.202153	2396.390619
961.501875	2397.721483
961.801559	2396.108314
962.101205	2398.409601
962.400814	2397.751730
962.700385	2397.171998
962.999918	2395.125289
963.299414	2399.639642
963.598873	2397.865156
963.898293	2396.352810
964.197677	2400.453789
964.497022	2398.079405
964.796331	2398.039076
965.095601	2398.359189
965.394835	2399.009498
965.694030	2395.873900
965.993189	2397.918088
966.292309	2398.212996
966.591393	2399.090157
966.890439	2397.419014
967.189447	2398.646535
967.488419	2399.932029
967.787353	2395.889024
968.086249	2396.645197
968.385108	2400.158881
968.683930	2396.476318
968.982714	2400.098387
969.281462	2397.381205
969.580172	2400.569735
969.878844	2395.246277
970.177480	2398.165105
970.476078	2396.425907
970.774639	2397.146792
971.073162	2398.311298
971.371649	2395.311812
971.670098	2394.974054
971.968510	2396.904816
972.266885	2396.501524
972.565223	2398.618809
972.863524	2400.587379
973.161788	2399.992523
973.460014	2397.492111
973.758204	2396.630073
974.056356	2398.646535
974.354471	2397.020763
974.652550	2399.629560
974.950591	2401.787174
975.248595	2399.077554
975.546563	2399.705177
975.844493	2397.844992
976.142386	2400.456309
976.440243	2398.094529
976.738062	2398.482697
977.035845	2397.855074
977.333590	2398.505383
977.631299	2396.746020
977.928971	2399.039745
978.226606	2398.596123
978.524204	2396.972872
978.821765	2398.399518
979.119290	2397.073695
979.416777	2396.461195
979.714228	2396.007491
980.011642	2399.773233
980.309020	2397.971020
980.606360	2395.581513
980.903664	2397.731566
981.200931	2396.403222
981.498162	2399.009498
981.795356	2401.046124
982.092513	2399.836247
982.389633	2399.372461
982.686717	2401.225085
982.983764	2405.313461
983.280775	2403.987638
983.577749	2404.010323
983.874686	2401.754406
984.171587	2403.644839
984.468451	2404.282545
984.765279	2401.761968
985.062070	2403.506207
985.358824	2399.523696
985.655543	2399.589231
985.952224	2400.932698
986.248869	2399.193500
986.545478	2394.958931
986.842050	2395.195865
987.138586	2394.601009
987.435086	2394.210320
987.731549	2395.218550
988.027975	2398.157543
988.324366	2398.558315
988.620719	2397.235012
988.917037	2397.325753
989.213318	2396.622512
989.509563	2395.170659
989.805772	2396.546894
990.101944	2397.045969
990.398080	2396.045300
990.694180	2398.505383
990.990244	2397.426576
991.286271	2398.512944
991.582262	2396.955228
991.878217	2397.618140
992.174136	2396.045300
992.470019	2397.177039
992.765865	2395.921791
993.061676	2395.488252
993.357450	2398.223078
993.653188	2394.911040
993.948890	2397.177039
994.244556	2396.234343
994.540186	2397.388767
994.835780	2399.077554
995.131337	2399.090157
995.426859	2396.549415
995.722345	2400.819272
996.017795	2400.564694
996.313208	2400.282389
996.608586	2398.243243
996.903928	2398.649056
997.199234	2399.344735
997.494504	2396.798952
997.789738	2399.309447
998.084936	2398.669220
998.380099	2398.273490
998.675225	2397.867677
998.970316	2399.170815
999.265371	2397.575290
999.560390	2398.684344
999.855373	2398.311298
1000.150320	2396.667882
1000.445232	2398.318860
1000.740108	2396.042779
1001.034948	2396.647718
1001.329752	2395.127810
1001.624521	2393.280227
1001.919254	2392.166132
1002.213951	2393.290309
1002.508613	2394.217881
1002.803239	2394.757285
1003.097829	2392.375340
1003.392384	2396.861967
1003.686903	2395.566390
1003.981386	2396.037738
1004.275834	2396.488921
1004.570246	2395.062275
1004.864623	2397.514796
1005.158964	2395.722666
1005.453270	2395.498334
1005.747540	2395.538664
1006.041775	2396.105793
1006.335974	2396.093191
1006.630138	2395.591596
1006.924266	2395.074878
1007.218359	2395.057233
1007.512416	2397.008160
1007.806438	2392.400545
1008.100425	2395.415155
1008.394376	2397.345917
1008.688292	2397.575290
1008.982172	2394.361554
1009.276017	2393.479352
1009.569827	2394.318704
1009.863602	2397.378685
1010.157341	2395.276524
1010.451045	2396.360372
1010.744714	2395.954559
1011.038347	2394.674106
1011.331945	2392.340052
1011.625508	2396.463715
1011.919036	2392.851729
1012.212528	2397.608057
1012.505986	2395.556308
1012.799408	2395.052192
1013.092795	2393.975906
1013.386147	2393.144116
1013.679464	2393.985988
1013.972745	2395.072357
1014.265992	2396.083108
1014.559204	2397.784498
1014.852380	2395.717625
1015.145521	2396.375495
1015.438628	2395.510937
1015.731699	2393.892727
1016.024736	2394.532953
1016.317737	2392.428272
1016.610703	2397.540002
1016.903635	2394.981616
1017.196531	2390.608415
1017.489393	2392.508930
1017.782219	2391.702346
1018.075011	2393.630587
1018.367768	2393.723848
1018.660490	2394.835423
1018.953177	2394.835423
1019.245829	2394.835423
