Dividing Wavelength (nm)	Counts (n)	Blue Motor Position (mm): 0.000000	Red Motor Position (mm): 28.400000	
326.493990	1986.678402
326.888308	1986.678402
327.282561	1986.678402
327.676750	1963.131172
328.070874	1964.189814
328.464933	1970.871864
328.858929	1981.201188
329.252859	1993.491521
329.646726	2006.590959
330.040528	2023.960255
330.434265	2042.730991
330.827938	2061.254711
331.221547	2079.135684
331.615091	2104.709457
332.008571	2120.906684
332.401986	2141.930817
332.795338	2162.251708
333.188625	2184.911694
333.581847	2201.822245
333.975006	2219.650285
334.368100	2237.541340
334.761129	2254.792169
335.154095	2270.679365
335.546996	2289.603857
335.939833	2320.168373
336.332606	2330.298571
336.725315	2340.912721
337.117960	2349.187775
337.510540	2356.631038
337.903056	2367.777029
338.295508	2372.142669
338.687896	2382.726571
339.080220	2386.439381
339.472480	2394.696791
339.864676	2398.021432
340.256807	2402.445044
340.648875	2401.882956
341.040879	2402.434962
341.432818	2406.190622
341.824694	2406.800601
342.216506	2405.101732
342.608253	2407.670200
342.999937	2404.887483
343.391557	2403.302041
343.783113	2402.702143
344.174605	2399.672410
344.566033	2401.678789
344.957397	2398.210475
345.348697	2397.320712
345.739934	2396.516648
346.131106	2393.749054
346.522215	2391.452808
346.913260	2388.758312
347.304241	2388.546583
347.695159	2386.280585
348.086012	2385.715975
348.476802	2383.850748
348.867528	2385.005173
349.258191	2379.311189
349.648789	2381.095758
350.039324	2380.221118
350.429796	2381.327651
350.820203	2380.085007
351.210548	2377.788761
351.600828	2377.965201
351.991045	2378.703730
352.381198	2378.045860
352.771288	2377.859337
353.161314	2379.056611
353.551276	2378.144162
353.941175	2379.497712
354.331010	2379.757332
354.720782	2378.371014
355.110490	2378.713813
355.500135	2375.976466
355.889717	2381.254554
356.279235	2380.321941
356.668689	2381.327651
357.058080	2379.069214
357.447408	2379.908566
357.836672	2379.704399
358.225873	2381.267157
358.615010	2380.639533
359.004084	2386.724206
359.393095	2386.172200
359.782043	2385.834443
360.170927	2388.150853
360.559748	2386.396531
360.948505	2389.960627
361.337199	2387.666902
361.725830	2391.205792
362.114398	2390.633621
362.502903	2393.227295
362.891344	2391.004146
363.279722	2393.917933
363.668037	2395.931874
364.056289	2396.085629
364.444478	2396.609909
364.832603	2395.858777
365.220665	2399.374982
365.608665	2400.962945
365.996601	2398.197872
366.384474	2400.985630
366.772284	2403.163409
367.160031	2402.109808
367.547715	2402.616444
367.935336	2405.084088
368.322893	2402.671896
368.710388	2403.279355
369.097820	2408.998544
369.485189	2409.795047
369.872495	2410.064748
370.259738	2407.629871
370.646918	2414.987435
371.034035	2412.988618
371.421090	2419.143867
371.808081	2421.056984
372.195010	2426.879517
372.581875	2431.595517
372.968678	2437.160950
373.355418	2446.091354
373.742096	2457.922942
374.128710	2470.611527
374.515262	2477.056642
374.901751	2491.688591
375.288177	2511.752383
375.674540	2529.771988
376.060841	2550.085317
376.447079	2577.017682
376.833254	2605.038935
377.219367	2628.374436
377.605417	2663.924653
377.991404	2689.153108
378.377329	2729.532750
378.763191	2764.863677
379.148991	2811.159113
379.534727	2862.316742
379.920402	2908.846592
380.306013	2958.960703
380.691563	3019.376411
381.077049	3077.397571
381.462474	3135.756489
381.847835	3209.511090
382.233134	3284.556227
382.618371	3343.401616
383.003545	3429.887651
383.388657	3512.202132
383.773706	3603.326028
384.158693	3677.088192
384.543618	3772.441617
384.928480	3851.121425
385.313280	3959.082776
385.698017	4064.253848
386.082692	4183.222558
386.467305	4247.703957
386.851856	4377.710274
387.236344	4534.230539
387.620770	4593.428808
388.005133	4718.015885
388.389435	4866.505592
388.773674	4952.893325
389.157851	5084.182615
389.541965	5219.918203
389.926018	5248.287296
390.310008	5425.171302
390.693936	5546.859715
391.077802	5666.655174
391.461606	5804.059384
391.845348	5922.234113
392.229027	6039.148553
392.612645	6259.310864
392.996200	6385.246449
393.379694	6563.181536
393.763125	6783.873169
394.146494	6880.771708
394.529801	7019.715990
394.913047	7266.062055
395.296230	7261.688854
395.679351	7318.628687
396.062410	7582.230621
396.445408	7477.732543
396.828343	7634.441852
397.211217	7771.745238
397.594028	7655.040006
397.976778	7861.631532
398.359466	8025.741254
398.742092	8001.057245
399.124656	8154.850246
399.507158	8335.782298
399.889598	8355.465483
400.271977	8563.639932
400.654294	8601.199048
401.036549	8802.913258
401.418742	8831.272269
401.800874	9128.284450
402.182944	9213.177481
402.564952	9581.101053
402.946898	9400.796624
403.328783	9459.410120
403.710606	9663.435699
404.092367	9922.727447
404.474067	10285.398137
404.855705	10072.346372
405.237282	10022.544813
405.618797	10455.406009
406.000250	10705.515295
406.381642	11076.947511
406.762972	11022.838286
407.144240	10824.292442
407.525447	11071.850904
407.906593	11018.016422
408.287677	11279.889241
408.668700	11435.018148
409.049661	11404.264589
409.430560	11571.635938
409.811399	11539.193592
410.192176	11702.819364
410.572891	11775.817792
410.953545	12267.342895
411.334138	11737.562996
411.714669	12334.158348
412.095139	11648.445478
412.475547	12148.757312
412.855894	12000.310455
413.236180	12325.936226
413.616405	12003.746001
413.996568	12280.215481
414.376670	12261.538006
414.756711	12134.737863
415.136691	12413.226325
415.516609	12599.454110
415.896466	12673.244000
416.276262	12961.761837
416.655997	13413.227411
417.035670	13437.591307
417.415283	14087.322942
417.794834	14187.495710
418.174324	13930.371658
418.553753	13830.110669
418.933121	14324.902440
419.312428	14129.396412
419.691674	14044.841138
420.070859	14497.715714
420.449983	14149.107323
420.829045	14698.262897
421.208047	14443.321664
421.586988	14911.380196
421.965867	15171.118086
422.344686	15162.071736
422.723444	15715.754266
423.102141	14406.395213
423.480777	15599.210350
423.859352	15102.109731
424.237866	16215.083075
424.616319	15918.237251
424.994712	16584.881956
425.373044	16379.018877
425.751314	17045.459416
426.129524	16172.291240
426.507673	17276.258562
426.885762	16961.806509
427.263789	17159.114750
427.641756	17326.566757
428.019662	17394.710554
428.397508	17432.362932
428.775292	17734.012975
429.153016	17699.665074
429.530679	17772.527391
429.908282	17797.869271
430.285824	17505.058891
430.663305	18225.286021
431.040726	17814.437023
431.418086	17642.909243
431.795385	18309.309452
432.172624	18715.268530
432.549802	18275.753012
432.926920	18463.742680
433.303977	18345.381429
433.680974	18597.978524
434.057910	18896.382065
434.434786	18916.009797
434.811601	18827.887907
435.188355	19862.131030
435.565050	19519.924904
435.941683	19475.855137
436.318257	20352.635300
436.694770	20164.849798
437.071222	20756.925756
437.447614	19822.038734
437.823946	19851.068218
438.200218	20004.654532
438.576429	19775.057701
438.952580	20046.372601
439.328670	20015.298928
439.704700	20428.973492
440.080670	19993.833695
440.456580	20596.115469
440.832429	20762.322311
441.208218	19750.078783
441.583947	20199.064109
441.959616	20307.350615
442.335224	20545.018333
442.710773	20664.869245
443.086261	21212.961136
443.461689	20574.017571
443.837057	20686.268943
444.212365	21343.995847
444.587612	21333.316163
444.962800	20909.340001
445.337927	21345.805622
445.712995	20070.118956
446.088002	21922.067480
446.462949	22114.200976
446.837837	22290.719499
447.212664	22243.370461
447.587431	25096.207314
447.962139	28022.098047
448.336786	30423.187021
448.711374	28852.176960
449.085901	25145.464428
449.460369	25092.010553
449.834776	25016.403328
450.209124	27494.011976
450.583412	27036.237398
450.957640	27554.773003
451.331808	26208.361469
451.705917	24840.182233
452.079965	24875.755135
452.453954	25236.691668
452.827883	25113.037206
453.201752	24906.153293
453.575562	25078.923718
453.949311	26197.727155
454.323001	26255.856700
454.696632	26018.113364
455.070202	27573.994923
455.443713	27702.062916
455.817164	28298.368401
456.190556	28824.475820
456.563888	28263.924718
456.937160	28707.851246
457.310373	27020.614862
457.683526	27471.399880
458.056619	27445.170757
458.429653	27376.500159
458.802628	27959.701165
459.175542	28062.951558
459.548398	29369.863131
459.921194	30922.374678
460.293930	31599.709150
460.666607	33627.714931
461.039224	35372.937186
461.411782	35744.891161
461.784280	34532.473497
462.156719	34036.292888
462.529099	33468.588389
462.901419	32168.658814
463.273680	31104.536772
463.645882	31175.538903
464.018024	31147.963792
464.390106	31975.562457
464.762130	34642.617667
465.134094	38653.964605
465.505999	43907.436728
465.877845	48472.624993
466.249631	49587.145970
466.621358	47855.824696
466.993026	45712.754579
467.364634	43617.734219
467.736184	41628.351239
468.107674	40373.277851
468.479105	39557.571268
468.850477	38822.744957
469.221790	37377.357929
469.593043	35633.252289
469.964238	34696.076583
470.335373	34594.588074
470.706449	36227.213638
471.077467	38703.572080
471.448425	43123.161739
471.819324	45872.720473
472.190164	43990.562834
472.560945	40448.166712
472.931667	37351.068312
473.302330	36219.465384
473.672934	35352.676789
474.043479	35767.732629
474.413965	34937.502482
474.784393	34499.222046
475.154761	35287.950894
475.525070	35235.250672
475.895321	34720.553905
476.265513	35204.461825
476.635645	36045.043982
477.005719	35777.232684
477.375734	36128.525489
477.745691	36687.372681
478.115588	37837.045625
478.485427	39603.231519
478.855207	42625.574649
479.224928	44993.618859
479.594591	46427.428877
479.964194	45345.249422
480.333739	45352.891812
480.703226	45226.527729
481.072653	45647.819476
481.442022	45968.404093
481.811333	46040.855556
482.180584	44643.057021
482.549777	43988.112834
482.918912	43307.557064
483.287988	42872.129922
483.657005	41909.574527
484.025964	41143.261169
484.394864	40962.487912
484.763706	40400.253065
485.132489	39435.320766
485.501213	39079.957229
485.869879	39020.325420
486.238487	38448.020868
486.607036	38415.200436
486.975527	37732.542505
487.343959	37690.650517
487.712333	37542.095275
488.080648	37252.470904
488.448905	37384.622232
488.817104	36997.902717
489.185244	37556.439878
489.553326	38704.907986
489.921350	40739.091700
490.289315	43031.193449
490.657222	43304.701251
491.025070	43280.644865
491.392861	42141.268478
491.760593	40719.854657
492.128267	38993.846759
492.495883	37441.080634
492.863440	36030.028905
493.230939	34669.867624
493.598380	33538.264697
493.965763	32997.237984
494.333088	32077.542479
494.700354	31438.167895
495.067563	30931.269794
495.434713	30540.829908
495.801805	30304.702262
496.168839	29726.330681
496.535815	29202.224601
496.902733	28916.769264
497.269593	28333.238063
497.636395	27980.311923
498.003139	27954.299569
498.369825	27284.549513
498.736453	27183.683586
499.103023	26571.574083
499.469535	26188.229622
499.835989	25925.167090
500.202385	25416.996097
500.568723	25122.335614
500.935003	24918.327680
501.301226	24484.939683
501.667390	24539.994125
502.033497	24375.559248
502.399546	23728.854827
502.765537	23022.049769
503.131470	22931.359412
503.497345	22800.052477
503.863163	21776.884769
504.228923	21793.288684
504.594625	21690.428981
504.960269	21005.144609
505.325856	21040.919158
505.691385	20421.051319
506.056856	20178.753301
506.422270	20084.231666
506.787625	19574.739891
507.152924	19359.545636
507.518164	19087.729141
507.883347	18440.054298
508.248472	18242.667919
508.613540	18134.530128
508.978550	17961.737018
509.343503	17542.950724
509.708398	17330.571954
510.073236	17230.197539
510.438016	16939.227181
510.802738	16438.590192
511.167403	16379.626336
511.532010	16176.941705
511.896561	15995.838253
512.261053	15994.300701
512.625488	15565.777418
512.989866	15228.010028
513.354186	14905.766871
513.718449	14629.287309
514.082655	14566.827413
514.446803	14203.589593
514.810894	14094.045320
515.174927	13809.696517
515.538904	13519.656251
515.902822	13453.455819
516.266684	13049.369529
516.630488	12903.798650
516.994235	12617.546811
517.357925	12505.313083
517.721558	12305.985860
518.085133	12136.943368
518.448651	11934.659508
518.812112	11655.979483
519.175516	11454.703854
519.538863	11305.863786
519.902152	11074.656306
520.265385	10950.263315
520.628560	10748.057593
520.991678	10498.510395
521.354739	10339.681281
521.717743	10198.647441
522.080690	9981.272887
522.443580	9874.622236
522.806413	9692.931490
523.169189	9499.827571
523.531908	9343.869395
523.894569	9133.744020
524.257174	8980.734918
524.619722	8850.431174
524.982213	8677.711161
525.344647	8498.079726
525.707025	8341.302362
526.069345	8231.740445
526.431608	8061.445227
526.793815	7944.263605
527.155964	7733.150165
527.518057	7603.670649
527.880093	7422.899913
528.242072	7352.041454
528.603995	7174.965884
528.965860	7042.489403
529.327669	6919.107162
529.689421	6780.120030
530.051117	6654.282748
530.412755	6544.856942
530.774337	6433.064314
531.135862	6294.596421
531.497331	6203.094437
531.858743	6086.757209
532.220098	6005.052708
532.581396	5873.770980
532.942638	5748.155508
533.303824	5679.600857
533.664953	5579.158388
534.026025	5466.753260
534.387040	5408.427110
534.747999	5314.028983
535.108902	5244.156070
535.469748	5131.206498
535.830537	5056.456269
536.191270	4991.526207
536.551947	4901.287033
536.912567	4841.055327
537.273131	4782.678765
537.633638	4687.065721
537.994089	4640.566117
538.354483	4556.250299
538.714821	4523.737377
539.075103	4482.346983
539.435328	4414.067075
539.795497	4351.881922
540.155609	4301.470383
540.515665	4263.550824
540.875665	4193.516594
541.235609	4156.083507
541.595496	4108.396712
541.955328	4087.155810
542.315102	4020.874719
542.674821	3968.870176
543.034483	3936.153088
543.394090	3893.794792
543.753640	3855.056046
544.113134	3848.424408
544.472571	3786.836631
544.831953	3789.836118
545.191278	3733.717993
545.550548	3695.818599
545.909761	3679.379396
546.268918	3655.280160
546.628019	3636.728714
546.987064	3600.107252
547.346053	3554.212587
547.704986	3556.602094
548.063863	3523.771580
548.422684	3506.649301
548.781449	3482.623161
549.140158	3469.937098
549.498811	3447.934982
549.857408	3412.253695
550.215949	3410.345618
550.574434	3394.115623
550.932864	3375.975031
551.291237	3369.943291
551.649555	3352.846217
552.007817	3342.267356
552.366022	3323.168945
552.724173	3311.501194
553.082267	3306.250832
553.440305	3299.253711
553.798288	3274.320164
554.156215	3270.430914
554.514086	3262.213833
554.871902	3245.222624
555.229661	3239.800863
555.587365	3223.931311
555.945014	3218.920404
556.302606	3206.279710
556.660143	3200.941128
557.017625	3193.823019
557.375050	3185.888243
557.732421	3182.419929
558.089735	3171.944412
558.446994	3161.534429
558.804197	3163.210613
559.161345	3152.931700
559.518437	3136.008546
559.875474	3130.604429
560.232455	3128.225005
560.589381	3123.319962
560.946251	3112.804115
561.303065	3118.145218
561.659825	3106.648866
562.016528	3096.369954
562.373177	3087.769745
562.729770	3087.812595
563.086307	3074.544278
563.442789	3074.952612
563.799216	3068.245356
564.155587	3059.584654
564.511904	3055.163562
564.868164	3052.053170
565.224370	3050.230793
565.580520	3041.156716
565.936615	3038.051365
566.292654	3028.952083
566.648638	3025.294726
567.004567	3023.434540
567.360441	3018.484127
567.716260	3011.303003
568.072023	3011.403826
568.427732	3001.684482
568.783385	2994.364726
569.138982	2993.641321
569.494525	2994.626866
569.850013	2986.490444
570.205445	2980.574650
570.560823	2977.923003
570.916145	2973.325471
571.271412	2968.546457
571.626625	2961.463636
571.981782	2959.537915
572.336884	2952.137501
572.691931	2953.012141
573.046923	2948.850669
573.401860	2938.491098
573.756743	2937.230809
574.111570	2936.114193
574.466342	2933.207968
574.821059	2929.764860
575.175722	2925.716814
575.530330	2919.758170
575.884882	2912.508991
576.239380	2907.079668
576.593823	2905.655542
576.948211	2901.252094
577.302544	2894.776732
577.656823	2892.669530
578.011047	2890.033006
578.365216	2885.231307
578.719330	2882.196533
579.073389	2876.058928
579.427394	2874.168495
579.781344	2873.840820
580.135239	2868.159440
580.489080	2863.307329
580.842866	2856.766432
581.196597	2860.335569
581.550273	2856.305166
581.903895	2847.997345
582.257463	2855.622090
582.610975	2847.581450
582.964434	2845.990966
583.317837	2843.246057
583.671186	2836.616940
584.024481	2836.369923
584.377721	2830.358347
584.730906	2828.097390
585.084037	2830.071002
585.437113	2825.596978
585.790135	2823.038592
586.143103	2816.318734
586.496016	2815.991059
586.848874	2807.998310
587.201679	2810.546613
587.554428	2802.047227
587.907124	2802.589152
588.259765	2794.137657
588.612352	2799.564459
588.964884	2793.378963
589.317362	2794.619087
589.669786	2790.850825
590.022155	2786.049126
590.374470	2789.283026
590.726731	2780.493774
591.078937	2775.618978
591.431090	2772.443052
591.783188	2769.783843
592.135232	2765.650097
592.487222	2764.231012
592.839157	2764.404932
593.191038	2759.585589
593.542866	2756.127357
593.894639	2748.497571
594.246358	2747.204515
594.598022	2748.177457
594.949633	2740.335943
595.301190	2738.788308
595.652692	2732.814541
596.004141	2735.531723
596.355535	2727.947307
596.706876	2725.847667
597.058162	2722.028993
597.409395	2723.485886
597.760573	2724.405897
598.111698	2719.105123
598.462768	2716.261912
598.813785	2714.832745
599.164748	2712.501212
599.515657	2710.666232
599.866511	2706.678679
600.217312	2706.671117
600.568060	2701.176260
600.918753	2703.853112
601.269392	2699.958821
601.619978	2696.369519
601.970510	2697.677699
602.320988	2697.672658
602.671412	2697.450847
603.021783	2692.724765
603.372100	2689.412727
603.722363	2689.243848
604.072572	2687.975998
604.422728	2690.403314
604.772830	2683.111285
605.122878	2679.020388
605.472872	2680.240348
605.822813	2678.128104
606.172701	2679.136335
606.522534	2678.975018
606.872314	2679.958043
607.222041	2675.768844
607.571714	2679.048115
607.921333	2674.122907
608.270899	2675.005109
608.620411	2674.576611
608.969870	2670.775581
609.319276	2671.173832
609.668627	2670.243740
610.017926	2671.904800
610.367171	2673.049142
610.716362	2670.286589
611.065500	2672.106446
611.414585	2668.751558
611.763616	2669.356497
612.112594	2667.080416
612.461518	2669.464881
612.810389	2671.441014
613.159207	2666.679644
613.507971	2666.087308
613.856682	2670.193328
614.205340	2666.130158
614.553945	2670.137875
614.902496	2664.204437
615.250994	2666.687206
615.599439	2665.628563
615.947830	2665.316012
616.296169	2665.308450
616.644454	2664.567400
616.992686	2663.196207
617.340864	2667.438337
617.688990	2665.873059
618.037063	2665.348779
618.385082	2666.006650
618.733048	2667.934891
619.080961	2667.433296
619.428821	2666.309119
619.776628	2664.915240
620.124382	2666.162926
620.472083	2663.586896
620.819731	2664.338028
621.167326	2661.744354
621.514868	2662.442554
621.862357	2657.247645
622.209793	2655.677326
622.557176	2654.540545
622.904506	2651.931748
623.251783	2646.895636
623.599007	2644.254071
623.946179	2642.242651
624.293297	2641.950264
624.640363	2640.216107
624.987376	2639.394399
625.334336	2638.519758
625.681243	2636.780560
626.028097	2633.534057
626.374899	2635.611013
626.721647	2631.565487
627.068343	2633.110600
627.414987	2632.596403
627.761577	2630.388377
628.108115	2630.494242
628.454600	2629.922071
628.801032	2630.078346
629.147412	2629.511217
629.493739	2626.907461
629.840014	2625.077522
630.186236	2624.996863
630.532405	2623.978550
630.878521	2623.083745
631.224585	2620.449742
631.570597	2619.615432
631.916556	2622.715741
632.262462	2620.558127
632.608316	2620.966461
632.954117	2618.846656
633.299866	2615.776593
633.645562	2617.888836
633.991206	2614.372632
634.336797	2611.385748
634.682336	2613.077055
635.027823	2608.817280
635.373257	2610.216200
635.718639	2607.027670
636.063968	2604.489449
636.409245	2604.585231
636.754470	2604.411312
637.099642	2599.733121
637.444762	2599.823862
637.789829	2600.446444
638.134845	2598.845878
638.479808	2595.506113
638.824719	2596.340424
639.169577	2594.361771
639.514383	2594.737337
639.859137	2590.248190
640.203839	2591.773139
640.548489	2588.604774
640.893086	2586.074114
641.237632	2585.353229
641.582125	2587.188209
641.926566	2581.781572
642.270955	2588.670309
642.615292	2585.209557
642.959576	2587.956985
643.303809	2589.867583
643.647990	2585.575040
643.992118	2586.132088
644.336195	2584.619742
644.680219	2585.348188
645.024192	2587.984712
645.368112	2588.856831
645.711981	2591.016966
646.055797	2594.513006
646.399562	2593.398911
646.743274	2593.771956
647.086935	2597.351176
647.430544	2600.365786
647.774101	2595.959817
648.117606	2598.218254
648.461059	2598.629108
648.804460	2598.485435
649.147810	2594.444950
649.491108	2593.388829
649.834354	2592.398242
650.177548	2587.536049
650.520690	2584.629824
650.863781	2586.926069
651.206820	2585.756522
651.549807	2579.019020
651.892742	2579.926427
652.235626	2579.679411
652.578458	2579.313927
652.921238	2573.123390
653.263967	2579.762590
653.606644	2574.391240
653.949269	2573.287228
654.291843	2571.454768
654.634365	2573.473750
654.976836	2570.963256
655.319255	2571.371589
655.661622	2569.793708
656.003938	2568.606516
656.346203	2571.790005
656.688416	2570.350756
657.030577	2569.655076
657.372687	2570.012998
657.714746	2570.864953
658.056753	2569.246743
658.398708	2563.640980
658.740612	2567.318502
659.082465	2565.382698
659.424266	2566.050651
659.766016	2561.488407
660.107715	2565.879252
660.449362	2568.465364
660.790958	2568.576269
661.132503	2569.367731
661.473996	2567.749520
661.815438	2567.010991
662.156829	2569.057700
662.498168	2570.605334
662.839456	2568.258677
663.180693	2566.884962
663.521879	2570.315467
663.863013	2570.106260
664.204097	2569.130796
664.545129	2571.074161
664.886110	2567.779767
665.227040	2568.200703
665.567918	2571.119532
665.908746	2568.901424
666.249522	2572.135324
666.590248	2570.824624
666.930922	2569.713050
667.271545	2572.175653
667.612118	2569.125755
667.952639	2569.077864
668.293109	2569.622309
668.633528	2570.307906
668.973896	2570.015519
669.314213	2568.515776
669.654480	2568.455282
669.994695	2571.404357
670.334859	2566.897565
670.674973	2564.520661
671.015035	2568.354459
671.355047	2567.023594
671.695008	2565.657441
672.034918	2565.702812
672.374777	2567.573080
672.714585	2564.200548
673.054342	2563.663665
673.394049	2565.546536
673.733705	2565.743141
674.073310	2566.176680
674.412864	2562.428582
674.752368	2563.739282
675.091820	2563.159550
675.431223	2559.781977
675.770574	2564.719787
676.109875	2556.129661
676.449125	2557.115206
676.788324	2557.037068
677.127473	2551.632951
677.466571	2550.589432
677.805619	2554.060267
678.144616	2553.946841
678.483562	2556.621173
678.822458	2552.537838
679.161303	2551.506923
679.500098	2554.634958
679.838842	2551.121274
680.177535	2553.173024
680.516179	2554.602191
680.854771	2553.611604
681.193314	2557.866338
681.531805	2564.921433
681.870247	2566.353121
682.208638	2568.672051
682.546978	2570.789336
682.885268	2572.198338
683.223508	2570.900241
683.561697	2566.070816
683.899836	2564.369427
684.237925	2563.341031
684.575963	2562.882286
684.913951	2561.755588
685.251889	2564.356824
685.589776	2563.164591
685.927614	2560.475135
686.265401	2562.131154
686.603137	2565.962431
686.940824	2565.412945
687.278460	2565.775908
687.616046	2568.596434
687.953582	2568.838409
688.291068	2568.382185
688.628504	2570.292782
688.965889	2575.223031
689.303224	2570.007957
689.640510	2568.843451
689.977745	2564.566032
690.314930	2564.508058
690.652065	2562.438665
690.989150	2555.628066
691.326185	2553.979608
691.663170	2546.879143
692.000105	2543.486447
692.336990	2542.831097
692.673825	2542.301776
693.010610	2538.962011
693.347345	2534.409849
693.684030	2529.335928
694.020665	2529.575383
694.357251	2526.931297
694.693786	2530.079498
695.030272	2528.332738
695.366707	2522.968951
695.703093	2525.421472
696.039429	2525.227388
696.375716	2525.045906
696.711952	2521.406193
697.048139	2524.561955
697.384276	2522.094310
697.720363	2523.843591
698.056400	2522.051461
698.392388	2522.789990
698.728326	2521.310411
699.064214	2523.311749
699.400053	2520.115658
699.735842	2517.564834
700.071581	2514.920748
700.407270	2514.091479
700.742910	2514.076355
701.078501	2514.093999
701.414042	2513.327744
701.749533	2508.546209
702.084974	2509.156189
702.420366	2508.828514
702.755709	2510.303052
703.091002	2507.540499
703.426246	2507.545540
703.761440	2503.648728
704.096584	2507.779954
704.431679	2505.942453
704.766725	2507.149810
705.101721	2503.958759
705.436668	2507.222907
705.771565	2502.610251
706.106413	2507.139727
706.441212	2506.108812
706.775961	2508.163082
707.110661	2506.184429
707.445311	2507.875736
707.779913	2507.671569
708.114465	2509.541837
708.448967	2510.020747
708.783421	2511.722136
709.117825	2514.507374
709.452180	2515.785306
709.786485	2515.356808
710.120742	2521.466687
710.454949	2522.868127
710.789107	2519.646830
711.123216	2521.655730
711.457275	2525.686133
711.791286	2525.224867
712.125247	2529.840043
712.459159	2530.054292
712.793023	2532.721063
713.126837	2527.500948
713.460602	2530.558408
713.794318	2528.582275
714.127985	2526.845598
714.461602	2521.436440
714.795171	2523.780576
715.128691	2517.867303
715.462162	2513.478978
715.795584	2509.801457
716.128957	2511.807836
716.462281	2509.425891
716.795556	2506.459172
717.128782	2506.935561
717.461960	2503.192504
717.795088	2500.669407
718.128167	2500.160250
718.461198	2498.594972
718.794180	2499.701505
719.127113	2496.870897
719.459997	2494.047851
719.792833	2497.969869
720.125619	2496.787718
720.458357	2494.191524
720.791046	2494.257059
721.123686	2492.280927
721.456278	2492.764877
721.788821	2490.710607
722.121315	2490.791266
722.453761	2489.835967
722.786158	2490.322438
723.118506	2490.350165
723.450805	2488.963847
723.783056	2491.000473
724.115259	2491.050885
724.447412	2488.275730
724.779518	2489.117602
725.111574	2493.972234
725.443582	2492.780001
725.775542	2489.946872
726.107453	2494.483911
726.439315	2494.002481
726.771129	2500.835765
727.102895	2499.215034
727.434612	2499.366268
727.766281	2500.001454
728.097901	2501.070178
728.429473	2498.632780
728.760996	2497.997595
729.092471	2498.226968
729.423897	2502.501866
729.755276	2503.109325
730.086606	2505.594614
730.417887	2500.470281
730.749120	2509.259533
731.080305	2507.729542
731.411442	2510.363545
731.742530	2512.044770
732.073570	2511.807836
732.404562	2509.927486
732.735506	2515.392096
733.066401	2511.621313
733.397249	2508.984790
733.728048	2502.935405
734.058798	2503.084119
734.389501	2494.017604
734.720156	2492.069198
735.050762	2494.844353
735.381320	2490.758498
735.711831	2489.591471
736.042293	2489.425113
736.372707	2489.583909
736.703073	2485.447643
737.033391	2487.678353
737.363661	2487.141470
737.693883	2488.943683
738.024056	2491.348313
738.354182	2491.350834
738.684260	2494.133551
739.014290	2496.190341
739.344272	2498.572287
739.674207	2496.790239
740.004093	2498.476505
740.333931	2496.732265
740.663722	2499.242760
740.993464	2498.310147
741.323159	2497.647235
741.652806	2496.177738
741.982405	2495.373674
742.311956	2493.604229
742.641460	2491.300422
742.970915	2491.945690
743.300323	2489.346975
743.629683	2489.372181
743.958996	2487.310349
744.288260	2484.323465
744.617477	2482.105357
744.946647	2480.225007
745.275768	2479.829277
745.604842	2476.209728
745.933869	2480.240131
746.262847	2475.491364
746.591778	2480.663588
746.920662	2480.076293
747.249498	2478.964719
747.578286	2480.449338
747.907027	2481.555872
748.235720	2480.898001
748.564365	2482.710296
748.892963	2480.756849
749.221514	2483.809268
749.550017	2479.446149
749.878473	2482.059987
750.206881	2480.519915
750.535242	2478.193422
750.863555	2477.855665
751.191821	2478.198463
751.520039	2480.396406
751.848210	2478.551344
752.176334	2477.734677
752.504411	2479.710809
752.832440	2476.237454
753.160421	2481.613845
753.488356	2476.444142
753.816243	2476.403813
754.144082	2474.437763
754.471875	2475.503967
754.799620	2476.338278
755.127318	2475.108236
755.454969	2475.829121
755.782572	2477.427167
756.110129	2475.269553
756.437638	2475.773668
756.765100	2471.523976
757.092515	2474.513380
757.419882	2474.180664
757.747203	2477.533031
758.074477	2475.695530
758.401703	2473.747124
758.728882	2477.192753
759.056014	2479.047898
759.383099	2479.541931
759.710138	2478.483288
760.037129	2480.514873
760.364073	2481.722230
760.690970	2478.780717
761.017820	2481.397075
761.344623	2479.156282
761.671379	2485.377066
761.998088	2483.342961
762.324751	2497.327122
762.651366	2511.369256
762.977935	2539.098122
763.304456	2549.251006
763.630931	2556.474980
763.957359	2553.107489
764.283740	2541.759852
764.610074	2530.729807
764.936362	2514.431757
765.262602	2506.983452
765.588796	2496.883500
765.914943	2490.327479
766.241044	2482.460759
766.567097	2481.570995
766.893104	2473.406847
767.219064	2470.790488
767.544978	2469.714201
767.870845	2465.588017
768.196665	2464.494087
768.522438	2465.235136
768.848165	2463.120372
769.173846	2463.011987
769.499479	2459.798252
769.825066	2459.624332
770.150607	2460.657768
770.476101	2458.762295
770.801548	2458.603498
771.126949	2455.067129
771.452303	2456.665175
771.777611	2456.503858
772.102872	2453.383383
772.428087	2456.728189
772.753256	2454.099227
773.078378	2451.550924
773.403453	2453.839608
773.728482	2450.220059
774.053465	2452.281891
774.378401	2450.756942
774.703291	2451.266099
775.028135	2449.683177
775.352932	2450.212498
775.677683	2447.906170
776.002388	2449.968002
776.327046	2448.221242
776.651658	2449.978084
776.976224	2447.512960
777.300743	2445.418360
777.625216	2445.824173
777.949643	2444.679831
778.274024	2445.085644
778.598359	2442.060952
778.922647	2438.499377
779.246889	2441.536672
779.571086	2439.850406
779.895236	2442.993565
780.219339	2442.270160
780.543397	2447.006324
780.867409	2444.442897
781.191374	2444.642023
781.515294	2446.812239
781.839167	2445.965326
782.162995	2445.849379
782.486776	2445.604883
782.810511	2445.400716
783.134201	2444.931889
783.457844	2444.168154
783.781441	2447.560851
784.104993	2442.701178
784.428498	2443.321240
784.751958	2444.127825
785.075372	2443.633792
785.398739	2442.635643
785.722061	2443.076744
786.045337	2442.575150
786.368568	2446.981118
786.691752	2443.837959
787.014891	2446.303083
787.337983	2449.156376
787.661030	2451.087138
787.984031	2456.425720
788.306987	2455.064608
788.629897	2458.603498
788.952760	2458.263220
789.275579	2457.645679
789.598351	2455.745164
789.921078	2453.806840
790.243759	2453.277519
790.566395	2449.970522
790.888984	2446.020778
791.211529	2445.657815
791.534027	2443.079265
791.856480	2442.615479
792.178888	2445.025150
792.501249	2444.364759
792.823566	2443.651436
793.145836	2440.387289
793.468062	2442.645726
793.790241	2441.375355
794.112375	2442.910386
794.434464	2441.519028
794.756507	2443.417022
795.078505	2443.285952
795.400457	2441.955088
795.722364	2443.532969
796.044226	2445.123453
796.366042	2448.317024
796.687812	2450.086469
797.009538	2451.377004
797.331218	2451.016562
797.652852	2452.014710
797.974442	2449.806685
798.295986	2449.181582
798.617484	2449.098403
798.938938	2446.958433
799.260346	2448.939606
799.581709	2442.287804
799.903026	2448.178392
800.224299	2442.721343
800.545526	2444.198401
800.866708	2441.392999
801.187845	2443.364090
801.508936	2441.503904
801.829983	2440.498194
802.150984	2439.457196
802.471940	2439.038780
802.792851	2441.718153
803.113717	2438.574994
803.434538	2438.925354
803.755314	2441.672783
804.076045	2437.143306
804.396731	2438.464089
804.717372	2439.709254
805.037967	2438.640529
805.358518	2440.195725
805.679024	2442.360901
805.999485	2436.404777
806.319901	2440.004161
806.640272	2441.773606
806.960598	2441.551795
807.280879	2440.697320
807.601115	2440.866198
807.921306	2436.661876
808.241453	2441.750921
808.561554	2442.093719
808.881611	2439.447114
809.201623	2440.614141
809.521590	2440.442742
809.841513	2442.186981
810.161390	2440.886363
810.481223	2441.095571
810.801011	2439.358893
811.120755	2441.047680
811.440453	2440.656991
811.760107	2439.290838
812.079716	2437.443255
812.399281	2434.678182
812.718801	2436.924016
813.038276	2432.807914
813.357707	2438.476692
813.677093	2436.498039
813.996434	2438.073399
814.315731	2437.380241
814.634983	2438.809408
814.954191	2436.344283
815.273354	2440.266301
815.592473	2438.580035
815.911547	2438.262443
816.230577	2438.973245
816.549562	2441.917279
816.868502	2444.150510
817.187399	2443.638833
817.506250	2441.508946
817.825058	2446.592949
818.143821	2448.296859
818.462539	2449.728547
818.781213	2449.862137
819.099843	2457.355813
819.418429	2463.616926
819.736970	2471.216465
820.055466	2479.236941
820.373919	2491.431492
820.692327	2507.638802
821.010691	2540.980993
821.329011	2608.008175
821.647286	2712.435677
821.965517	2825.102945
822.283704	2891.366391
822.601847	2912.589649
822.919945	2866.594161
823.237999	2810.203814
823.556010	2756.145001
823.873976	2705.123483
824.191897	2658.888541
824.509775	2623.250103
824.827609	2590.248190
825.145398	2574.214800
825.463144	2559.411452
825.780845	2563.116700
826.098502	2578.716550
826.416116	2603.221599
826.733685	2627.766977
827.051210	2637.438431
827.368692	2621.397479
827.686129	2594.540732
828.003522	2566.960580
828.320872	2535.564273
828.638177	2517.960564
828.955439	2500.031701
829.272656	2491.086173
829.589830	2473.916003
829.906960	2473.212762
830.224046	2467.523820
830.541088	2456.708024
830.858086	2455.714917
831.175041	2452.193671
831.491952	2454.063939
831.808819	2450.880451
832.125642	2455.805658
832.442421	2462.923767
832.759157	2479.138638
833.075849	2497.034735
833.392497	2519.661954
833.709101	2535.516383
834.025662	2531.115455
834.342179	2521.108765
834.658653	2503.971362
834.975083	2493.836123
835.291469	2486.556696
835.607811	2470.729994
835.924110	2466.306381
836.240366	2458.217850
836.556578	2452.506223
836.872746	2445.246961
837.188871	2442.796960
837.504952	2439.754624
837.820990	2435.174736
838.136984	2437.453337
838.452935	2435.237750
838.768842	2434.479057
839.084706	2442.895263
839.400526	2449.620162
839.716303	2460.438478
840.032037	2469.462144
840.347727	2467.639767
840.663373	2459.657099
840.978977	2450.209977
841.294537	2445.932558
841.610054	2444.573967
841.925527	2439.696651
842.240957	2433.778336
842.556344	2434.332863
842.871687	2430.672985
843.186987	2429.556370
843.502244	2424.240473
843.817458	2427.555032
844.132629	2423.751481
844.447756	2423.380956
844.762840	2417.369380
845.077881	2418.085224
845.392879	2418.962385
845.707833	2420.993970
846.022745	2417.195461
846.337613	2420.172262
846.652438	2419.721079
846.967221	2419.562282
847.281960	2422.085380
847.596656	2419.022879
847.911309	2419.219484
848.225919	2416.678742
848.540485	2417.203022
848.855009	2418.480955
849.169490	2419.824422
849.483928	2416.550193
849.798323	2417.848290
850.112675	2417.896181
850.426984	2419.627817
850.741251	2418.037333
851.055474	2417.407189
851.369654	2418.208732
851.683792	2416.141859
851.997887	2417.767632
852.311938	2417.770152
852.625947	2419.627817
852.939914	2416.908115
853.253837	2417.117323
853.567718	2417.356778
853.881555	2415.667991
854.195350	2418.571696
854.509103	2419.499268
854.822812	2417.712179
855.136479	2419.973136
855.450103	2417.797878
855.763685	2422.070256
856.077224	2419.471542
856.390720	2417.523136
856.704173	2418.072621
857.017584	2418.894329
857.330953	2417.508012
857.644278	2416.661098
857.957561	2420.298291
858.270802	2419.645461
858.584000	2418.639751
858.897155	2419.423651
859.210268	2422.284505
859.523339	2418.566654
859.836367	2417.094637
860.149352	2418.899371
860.462295	2419.101017
860.775195	2415.010120
861.088054	2418.017169
861.400869	2413.331416
861.713642	2413.636406
862.026373	2416.472055
862.339062	2418.138156
862.651708	2418.022210
862.964312	2418.743095
863.276873	2418.238979
863.589392	2419.738723
863.901869	2421.077149
864.214303	2420.943558
864.526696	2419.894998
864.839045	2419.428692
865.151353	2420.409196
865.463619	2419.116140
865.775842	2423.118816
866.088023	2421.117478
866.400162	2424.081677
866.712258	2422.118147
867.024313	2423.512026
867.336325	2420.207550
867.648296	2423.083528
867.960224	2420.298291
868.272110	2422.660071
868.583954	2420.104206
868.895755	2422.891964
869.207515	2423.068405
869.519233	2423.181831
869.830909	2420.346182
870.142542	2420.777200
870.454134	2424.439599
870.765684	2422.995308
871.077191	2423.128899
871.388657	2421.301480
871.700081	2423.958168
872.011463	2420.827612
872.322803	2424.031265
872.634101	2425.117634
872.945357	2427.610484
873.256571	2426.871955
873.567744	2425.110072
873.878874	2428.575865
874.189963	2427.897830
874.501010	2430.720876
874.812015	2427.151739
875.122979	2426.934970
875.433900	2426.821544
875.744780	2426.819023
876.055618	2426.851791
876.366415	2430.438572
876.677169	2430.652821
876.987882	2425.347006
877.298554	2427.721390
877.609183	2428.810279
877.919771	2426.324990
878.230317	2431.920671
878.540822	2434.262287
878.851285	2438.847216
879.161707	2446.711416
879.472087	2454.497478
879.782425	2468.811835
880.092722	2490.609784
880.402977	2530.041689
880.713191	2572.704974
881.023363	2617.853548
881.333494	2644.503608
881.643583	2654.079280
881.953631	2651.102478
882.263637	2637.846764
882.573602	2619.817078
882.883526	2601.444593
883.193408	2583.437591
883.503248	2565.153326
883.813048	2549.455173
884.122806	2532.418593
884.432522	2517.912673
884.742197	2502.590086
885.051831	2492.296050
885.361424	2481.666777
885.670975	2473.905921
885.980485	2466.197997
886.289954	2459.503344
886.599382	2451.810543
886.908768	2449.738629
887.218113	2445.602363
887.527417	2440.362083
887.836680	2441.208997
888.145901	2435.141968
888.455082	2435.341094
888.764221	2433.145671
889.073319	2429.500917
889.382376	2431.834971
889.691392	2430.574683
890.000366	2428.585948
890.309300	2429.279106
890.618193	2430.602409
890.927044	2429.379929
891.235855	2431.393870
891.544625	2430.312543
891.853353	2432.427307
892.162041	2433.143151
892.470687	2438.310333
892.779293	2436.293872
893.087858	2444.211004
893.396381	2445.504060
893.704864	2457.854887
894.013306	2466.659262
894.321707	2480.167034
894.630068	2492.190186
894.938387	2494.080618
895.246665	2487.940493
895.554903	2485.407313
895.863100	2474.717547
896.171256	2469.593214
896.479371	2465.209930
896.787446	2462.394446
897.095480	2453.716100
897.403473	2452.826336
897.711425	2446.071190
898.019336	2444.962136
898.327207	2443.268308
898.635038	2441.715633
898.942827	2434.852102
899.250576	2434.279931
899.558284	2433.722883
899.865952	2431.996288
900.173579	2430.768767
900.481165	2428.308684
900.788711	2425.142840
901.096216	2427.653334
901.403681	2426.468663
901.711105	2424.852973
902.018489	2425.818354
902.325832	2427.650814
902.633135	2428.404466
902.940397	2434.894952
903.247619	2442.900304
903.554800	2461.492079
903.861941	2482.811119
904.169041	2501.428100
904.476101	2508.568895
904.783121	2505.627381
905.090100	2494.539363
905.397039	2484.053763
905.703938	2478.143011
906.010796	2470.326702
906.317614	2460.423355
906.624391	2456.894547
906.931129	2450.038578
907.237826	2447.409616
907.544483	2439.134562
907.851099	2436.762699
908.157675	2434.983172
908.464211	2427.963365
908.770707	2420.308373
909.077163	2422.710483
909.383578	2417.971798
909.689954	2417.755029
909.996289	2411.118350
910.302584	2416.403999
910.608839	2418.634710
910.915054	2416.381314
911.221229	2418.864082
911.527363	2415.201684
911.833458	2419.690832
912.139513	2419.002714
912.445527	2415.872158
912.751502	2421.498085
913.057436	2421.808116
913.363331	2422.516398
913.669186	2425.599064
913.975000	2429.369847
914.280775	2436.092226
914.586510	2442.940633
914.892205	2453.045626
915.197859	2465.567852
915.503475	2479.889770
915.809050	2492.414517
916.114585	2502.166629
916.420081	2508.273987
916.725536	2504.044459
917.030952	2499.489777
917.336328	2495.121617
917.641665	2490.168683
917.946961	2482.727940
918.252218	2477.424646
918.557435	2470.188070
918.862612	2463.085084
919.167750	2459.896554
919.472848	2452.574278
919.777906	2448.748043
920.082925	2443.845520
920.387904	2439.240426
920.692843	2437.775971
920.997743	2434.050558
921.302603	2433.536361
921.607423	2427.187028
921.912204	2428.379260
922.216946	2424.792479
922.521647	2425.094949
922.826310	2422.839032
923.130932	2420.845256
923.435516	2418.614545
923.740059	2417.248393
924.044564	2419.925245
924.349028	2417.714699
924.653454	2409.762279
924.957840	2413.666653
925.262186	2411.534245
925.566493	2413.298649
925.870761	2410.831004
926.174989	2413.890984
926.479178	2412.348391
926.783328	2412.111457
927.087438	2413.205387
927.391509	2411.907290
927.695541	2411.350243
927.999533	2412.663463
928.303486	2410.228586
928.607400	2409.111970
928.911275	2410.984759
929.215110	2409.051477
929.518906	2408.421332
929.822663	2409.122053
930.126381	2409.971487
930.430060	2408.617937
930.733699	2408.912845
931.037299	2409.820252
931.340861	2409.031312
931.644383	2408.237330
931.947866	2409.999213
932.251309	2408.141548
932.554714	2407.617268
932.858080	2409.709347
933.161407	2408.917886
933.464694	2412.171951
933.767943	2410.165572
934.071153	2412.386200
934.374323	2409.732032
934.677455	2409.699265
934.980548	2410.503329
935.283602	2407.796229
935.586617	2408.249933
935.889593	2405.736918
936.192530	2407.861764
936.495428	2408.282701
936.798287	2409.134656
937.101108	2412.126580
937.403890	2409.477454
937.706632	2411.773700
938.009336	2411.884605
938.312002	2412.176992
938.614628	2414.246386
938.917216	2413.797723
939.219765	2414.369894
939.522275	2419.479103
939.824747	2419.022879
940.127179	2416.136818
940.429573	2415.637744
940.731929	2412.988618
941.034246	2411.688000
941.336524	2417.452559
941.638763	2416.605646
941.940964	2416.668660
942.243126	2412.577764
942.545250	2413.959040
942.847335	2412.544996
943.149381	2416.151942
943.451389	2414.248906
943.753359	2413.896025
944.055290	2409.535427
944.357182	2412.522311
944.659036	2409.863102
944.960851	2411.367887
945.262628	2406.966959
945.564367	2411.534245
945.866067	2410.271436
946.167729	2412.403844
946.469352	2412.713875
946.770937	2410.994841
947.072484	2409.490057
947.373992	2409.595921
947.675462	2410.273956
947.976893	2409.903432
948.278286	2410.173133
948.579641	2411.672877
948.880958	2410.331930
949.182236	2409.429563
949.483476	2410.755387
949.784678	2409.873185
950.085841	2409.971487
950.386967	2410.059707
950.688054	2409.573236
950.989103	2414.770666
951.290114	2410.891498
951.591087	2411.640109
951.892021	2410.205901
952.192917	2414.231262
952.493776	2411.085582
952.794596	2412.502146
953.095378	2411.698082
953.396122	2412.592887
953.696828	2411.410737
953.997496	2414.115316
954.298126	2410.170613
954.598718	2413.230593
954.899272	2412.300500
955.199788	2410.818401
955.500266	2408.144069
955.800706	2408.716240
956.101108	2403.879253
956.401472	2406.893863
956.701798	2405.328584
957.002087	2404.771537
957.302337	2406.296486
957.602550	2403.062586
957.902724	2406.646846
958.202861	2404.211969
958.502960	2404.864798
958.803022	2408.529717
959.103045	2405.507545
959.403031	2406.614079
959.702979	2407.087947
960.002889	2405.900755
960.302762	2403.135682
960.602596	2401.799777
960.902393	2404.753893
961.202153	2407.513925
961.501875	2403.596948
961.801559	2402.500497
962.101205	2402.624005
962.400814	2403.173491
962.700385	2401.058727
962.999918	2401.706515
963.299414	2401.857750
963.598873	2401.802297
963.898293	2401.028480
964.197677	2400.095867
964.497022	2402.573594
964.796331	2403.417987
965.095601	2401.043604
965.394835	2401.522513
965.694030	2401.353635
965.993189	2401.716598
966.292309	2402.583676
966.591393	2401.005795
966.890439	2399.715260
967.189447	2402.129972
967.488419	2400.267266
967.787353	2403.992679
968.086249	2400.675599
968.385108	2402.921433
968.683930	2402.523182
968.982714	2402.321536
969.281462	2404.045611
969.580172	2403.289438
969.878844	2401.792215
970.177480	2402.258522
970.476078	2401.855229
970.774639	2401.386402
971.073162	2403.929664
971.371649	2399.639642
971.670098	2399.503531
971.968510	2402.606361
972.266885	2399.329611
972.565223	2404.128790
972.863524	2404.703481
973.161788	2405.734397
973.460014	2405.966290
973.758204	2406.465365
974.056356	2405.026115
974.354471	2403.770868
974.652550	2404.441341
974.950591	2404.461506
975.248595	2405.237844
975.546563	2404.663152
975.844493	2403.365055
976.142386	2404.317833
976.440243	2402.931516
976.738062	2404.143913
977.035845	2405.999058
977.333590	2404.794222
977.631299	2403.211300
977.928971	2402.243398
978.226606	2403.423028
978.524204	2403.775909
978.821765	2400.796587
979.119290	2403.624674
979.416777	2403.380178
979.714228	2403.685168
980.011642	2400.554612
980.309020	2406.099881
980.606360	2406.709861
980.903664	2403.060065
981.200931	2405.258008
981.498162	2407.821435
981.795356	2407.917217
982.092513	2409.626168
982.389633	2409.467372
982.686717	2412.033319
982.983764	2412.834862
983.280775	2414.165727
983.577749	2412.633216
983.874686	2415.310069
984.171587	2410.054666
984.468451	2412.146745
984.765279	2412.000552
985.062070	2411.138514
985.358824	2407.473595
985.655543	2408.285221
985.952224	2407.828997
986.248869	2406.122566
986.545478	2402.104767
986.842050	2403.080230
987.138586	2399.387585
987.435086	2399.997564
987.731549	2398.792728
988.027975	2404.416136
988.324366	2401.008316
988.620719	2400.287431
988.917037	2400.897410
989.213318	2400.403377
989.509563	2400.237019
989.805772	2401.081412
990.101944	2396.952707
990.398080	2400.854560
990.694180	2397.298026
990.990244	2400.761299
991.286271	2399.697616
991.582262	2401.777092
991.878217	2400.410939
992.174136	2402.245919
992.470019	2398.190311
992.765865	2400.869684
993.061676	2399.987482
993.357450	2402.664335
993.653188	2400.789025
993.948890	2402.195507
994.244556	2399.677451
994.540186	2403.115518
994.835780	2404.027967
995.131337	2404.038049
995.426859	2402.311454
995.722345	2406.611558
996.017795	2402.503018
996.313208	2408.489388
996.608586	2408.438976
996.903928	2406.064593
997.199234	2407.980231
997.494504	2408.680952
997.789738	2406.724984
998.084936	2407.158523
998.380099	2403.549057
998.675225	2407.148441
998.970316	2405.994017
999.265371	2404.302710
999.560390	2405.290776
999.855373	2402.283728
1000.150320	2401.817421
1000.445232	2404.075858
1000.740108	2402.440003
1001.034948	2400.247101
1001.329752	2400.221896
1001.624521	2401.958573
1001.919254	2395.397511
1002.213951	2395.528581
1002.508613	2398.674261
1002.803239	2399.062430
1003.097829	2393.451626
1003.392384	2399.627039
1003.686903	2398.727193
1003.981386	2400.022770
1004.275834	2398.616288
1004.570246	2401.469581
1004.864623	2398.238202
1005.158964	2398.323901
1005.453270	2401.106618
1005.747540	2399.667369
1006.041775	2396.471277
1006.335974	2397.204765
1006.630138	2395.848695
1006.924266	2399.165774
1007.218359	2396.388098
1007.512416	2396.027656
1007.806438	2399.364899
1008.100425	2397.887841
1008.394376	2396.463715
1008.688292	2400.824313
1008.982172	2398.815414
1009.276017	2401.525034
1009.569827	2400.058058
1009.863602	2398.031514
1010.157341	2397.303068
1010.451045	2398.633932
1010.744714	2399.727863
1011.038347	2399.387585
1011.331945	2398.933881
1011.625508	2399.967317
1011.919036	2398.369272
1012.212528	2397.166956
1012.505986	2398.437327
1012.799408	2399.014539
1013.092795	2400.882287
1013.386147	2398.563356
1013.679464	2399.382543
1013.972745	2398.628891
1014.265992	2397.232491
1014.559204	2397.948335
1014.852380	2398.835578
1015.145521	2400.700805
1015.438628	2397.502193
1015.731699	2400.194169
1016.024736	2398.873387
1016.317737	2398.366751
1016.610703	2399.521175
1016.903635	2396.556977
1017.196531	2396.385577
1017.489393	2394.263252
1017.782219	2392.650083
1018.075011	2399.606875
1018.367768	2398.283572
1018.660490	2399.198541
1018.953177	2399.198541
1019.245829	2399.198541
