Dividing Wavelength (nm)	Counts (n)	Blue Motor Position (mm): 0.000000	Red Motor Position (mm): 34.600000	
326.493990	1987.931128
326.888308	1987.931128
327.282561	1987.931128
327.676750	1963.352983
328.070874	1969.072172
328.464933	1972.386730
328.858929	1982.549697
329.252859	1992.770636
329.646726	2011.584222
330.040528	2023.740965
330.434265	2044.805426
330.827938	2064.866698
331.221547	2082.659450
331.615091	2101.488160
332.008571	2122.192179
332.401986	2144.784110
332.795338	2165.513334
333.188625	2185.060408
333.581847	2205.668645
333.975006	2222.813609
334.368100	2239.371279
334.761129	2257.610174
335.154095	2271.760693
335.546996	2293.730041
335.939833	2332.448623
336.332606	2346.468072
336.725315	2359.512058
337.117960	2366.204189
337.510540	2375.265663
337.903056	2385.489123
338.295508	2390.633621
338.687896	2398.046638
339.080220	2405.467216
339.472480	2408.837227
339.864676	2415.461304
340.256807	2419.073290
340.648875	2422.292067
341.040879	2421.707293
341.432818	2420.719227
341.824694	2424.643765
342.216506	2423.990936
342.608253	2421.495565
342.999937	2424.429516
343.391557	2421.470359
343.783113	2419.302663
344.174605	2417.278640
344.566033	2416.852662
344.957397	2416.267888
345.348697	2415.468865
345.739934	2414.662281
346.131106	2410.031981
346.522215	2408.265057
346.913260	2408.093657
347.304241	2405.053842
347.695159	2403.843965
348.086012	2403.062586
348.476802	2403.110477
348.867528	2401.005795
349.258191	2397.013201
349.648789	2399.654766
350.039324	2395.543705
350.429796	2398.023953
350.820203	2398.606206
351.210548	2394.527912
351.600828	2392.624877
351.991045	2396.544374
352.381198	2393.751575
352.771288	2396.057903
353.161314	2394.603530
353.551276	2398.354148
353.941175	2394.185114
354.331010	2397.267779
354.720782	2395.939435
355.110490	2396.206617
355.500135	2397.421535
355.889717	2395.064795
356.279235	2397.633263
356.668689	2401.162071
357.058080	2398.119734
357.447408	2398.515465
357.836672	2395.349620
358.225873	2398.911196
358.615010	2397.797101
359.004084	2402.676938
359.393095	2406.324212
359.782043	2402.172822
360.170927	2407.549213
360.559748	2404.706002
360.948505	2405.784809
361.337199	2410.654563
361.725830	2410.664646
362.114398	2407.186250
362.502903	2410.732701
362.891344	2412.688669
363.279722	2410.689852
363.668037	2413.291087
364.056289	2412.683628
364.444478	2414.074986
364.832603	2414.747980
365.220665	2414.889133
365.608665	2413.638927
365.996601	2418.493558
366.384474	2417.933990
366.772284	2419.174113
367.160031	2420.215112
367.547715	2420.235276
367.935336	2421.253589
368.322893	2423.292736
368.710388	2423.804413
369.097820	2425.258786
369.485189	2428.417069
369.872495	2427.340783
370.259738	2431.232553
370.646918	2431.610640
371.034035	2434.713470
371.421090	2437.425611
371.808081	2439.822680
372.195010	2448.248968
372.581875	2450.015893
372.968678	2458.593416
373.355418	2466.918882
373.742096	2479.090747
374.128710	2488.568117
374.515262	2500.024139
374.901751	2509.899759
375.288177	2531.455733
375.674540	2549.213198
376.060841	2573.834193
376.447079	2598.082143
376.833254	2624.916205
377.219367	2649.262457
377.605417	2686.806451
377.991404	2711.140100
378.377329	2753.299270
378.763191	2790.177831
379.148991	2837.617609
379.534727	2886.168962
379.920402	2934.649738
380.306013	2984.166472
380.691563	3049.504867
381.077049	3104.904627
381.462474	3166.951149
381.847835	3238.984196
382.233134	3314.490598
382.618371	3376.393447
383.003545	3463.000470
383.388657	3548.334602
383.773706	3644.182060
384.158693	3715.312741
384.543618	3811.729849
384.928480	3893.875451
385.313280	4002.408973
385.698017	4106.838995
386.082692	4231.983119
386.467305	4297.442502
386.851856	4424.759362
387.236344	4583.071758
387.620770	4649.073065
388.005133	4770.574955
388.389435	4926.112195
388.773674	5009.109752
389.157851	5147.413808
389.541965	5278.279641
389.926018	5305.297705
390.310008	5491.301158
390.693936	5615.789932
391.077802	5737.178396
391.461606	5872.694694
391.845348	5986.612168
392.229027	6112.018431
392.612645	6335.114695
392.996200	6461.614889
393.379694	6632.273070
393.763125	6869.340891
394.146494	6959.161650
394.529801	7103.552899
394.913047	7349.714962
395.296230	7349.578851
395.679351	7407.715958
396.062410	7676.114550
396.445408	7565.060451
396.828343	7727.771253
397.211217	7867.116308
397.594028	7750.312773
397.976778	7951.974050
398.359466	8122.549052
398.742092	8100.020136
399.124656	8250.417920
399.507158	8440.353473
399.889598	8456.102038
400.271977	8672.866612
400.654294	8705.054379
401.036549	8910.980473
401.418742	8936.095501
401.800874	9242.327953
402.182944	9325.393566
402.564952	9698.610350
402.946898	9517.968163
403.328783	9572.452954
403.710606	9778.699161
404.092367	10040.687926
404.474067	10407.446992
404.855705	10192.590494
405.237282	10147.310851
405.618797	10586.138252
406.000250	10837.825419
406.381642	11208.060361
406.762972	11158.646971
407.144240	10960.070879
407.525447	11212.909951
407.906593	11149.731690
408.287677	11417.174984
408.668700	11578.375960
409.049661	11535.778210
409.430560	11707.132071
409.811399	11679.188955
410.192176	11843.023934
410.572891	11914.056313
410.953545	12422.411308
411.334138	11883.385933
411.714669	12500.264367
412.095139	11789.076027
412.475547	12302.963688
412.855894	12145.941828
413.236180	12489.214158
413.616405	12159.739466
413.996568	12442.522991
414.376670	12419.232860
414.756711	12282.942745
415.136691	12586.531112
415.516609	12763.286569
415.896466	12835.004544
416.276262	13123.809728
416.655997	13575.844952
417.035670	13609.756794
417.415283	14270.256332
417.794834	14367.848030
418.174324	14105.627371
418.553753	14002.578625
418.933121	14506.862888
419.312428	14310.388958
419.691674	14221.979723
420.070859	14685.458366
420.449983	14342.606972
420.829045	14892.866559
421.208047	14631.671775
421.586988	15093.539770
421.965867	15357.653382
422.344686	15362.049268
422.723444	15935.878769
423.102141	14590.972019
423.480777	15806.343800
423.859352	15300.627849
424.237866	16437.549194
424.616319	16127.036802
424.994712	16801.056715
425.373044	16580.927171
425.751314	17278.723686
426.129524	16392.786268
426.507673	17503.695259
426.885762	17193.245882
427.263789	17393.044453
427.641756	17559.836069
428.019662	17631.218807
428.397508	17670.688521
428.775292	17983.776943
429.153016	17938.703986
429.530679	18022.248508
429.908282	18042.861786
430.285824	17762.765196
430.663305	18474.608887
431.040726	18074.222804
431.418086	17892.085916
431.795385	18554.538902
432.172624	18972.987438
432.549802	18524.165950
432.926920	18720.178614
433.303977	18602.749977
433.680974	18852.057719
434.057910	19156.571138
434.434786	19171.414816
434.811601	19080.434592
435.188355	20144.299535
435.565050	19781.626324
435.941683	19725.044413
436.318257	20628.520006
436.694770	20428.360992
437.071222	21038.423787
437.447614	20102.326888
437.823946	20126.302615
438.200218	20281.204670
438.576429	20045.742456
438.952580	20323.121864
439.328670	20290.760177
439.704700	20717.675332
440.080670	20275.830800
440.456580	20875.471009
440.832429	21057.796941
441.208218	20021.267654
441.583947	20478.054166
441.959616	20592.392577
442.335224	20836.364258
442.710773	20955.827001
443.086261	21513.872650
443.461689	20865.955831
443.837057	20989.484265
444.212365	21651.097899
444.587612	21642.482567
444.962800	21209.001309
445.337927	21647.432980
445.712995	20355.990188
446.088002	22231.314542
446.462949	22427.339809
446.837837	22601.335234
447.212664	22568.381211
447.587431	25449.345182
447.962139	28404.222550
448.336786	30810.352678
448.711374	29247.184131
449.085901	25504.891135
449.460369	25461.118797
449.834776	25379.878082
450.209124	27898.027689
450.583412	27408.781188
450.957640	27952.071379
451.331808	26583.524139
451.705917	25199.866040
452.079965	25232.353756
452.453954	25605.290755
452.827883	25492.164743
453.201752	25281.154645
453.575562	25448.490706
453.949311	26597.984688
454.323001	26645.973953
454.696632	26409.082572
455.070202	27983.399630
455.443713	28113.637839
455.817164	28711.372492
456.190556	29240.436547
456.563888	28686.602782
456.937160	29131.023344
457.310373	27442.698071
457.683526	27902.660510
458.056619	27884.577891
458.429653	27829.220980
458.802628	28398.505881
459.175542	28518.150106
459.548398	29824.053448
459.921194	31426.974013
460.293930	32080.501636
460.666607	34136.569000
461.039224	35889.383233
461.411782	36303.997973
461.784280	35116.339935
462.156719	34640.225639
462.529099	34078.232767
462.901419	32772.243726
463.273680	31706.563967
463.645882	31780.363939
464.018024	31756.426020
464.390106	32598.278548
464.762130	35316.375440
465.134094	39394.726875
465.505999	44716.660388
465.877845	49321.814920
466.249631	50498.871411
466.621358	48828.482563
466.993026	46742.332114
467.364634	44660.958158
467.736184	42672.326309
468.107674	41395.394478
468.479105	40595.645668
468.850477	39909.237119
469.221790	38464.739855
469.593043	36699.451286
469.964238	35814.718704
470.335373	35714.674485
470.706449	37465.946125
471.077467	40058.828318
471.448425	44640.357483
471.819324	47468.381776
472.190164	45607.676768
472.560945	42053.144068
472.931667	38918.529400
473.302330	37793.903430
473.672934	36967.433983
474.043479	37470.331929
474.413965	36666.182191
474.784393	36288.695550
475.154761	37196.884621
475.525070	37225.382264
475.895321	36752.426251
476.265513	37358.350258
476.635645	38339.411729
477.005719	38151.278388
477.375734	38624.025193
477.745691	39330.374026
478.115588	40672.142657
478.485427	42634.767193
478.855207	46013.582914
479.224928	48619.955234
479.594591	50282.835283
479.964194	49287.396442
480.333739	49453.941042
480.703226	49471.345625
481.072653	50127.918105
481.442022	50607.538523
481.811333	50847.636078
482.180584	49561.927598
482.549777	49032.752638
482.918912	48499.602728
483.287988	48216.040344
483.657005	47379.702839
484.025964	46724.398209
484.394864	46750.110614
484.763706	46313.080385
485.132489	45450.511235
485.501213	45263.645744
485.869879	45418.273056
486.238487	44991.405793
486.607036	45179.869329
486.975527	44643.651877
487.343959	44846.502867
487.712333	44922.455411
488.080648	44836.901989
488.448905	45287.324044
488.817104	45101.529798
489.185244	46052.427525
489.553326	47730.577229
489.921350	50425.104207
490.289315	53285.197800
490.657222	53884.414552
491.025070	54164.490977
491.392861	53270.341520
491.760593	52036.070453
492.128267	50371.710826
492.495883	48844.624338
492.863440	47444.819423
493.230939	46088.297855
493.598380	44988.542417
493.965763	44631.238036
494.333088	43803.576356
494.700354	43312.633506
495.067563	43018.961089
495.434713	42900.753593
495.801805	42958.563025
496.168839	42568.150865
496.535815	42229.597055
496.902733	42239.618869
497.269593	41820.149499
497.636395	41725.043090
498.003139	42140.633293
498.369825	41577.339803
498.736453	41884.482183
499.103023	41407.241190
499.469535	41269.562237
499.835989	41360.923068
500.202385	41012.344924
500.568723	41015.278876
500.935003	41209.602753
501.301226	41001.428305
501.667390	41605.900460
502.033497	41856.410518
502.399546	41267.001331
502.765537	40560.914638
503.131470	40938.479417
503.497345	41283.170832
503.863163	39935.708218
504.228923	40532.606039
504.594625	40921.881418
504.960269	40220.185570
505.325856	40888.294731
505.691385	40241.247511
506.056856	40365.998425
506.422270	40774.135281
506.787625	40351.651301
507.152924	40524.167147
507.518164	40601.765628
507.883347	39795.841404
508.248472	40051.178367
508.613540	40472.628911
508.978550	40757.481830
509.343503	40479.711732
509.708398	40661.896512
510.073236	41168.666064
510.438016	41140.589357
510.802738	40570.263458
511.167403	41173.339213
511.532010	41366.017154
511.896561	41626.554067
512.261053	42451.919502
512.625488	41962.463792
512.989866	41807.816316
513.354186	41611.332303
513.718449	41557.162585
514.082655	42186.717001
514.446803	41837.571726
514.810894	42298.010554
515.174927	42193.446941
515.538904	42046.764487
515.902822	42661.568487
516.266684	42054.850498
516.630488	42439.631689
516.994235	42248.226639
517.357925	42752.594082
517.721558	42871.532545
518.085133	43113.644041
518.448651	43199.560426
518.812112	42896.035073
519.175516	42936.384468
519.538863	43209.683063
519.902152	43097.552677
520.265385	43482.661543
520.628560	43434.871405
520.991678	43187.169269
521.354739	43330.355683
521.717743	43546.361563
522.080690	43375.224472
522.443580	43830.571735
522.806413	43799.303978
523.169189	43654.718645
523.531908	43739.475564
523.894569	43531.427145
524.257174	43611.783137
524.619722	43786.701093
524.982213	43705.384761
525.344647	43520.374415
525.707025	43445.248620
526.069345	43736.024894
526.431608	43564.605499
526.793815	43752.111216
527.155964	43214.603229
527.518057	43252.071605
527.880093	42942.380921
528.242072	43326.960466
528.603995	42943.245479
528.965860	42851.935059
529.327669	42800.890856
529.689421	42592.139196
530.051117	42434.835031
530.412755	42450.409676
530.774337	42391.806262
531.135862	42092.775099
531.497331	42135.972746
531.858743	41945.197840
532.220098	42142.155721
532.581396	41754.692637
532.942638	41312.288537
533.303824	41453.077881
533.664953	41268.654830
534.026025	40891.188353
534.387040	41193.874353
534.747999	40997.402944
535.108902	41019.500842
535.469748	40457.132404
535.830537	40428.662488
536.191270	40442.989447
536.551947	39992.748873
536.912567	40138.516358
537.273131	40093.501374
537.633638	39485.644085
537.994089	39664.746198
538.354483	39147.125563
538.714821	39492.129529
539.075103	39643.717025
539.435328	39271.299264
539.795497	39028.857573
540.155609	38863.326245
540.515665	39100.910785
540.875665	38488.556786
541.235609	38606.660938
541.595496	38423.523381
541.955328	38835.993109
542.315102	38124.479614
542.674821	37788.642986
543.034483	37661.411825
543.394090	37461.099056
543.753640	37272.670808
544.113134	37930.231353
544.472571	36934.847965
544.831953	37801.840727
545.191278	36962.012222
545.550548	36561.280821
545.909761	36768.041225
546.268918	36769.288911
546.628019	36813.482186
546.987064	36290.129758
547.346053	35545.538732
547.704986	36046.715124
548.063863	35529.906114
548.422684	35490.708622
548.781449	35184.294689
549.140158	35325.134445
549.498811	35009.807751
549.857408	34392.541148
550.215949	34823.771530
550.574434	34581.687761
550.932864	34222.576126
551.291237	34570.554373
551.649555	34082.681586
552.007817	34058.146290
552.366022	33601.518575
552.724173	33539.104049
553.082267	33624.712923
553.440305	33650.198477
553.798288	32943.965590
554.156215	32958.877323
554.514086	32910.767072
554.871902	32536.791594
555.229661	32344.849662
555.587365	32016.547038
555.945014	31886.303787
556.302606	31619.248662
556.660143	31570.241085
557.017625	31425.534764
557.375050	31080.049367
557.732421	31104.972832
558.089735	30880.989325
558.446994	30618.940066
558.804197	30717.008153
559.161345	30470.699896
559.518437	29783.900658
559.875474	29759.466185
560.232455	29646.173814
560.589381	29556.032942
560.946251	29154.757096
561.303065	29372.996208
561.659825	29030.170020
562.016528	28600.320914
562.373177	28220.449807
562.729770	28290.768862
563.086307	27801.650910
563.442789	27849.380555
563.799216	27670.084356
564.155587	27314.980438
564.511904	27137.637687
564.868164	26970.291544
565.224370	26901.479794
565.580520	26526.823761
565.936615	26444.073220
566.292654	26063.813945
566.648638	25985.008107
567.004567	25742.768062
567.360441	25560.633694
567.716260	25262.698981
568.072023	25208.405754
568.427732	24991.437013
568.783385	24536.800554
569.138982	24519.655589
569.494525	24286.534992
569.850013	23965.055570
570.205445	23734.843717
570.560823	23505.267051
570.916145	23237.884251
571.271412	23035.819681
571.626625	22728.710068
571.981782	22536.642107
572.336884	22192.618645
572.691931	22139.361375
573.046923	21744.472671
573.401860	21478.665231
573.756743	21272.300557
574.111570	21119.261209
574.466342	20852.594253
574.821059	20702.577076
575.175722	20304.726694
575.530330	20116.253075
575.884882	19808.215890
576.239380	19588.870245
576.593823	19395.534433
576.948211	19169.196708
577.302544	18787.541032
577.656823	18608.620400
578.011047	18501.785747
578.365216	18206.036375
578.719330	17939.606353
579.073389	17694.044187
579.427394	17537.339920
579.781344	17346.960745
580.135239	17036.995318
580.489080	16887.872946
580.842866	16539.191458
581.196597	16521.701175
581.550273	16322.573077
581.903895	16106.499141
582.257463	16068.501444
582.610975	15703.529467
582.964434	15617.509739
583.317837	15344.909345
583.671186	15130.438495
584.024481	15030.227919
584.377721	14737.314195
584.730906	14657.636238
585.084037	14510.762221
585.437113	14263.894396
585.790135	14107.787506
586.143103	13849.357795
586.496016	13728.077716
586.848874	13581.249069
587.201679	13431.582252
587.554428	13146.464673
587.907124	13046.929611
588.259765	12822.194972
588.612352	12750.908016
588.964884	12443.526181
589.317362	12369.554810
589.669786	12211.600336
590.022155	12023.348528
590.374470	11980.720531
590.726731	11738.006617
591.078937	11493.664411
591.431090	11382.191897
591.783188	11171.864876
592.135232	10981.402522
592.487222	10896.275078
592.839157	10785.130238
593.191038	10592.830383
593.542866	10428.145970
593.894639	10190.556389
594.246358	10114.261046
594.598022	9995.241924
594.949633	9807.796701
595.301190	9679.111167
595.652692	9534.034321
596.004141	9481.989448
596.355535	9196.841622
596.706876	9073.701357
597.058162	8939.004247
597.409395	8912.220597
597.760573	8819.158376
598.111698	8645.104978
598.462768	8542.005820
598.813785	8448.802447
599.164748	8270.227134
599.515657	8215.533135
599.866511	8050.914256
600.217312	8041.376393
600.568060	7798.788508
600.918753	7813.324675
601.269392	7712.756177
601.619978	7578.739622
601.970510	7512.879468
602.320988	7446.318593
602.671412	7399.652632
603.021783	7286.370343
603.372100	7153.072153
603.722363	7082.319559
604.072572	7007.070256
604.422728	6931.299193
604.772830	6825.906310
605.122878	6757.054231
605.472872	6676.494072
605.822813	6624.141689
606.172701	6536.574326
606.522534	6485.517520
606.872314	6441.498164
607.222041	6348.670357
607.571714	6306.433050
607.921333	6182.644997
608.270899	6145.360623
608.620411	6109.989367
608.969870	6020.823958
609.319276	5957.098733
609.668627	5897.860134
610.017926	5877.468666
610.367171	5826.616027
610.716362	5769.338437
611.065500	5710.485486
611.414585	5666.128374
611.763616	5632.334999
612.112594	5563.626592
612.461518	5525.144945
612.810389	5493.955326
613.159207	5429.725985
613.507971	5378.701946
613.856682	5357.017423
614.205340	5301.945338
614.553945	5294.988545
614.902496	5209.926636
615.250994	5187.213717
615.599439	5146.705525
615.947830	5109.012818
616.296169	5069.535542
616.644454	5034.091190
616.992686	4996.887474
617.340864	4987.281556
617.688990	4932.829532
618.037063	4923.117749
618.385082	4883.101070
618.733048	4859.349674
619.080961	4821.049507
619.428821	4774.602837
619.776628	4745.500255
620.124382	4694.400599
620.472083	4658.273170
620.819731	4623.274960
621.167326	4568.301177
621.514868	4521.496584
621.862357	4461.131287
622.209793	4418.793157
622.557176	4363.577399
622.904506	4317.027384
623.251783	4262.303139
623.599007	4219.511304
623.946179	4169.621525
624.293297	4136.927122
624.640363	4086.137497
624.987376	4051.446797
625.334336	4010.353831
625.681243	3971.453767
626.028097	3942.394036
626.374899	3910.438162
626.721647	3883.871281
627.068343	3854.957743
627.414987	3824.562106
627.761577	3789.384935
628.108115	3780.084006
628.454600	3741.531782
628.801032	3722.604770
629.147412	3704.219682
629.493739	3683.077082
629.840014	3652.752021
630.186236	3639.702995
630.532405	3614.262812
630.878521	3600.520626
631.224585	3581.880960
631.570597	3555.901374
631.916556	3546.318140
632.262462	3528.353988
632.608316	3511.839168
632.954117	3494.724451
633.299866	3477.939929
633.645562	3459.459059
633.991206	3428.251797
634.336797	3397.679719
634.682336	3383.594735
635.027823	3358.734285
635.373257	3342.113601
635.718639	3314.414981
636.063968	3298.510141
636.409245	3271.088784
636.754470	3260.588061
637.099642	3240.395719
637.444762	3219.399313
637.789829	3208.533106
638.134845	3190.810930
638.479808	3179.123015
638.824719	3164.906961
639.169577	3148.311482
639.514383	3139.887714
639.859137	3122.354581
640.203839	3116.968108
640.548489	3100.680140
640.893086	3089.831577
641.237632	3077.284145
641.582125	3069.745100
641.926566	3061.588513
642.270955	3055.745815
642.615292	3047.024619
642.959576	3040.513969
643.303809	3030.111548
643.647990	3023.333717
643.992118	3018.158972
644.336195	3012.374248
644.680219	3003.408556
645.024192	3003.950480
645.368112	3003.332939
645.711981	2997.480159
646.055797	3002.382681
646.399562	2999.163905
646.743274	3003.426200
647.086935	3006.529030
647.430544	3001.936539
647.774101	2995.935046
648.117606	2996.156856
648.461059	2992.280209
648.804460	2982.835607
649.147810	2966.938329
649.491108	2960.228553
649.834354	2944.560647
650.177548	2930.705035
650.520690	2918.346647
650.863781	2914.684248
651.206820	2909.564957
651.549807	2899.064233
651.892742	2886.789024
652.235626	2881.929351
652.578458	2874.402909
652.921238	2863.040148
653.263967	2863.274562
653.606644	2856.574868
653.949269	2849.124043
654.291843	2841.388392
654.634365	2842.164730
654.976836	2836.072495
655.319255	2830.713749
655.661622	2826.159066
656.003938	2819.222439
656.346203	2814.393013
656.688416	2814.945020
657.030577	2809.147693
657.372687	2804.441776
657.714746	2803.085705
658.056753	2800.421455
658.398708	2789.146915
658.740612	2786.091976
659.082465	2789.250258
659.424266	2785.658436
659.766016	2777.302724
660.107715	2780.645009
660.449362	2780.055194
660.790958	2776.634771
661.132503	2776.135697
661.473996	2771.850716
661.815438	2769.420880
662.156829	2769.864501
662.498168	2766.186980
662.839456	2763.295878
663.180693	2759.618356
663.521879	2762.327976
663.863013	2759.434354
664.204097	2756.752460
664.545129	2760.180445
664.886110	2759.855290
665.227040	2755.109044
665.567918	2753.558889
665.908746	2750.680390
666.249522	2752.157448
666.590248	2749.757859
666.930922	2748.477406
667.271545	2746.629823
667.612118	2745.361973
667.952639	2743.469020
668.293109	2741.024060
668.633528	2739.950294
668.973896	2736.451734
669.314213	2735.405694
669.654480	2732.325549
669.994695	2728.385887
670.334859	2724.799107
670.674973	2722.603684
671.015035	2727.241546
671.355047	2722.026472
671.695008	2720.738457
672.034918	2718.129660
672.374777	2717.023127
672.714585	2714.192519
673.054342	2715.243599
673.394049	2710.225131
673.733705	2710.928372
674.073310	2708.879143
674.412864	2706.610623
674.752368	2702.983513
675.091820	2705.173895
675.431223	2699.232895
675.770574	2694.653007
676.109875	2692.427337
676.449125	2689.354754
676.788324	2685.223528
677.127473	2681.588856
677.466571	2679.605162
677.805619	2678.612055
678.144616	2675.705830
678.483562	2674.785819
678.822458	2672.683658
679.161303	2671.690551
679.500098	2668.063441
679.838842	2668.910354
680.177535	2668.849861
680.516179	2669.560663
680.854771	2667.372802
681.193314	2676.446879
681.531805	2680.832683
681.870247	2687.544980
682.208638	2690.831812
682.546978	2691.154446
682.885268	2691.076308
683.223508	2687.350895
683.561697	2682.511388
683.899836	2682.617252
684.237925	2679.290090
684.575963	2677.069462
684.913951	2670.768020
685.251889	2675.075686
685.589776	2672.260201
685.927614	2672.214831
686.265401	2671.241888
686.603137	2670.407577
686.940824	2673.865809
687.278460	2678.821263
687.616046	2677.006447
687.953582	2678.233968
688.291068	2681.747653
688.628504	2680.840245
688.965889	2681.268743
689.303224	2678.428053
689.640510	2675.191632
689.977745	2668.592762
690.314930	2663.163439
690.652065	2658.460042
690.989150	2653.479382
691.326185	2646.867909
691.663170	2639.810294
692.000105	2634.040693
692.336990	2633.460961
692.673825	2627.272944
693.010610	2626.209261
693.347345	2617.054525
693.684030	2610.795933
694.020665	2610.034719
694.357251	2601.868049
694.693786	2604.781836
695.030272	2604.703698
695.366707	2602.231012
695.703093	2596.524426
696.039429	2597.290682
696.375716	2592.710793
696.711952	2595.007039
697.048139	2592.809096
697.384276	2589.678539
697.720363	2591.188365
698.056400	2588.551842
698.392388	2588.244331
698.728326	2588.090576
699.064214	2586.527818
699.400053	2586.525298
699.735842	2584.405493
700.071581	2581.524473
700.407270	2578.956005
700.742910	2580.039853
701.078501	2574.575242
701.414042	2572.901579
701.749533	2569.781105
702.084974	2564.989488
702.420366	2569.342525
702.755709	2566.950497
703.091002	2562.262224
703.426246	2563.807338
703.761440	2563.086453
704.096584	2561.924467
704.431679	2560.770043
704.766725	2559.794579
705.101721	2560.460012
705.436668	2559.471946
705.771565	2555.484393
706.106413	2562.047975
706.441212	2559.834909
706.775961	2562.025290
707.110661	2560.331462
707.445311	2564.558470
707.779913	2560.772563
708.114465	2563.885476
708.448967	2565.914540
708.783421	2572.077351
709.117825	2569.697926
709.452180	2574.035839
709.786485	2576.805953
710.120742	2581.310224
710.454949	2579.679411
710.789107	2583.893815
711.123216	2585.675863
711.457275	2587.765422
711.791286	2592.864549
712.125247	2591.944538
712.459159	2594.013932
712.793023	2597.376381
713.126837	2592.791452
713.460602	2593.895465
713.794318	2589.701225
714.127985	2589.618046
714.461602	2578.315779
714.795171	2582.825091
715.128691	2573.370407
715.462162	2570.706157
715.795584	2567.661300
716.128957	2568.989644
716.462281	2562.277348
716.795556	2561.269117
717.128782	2562.211813
717.461960	2553.921635
717.795088	2554.329969
718.128167	2551.186809
718.461198	2549.336706
718.794180	2545.873433
719.127113	2543.914945
719.459997	2542.165664
719.792833	2540.436549
720.125619	2541.507794
720.458357	2535.176105
720.791046	2535.839016
721.123686	2536.096115
721.456278	2533.656197
721.788821	2534.447658
722.121315	2534.303985
722.453761	2532.201824
722.786158	2532.758871
723.118506	2531.808614
723.450805	2532.625281
723.783056	2530.956659
724.115259	2531.617050
724.447412	2530.848274
724.779518	2534.210724
725.111574	2534.760209
725.443582	2535.402957
725.775542	2533.746937
726.107453	2537.260622
726.439315	2535.874304
726.771129	2547.529452
727.102895	2544.771941
727.434612	2548.018444
727.766281	2545.553320
728.097901	2546.095244
728.429473	2542.936961
728.760996	2546.894267
729.092471	2544.305634
729.423897	2548.598177
729.755276	2548.416695
730.086606	2550.909546
730.417887	2552.623538
730.749120	2554.216543
731.080305	2556.563200
731.411442	2559.615618
731.742530	2559.653427
732.073570	2564.195507
732.404562	2562.098387
732.735506	2562.058057
733.066401	2560.523026
733.397249	2558.153684
733.728048	2555.096224
734.058798	2547.910059
734.389501	2543.352856
734.720156	2539.163657
735.050762	2533.749458
735.381320	2531.322143
735.711831	2527.937008
736.042293	2528.461288
736.372707	2528.350382
736.703073	2525.935670
737.033391	2528.995650
737.363661	2528.037831
737.693883	2526.114631
738.024056	2530.460105
738.354182	2531.175949
738.684260	2533.779705
739.014290	2536.650642
739.344272	2536.925385
739.674207	2538.011754
740.004093	2541.311189
740.333931	2541.666590
740.663722	2540.809594
740.993464	2541.664070
741.323159	2537.338760
741.652806	2537.202648
741.982405	2537.416897
742.311956	2536.451517
742.641460	2533.192411
742.970915	2530.019004
743.300323	2529.429189
743.629683	2527.016997
743.958996	2524.917357
744.288260	2525.552542
744.617477	2520.012314
744.946647	2516.672549
745.275768	2517.504340
745.604842	2513.728516
745.933869	2510.436642
746.262847	2511.144924
746.591778	2517.453928
746.920662	2513.441170
747.249498	2518.598270
747.578286	2515.518125
747.907027	2517.506860
748.235720	2517.779083
748.564365	2518.260513
748.892963	2518.331089
749.221514	2520.236645
749.550017	2517.476613
749.878473	2517.469052
750.206881	2517.020389
750.535242	2515.389576
750.863555	2514.376304
751.191821	2514.522497
751.520039	2511.240706
751.848210	2514.252796
752.176334	2511.071828
752.504411	2512.528721
752.832440	2512.463186
753.160421	2513.731036
753.488356	2511.263391
753.816243	2512.127949
754.144082	2510.494615
754.471875	2512.251457
754.799620	2511.996879
755.127318	2512.337157
755.454969	2508.243740
755.782572	2509.188957
756.110129	2508.334481
756.437638	2508.158041
756.765100	2506.882629
757.092515	2507.868174
757.419882	2509.930006
757.747203	2509.753566
758.074477	2512.251457
758.401703	2508.667197
758.728882	2512.228772
759.056014	2514.157014
759.383099	2511.626354
759.710138	2514.580471
760.037129	2515.762621
760.364073	2515.871006
760.690970	2518.081552
761.017820	2516.859072
761.344623	2517.148938
761.671379	2521.564989
761.998088	2522.810154
762.324751	2538.440252
762.651366	2560.628890
762.977935	2594.974272
763.304456	2612.709051
763.630931	2623.577778
763.957359	2612.343567
764.283740	2598.863522
764.610074	2580.881726
764.936362	2562.869683
765.262602	2551.275029
765.588796	2535.597041
765.914943	2523.571368
766.241044	2518.358815
766.567097	2511.749863
766.893104	2507.119563
767.219064	2502.678306
767.544978	2502.443893
767.870845	2497.722852
768.196665	2497.818634
768.522438	2493.589106
768.848165	2494.378047
769.173846	2491.764208
769.499479	2489.409989
769.825066	2488.545432
770.150607	2483.983187
770.476101	2488.169866
770.801548	2484.719196
771.126949	2481.056798
771.452303	2482.221304
771.777611	2480.401447
772.102872	2481.881026
772.428087	2481.316417
772.753256	2481.664257
773.078378	2474.982207
773.403453	2475.738380
773.728482	2471.776033
774.053465	2474.755355
774.378401	2473.893318
774.703291	2474.949440
775.028135	2470.205714
775.352932	2471.143368
775.677683	2472.138996
776.002388	2470.354428
776.327046	2471.108080
776.651658	2471.274438
776.976224	2469.883080
777.300743	2468.413584
777.625216	2468.582462
777.949643	2467.110445
778.274024	2470.697226
778.598359	2466.722277
778.922647	2465.081381
779.246889	2466.452575
779.571086	2462.434775
779.895236	2470.677062
780.219339	2466.664303
780.543397	2466.074488
780.867409	2468.050621
781.191374	2469.298306
781.515294	2470.331743
781.839167	2468.539613
782.162995	2469.003399
782.486776	2465.978706
782.810511	2467.223871
783.134201	2466.891155
783.457844	2466.021556
783.781441	2467.601958
784.104993	2466.860908
784.428498	2467.123048
784.751958	2464.983078
785.075372	2465.351083
785.398739	2464.675568
785.722061	2465.260342
786.045337	2464.486525
786.368568	2466.843264
786.691752	2466.447534
787.014891	2472.817032
787.337983	2474.031950
787.661030	2476.068576
787.984031	2484.794813
788.306987	2484.837663
788.629897	2486.203816
788.952760	2486.902015
789.275579	2481.908752
789.598351	2479.418422
789.921078	2475.786271
790.243759	2474.294090
790.566395	2472.527165
790.888984	2467.241515
791.211529	2471.304685
791.534027	2468.579942
791.856480	2467.914509
792.178888	2468.010291
792.501249	2465.409056
792.823566	2465.431741
793.145836	2464.970476
793.468062	2460.309929
793.790241	2461.431586
794.112375	2465.887966
794.434464	2463.874025
794.756507	2467.309571
795.078505	2469.726804
795.400457	2468.388378
795.722364	2468.615230
796.044226	2473.038842
796.366042	2471.097998
796.687812	2476.134111
797.009538	2474.657053
797.331218	2475.289718
797.652852	2473.048925
797.974442	2476.991107
798.295986	2471.682772
798.617484	2469.389047
798.938938	2471.700416
799.260346	2469.850312
799.581709	2470.866105
799.903026	2468.912658
800.224299	2463.692543
800.545526	2464.355455
800.866708	2464.294961
801.187845	2463.586679
801.508936	2460.637604
801.829983	2465.335959
802.150984	2459.808334
802.471940	2462.248252
802.792851	2460.420834
803.113717	2459.866307
803.434538	2458.290947
803.755314	2457.549897
804.076045	2460.405711
804.396731	2460.025104
804.717372	2458.691718
805.037967	2460.304888
805.358518	2460.030145
805.679024	2461.035855
805.999485	2461.653396
806.319901	2462.611216
806.640272	2461.212295
806.960598	2462.109621
807.280879	2459.717593
807.601115	2463.730352
807.921306	2460.859415
808.241453	2462.482666
808.561554	2460.892182
808.881611	2463.412759
809.201623	2462.979220
809.521590	2461.386215
809.841513	2462.452419
810.161390	2460.892182
810.481223	2458.479990
810.801011	2459.112655
811.120755	2460.728345
811.440453	2459.609208
811.760107	2457.761626
812.079716	2457.965792
812.399281	2453.857252
812.718801	2457.980916
813.038276	2453.849690
813.357707	2460.098200
813.677093	2457.254990
813.996434	2458.684157
814.315731	2455.863631
814.634983	2458.845474
814.954191	2460.239353
815.273354	2460.811524
815.592473	2460.899744
815.911547	2463.342183
816.230577	2462.918726
816.549562	2463.899230
816.868502	2465.383850
817.187399	2465.900568
817.506250	2467.465847
817.825058	2468.030456
818.143821	2469.643625
818.462539	2473.598410
818.781213	2476.744090
819.099843	2481.018989
819.418429	2493.722697
819.736970	2503.132010
820.055466	2512.780779
820.373919	2529.494724
820.692327	2555.794424
821.010691	2594.192893
821.329011	2683.537262
821.647286	2822.327789
821.965517	2967.492856
822.283704	3054.992163
822.601847	3083.555341
822.919945	3024.588964
823.237999	2956.031792
823.556010	2880.671583
823.873976	2812.187508
824.191897	2751.968405
824.509775	2705.282279
824.827609	2665.474808
825.145398	2636.218472
825.463144	2623.857562
825.780845	2627.078860
826.098502	2644.364976
826.416116	2678.657425
826.733685	2708.397712
827.051210	2719.387428
827.368692	2700.934284
827.686129	2667.529078
828.003522	2628.797893
828.320872	2591.480752
828.638177	2566.428738
828.955439	2543.854451
829.272656	2525.600433
829.589830	2512.203567
829.906960	2504.571260
830.224046	2491.123982
830.541088	2486.687766
830.858086	2478.773155
831.175041	2482.165851
831.491952	2475.400623
831.808819	2478.463124
832.125642	2482.828763
832.442421	2492.240597
832.759157	2510.391272
833.075849	2540.459234
833.392497	2568.843451
833.709101	2588.723241
834.025662	2584.730647
834.342179	2568.306568
834.658653	2547.673125
834.975083	2531.732997
835.291469	2518.373939
835.607811	2503.648728
835.924110	2490.682881
836.240366	2486.390338
836.556578	2476.277784
836.872746	2469.729325
837.188871	2464.473922
837.504952	2458.154836
837.820990	2458.563169
838.136984	2456.730710
838.452935	2456.377829
838.768842	2457.696091
839.084706	2461.618108
839.400526	2474.210911
839.716303	2490.055257
840.032037	2498.557163
840.347727	2496.694457
840.663373	2486.571820
840.978977	2474.178143
841.294537	2468.413584
841.610054	2462.260855
841.925527	2458.968982
842.240957	2454.789865
842.556344	2451.825667
842.871687	2445.433484
843.186987	2446.287959
843.502244	2444.190839
843.817458	2442.123966
844.132629	2438.630447
844.447756	2440.694799
844.762840	2434.559715
845.077881	2433.904365
845.392879	2434.748758
845.707833	2435.310847
846.022745	2431.386309
846.337613	2434.915116
846.652438	2436.273707
846.967221	2435.419232
847.281960	2431.298088
847.596656	2433.138110
847.911309	2432.044179
848.225919	2429.896648
848.540485	2433.947215
848.855009	2433.380085
849.169490	2431.386309
849.483928	2434.766402
849.798323	2433.082657
850.112675	2431.381268
850.426984	2427.600402
850.741251	2434.673141
851.055474	2431.509817
851.369654	2431.139292
851.683792	2431.149374
851.997887	2431.532502
852.311938	2432.515527
852.625947	2431.005702
852.939914	2431.754313
853.253837	2431.005702
853.567718	2431.293047
853.881555	2432.059303
854.195350	2431.643407
854.509103	2431.293047
854.822812	2433.488470
855.136479	2432.245825
855.450103	2432.182811
855.763685	2430.864549
856.077224	2434.053079
856.390720	2431.179621
856.704173	2432.568459
857.017584	2431.469488
857.330953	2433.251536
857.644278	2436.029211
857.957561	2432.480239
858.270802	2435.880497
858.584000	2434.136258
858.897155	2431.235074
859.210268	2430.733479
859.523339	2433.412853
859.836367	2429.750454
860.149352	2432.727256
860.462295	2434.257246
860.775195	2428.895979
861.088054	2428.154929
861.400869	2431.020825
861.713642	2426.854311
862.026373	2432.742379
862.339062	2430.473860
862.651708	2432.026535
862.964312	2430.564601
863.276873	2433.067533
863.589392	2431.751792
863.901869	2435.187339
864.214303	2433.586772
864.526696	2435.404108
864.839045	2435.343614
865.151353	2436.306475
865.463619	2434.955446
865.775842	2435.603234
866.088023	2438.486774
866.400162	2434.123655
866.712258	2436.245981
867.024313	2435.338573
867.336325	2437.551640
867.648296	2436.039294
867.960224	2437.095415
868.272110	2437.413008
868.583954	2436.198090
868.895755	2438.209510
869.207515	2438.378389
869.519233	2437.317226
869.830909	2436.918975
870.142542	2438.494336
870.454134	2437.677669
870.765684	2441.395520
871.077191	2439.873091
871.388657	2439.089192
871.700081	2441.849223
872.011463	2440.828390
872.322803	2442.575150
872.634101	2443.878288
872.945357	2441.272011
873.256571	2441.945005
873.567744	2446.030861
873.878874	2443.500201
874.189963	2443.099430
874.501010	2444.697475
874.812015	2441.740839
875.122979	2445.935079
875.433900	2444.629420
875.744780	2449.078238
876.055618	2447.149997
876.366415	2447.339040
876.677169	2448.488423
876.987882	2446.144287
877.298554	2443.792588
877.609183	2448.211160
877.919771	2446.600511
878.230317	2450.237703
878.540822	2459.074846
878.851285	2462.525516
879.161707	2468.126238
879.472087	2481.016468
879.782425	2495.819817
880.092722	2530.679395
880.402977	2581.010275
880.713191	2635.273255
881.023363	2692.747450
881.333494	2724.882286
881.643583	2738.662280
881.953631	2735.967783
882.263637	2718.227962
882.573602	2699.898327
882.883526	2676.414112
883.193408	2653.444094
883.503248	2630.756382
883.813048	2608.114039
884.122806	2586.598394
884.432522	2563.835064
884.742197	2546.642209
885.051831	2530.540764
885.361424	2517.204391
885.670975	2503.235354
885.980485	2491.754126
886.289954	2487.055771
886.599382	2479.862044
886.908768	2472.169243
887.218113	2467.082719
887.527417	2463.374950
887.836680	2459.281533
888.145901	2459.843622
888.455082	2455.374639
888.764221	2454.585699
889.073319	2449.587395
889.382376	2453.476645
889.691392	2447.553289
890.000366	2450.545214
890.309300	2446.913062
890.618193	2448.294339
890.927044	2451.674432
891.235855	2447.500357
891.544625	2449.219390
891.853353	2451.402210
892.162041	2452.712910
892.470687	2455.639300
892.779293	2455.909002
893.087858	2463.599282
893.396381	2469.220168
893.704864	2484.084010
894.013306	2497.594303
894.321707	2521.577592
894.630068	2532.446320
894.938387	2531.612009
895.246665	2527.483304
895.554903	2521.527181
895.863100	2514.252796
896.171256	2502.295179
896.479371	2496.081957
896.787446	2490.516523
897.095480	2481.744915
897.403473	2477.868268
897.711425	2474.465489
898.019336	2470.641774
898.327207	2462.686833
898.635038	2461.902933
898.942827	2456.080401
899.250576	2456.511419
899.558284	2454.250462
899.865952	2448.596808
900.173579	2449.163938
900.481165	2451.634103
900.788711	2445.627568
901.096216	2445.554472
901.403681	2441.745880
901.711105	2444.707558
902.018489	2444.150510
902.325832	2445.559513
902.633135	2446.398865
902.940397	2452.624690
903.247619	2465.983748
903.554800	2493.286637
903.861941	2521.149094
904.169041	2545.661705
904.476101	2552.321069
904.783121	2549.319062
905.090100	2536.837165
905.397039	2522.699249
905.703938	2508.606703
906.010796	2498.300064
906.317614	2491.892758
906.624391	2481.419761
906.931129	2476.499594
907.237826	2466.455095
907.544483	2463.117852
907.851099	2456.700463
908.157675	2451.308949
908.464211	2443.827876
908.770707	2440.737649
909.077163	2438.489294
909.383578	2432.112235
909.689954	2432.175249
909.996289	2430.609971
910.302584	2434.398398
910.608839	2433.128027
910.915054	2434.743717
911.221229	2431.855136
911.527363	2433.057451
911.833458	2430.604930
912.139513	2432.220620
912.445527	2434.100970
912.751502	2434.668100
913.057436	2435.638522
913.363331	2440.311672
913.669186	2442.728905
913.975000	2445.887188
914.280775	2455.130143
914.586510	2462.470063
914.892205	2480.048567
915.197859	2497.027173
915.503475	2516.601973
915.809050	2533.885569
916.114585	2542.032074
916.420081	2547.615152
916.725536	2549.240924
917.030952	2540.265149
917.336328	2531.354910
917.641665	2526.298633
917.946961	2517.685821
918.252218	2513.967970
918.557435	2501.975065
918.862612	2493.705052
919.167750	2487.879999
919.472848	2480.207363
919.777906	2474.067238
920.082925	2468.945425
920.387904	2462.885958
920.692843	2458.101903
920.997743	2453.511933
921.302603	2447.333999
921.607423	2448.304421
921.912204	2445.156220
922.216946	2441.975252
922.521647	2440.616661
922.826310	2437.491146
923.130932	2437.836465
923.435516	2432.931422
923.740059	2431.325815
924.044564	2432.187852
924.349028	2433.238933
924.653454	2424.981523
924.957840	2430.799014
925.262186	2423.171748
925.566493	2424.558066
925.870761	2422.082859
926.174989	2427.764240
926.479178	2425.820875
926.783328	2425.011770
927.087438	2422.032448
927.391509	2422.813827
927.695541	2422.831471
927.999533	2422.642427
928.303486	2421.051943
928.607400	2424.162335
928.911275	2419.779052
929.215110	2423.227201
929.518906	2422.478590
929.822663	2420.061357
930.126381	2419.751326
930.430060	2421.140163
930.733699	2420.094124
931.037299	2420.136974
931.340861	2421.485483
931.644383	2421.062026
931.947866	2419.763928
932.251309	2421.790472
932.554714	2418.831315
932.858080	2421.523291
933.161407	2419.837025
933.464694	2420.656213
933.767943	2422.007242
934.071153	2418.203691
934.374323	2418.677560
934.677455	2420.893147
934.980548	2420.663774
935.283602	2420.681418
935.586617	2419.582447
935.889593	2420.905750
936.192530	2418.160842
936.495428	2419.864752
936.798287	2422.186203
937.101108	2420.023548
937.403890	2423.688467
937.706632	2423.385998
938.009336	2422.796183
938.312002	2428.096956
938.614628	2430.224323
938.917216	2429.752975
939.219765	2429.011925
939.522275	2431.277924
939.824747	2431.638366
940.127179	2427.144178
940.429573	2424.371543
940.731929	2428.101997
941.034246	2424.217788
941.336524	2428.606112
941.638763	2428.505289
941.940964	2430.065526
942.243126	2427.557552
942.545250	2426.423293
942.847335	2427.113931
943.149381	2426.186358
943.451389	2423.665782
943.753359	2422.876841
944.055290	2424.253076
944.357182	2425.072263
944.659036	2419.784093
944.960851	2424.303488
945.262628	2423.406162
945.564367	2422.531522
945.866067	2422.609660
946.167729	2419.088414
946.469352	2424.104362
946.770937	2422.791141
947.072484	2420.394073
947.373992	2420.567993
947.675462	2420.825091
947.976893	2422.077818
948.278286	2420.358785
948.579641	2421.785431
948.880958	2421.876172
949.182236	2422.133271
949.483476	2421.011614
949.784678	2424.739547
950.085841	2420.111768
950.386967	2421.364495
950.688054	2422.972623
950.989103	2423.070925
951.290114	2421.228384
951.591087	2426.977820
951.892021	2422.221491
952.192917	2423.867428
952.493776	2426.070412
952.794596	2426.370361
953.095378	2423.519588
953.396122	2424.779877
953.696828	2422.208888
953.997496	2424.616039
954.298126	2424.250555
954.598718	2426.267017
954.899272	2421.006573
955.199788	2423.335586
955.500266	2421.659402
955.800706	2418.402817
956.101108	2417.462642
956.401472	2418.549010
956.701798	2414.803433
957.002087	2416.688825
957.302337	2417.351736
957.602550	2416.673701
957.902724	2414.798392
958.202861	2417.432395
958.502960	2417.921387
958.803022	2415.078176
959.103045	2414.138001
959.403031	2414.868968
959.702979	2411.788823
960.002889	2414.969791
960.302762	2414.720254
960.602596	2411.650191
960.902393	2413.603638
961.202153	2413.462486
961.501875	2411.294790
961.801559	2411.841755
962.101205	2410.609193
962.400814	2410.389903
962.700385	2413.422157
962.999918	2409.918555
963.299414	2412.792013
963.598873	2412.688669
963.898293	2409.684141
964.197677	2410.911662
964.497022	2409.822773
964.796331	2412.968453
965.095601	2407.899573
965.394835	2413.686817
965.694030	2410.727660
965.993189	2409.946281
966.292309	2411.146076
966.591393	2411.950140
966.890439	2409.195149
967.189447	2410.894018
967.488419	2411.955181
967.787353	2415.178999
968.086249	2409.331261
968.385108	2413.585994
968.683930	2409.419481
968.982714	2409.820252
969.281462	2409.880746
969.580172	2409.459810
969.878844	2409.800088
970.177480	2409.749676
970.476078	2409.154820
970.774639	2413.986766
971.073162	2413.217990
971.371649	2408.207083
971.670098	2409.875705
971.968510	2410.959553
972.266885	2407.400499
972.565223	2412.101375
972.863524	2412.247568
973.161788	2410.974677
973.460014	2409.716909
973.758204	2411.269584
974.056356	2410.568864
974.354471	2412.887795
974.652550	2409.696744
974.950591	2413.389389
975.248595	2410.031981
975.546563	2411.929975
975.844493	2410.578946
976.142386	2411.889646
976.440243	2411.067938
976.738062	2411.808988
977.035845	2410.294121
977.333590	2411.831673
977.631299	2410.100037
977.928971	2410.281518
978.226606	2412.159348
978.524204	2411.844276
978.821765	2409.822773
979.119290	2408.307906
979.416777	2407.924779
979.714228	2412.781930
980.011642	2409.182547
980.309020	2413.477610
980.606360	2409.154820
980.903664	2413.059194
981.200931	2413.008782
981.498162	2412.834862
981.795356	2415.925090
982.092513	2416.724113
982.389633	2418.995152
982.686717	2419.988260
982.983764	2424.401790
983.280775	2425.490679
983.577749	2423.229722
983.874686	2425.604105
984.171587	2422.662592
984.468451	2422.912129
984.765279	2424.114444
985.062070	2423.968251
985.358824	2418.060018
985.655543	2417.560944
985.952224	2419.519433
986.248869	2413.452404
986.545478	2407.057700
986.842050	2411.322516
987.138586	2408.766651
987.435086	2410.281518
987.731549	2407.352608
988.027975	2410.654563
988.324366	2408.388565
988.620719	2410.029460
988.917037	2407.730694
989.213318	2409.500139
989.509563	2408.940571
989.805772	2408.958215
990.101944	2407.715571
990.398080	2407.551733
990.694180	2406.319171
990.990244	2408.033163
991.286271	2408.660787
991.582262	2406.626682
991.878217	2408.353277
992.174136	2407.806312
992.470019	2408.670869
992.765865	2408.698596
993.061676	2406.377144
993.357450	2409.485016
993.653188	2409.225396
993.948890	2407.844120
994.244556	2409.013668
994.540186	2409.522824
994.835780	2410.082392
995.131337	2411.501477
995.426859	2410.563823
995.722345	2413.515418
996.017795	2415.257137
996.313208	2415.562127
996.608586	2414.994997
996.903928	2418.193609
997.199234	2415.148752
997.494504	2412.953330
997.789738	2415.161355
998.084936	2416.436767
998.380099	2413.918711
998.675225	2416.645975
998.970316	2411.009965
999.265371	2413.313772
999.560390	2411.342681
999.855373	2410.102557
1000.150320	2408.862433
1000.445232	2407.090468
1000.740108	2411.740932
1001.034948	2406.994686
1001.329752	2409.585839
1001.624521	2407.844120
1001.919254	2402.913872
1002.213951	2406.011661
1002.508613	2402.724828
1002.803239	2405.646177
1003.097829	2402.767678
1003.392384	2405.363873
1003.686903	2406.455282
1003.981386	2404.171640
1004.275834	2405.313461
1004.570246	2407.072824
1004.864623	2404.274983
1005.158964	2407.884449
1005.453270	2403.478481
1005.747540	2406.087278
1006.041775	2403.909500
1006.335974	2404.464027
1006.630138	2403.017215
1006.924266	2402.616444
1007.218359	2406.823287
1007.512416	2404.033008
1007.806438	2403.491084
1008.100425	2407.145920
1008.394376	2404.027967
1008.688292	2404.469068
1008.982172	2403.997720
1009.276017	2407.029974
1009.569827	2406.982083
1009.863602	2406.820766
1010.157341	2406.170457
1010.451045	2403.176012
1010.744714	2404.973183
1011.038347	2403.065106
1011.331945	2402.863460
1011.625508	2402.054355
1011.919036	2405.623492
1012.212528	2403.503687
1012.505986	2404.436300
1012.799408	2403.841444
1013.092795	2403.188615
1013.386147	2405.232802
1013.679464	2403.929664
1013.972745	2405.540313
1014.265992	2405.167268
1014.559204	2403.959911
1014.852380	2404.106105
1015.145521	2402.064437
1015.438628	2402.939077
1015.731699	2405.066444
1016.024736	2402.520662
1016.317737	2404.307751
1016.610703	2405.061403
1016.903635	2402.986968
1017.196531	2398.885990
1017.489393	2401.988820
1017.782219	2398.444889
1018.075011	2405.210117
1018.367768	2403.604510
1018.660490	2403.410425
1018.953177	2403.410425
1019.245829	2403.410425
