Dividing Wavelength (nm)	Counts (n)	Blue Motor Position (mm): 0.000000	Red Motor Position (mm): 44.600000	
326.493990	1999.450165
326.888308	1999.450165
327.282561	1999.450165
327.676750	1973.500825
328.070874	1976.399489
328.464933	1981.828812
328.858929	1992.072436
329.252859	2000.203817
329.646726	2016.572444
330.040528	2030.680113
330.434265	2052.467980
330.827938	2070.343911
331.221547	2089.825450
331.615091	2109.911928
332.008571	2131.004116
332.401986	2152.217291
332.795338	2172.086999
333.188625	2191.878569
333.581847	2211.546631
333.975006	2231.207131
334.368100	2248.450397
334.761129	2265.171905
335.154095	2281.222938
335.546996	2315.890953
335.939833	2389.063302
336.332606	2404.340518
336.725315	2415.088258
337.117960	2428.268355
337.510540	2431.514858
337.903056	2443.406940
338.295508	2445.972887
338.687896	2457.323045
339.080220	2462.132306
339.472480	2472.360807
339.864676	2470.742597
340.256807	2476.935654
340.648875	2477.747280
341.040879	2479.988073
341.432818	2481.490337
341.824694	2480.376242
342.216506	2479.783906
342.608253	2479.887250
342.999937	2478.437918
343.391557	2478.193422
343.783113	2477.321302
344.174605	2474.717547
344.566033	2474.430201
344.957397	2472.002885
345.348697	2472.375931
345.739934	2468.940384
346.131106	2467.606999
346.522215	2465.726649
346.913260	2466.172791
347.304241	2466.760085
347.695159	2461.663479
348.086012	2462.157512
348.476802	2461.086267
348.867528	2457.358333
349.258191	2456.259362
349.648789	2456.362705
350.039324	2455.165431
350.429796	2456.919753
350.820203	2452.060081
351.210548	2454.653754
351.600828	2452.962447
351.991045	2452.745677
352.381198	2452.632252
352.771288	2455.026800
353.161314	2450.895574
353.551276	2451.568568
353.941175	2449.912549
354.331010	2454.830195
354.720782	2452.859103
355.110490	2457.875052
355.500135	2451.049329
355.889717	2453.731223
356.279235	2458.878241
356.668689	2453.663167
357.058080	2456.823971
357.447408	2455.253652
357.836672	2456.498817
358.225873	2455.500668
358.615010	2455.843467
359.004084	2458.439661
359.393095	2458.830350
359.782043	2461.260186
360.170927	2460.844291
360.559748	2459.891513
360.948505	2467.115487
361.337199	2465.681278
361.725830	2467.130610
362.114398	2468.481639
362.502903	2467.768316
362.891344	2469.492391
363.279722	2471.022381
363.668037	2469.416773
364.056289	2469.802422
364.444478	2471.748307
364.832603	2471.823924
365.220665	2473.363997
365.608665	2475.758545
365.996601	2474.369707
366.384474	2475.420787
366.772284	2478.208546
367.160031	2479.708289
367.547715	2478.952116
367.935336	2477.633854
368.322893	2483.315234
368.710388	2478.513535
369.097820	2486.420585
369.485189	2484.857827
369.872495	2489.798158
370.259738	2488.651296
370.646918	2495.103973
371.034035	2492.043992
371.421090	2498.600013
371.808081	2501.193687
372.195010	2508.140397
372.581875	2507.885818
372.968678	2519.482993
373.355418	2524.773684
373.742096	2536.262473
374.128710	2549.419885
374.515262	2562.625187
374.901751	2573.372927
375.288177	2593.114086
375.674540	2615.688373
376.060841	2635.855509
376.447079	2657.822337
376.833254	2684.270750
377.219367	2710.391489
377.605417	2747.882550
377.991404	2771.344080
378.377329	2814.135914
378.763191	2851.158148
379.148991	2899.321332
379.534727	2950.060546
379.920402	2999.090808
380.306013	3050.795402
380.691563	3115.080196
381.077049	3172.201510
381.462474	3229.378277
381.847835	3304.166315
382.233134	3378.914024
382.618371	3441.462140
383.003545	3530.176366
383.388657	3613.405816
383.773706	3707.130948
384.158693	3785.367135
384.543618	3879.246022
384.928480	3963.259372
385.313280	4072.145774
385.698017	4176.769881
386.082692	4298.506185
386.467305	4361.906256
386.851856	4496.827698
387.236344	4656.123118
387.620770	4721.305237
388.005133	4846.968600
388.389435	4996.080890
388.773674	5081.288993
389.157851	5217.879056
389.541965	5354.877453
389.926018	5381.774529
390.310008	5567.447787
390.693936	5689.738618
391.077802	5813.415766
391.461606	5949.670592
391.845348	6065.791051
392.229027	6184.386715
392.612645	6421.121821
392.996200	6535.901332
393.379694	6723.162553
393.763125	6947.710669
394.146494	7042.456635
394.529801	7187.712442
394.913047	7438.136800
395.296230	7437.960360
395.679351	7496.883887
396.062410	7766.759537
396.445408	7654.435068
396.828343	7823.706932
397.211217	7956.785832
397.594028	7842.631423
397.976778	8045.512660
398.359466	8222.043785
398.742092	8194.093108
399.124656	8348.959874
399.507158	8533.854274
399.889598	8563.808810
400.271977	8775.038198
400.654294	8812.488929
401.036549	9015.667594
401.418742	9038.650214
401.800874	9347.738480
402.182944	9435.971275
402.564952	9807.897524
402.946898	9624.200398
403.328783	9693.652375
403.710606	9882.733453
404.092367	10151.757148
404.474067	10527.996104
404.855705	10312.595162
405.237282	10261.606411
405.618797	10701.522702
406.000250	10958.808070
406.381642	11329.579895
406.762972	11282.906372
407.144240	11072.176059
407.525447	11344.471463
407.906593	11277.746751
408.287677	11530.598425
408.668700	11702.811802
409.049661	11670.714775
409.430560	11833.675115
409.811399	11805.162348
410.192176	11973.249541
410.572891	12046.192517
410.953545	12552.687326
411.334138	12010.927125
411.714669	12640.791572
412.095139	11919.031932
412.475547	12443.513578
412.855894	12282.526850
413.236180	12622.285496
413.616405	12289.090432
413.996568	12584.297881
414.376670	12554.870146
414.756711	12429.080754
415.136691	12724.570507
415.516609	12913.331472
415.896466	12977.034013
416.276262	13272.327161
416.655997	13713.743195
417.035670	13752.726437
417.415283	14416.903498
417.794834	14514.502757
418.174324	14251.452828
418.553753	14150.498682
418.933121	14663.902392
419.312428	14459.775991
419.691674	14374.517476
420.070859	14833.433875
420.449983	14487.189785
420.829045	15051.746084
421.208047	14786.127688
421.586988	15259.418937
421.965867	15523.671181
422.344686	15525.218815
422.723444	16095.890033
423.102141	14750.080917
423.480777	15967.832123
423.859352	15473.584797
424.237866	16607.637725
424.616319	16298.902340
424.994712	16977.101369
425.373044	16759.719254
425.751314	17466.536914
426.129524	16561.387659
426.507673	17693.587963
426.885762	17366.038992
427.263789	17591.549968
427.641756	17750.948732
428.019662	17819.707550
428.397508	17859.308334
428.775292	18173.309204
429.153016	18132.571640
429.530679	18217.676399
429.908282	18242.322600
430.285824	17949.534905
430.663305	18676.464249
431.040726	18256.657121
431.418086	18084.090863
431.795385	18755.779243
432.172624	19165.307458
432.549802	18723.891424
432.926920	18915.142719
433.303977	18794.059244
433.680974	19052.511640
434.057910	19347.386373
434.434786	19374.515342
434.811601	19277.826012
435.188355	20354.780311
435.565050	19985.480503
435.941683	19942.368556
436.318257	20849.441011
436.694770	20639.166922
437.071222	21253.239955
437.447614	20304.840120
437.823946	20329.861887
438.200218	20480.453755
438.576429	20252.696945
438.952580	20525.791372
439.328670	20506.645070
439.704700	20926.704256
440.080670	20484.600104
440.456580	21081.946588
440.832429	21276.872884
441.208218	20235.143648
441.583947	20692.744306
441.959616	20795.573762
442.335224	21049.857123
442.710773	21180.642298
443.086261	21730.090259
443.461689	21084.333575
443.837057	21201.699198
444.212365	21866.894571
444.587612	21862.019776
444.962800	21423.119278
445.337927	21864.149663
445.712995	20564.010880
446.088002	22466.607877
446.462949	22660.815808
446.837837	22839.338189
447.212664	22802.449546
447.587431	25716.400307
447.962139	28704.183807
448.336786	31117.248042
448.711374	29507.365643
449.085901	25761.143068
449.460369	25700.155188
449.834776	25643.275850
450.209124	28181.627881
450.583412	27692.527573
450.957640	28216.810094
451.331808	26840.522162
451.705917	25453.178979
452.079965	25503.494736
452.453954	25857.739137
452.827883	25740.633133
453.201752	25539.354984
453.575562	25716.193619
453.949311	26873.612296
454.323001	26933.075226
454.696632	26684.322010
455.070202	28274.317056
455.443713	28394.374656
455.817164	29006.688325
456.190556	29541.073318
456.563888	28973.835126
456.937160	29417.943136
457.310373	27725.252223
457.683526	28197.194964
458.056619	28180.816255
458.429653	28101.801210
458.802628	28691.558237
459.175542	28807.527460
459.548398	30114.973396
459.921194	31725.042317
460.293930	32405.842582
460.666607	34474.933767
461.039224	36254.040138
461.411782	36645.606722
461.784280	35440.783555
462.156719	34971.366433
462.529099	34394.010644
462.901419	33108.932309
463.273680	32019.468387
463.645882	32099.093412
464.018024	32088.615373
464.390106	32944.384006
464.762130	35674.642682
465.134094	39791.745467
465.505999	45137.243853
465.877845	49728.497403
466.249631	50909.365007
466.621358	49227.452082
466.993026	47138.818864
467.364634	45065.183079
467.736184	43068.092174
468.107674	41800.965388
468.479105	40992.076965
468.850477	40288.843565
469.221790	38837.981844
469.593043	37054.368681
469.964238	36153.814438
470.335373	36084.622081
470.706449	37859.776187
471.077467	40495.709834
471.448425	45076.545840
471.819324	47881.955517
472.190164	46000.944741
472.560945	42414.423399
472.931667	39285.812746
473.302330	38158.091507
473.672934	37328.123500
474.043479	37856.141515
474.413965	37042.191774
474.784393	36664.369896
475.154761	37573.350429
475.525070	37610.458362
475.895321	37136.710888
476.265513	37739.905111
476.635645	38710.339829
477.005719	38532.674444
477.375734	39022.447746
477.745691	39710.406449
478.115588	41074.860273
478.485427	43069.307092
478.855207	46467.458159
479.224928	49078.637220
479.594591	50706.972762
479.964194	49740.039125
480.333739	49907.264281
480.703226	49955.177927
481.072653	50580.263360
481.442022	51051.938920
481.811333	51302.877476
482.180584	50031.001922
482.549777	49498.877887
482.918912	48984.347478
483.287988	48699.030774
483.657005	47847.726083
484.025964	47198.296918
484.394864	47245.708970
484.763706	46806.102710
485.132489	45934.880420
485.501213	45753.046001
485.869879	45911.938129
486.238487	45491.652092
486.607036	45695.460901
486.975527	45143.068906
487.343959	45362.331372
487.712333	45438.480522
488.080648	45348.632037
488.448905	45803.049206
488.817104	45610.184742
489.185244	46587.051973
489.553326	48278.207853
489.921350	50978.746407
490.289315	53827.119318
490.657222	54397.677110
491.025070	54677.279667
491.392861	53798.329288
491.760593	52598.655661
492.128267	50949.474947
492.495883	49428.092525
492.863440	48046.617246
493.230939	46670.682194
493.598380	45580.043683
493.965763	45241.048772
494.333088	44427.371253
494.700354	43927.843319
495.067563	43613.716420
495.434713	43493.583203
495.801805	43569.182867
496.168839	43178.112837
496.535815	42850.120244
496.902733	42881.715676
497.269593	42469.437511
497.636395	42394.105029
498.003139	42803.519818
498.369825	42246.147163
498.736453	42581.812392
499.103023	42089.606733
499.469535	41953.152781
499.835989	42067.551685
500.202385	41706.340409
500.568723	41745.179979
500.935003	41940.330606
501.301226	41727.724984
501.667390	42350.219264
502.033497	42632.362562
502.399546	42041.531770
502.765537	41352.542150
503.131470	41758.198759
503.497345	42096.417332
503.863163	40755.992169
504.228923	41384.654300
504.594625	41807.453353
504.960269	41094.407347
505.325856	41788.811166
505.691385	41139.160190
506.056856	41280.287292
506.422270	41726.923441
506.787625	41302.233955
507.152924	41500.270643
507.518164	41605.779473
507.883347	40799.467079
508.248472	41080.037538
508.613540	41563.839593
508.978550	41873.187478
509.343503	41613.454629
509.708398	41821.220744
510.073236	42333.389372
510.438016	42358.169163
510.802738	41809.633652
511.167403	42431.918724
511.532010	42678.209336
511.896561	42967.937050
512.261053	43855.175086
512.625488	43372.232548
512.989866	43248.726799
513.354186	43097.406484
513.718449	43092.763581
514.082655	43782.126246
514.446803	43439.549596
514.810894	43957.225684
515.174927	43878.936565
515.538904	43781.871668
515.902822	44489.949617
516.266684	43903.285338
516.630488	44362.993198
516.994235	44197.146798
517.357925	44765.993119
517.721558	44943.691272
518.085133	45250.364825
518.448651	45394.602318
518.812112	45148.087375
519.175516	45251.977994
519.538863	45603.454802
519.902152	45555.236165
520.265385	46028.056067
520.628560	46071.289002
520.991678	45851.247678
521.354739	46097.523167
521.717743	46405.336021
522.080690	46305.458160
522.443580	46838.177052
522.806413	46910.326045
523.169189	46832.737647
523.531908	47019.630864
523.894569	46875.668113
524.257174	47043.104997
524.619722	47338.670367
524.982213	47345.783435
525.344647	47247.301974
525.707025	47275.081253
526.069345	47678.134105
526.431608	47604.303887
526.793815	47923.303061
527.155964	47452.950804
527.518057	47599.126622
527.880093	47386.256339
528.242072	47918.564376
528.603995	47605.430585
528.965860	47629.330695
529.327669	47709.651399
529.689421	47591.491794
530.051117	47554.703974
530.412755	47684.226340
530.774337	47757.882639
531.135862	47544.004125
531.497331	47752.740662
531.858743	47640.990884
532.220098	48016.960138
532.581396	47708.255000
532.942638	47371.654637
533.303824	47667.144390
533.664953	47624.506311
534.026025	47340.268413
534.387040	47822.832865
534.747999	47759.210983
535.108902	47914.791073
535.469748	47434.888350
535.830537	47549.017552
536.191270	47730.650326
536.551947	47381.656286
536.912567	47692.516517
537.273131	47820.760951
537.633638	47277.962272
537.994089	47642.011717
538.354483	47235.175479
538.714821	47807.280905
539.075103	48140.486051
539.435328	47899.082837
539.795497	47778.183365
540.155609	47771.637427
540.515665	48232.739166
540.875665	47693.582721
541.235609	48016.556845
541.595496	47979.307760
541.955328	48655.765071
542.315102	48036.668529
542.674821	47815.445054
543.034483	47874.529897
543.394090	47816.143254
543.753640	47786.551681
544.113134	48784.105286
544.472571	47777.497768
544.831953	49057.189631
545.191278	48242.798789
545.550548	47955.374882
545.909761	48438.428326
546.268918	48625.402201
546.628019	48940.300397
546.987064	48490.092591
547.346053	47763.105274
547.704986	48663.805711
548.063863	48186.506744
548.422684	48395.397036
548.781449	48242.960106
549.140158	48654.852622
549.498811	48498.483591
549.857408	47921.785674
550.215949	48759.373385
550.574434	48681.374132
550.932864	48458.945822
551.291237	49180.302170
551.649555	48766.204149
552.007817	49004.668370
552.366022	48657.408487
552.724173	48839.152165
553.082267	49230.721270
553.440305	49538.823990
553.798288	48847.495275
554.156215	49143.910080
554.514086	49368.075068
554.871902	49116.881934
555.229661	49147.915277
555.587365	48965.591866
555.945014	49043.724709
556.302606	48961.359817
556.660143	49222.032841
557.017625	49295.605961
557.375050	49068.534748
557.732421	49426.055899
558.089735	49406.980173
558.446994	49330.001754
558.804197	49824.082722
559.161345	49754.290467
559.518437	48979.253392
559.875474	49284.510381
560.232455	49461.437237
560.589381	49623.124685
560.946251	49329.416980
561.303065	50031.218692
561.659825	49835.521100
562.016528	49489.347586
562.373177	49219.547552
562.729770	49690.524912
563.086307	49212.240400
563.442789	49674.277273
563.799216	49720.653368
564.155587	49510.207880
564.511904	49537.324247
564.868164	49642.646553
565.224370	49865.601665
565.580520	49618.809458
565.936615	49818.295477
566.292654	49556.470549
566.648638	49811.174847
567.004567	49751.701835
567.360441	49794.481066
567.716260	49659.420993
568.072023	49936.235792
568.427732	49929.221026
568.783385	49457.016145
569.138982	49876.414940
569.494525	49834.071768
569.850013	49605.175657
570.205445	49570.154761
570.560823	49531.849554
570.916145	49416.828067
571.271412	49429.045303
571.626625	49202.037104
571.981782	49262.014232
572.336884	48953.087283
572.691931	49284.674219
573.046923	48859.173108
573.401860	48730.147296
573.756743	48707.164675
574.111570	48847.951499
574.466342	48687.816727
574.821059	48800.325198
575.175722	48316.250921
575.530330	48314.005087
575.884882	48048.691681
576.239380	48019.349645
576.593823	48004.410185
576.948211	47926.297506
577.302544	47436.166282
577.656823	47450.939384
578.011047	47674.146553
578.365216	47417.118283
578.719330	47211.303095
579.073389	47058.034374
579.427394	47129.056670
579.781344	47111.397508
580.135239	46757.349711
580.489080	46860.612707
580.842866	46332.879516
581.196597	46790.770041
581.550273	46720.299751
581.903895	46602.704755
582.257463	47010.438320
582.610975	46381.110756
582.964434	46669.610949
583.317837	46309.803635
583.671186	46145.731721
584.024481	46377.040024
584.377721	45917.569098
584.730906	46213.381485
585.084037	46244.427431
585.437113	45953.935982
585.790135	45986.406054
586.143103	45586.632471
586.496016	45721.652215
586.848874	45739.903713
587.201679	45766.861283
587.554428	45238.991982
587.907124	45410.673517
588.259765	45184.923086
588.612352	45427.069870
588.964884	44809.014326
589.317362	45114.674607
589.669786	45048.746397
590.022155	44819.411706
590.374470	45256.943530
590.726731	44766.419097
591.078937	44288.260613
591.431090	44376.931989
591.783188	44041.654929
592.135232	43695.559552
592.487222	43949.260661
592.839157	44037.543868
593.191038	43712.071852
593.542866	43472.886746
593.894639	42850.185779
594.246358	43127.960917
594.598022	43124.096873
594.949633	42722.011922
595.301190	42670.166175
595.652692	42489.196314
596.004141	42821.746109
596.355535	41820.063799
596.706876	41776.573765
597.058162	41611.317180
597.409395	42101.811367
597.760573	42171.926255
598.111698	41735.649678
598.462768	41752.794642
598.813785	41798.631333
599.164748	41240.028637
599.515657	41637.508495
599.866511	41095.100506
600.217312	41719.172667
600.568060	40650.485860
600.918753	41410.580954
601.269392	41362.445497
601.619978	41011.193020
601.970510	41229.653943
602.320988	41402.061404
602.671412	41702.065511
603.021783	41454.847326
603.372100	41097.484971
603.722363	41211.997302
604.072572	41298.632051
604.422728	41305.183030
604.772830	41114.393001
605.122878	41207.321631
605.472872	41131.394293
605.822813	41416.489187
606.172701	41220.534496
606.522534	41479.417910
606.872314	41757.581218
607.222041	41477.237611
607.571714	41856.818852
607.921333	41285.716615
608.270899	41602.827877
608.620411	41947.385701
608.969870	41734.699420
609.319276	41717.758623
609.668627	41774.211984
610.017926	42268.746656
610.367171	42431.409567
610.716362	42508.612318
611.065500	42429.688013
611.414585	42622.186993
611.763616	42908.758945
612.112594	42842.172865
612.461518	43055.665730
612.810389	43329.145806
613.159207	43188.487531
613.507971	43261.619550
613.856682	43739.475564
614.205340	43611.185761
614.553945	44318.384028
614.902496	43736.322323
615.250994	44204.481677
615.599439	44266.979382
615.947830	44468.179394
616.296169	44514.353843
616.644454	44627.472294
616.992686	44790.185616
617.340864	45295.946938
617.688990	45000.734448
618.037063	45589.952071
618.385082	45541.254525
618.733048	45839.864752
619.080961	45837.674371
619.428821	45833.591037
619.776628	45938.827644
620.124382	45758.482885
620.472083	45899.216777
620.819731	46028.711417
621.167326	45699.196396
621.514868	45657.311969
621.862357	45223.593777
622.209793	45236.403349
622.557176	44911.823617
622.904506	44655.123022
623.251783	44320.518957
623.599007	44093.881282
623.946179	43851.991598
624.293297	43796.808607
624.640363	43183.277499
624.987376	43158.283458
625.334336	42896.745876
625.681243	42527.932540
626.028097	42473.067142
626.374899	42307.561020
626.721647	42255.082608
627.068343	42133.752118
627.414987	41878.019424
627.761577	41627.952988
628.108115	41956.132103
628.454600	41372.805068
628.801032	41540.536859
629.147412	41498.657474
629.493739	41487.153561
629.840014	41094.866092
630.186236	41418.319126
630.532405	41010.976251
630.878521	41194.265043
631.224585	41053.205997
631.570597	40753.761458
631.916556	40903.009859
632.262462	40822.109422
632.608316	40820.929792
632.954117	40693.590246
633.299866	40666.584785
633.645562	40591.897570
633.991206	40086.635323
634.336797	39645.073096
634.682336	39647.681893
635.027823	39377.339935
635.373257	39184.888846
635.718639	38939.092267
636.063968	38794.451481
636.409245	38218.285405
636.754470	38265.347097
637.099642	37981.525094
637.444762	37480.391552
637.789829	37601.580890
638.134845	37252.649865
638.479808	37185.337858
638.824719	37076.897598
639.169577	36649.309449
639.514383	36691.324946
639.859137	36375.867182
640.203839	36613.814685
640.548489	36211.248303
640.893086	36277.025279
641.237632	35989.243450
641.582125	36086.000836
641.926566	36006.484196
642.270955	35956.480991
642.615292	35946.678467
642.959576	35900.277167
643.303809	35894.436990
643.647990	35994.952557
643.992118	35945.118230
644.336195	35915.932470
644.680219	35979.874465
645.024192	36259.003154
645.368112	36730.000678
645.711981	36694.452982
646.055797	37533.754686
646.399562	37414.430574
646.743274	38330.660286
647.086935	38745.466589
647.430544	38611.339129
647.774101	38699.864311
648.117606	38924.425030
648.461059	39218.689783
648.804460	38846.322433
649.147810	38220.470745
649.491108	37977.797161
649.834354	37605.036601
650.177548	36765.296317
650.520690	36306.475700
650.863781	36312.522564
651.206820	36137.728116
651.549807	35705.887754
651.892742	35207.257145
652.235626	34985.264894
652.578458	34826.481151
652.921238	34200.621901
653.263967	34496.454452
653.606644	34147.662059
653.949269	34081.514559
654.291843	33670.446271
654.634365	34038.062333
654.976836	33615.485091
655.319255	33584.171964
655.661622	33566.656475
656.003938	33326.773169
656.346203	33157.052643
656.688416	33356.470607
657.030577	33147.005623
657.372687	32978.590756
657.714746	33222.625452
658.056753	33321.842921
658.398708	32754.788731
658.740612	32785.375932
659.082465	33043.598955
659.424266	32817.299038
659.766016	32920.549431
660.107715	32785.045736
660.449362	32873.523027
660.790958	32848.208873
661.132503	32827.598116
661.473996	32828.407221
661.815438	32942.987607
662.156829	33102.172122
662.498168	32846.651157
662.839456	32839.694364
663.180693	32967.071719
663.521879	33091.313476
663.863013	33026.471635
664.204097	33000.668489
664.545129	33426.560289
664.886110	33344.853268
665.227040	33368.629870
665.567918	33460.295691
665.908746	33484.881398
666.249522	33618.144300
666.590248	33592.850311
666.930922	33680.483208
667.271545	33621.179075
667.612118	33685.073179
667.952639	33446.503094
668.293109	33478.756396
668.633528	33352.808208
668.973896	33267.973151
669.314213	33290.771769
669.654480	33010.365148
669.994695	33023.938455
670.334859	32877.140055
670.674973	32770.189456
671.015035	32896.019176
671.355047	32809.495332
671.695008	32737.437079
672.034918	32610.488222
672.374777	32636.377068
672.714585	32445.997893
673.054342	32643.764879
673.394049	32370.186501
673.733705	32630.418424
674.073310	32282.387245
674.412864	32334.490090
674.752368	31928.949428
675.091820	32201.418752
675.431223	31791.870373
675.770574	31515.292508
676.109875	31362.679137
676.449125	31077.249006
676.788324	30973.428963
677.127473	30452.750868
677.466571	30374.486954
677.805619	30016.234836
678.144616	29991.502935
678.483562	29880.970596
678.822458	29552.657890
679.161303	29458.476533
679.500098	29338.834829
679.838842	29196.603714
680.177535	29327.119187
680.516179	29531.573264
680.854771	29725.629961
681.193314	30459.029625
681.531805	31425.159198
681.870247	32058.174366
682.208638	32695.287992
682.546978	32888.626324
682.885268	32964.629280
683.223508	32468.408342
683.561697	32141.350884
683.899836	31940.163475
684.237925	31450.065018
684.575963	31268.780085
684.913951	30813.967185
685.251889	30910.354047
685.589776	30851.133092
685.927614	30799.425977
686.265401	30864.824866
686.603137	30895.583466
686.940824	31281.690480
687.278460	31580.164596
687.616046	31642.742960
687.953582	32131.876035
688.291068	31993.443430
688.628504	32223.110837
688.965889	32139.082364
689.303224	31797.639973
689.640510	31497.383809
689.977745	30833.496615
690.314930	30119.270979
690.652065	29658.869960
690.989150	28995.275153
691.326185	28158.965374
691.663170	27523.853086
692.000105	26847.075662
692.336990	26205.341818
692.673825	25778.676201
693.010610	25295.821882
693.347345	24751.004222
693.684030	24128.774603
694.020665	23854.545916
694.357251	23249.597372
694.693786	23159.504391
695.030272	22922.161827
695.366707	22398.184296
695.703093	22119.136266
696.039429	22090.426895
696.375716	21832.549190
696.711952	21765.600147
697.048139	21585.809915
697.384276	21407.262328
697.720363	21482.718319
698.056400	21290.461314
698.392388	21066.150133
698.728326	21013.487719
699.064214	20830.019966
699.400053	20767.242477
699.735842	20442.599731
700.071581	20168.960859
700.407270	19897.514889
700.742910	19728.152285
701.078501	19476.334047
701.414042	19206.392862
701.749533	18928.519420
702.084974	18613.727089
702.420366	18776.092572
702.755709	18362.869191
703.091002	18085.976255
703.426246	18089.883149
703.761440	17972.083986
704.096584	17718.612250
704.431679	17653.513310
704.766725	17543.074232
705.101721	17467.620762
705.436668	17526.113270
705.771565	17212.689612
706.106413	17498.439856
706.441212	17454.402857
706.775961	17536.750105
707.110661	17574.271413
707.445311	17845.162856
707.779913	17668.122574
708.114465	17845.452722
708.448967	18064.866423
708.783421	18625.994737
709.117825	18812.512388
709.452180	18965.052662
709.786485	19257.714328
710.120742	19898.888604
710.454949	19865.662359
710.789107	20214.253106
711.123216	20778.557347
711.457275	20852.304387
711.791286	21285.957043
712.125247	21331.030000
712.459159	21073.467368
712.793023	21616.432404
713.126837	20689.684325
713.460602	20912.442831
713.794318	20605.454206
714.127985	20272.959863
714.461602	19538.133552
714.795171	19498.527727
715.128691	18641.682808
715.462162	18188.566256
715.795584	17811.757650
716.128957	17573.434581
716.462281	17214.789253
716.795556	16997.235738
717.128782	16576.173363
717.461960	16112.926612
717.795088	16025.003848
718.128167	15681.320664
718.461198	15290.144770
718.794180	15161.302960
719.127113	14859.123595
719.459997	14679.938303
719.792833	14381.975863
720.125619	14339.998175
720.458357	14061.345876
720.791046	13908.987083
721.123686	13768.686730
721.456278	13553.678998
721.788821	13504.953726
722.121315	13278.742029
722.453761	13314.670333
722.786158	13234.354670
723.118506	13229.983989
723.450805	13109.311369
723.783056	13208.314589
724.115259	13111.126184
724.447412	13029.371272
724.779518	13208.662429
725.111574	13201.123383
725.443582	13337.670597
725.775542	13310.526504
726.107453	13658.562725
726.439315	13543.856310
726.771129	13827.829547
727.102895	14089.147839
727.434612	14229.612029
727.766281	14310.184791
728.097901	14488.288757
728.429473	14512.269526
728.760996	14484.114681
729.092471	14534.236353
729.423897	14442.704123
729.755276	14333.122041
730.086606	14390.533222
730.417887	14756.369757
730.749120	15108.753972
731.080305	15223.999790
731.411442	15461.917046
731.742530	15505.442368
732.073570	15572.890486
732.404562	15778.199038
732.735506	15643.564942
733.066401	15414.837710
733.397249	15010.882491
733.728048	14519.579199
734.058798	13889.049320
734.389501	13362.838558
734.720156	12994.040345
735.050762	12563.500601
735.381320	12269.802978
735.711831	12066.934344
736.042293	11785.804318
736.372707	11763.943354
736.703073	11588.042373
737.033391	11708.457894
737.363661	11650.847588
737.693883	11707.817668
738.024056	11808.534880
738.354182	11931.193715
738.684260	12118.462498
739.014290	12266.982452
739.344272	12385.678940
739.674207	12590.836258
740.004093	12665.374758
740.333931	12653.328921
740.663722	12679.976461
740.993464	12666.100685
741.323159	12525.152544
741.652806	12314.959113
741.982405	12154.151347
742.311956	11892.301213
742.641460	11799.896863
742.970915	11560.527755
743.300323	11306.030144
743.629683	11140.632407
743.958996	10929.103071
744.288260	10711.579803
744.617477	10481.519186
744.946647	10411.936139
745.275768	10208.765037
745.604842	10067.111134
745.933869	9927.193909
746.262847	9881.427794
746.591778	9816.749790
746.920662	9726.097241
747.249498	9717.217248
747.578286	9780.796281
747.907027	9864.829795
748.235720	10006.115693
748.564365	10013.001909
748.892963	9929.341441
749.221514	9960.473086
749.550017	9844.884470
749.878473	9812.522783
750.206881	9646.043718
750.535242	9570.958252
750.863555	9504.740176
751.191821	9417.752545
751.520039	9414.281711
751.848210	9346.029529
752.176334	9355.736271
752.504411	9279.907235
752.832440	9159.448863
753.160421	9186.897946
753.488356	9097.246066
753.816243	9025.709572
754.144082	8914.554651
754.471875	8862.731589
754.799620	8815.516142
755.127318	8784.749980
755.454969	8749.391327
755.782572	8702.604378
756.110129	8708.230306
756.437638	8646.012385
756.765100	8623.322152
757.092515	8616.279660
757.419882	8616.690514
757.747203	8608.607024
758.074477	8651.411461
758.401703	8614.033826
758.728882	8717.841266
759.056014	8734.877845
759.383099	8805.116242
759.710138	8869.731231
760.037129	8915.570443
760.364073	8912.780165
760.690970	8894.884068
761.017820	8885.988953
761.344623	9000.753340
761.671379	9198.931180
761.998088	9600.098642
762.324751	10620.385330
762.651366	12488.203407
762.977935	14863.332959
763.304456	16311.585883
763.630931	16622.070548
763.957359	15860.029568
764.283740	14602.241519
764.610074	13382.395714
764.936362	11971.248203
765.262602	10964.620521
765.588796	9985.346139
765.914943	9310.323036
766.241044	8729.433399
766.567097	8300.453892
766.893104	7925.868435
767.219064	7673.505753
767.544978	7404.245123
767.870845	7187.795621
768.196665	7054.474746
768.522438	6915.520381
768.848165	6800.496374
769.173846	6678.359298
769.499479	6596.637153
769.825066	6484.753785
770.150607	6361.590835
770.476101	6309.740047
770.801548	6232.660805
771.126949	6136.268902
771.452303	6069.624848
771.777611	5960.703158
772.102872	5937.395383
772.428087	5860.048959
772.753256	5773.837667
773.078378	5712.864911
773.403453	5614.842195
773.728482	5542.831833
774.053465	5499.850955
774.378401	5434.855359
774.703291	5374.099372
775.028135	5305.348116
775.352932	5274.309732
775.677683	5218.632708
776.002388	5155.913193
776.327046	5152.039066
776.651658	5093.576805
776.976224	5040.574113
777.300743	5028.084655
777.625216	4981.960618
777.949643	4948.830155
778.274024	4946.286893
778.598359	4901.594543
778.922647	4897.760746
779.246889	4869.663875
779.571086	4868.247310
779.895236	4874.735275
780.219339	4869.777301
780.543397	4860.267164
780.867409	4888.588366
781.191374	4880.986306
781.515294	4860.814129
781.839167	4886.466040
782.162995	4862.893605
782.486776	4834.108617
782.810511	4799.932114
783.134201	4751.932768
783.457844	4743.294751
783.781441	4707.500038
784.104993	4681.928785
784.428498	4662.333820
784.751958	4644.677178
785.075372	4626.428202
785.398739	4595.288994
785.722061	4608.698463
786.045337	4602.797793
786.368568	4664.536804
786.691752	4676.083567
787.014891	4823.428932
787.337983	4992.741125
787.661030	5252.479015
787.984031	5502.031254
788.306987	5642.944107
788.629897	5681.282082
788.952760	5622.610613
789.275579	5511.478377
789.598351	5335.474052
789.921078	5168.581612
790.243759	4998.218339
790.566395	4875.287282
790.888984	4757.394858
791.211529	4676.781767
791.534027	4578.068413
791.856480	4490.690093
792.178888	4455.021409
792.501249	4409.404008
792.823566	4344.173998
793.145836	4339.024459
793.468062	4327.631451
793.790241	4297.871000
794.112375	4318.857323
794.434464	4373.594172
794.756507	4385.587077
795.078505	4457.123570
795.400457	4581.133434
795.722364	4713.188980
796.044226	4828.028985
796.366042	4915.999640
796.687812	4882.745669
797.009538	4895.416609
797.331218	4834.763967
797.652852	4791.626813
797.974442	4719.412284
798.295986	4673.757074
798.617484	4598.417030
798.938938	4533.118964
799.260346	4489.641533
799.581709	4410.114811
799.903026	4378.610120
800.224299	4334.283254
800.545526	4269.131382
800.866708	4227.602356
801.187845	4201.285013
801.508936	4155.521418
801.829983	4138.136999
802.150984	4076.203903
802.471940	4057.443249
802.792851	4045.503276
803.113717	4036.151936
803.434538	4017.812218
803.755314	3998.136595
804.076045	3989.904391
804.396731	3967.556956
804.717372	3973.946618
805.037967	3976.696567
805.358518	3990.932786
805.679024	4022.434956
805.999485	4026.856048
806.319901	4034.337121
806.640272	4037.318963
806.960598	4061.897109
807.280879	4054.549627
807.601115	4076.990323
807.921306	4053.238927
808.241453	4050.110891
808.561554	4053.533834
808.881611	4032.086245
809.201623	4029.197664
809.521590	4000.415196
809.841513	3988.634020
810.161390	3993.602077
810.481223	3942.220116
810.801011	3938.890434
811.120755	3916.507711
811.440453	3886.548134
811.760107	3870.902913
812.079716	3852.086806
812.399281	3823.715192
812.718801	3815.833348
813.038276	3795.217550
813.357707	3777.654170
813.677093	3787.703710
813.996434	3752.922269
814.315731	3759.553907
814.634983	3757.713886
814.954191	3755.505860
815.273354	3786.458545
815.592473	3807.593582
815.911547	3844.348635
816.230577	3870.933160
816.549562	3917.026950
816.868502	3941.317750
817.187399	3969.848160
817.506250	4002.837471
817.825058	4015.089995
818.143821	4093.724433
818.462539	4176.164943
818.781213	4292.020741
819.099843	4478.334225
819.418429	4803.428154
819.736970	5123.092761
820.055466	5482.138861
820.373919	5932.913797
820.692327	6689.807759
821.010691	8163.604209
821.329011	11721.426263
821.647286	17566.949137
821.965517	24117.779846
822.283704	27531.107307
822.601847	28125.814746
822.919945	24884.781321
823.237999	21553.110471
823.556010	18405.414009
823.873976	15665.075546
824.191897	13318.121002
824.509775	11578.310425
824.827609	10058.941944
825.145398	9173.927057
825.463144	8734.794666
825.780845	8863.694450
826.098502	9536.194455
826.416116	10791.227514
826.733685	11931.697831
827.051210	12134.102678
827.368692	11346.160250
827.686129	10029.158807
828.003522	8763.405735
828.320872	7634.638457
828.638177	6793.635363
828.955439	6152.226674
829.272656	5606.995639
829.589830	5173.577396
829.906960	4793.295435
830.224046	4523.508005
830.541088	4306.186383
830.858086	4174.488759
831.175041	4069.756268
831.491952	4029.737068
831.808819	4040.628481
832.125642	4150.883556
832.442421	4421.563271
832.759157	4980.770905
833.075849	5868.019023
833.392497	6788.921885
833.709101	7337.628796
834.025662	7193.968514
834.342179	6653.428272
834.658653	6003.890723
834.975083	5454.306651
835.291469	5014.352552
835.607811	4652.894259
835.924110	4389.486409
836.240366	4152.045542
836.556578	3928.135132
836.872746	3752.818925
837.188871	3618.522587
837.504952	3508.925382
837.820990	3426.361364
838.136984	3370.724669
838.452935	3344.908921
838.768842	3363.243597
839.084706	3501.681243
839.400526	3873.090774
839.716303	4313.309533
840.032037	4583.318774
840.347727	4500.764839
840.663373	4198.698901
840.978977	3922.567178
841.294537	3710.730332
841.610054	3549.420970
841.925527	3431.387394
842.240957	3330.846622
842.556344	3239.437900
842.871687	3162.978719
843.186987	3088.198243
843.502244	3030.799666
843.817458	2990.891371
844.132629	2957.208902
844.447756	2931.630087
844.762840	2906.530182
845.077881	2890.602657
845.392879	2870.445603
845.707833	2860.948069
846.022745	2845.350739
846.337613	2840.750686
846.652438	2828.909016
846.967221	2825.014724
847.281960	2816.558189
847.596656	2809.581232
847.911309	2803.725932
848.225919	2799.524130
848.540485	2792.751340
848.855009	2789.376287
849.169490	2780.874381
849.483928	2779.321706
849.798323	2778.358846
850.112675	2770.408946
850.426984	2769.962804
850.741251	2766.290323
851.055474	2767.154881
851.369654	2767.633791
851.683792	2765.629932
851.997887	2766.461722
852.311938	2765.264448
852.625947	2766.005498
852.939914	2763.517689
853.253837	2764.021804
853.567718	2761.229005
853.881555	2756.926380
854.195350	2763.172370
854.509103	2763.308481
854.822812	2758.877307
855.136479	2755.570310
855.450103	2756.797831
855.763685	2755.779517
856.077224	2757.070053
856.390720	2759.396545
856.704173	2762.338059
857.017584	2763.323604
857.330953	2768.387443
857.644278	2769.549429
857.957561	2771.346601
858.270802	2769.625047
858.584000	2766.660848
858.897155	2766.587751
859.210268	2759.341093
859.523339	2755.799682
859.836367	2754.728437
860.149352	2750.854310
860.462295	2747.819536
860.775195	2743.332909
861.088054	2738.483319
861.400869	2740.338463
861.713642	2740.240161
862.026373	2744.938516
862.339062	2746.544124
862.651708	2750.703076
862.964312	2757.352357
863.276873	2760.230856
863.589392	2775.019081
863.901869	2787.024589
864.214303	2795.433234
864.526696	2803.942701
864.839045	2814.272026
865.151353	2817.498364
865.463619	2817.899136
865.775842	2815.731440
866.088023	2818.458704
866.400162	2816.066676
866.712258	2818.153714
867.024313	2815.804536
867.336325	2814.753456
867.648296	2812.053918
867.960224	2810.271870
868.272110	2813.256233
868.583954	2814.534166
868.895755	2813.924186
869.207515	2813.810760
869.519233	2823.376349
869.830909	2823.063798
870.142542	2829.261897
870.454134	2832.878924
870.765684	2837.398319
871.077191	2844.012313
871.388657	2852.070597
871.700081	2858.273737
872.011463	2865.588451
872.322803	2874.987683
872.634101	2881.208466
872.945357	2893.428223
873.256571	2907.447672
873.567744	2914.359094
873.878874	2915.347160
874.189963	2924.804365
874.501010	2925.159766
874.812015	2924.174221
875.122979	2929.172525
875.433900	2924.151535
875.744780	2928.736465
876.055618	2930.684871
876.366415	2929.606064
876.677169	2929.520364
876.987882	2930.997422
877.298554	2939.965635
877.609183	2956.699745
877.919771	2977.305462
878.230317	3004.164729
878.540822	3049.081410
878.851285	3114.818056
879.161707	3205.135368
879.472087	3366.454812
879.782425	3652.777227
880.092722	4222.732602
880.402977	5252.635291
880.713191	6644.321428
881.023363	8054.569093
881.333494	8833.359306
881.643583	8991.437288
881.953631	8629.187534
882.263637	8069.702637
882.573602	7472.073848
882.883526	6943.493744
883.193408	6445.342044
883.503248	5974.309232
883.813048	5551.177463
884.122806	5171.311397
884.432522	4789.617913
884.742197	4450.300368
885.051831	4168.061288
885.361424	3923.487189
885.670975	3730.731110
885.980485	3574.384764
886.289954	3449.003706
886.599382	3348.140300
886.908768	3263.234667
887.218113	3190.286650
887.527417	3132.383957
887.836680	3075.839855
888.145901	3030.149357
888.455082	2994.112668
888.764221	2963.762402
889.073319	2939.292641
889.382376	2925.245466
889.691392	2911.440266
890.000366	2909.471695
890.309300	2904.871643
890.618193	2907.435069
890.927044	2904.334760
891.235855	2907.485481
891.544625	2916.776327
891.853353	2928.154212
892.162041	2953.213787
892.470687	2994.400014
892.779293	3048.113508
893.087858	3122.954478
893.396381	3245.462079
893.704864	3435.153136
894.013306	3692.917415
894.321707	3945.242288
894.630068	4087.286880
894.938387	4096.073611
895.246665	4004.100280
895.554903	3863.845298
895.863100	3716.933472
896.171256	3599.535081
896.479371	3497.925584
896.787446	3401.611819
897.095480	3316.028150
897.403473	3247.871750
897.711425	3186.447811
898.019336	3131.063174
898.327207	3079.545103
898.635038	3037.708567
898.942827	2990.760301
899.250576	2955.431895
899.558284	2918.273550
899.865952	2893.723131
900.173579	2867.778832
900.481165	2846.623630
900.788711	2829.771053
901.096216	2815.633137
901.403681	2807.282466
901.711105	2799.534212
902.018489	2796.839716
902.325832	2810.445790
902.633135	2835.210458
902.940397	2912.796336
903.247619	3094.398862
903.554800	3447.062862
903.861941	3898.694794
904.169041	4219.438208
904.476101	4303.655724
904.783121	4161.679187
905.090100	3970.062409
905.397039	3787.479378
905.703938	3626.230511
906.010796	3485.242041
906.317614	3369.154350
906.624391	3265.311622
906.931129	3178.591173
907.237826	3096.528750
907.544483	3020.896319
907.851099	2942.385389
908.157675	2874.919627
908.464211	2807.489153
908.770707	2762.552308
909.077163	2730.563666
909.383578	2702.139120
909.689954	2683.628003
909.996289	2669.588390
910.302584	2662.941628
910.608839	2656.370484
910.915054	2653.890237
911.221229	2649.312869
911.527363	2653.010555
911.833458	2655.810916
912.139513	2658.207985
912.445527	2669.147289
912.751502	2677.596262
913.057436	2699.462267
913.363331	2724.519322
913.669186	2758.123654
913.975000	2811.365800
914.280775	2886.433622
914.586510	3010.161182
914.892205	3176.758713
915.197859	3399.008063
915.503475	3658.370387
915.809050	3874.956001
916.114585	3992.982015
916.420081	4012.829038
916.725536	3976.827637
917.030952	3870.313098
917.336328	3777.059313
917.641665	3685.239737
917.946961	3587.942947
918.252218	3501.381295
918.557435	3405.667427
918.862612	3321.366732
919.167750	3246.992069
919.472848	3162.514933
919.777906	3091.963985
920.082925	3021.128212
920.387904	2956.586319
920.692843	2904.324677
920.997743	2863.650128
921.302603	2822.325269
921.607423	2794.498100
921.912204	2768.425252
922.216946	2746.196284
922.521647	2725.391442
922.826310	2707.336550
923.130932	2693.785928
923.435516	2678.949812
923.740059	2663.355003
924.044564	2650.220277
924.349028	2640.427835
924.653454	2627.635907
924.957840	2617.223404
925.262186	2607.173864
925.566493	2600.242277
925.870761	2587.460432
926.174989	2586.013621
926.479178	2581.257292
926.783328	2572.158009
927.087438	2566.524520
927.391509	2558.448591
927.695541	2557.006821
927.999533	2550.470965
928.303486	2547.642878
928.607400	2544.766900
928.911275	2542.926879
929.215110	2537.532844
929.518906	2538.210879
929.822663	2538.062165
930.126381	2536.262473
930.430060	2539.483771
930.733699	2539.017464
931.037299	2539.181301
931.340861	2537.386651
931.644383	2541.565767
931.947866	2540.209697
932.251309	2537.923533
932.554714	2539.077958
932.858080	2539.650129
933.161407	2534.631660
933.464694	2534.054448
933.767943	2530.447502
934.071153	2529.109076
934.374323	2527.858870
934.677455	2530.011442
934.980548	2527.334590
935.283602	2526.056657
935.586617	2523.906605
935.889593	2527.652182
936.192530	2525.802079
936.495428	2530.003881
936.798287	2530.855836
937.101108	2535.823893
937.403890	2547.468958
937.706632	2557.720145
938.009336	2569.153482
938.312002	2583.109916
938.614628	2589.297932
938.917216	2602.039449
939.219765	2603.193873
939.522275	2606.140427
939.824747	2608.640840
940.127179	2603.390478
940.429573	2601.177411
940.731929	2603.077926
941.034246	2597.061309
941.336524	2598.954262
941.638763	2592.952769
941.940964	2596.589961
942.243126	2585.532190
942.545250	2580.208732
942.847335	2578.073803
943.149381	2574.282856
943.451389	2564.669375
943.753359	2561.828685
944.055290	2556.119578
944.357182	2551.993394
944.659036	2549.364432
944.960851	2548.832590
945.262628	2547.849565
945.564367	2546.682538
945.866067	2545.858310
946.167729	2544.885367
946.469352	2544.746735
946.770937	2544.713968
947.072484	2540.532331
947.373992	2540.814635
947.675462	2539.060314
947.976893	2539.088040
948.278286	2533.590662
948.579641	2535.581918
948.880958	2532.789118
949.182236	2531.985054
949.483476	2533.018491
949.784678	2532.400949
950.085841	2532.617719
950.386967	2532.108563
950.688054	2532.136289
950.989103	2537.351362
951.290114	2539.902186
951.591087	2545.633978
951.892021	2549.810574
952.192917	2556.651420
952.493776	2562.408418
952.794596	2563.537636
953.095378	2564.792883
953.396122	2563.300702
953.696828	2562.511761
953.997496	2558.229301
954.298126	2554.682849
954.598718	2555.192006
954.899272	2549.099772
955.199788	2544.618186
955.500266	2536.640560
955.800706	2530.394570
956.101108	2524.319980
956.401472	2518.837725
956.701798	2513.219359
957.002087	2507.608555
957.302337	2505.319871
957.602550	2501.964983
957.902724	2496.575990
958.202861	2494.425938
958.502960	2491.436533
958.803022	2488.704228
959.103045	2485.316572
959.403031	2482.420430
959.702979	2481.250882
960.002889	2477.434728
960.302762	2473.505149
960.602596	2472.186887
960.902393	2473.071610
961.202153	2469.333594
961.501875	2470.336784
961.801559	2469.890642
962.101205	2467.906948
962.400814	2466.462657
962.700385	2464.012656
962.999918	2462.853191
963.299414	2462.391925
963.598873	2464.801597
963.898293	2460.796400
964.197677	2461.240022
964.497022	2462.999384
964.796331	2456.287088
965.095601	2461.240022
965.394835	2458.694239
965.694030	2462.482666
965.993189	2462.752368
966.292309	2458.250617
966.591393	2457.696091
966.890439	2457.081070
967.189447	2459.306739
967.488419	2458.084259
967.787353	2459.455453
968.086249	2457.839763
968.385108	2460.980402
968.683930	2459.125258
968.982714	2459.788169
969.281462	2460.365382
969.580172	2463.649693
969.878844	2460.680454
970.177480	2464.436113
970.476078	2461.469394
970.774639	2467.440641
971.073162	2465.434262
971.371649	2462.969138
971.670098	2462.694395
971.968510	2465.280507
972.266885	2463.354786
972.565223	2468.935343
972.863524	2468.864767
973.161788	2465.645990
973.460014	2469.026084
973.758204	2471.080354
974.056356	2468.315281
974.354471	2470.714870
974.652550	2470.195632
974.950591	2471.241671
975.248595	2468.343007
975.546563	2471.075313
975.844493	2465.950980
976.142386	2467.985086
976.440243	2466.868470
976.738062	2468.680765
977.035845	2464.683130
977.333590	2462.931329
977.631299	2463.027111
977.928971	2462.233129
978.226606	2461.502162
978.524204	2461.834878
978.821765	2459.621811
979.119290	2461.625670
979.416777	2458.938735
979.714228	2459.122737
980.011642	2460.738427
980.309020	2464.632718
980.606360	2463.805969
980.903664	2468.779067
981.200931	2473.293421
981.498162	2483.451346
981.795356	2491.658344
982.092513	2510.855058
982.389633	2529.381298
982.686717	2550.576830
982.983764	2562.657955
983.280775	2569.297154
983.577749	2569.692885
983.874686	2570.580128
984.171587	2559.270299
984.468451	2551.438867
984.765279	2544.983669
985.062070	2538.621733
985.358824	2529.293078
985.655543	2518.608353
985.952224	2508.591580
986.248869	2498.093377
986.545478	2481.129894
986.842050	2474.921713
987.138586	2463.516103
987.435086	2460.622480
987.731549	2453.242231
988.027975	2457.612912
988.324366	2452.327262
988.620719	2453.479165
988.917037	2450.343568
989.213318	2449.479010
989.509563	2449.279884
989.805772	2448.836263
990.101944	2447.016406
990.398080	2447.205449
990.694180	2445.035233
990.990244	2440.820828
991.286271	2443.641354
991.582262	2447.001283
991.878217	2445.816612
992.174136	2446.582867
992.470019	2444.072372
992.765865	2446.870213
993.061676	2448.349791
993.357450	2447.757456
993.653188	2448.236365
993.948890	2453.443877
994.244556	2454.061419
994.540186	2459.155505
994.835780	2461.305557
995.131337	2468.360652
995.426859	2475.680407
995.722345	2484.588126
996.017795	2486.589464
996.313208	2498.063130
996.608586	2500.500528
996.903928	2500.591269
997.199234	2500.911382
997.494504	2500.094715
997.789738	2496.883500
998.084936	2493.601709
998.380099	2488.953765
998.675225	2483.637868
998.970316	2478.468165
999.265371	2470.861064
999.560390	2467.571711
999.855373	2462.996864
1000.150320	2458.873200
1000.445232	2454.731892
1000.740108	2448.385079
1001.034948	2448.443053
1001.329752	2449.539504
1001.624521	2447.623865
1001.919254	2438.854778
1002.213951	2440.178081
1002.508613	2438.491815
1002.803239	2438.063317
1003.097829	2435.308326
1003.392384	2438.428801
1003.686903	2436.072061
1003.981386	2439.023657
1004.275834	2436.770261
1004.570246	2436.651794
1004.864623	2436.505600
1005.158964	2436.029211
1005.453270	2433.929571
1005.747540	2435.981320
1006.041775	2435.653645
1006.335974	2433.012081
1006.630138	2433.995106
1006.924266	2436.863522
1007.218359	2431.028387
1007.512416	2435.300765
1007.806438	2433.158274
1008.100425	2431.842533
1008.394376	2432.981834
1008.688292	2431.620722
1008.982172	2434.269849
1009.276017	2432.533171
1009.569827	2433.778336
1009.863602	2433.513676
1010.157341	2432.250867
1010.451045	2430.456216
1010.744714	2432.502924
1011.038347	2432.462595
1011.331945	2431.678696
1011.625508	2430.642738
1011.919036	2431.968562
1012.212528	2430.239446
1012.505986	2432.933943
1012.799408	2432.124838
1013.092795	2430.657862
1013.386147	2430.037800
1013.679464	2430.373037
1013.972745	2429.221133
1014.265992	2431.096442
1014.559204	2429.188366
1014.852380	2429.785742
1015.145521	2432.417225
1015.438628	2429.379929
1015.731699	2429.145516
1016.024736	2430.108376
1016.317737	2430.345310
1016.610703	2430.380598
1016.903635	2427.391194
1017.196531	2427.938159
1017.489393	2427.013108
1017.782219	2424.747109
1018.075011	2429.064857
1018.367768	2430.889755
1018.660490	2431.638366
1018.953177	2431.638366
1019.245829	2431.638366
