Dividing Wavelength (nm)	Counts (n)	Blue Motor Position (mm): 0.000000	Red Motor Position (mm): 13.000000	
326.493990	1979.547689
326.888308	1979.547689
327.282561	1979.547689
327.676750	1954.924173
328.070874	1957.429627
328.464933	1964.366255
328.858929	1972.595938
329.252859	1983.981384
329.646726	2000.166009
330.040528	2015.546569
330.434265	2033.019208
330.827938	2053.077959
331.221547	2071.692420
331.615091	2096.177304
332.008571	2113.781013
332.401986	2135.957049
332.795338	2157.054278
333.188625	2174.058090
333.581847	2195.092304
333.975006	2211.846579
334.368100	2229.185628
334.761129	2247.212794
335.154095	2262.290885
335.546996	2278.475510
335.939833	2291.408590
336.332606	2307.010961
336.725315	2316.647127
337.117960	2324.181131
337.510540	2330.487614
337.903056	2341.192505
338.295508	2344.915397
338.687896	2355.055678
339.080220	2362.297295
339.472480	2364.240660
339.864676	2369.980014
340.256807	2373.201311
340.648875	2376.654501
341.040879	2375.638709
341.432818	2378.668442
341.824694	2379.737167
342.216506	2377.486292
342.608253	2375.119470
342.999937	2377.758514
343.391557	2376.334388
343.783113	2377.032588
344.174605	2374.007896
344.566033	2369.836341
344.957397	2372.301465
345.348697	2369.286855
345.739934	2366.191587
346.131106	2363.958355
346.522215	2362.067923
346.913260	2359.108765
347.304241	2359.993488
347.695159	2357.356964
348.086012	2357.341841
348.476802	2357.351923
348.867528	2353.770183
349.258191	2354.357478
349.648789	2351.388238
350.039324	2349.477641
350.429796	2352.104082
350.820203	2348.988649
351.210548	2346.813391
351.600828	2349.235666
351.991045	2348.741633
352.381198	2347.451097
352.771288	2349.323886
353.161314	2348.608042
353.551276	2350.954699
353.941175	2347.330109
354.331010	2347.433453
354.720782	2347.680470
355.110490	2350.301870
355.500135	2350.700121
355.889717	2349.437312
356.279235	2348.449246
356.668689	2351.615090
357.058080	2350.422857
357.447408	2349.175172
357.836672	2348.350943
358.225873	2351.703310
358.615010	2349.331448
359.004084	2353.881089
359.393095	2354.561645
359.782043	2355.461491
360.170927	2357.031810
360.559748	2358.594568
360.948505	2357.049454
361.337199	2358.118179
361.725830	2360.658920
362.114398	2362.365351
362.502903	2360.608509
362.891344	2357.878724
363.279722	2363.975999
363.668037	2361.662110
364.056289	2364.699405
364.444478	2362.806452
364.832603	2365.856350
365.220665	2366.360465
365.608665	2366.879704
365.996601	2369.543954
366.384474	2366.748634
366.772284	2368.248377
367.160031	2368.500435
367.547715	2369.664942
367.935336	2369.004550
368.322893	2371.061341
368.710388	2370.819366
369.097820	2373.808770
369.485189	2371.908255
369.872495	2374.391023
370.259738	2374.849768
370.646918	2377.667773
371.034035	2378.759183
371.421090	2378.645757
371.808081	2382.981149
372.195010	2390.696635
372.581875	2392.748385
372.968678	2401.288100
373.355418	2406.309089
373.742096	2417.155131
374.128710	2426.468663
374.515262	2438.544747
374.901751	2451.916408
375.288177	2467.677575
375.674540	2487.350678
376.060841	2503.923471
376.447079	2529.640918
376.833254	2556.782490
377.219367	2579.140007
377.605417	2616.293311
377.991404	2642.719040
378.377329	2679.678259
378.763191	2713.544731
379.148991	2761.284457
379.534727	2806.286838
379.920402	2852.849455
380.306013	2903.366858
380.691563	2959.127061
381.077049	3013.226203
381.462474	3068.391550
381.847835	3142.635143
382.233134	3212.563509
382.618371	3270.609875
383.003545	3356.049871
383.388657	3434.898558
383.773706	3524.167310
384.158693	3596.195316
384.543618	3687.319213
384.928480	3762.684463
385.313280	3865.118189
385.698017	3965.127119
386.082692	4085.567847
386.467305	4146.671672
386.851856	4269.718676
387.236344	4426.891771
387.620770	4481.658866
388.005133	4602.286116
388.389435	4750.070061
388.773674	4828.147452
389.157851	4956.787616
389.541965	5083.875104
389.926018	5113.622953
390.310008	5287.323471
390.693936	5403.345627
391.077802	5516.461557
391.461606	5652.492052
391.845348	5757.436273
392.229027	5876.218460
392.612645	6099.912100
392.996200	6205.715837
393.379694	6372.169696
393.763125	6589.587100
394.146494	6677.446850
394.529801	6807.032230
394.913047	7038.504370
395.296230	7030.302413
395.679351	7079.027686
396.062410	7311.661812
396.445408	7198.886159
396.828343	7341.870927
397.211217	7457.716642
397.594028	7330.041859
397.976778	7502.219948
398.359466	7646.270919
398.742092	7598.921882
399.124656	7714.681898
399.507158	7860.761933
399.889598	7846.119902
400.271977	8013.624841
400.654294	8003.935743
401.036549	8146.381107
401.418742	8124.852860
401.800874	8342.255140
402.182944	8362.762554
402.564952	8628.731310
402.946898	8408.213597
403.328783	8393.780773
403.710606	8490.230649
404.092367	8629.366495
404.474067	8853.322276
404.855705	8597.246784
405.237282	8470.083678
405.618797	8731.472546
406.000250	8830.488369
406.381642	9006.606120
406.762972	8858.839818
407.144240	8606.368752
407.525447	8684.977984
407.906593	8529.808748
408.287677	8594.980785
408.668700	8582.284639
409.049661	8446.009648
409.430560	8423.425278
409.811399	8280.175851
410.192176	8255.048219
410.572891	8163.896596
410.953545	8330.224426
411.334138	7869.815845
411.714669	8074.602638
412.095139	7545.276443
412.475547	7684.626538
412.855894	7465.127138
413.236180	7478.786144
413.616405	7187.982144
413.996568	7175.522932
414.376670	7025.102463
414.756711	6832.701785
415.136691	6811.392828
415.516609	6746.777838
415.896466	6631.388347
416.276262	6601.390962
416.655997	6628.421628
417.035670	6493.525393
417.415283	6583.323466
417.794834	6458.701102
418.174324	6223.493466
418.553753	6044.638369
418.933121	6048.391508
419.312428	5837.671277
419.691674	5679.905847
420.070859	5658.241488
420.449983	5431.248413
420.829045	5430.867806
421.208047	5240.279423
421.586988	5207.519485
421.965867	5133.144822
422.344686	4999.372763
422.723444	4976.712777
423.102141	4618.120380
423.480777	4705.516344
423.859352	4515.101881
424.237866	4565.279005
424.616319	4407.760592
424.994712	4393.128643
425.373044	4254.277622
425.751314	4228.066142
426.129524	4022.286242
426.507673	4039.181669
426.885762	3912.986465
427.263789	3836.509641
427.641756	3760.229421
428.019662	3684.428112
428.397508	3605.680247
428.775292	3544.636915
429.153016	3466.972899
429.530679	3399.905388
429.908282	3330.738237
430.285824	3257.127309
430.663305	3228.274265
431.040726	3151.656288
431.418086	3087.822677
431.795385	3065.250911
432.172624	3033.264790
432.549802	2972.370172
432.926920	2935.952877
433.303977	2892.858573
433.680974	2864.703729
434.057910	2833.423369
434.434786	2805.220634
434.811601	2775.830707
435.188355	2767.379212
435.565050	2737.366703
435.941683	2712.770913
436.318257	2701.945036
436.694770	2674.982424
437.071222	2670.442865
437.447614	2634.950622
437.823946	2623.940742
438.200218	2612.031016
438.576429	2598.999633
438.952580	2588.002356
439.328670	2575.888463
439.704700	2573.385530
440.080670	2560.162584
440.456580	2556.837943
440.832429	2550.909546
441.208218	2536.751465
441.583947	2533.351207
441.959616	2527.904240
442.335224	2525.847449
442.710773	2523.110103
443.086261	2520.811337
443.461689	2512.531242
443.837057	2507.858092
444.212365	2508.790705
444.587612	2506.794408
444.962800	2501.566732
445.337927	2499.562873
445.712995	2491.335710
446.088002	2496.414673
446.462949	2497.876607
446.837837	2497.490959
447.212664	2493.566421
447.587431	2506.963287
447.962139	2515.006448
448.336786	2525.640762
448.711374	2516.801099
449.085901	2502.093533
449.460369	2497.624550
449.834776	2494.892244
450.209124	2502.940446
450.583412	2502.922802
450.957640	2502.738800
451.331808	2494.730927
451.705917	2485.881182
452.079965	2484.575523
452.453954	2485.074597
452.827883	2485.485451
453.201752	2484.084010
453.575562	2484.046202
453.949311	2487.252376
454.323001	2483.408496
454.696632	2486.264309
455.070202	2490.098107
455.443713	2490.728251
455.817164	2488.311018
456.190556	2487.000318
456.563888	2484.167189
456.937160	2487.544763
457.310373	2486.501244
457.683526	2484.691469
458.056619	2486.145842
458.429653	2482.319607
458.802628	2487.406131
459.175542	2485.382108
459.548398	2489.188179
459.921194	2493.871411
460.293930	2494.075577
460.666607	2502.043121
461.039224	2510.794564
461.411782	2506.408760
461.784280	2506.885149
462.156719	2502.547236
462.529099	2502.111177
462.901419	2492.472490
463.273680	2492.394353
463.645882	2493.289157
464.018024	2490.728251
464.390106	2493.478201
464.762130	2504.321722
465.134094	2516.866634
465.505999	2533.820034
465.877845	2550.022303
466.249631	2551.143959
466.621358	2545.392003
466.993026	2539.418236
467.364634	2533.499921
467.736184	2523.669671
468.107674	2519.374608
468.479105	2517.020389
468.850477	2513.912518
469.221790	2510.101405
469.593043	2502.925323
469.964238	2500.273676
470.335373	2500.608913
470.706449	2505.773575
471.077467	2513.821777
471.448425	2527.705115
471.819324	2537.510159
472.190164	2529.988757
472.560945	2516.448218
472.931667	2509.821621
473.302330	2504.067144
473.672934	2503.242916
474.043479	2504.780468
474.413965	2500.833244
474.784393	2498.655466
475.154761	2502.653101
475.525070	2498.617657
475.895321	2499.222595
476.265513	2497.417862
476.635645	2505.503873
477.005719	2500.873573
477.375734	2506.993534
477.745691	2510.101405
478.115588	2512.059894
478.485427	2516.831346
478.855207	2525.144208
479.224928	2538.505787
479.594591	2542.137938
479.964194	2538.969573
480.333739	2536.854809
480.703226	2538.881353
481.072653	2539.292207
481.442022	2540.721374
481.811333	2541.515356
482.180584	2541.235572
482.549777	2539.297248
482.918912	2533.346166
483.287988	2535.231557
483.657005	2530.066895
484.025964	2533.071423
484.394864	2530.545805
484.763706	2530.583613
485.132489	2526.931298
485.501213	2524.960206
485.869879	2525.905423
486.238487	2525.219826
486.607036	2525.590351
486.975527	2523.001718
487.343959	2522.653878
487.712333	2525.093797
488.080648	2524.839219
488.448905	2526.578417
488.817104	2524.030113
489.185244	2528.804086
489.553326	2531.990095
489.921350	2539.428318
490.289315	2551.925338
490.657222	2553.382232
491.025070	2552.505071
491.392861	2549.684545
491.760593	2547.970553
492.128267	2542.301776
492.495883	2535.667617
492.863440	2531.841381
493.230939	2529.913140
493.598380	2525.204702
493.965763	2520.047602
494.333088	2519.561131
494.700354	2517.340502
495.067563	2520.062725
495.434713	2512.969822
495.801805	2522.444671
496.168839	2519.505678
496.535815	2519.984587
496.902733	2517.138856
497.269593	2519.606501
497.636395	2519.631707
498.003139	2520.624814
498.369825	2521.204547
498.736453	2519.233456
499.103023	2522.290915
499.469535	2517.993332
499.835989	2518.946110
500.202385	2521.489372
500.568723	2520.826460
500.935003	2524.304856
501.301226	2525.101359
501.667390	2528.302491
502.033497	2530.238294
502.399546	2528.322656
502.765537	2525.653365
503.131470	2527.775691
503.497345	2533.721732
503.863163	2531.599406
504.228923	2533.716691
504.594625	2538.425128
504.960269	2536.020498
505.325856	2537.167360
505.691385	2538.110056
506.056856	2541.177598
506.422270	2545.878474
506.787625	2542.803370
507.152924	2548.270502
507.518164	2553.520863
507.883347	2549.240924
508.248472	2553.687222
508.613540	2555.567572
508.978550	2556.253169
509.343503	2561.236349
509.708398	2566.486711
510.073236	2570.403688
510.438016	2573.468709
510.802738	2574.892835
511.167403	2575.341498
511.532010	2579.613876
511.896561	2583.735019
512.261053	2590.868252
512.625488	2586.605956
512.989866	2587.175607
513.354186	2591.321956
513.718449	2588.161152
514.082655	2600.736310
514.446803	2599.481063
514.810894	2600.796804
515.174927	2605.560695
515.538904	2604.350818
515.902822	2611.206787
516.266684	2608.013216
516.630488	2611.363063
516.994235	2613.797940
517.357925	2615.388424
517.721558	2619.514608
518.085133	2619.161728
518.448651	2621.533591
518.812112	2621.352109
519.175516	2623.716410
519.538863	2621.596605
519.902152	2624.812861
520.265385	2625.286730
520.628560	2627.993829
520.991678	2627.169601
521.354739	2626.930146
521.717743	2627.976185
522.080690	2631.532719
522.443580	2627.996350
522.806413	2631.888121
523.169189	2630.736217
523.531908	2630.358130
523.894569	2630.443830
524.257174	2631.661269
524.619722	2632.389715
524.982213	2632.253604
525.344647	2628.734879
525.707025	2625.069960
526.069345	2625.216153
526.431608	2626.920063
526.793815	2626.408386
527.155964	2623.182048
527.518057	2622.360340
527.880093	2620.051491
528.242072	2619.315483
528.603995	2617.372118
528.965860	2613.881119
529.327669	2612.719133
529.689421	2609.510439
530.051117	2610.004472
530.412755	2607.297372
530.774337	2603.836620
531.135862	2599.223964
531.497331	2597.910744
531.858743	2591.513519
532.220098	2590.061667
532.581396	2587.210895
532.942638	2580.556572
533.303824	2585.852304
533.664953	2583.888774
534.026025	2578.388875
534.387040	2575.676735
534.747999	2573.345201
535.108902	2572.019377
535.469748	2566.484191
535.830537	2563.865311
536.191270	2560.689384
536.551947	2556.774928
536.912567	2554.680329
537.273131	2551.406099
537.633638	2546.652291
537.994089	2546.654812
538.354483	2538.994779
538.714821	2541.333874
539.075103	2537.003523
539.435328	2534.303985
539.795497	2533.731814
540.155609	2529.356093
540.515665	2526.961544
540.875665	2523.720083
541.235609	2524.519105
541.595496	2520.314783
541.955328	2520.304701
542.315102	2514.267919
542.674821	2513.118536
543.034483	2510.839934
543.394090	2506.091168
543.753640	2507.628719
544.113134	2502.779129
544.472571	2502.509428
544.831953	2502.917761
545.191278	2500.167812
545.550548	2496.656648
545.909761	2496.913747
546.268918	2493.122799
546.628019	2496.480208
546.987064	2493.306801
547.346053	2492.263283
547.704986	2491.136585
548.063863	2489.442757
548.422684	2487.549804
548.781449	2486.705410
549.140158	2483.526963
549.498811	2482.997642
549.857408	2481.717189
550.215949	2481.591160
550.574434	2477.386838
550.932864	2481.288691
551.291237	2474.868781
551.649555	2480.807260
552.007817	2477.107053
552.366022	2480.189719
552.724173	2476.988586
553.082267	2477.182671
553.440305	2478.437918
553.798288	2479.425984
554.156215	2478.697537
554.514086	2478.997486
554.871902	2476.948257
555.229661	2475.405664
555.587365	2475.992958
555.945014	2477.845582
556.302606	2475.221662
556.660143	2474.198308
557.017625	2476.429018
557.375050	2473.986579
557.732421	2472.965746
558.089735	2474.339460
558.446994	2472.141517
558.804197	2474.198308
559.161345	2472.723770
559.518437	2472.194449
559.875474	2470.697226
560.232455	2472.310396
560.589381	2473.666466
560.946251	2474.117649
561.303065	2474.019347
561.659825	2475.733339
562.016528	2471.413070
562.373177	2471.077833
562.729770	2472.925416
563.086307	2472.312916
563.442789	2469.767133
563.799216	2473.230406
564.155587	2468.771506
564.511904	2469.822586
564.868164	2468.970631
565.224370	2469.368882
565.580520	2470.051959
565.936615	2468.584983
566.292654	2468.179170
566.648638	2469.986424
567.004567	2469.285703
567.360441	2471.544140
567.716260	2468.307719
568.072023	2467.322174
568.427732	2466.560960
568.783385	2466.634056
569.138982	2465.290589
569.494525	2466.732359
569.850013	2461.542491
570.205445	2469.542802
570.560823	2467.060034
570.916145	2470.757720
571.271412	2467.438120
571.626625	2464.884776
571.981782	2467.465847
572.336884	2466.964252
572.691931	2468.209417
573.046923	2466.694550
573.401860	2467.173460
573.756743	2466.432410
574.111570	2465.930815
574.466342	2465.043572
574.821059	2463.692543
575.175722	2464.083233
575.530330	2462.835547
575.884882	2463.049796
576.239380	2464.773871
576.593823	2465.028449
576.948211	2462.170115
577.302544	2464.337811
577.656823	2462.104580
578.011047	2465.146916
578.365216	2460.209106
578.719330	2463.097687
579.073389	2462.696915
579.427394	2465.590538
579.781344	2459.861266
580.135239	2459.896554
580.489080	2459.692387
580.842866	2462.331432
581.196597	2463.362347
581.550273	2459.389918
581.903895	2461.517285
582.257463	2461.895372
582.610975	2459.697429
582.964434	2458.946297
583.317837	2458.691718
583.671186	2459.122737
584.024481	2459.407562
584.377721	2462.054168
584.730906	2457.449074
585.084037	2460.030145
585.437113	2458.560648
585.790135	2457.620473
586.143103	2456.135853
586.496016	2456.685339
586.848874	2452.964968
587.201679	2457.272634
587.554428	2450.706531
587.907124	2455.835905
588.259765	2451.669391
588.612352	2457.794393
588.964884	2455.185596
589.317362	2456.750874
589.669786	2455.891357
590.022155	2456.035030
590.374470	2457.043261
590.726731	2454.668878
591.078937	2455.573765
591.431090	2452.309618
591.783188	2457.917901
592.135232	2453.746347
592.487222	2453.741305
592.839157	2454.126954
593.191038	2453.343054
593.542866	2452.728033
593.894639	2451.364401
594.246358	2454.411779
594.598022	2452.392797
594.949633	2455.866152
595.301190	2451.976902
595.652692	2454.918415
596.004141	2453.466562
596.355535	2451.336675
596.706876	2451.296346
597.058162	2450.817436
597.409395	2449.705862
597.760573	2451.319031
598.111698	2450.877930
598.462768	2451.308949
598.813785	2448.712754
599.164748	2450.051181
599.515657	2449.594956
599.866511	2448.788372
600.217312	2447.056735
600.568060	2450.570420
600.918753	2452.980091
601.269392	2450.656119
601.619978	2451.709720
601.970510	2448.160748
602.320988	2449.095882
602.671412	2449.305090
603.021783	2449.365584
603.372100	2451.588733
603.722363	2447.888526
604.072572	2451.054370
604.422728	2452.513784
604.772830	2446.242589
605.122878	2445.244441
605.472872	2446.207301
605.822813	2441.612289
606.172701	2449.345419
606.522534	2446.396344
606.872314	2449.385748
607.222041	2448.145625
607.571714	2447.570933
607.921333	2449.269802
608.270899	2449.282405
608.620411	2448.879113
608.969870	2448.770728
609.319276	2449.839452
609.668627	2449.935234
610.017926	2449.937755
610.367171	2450.192333
610.716362	2447.974225
611.065500	2447.654112
611.414585	2444.672270
611.763616	2450.630913
612.112594	2448.017075
612.461518	2450.240224
612.810389	2447.603701
613.159207	2449.037909
613.507971	2447.538166
613.856682	2449.524380
614.205340	2448.102775
614.553945	2449.930193
614.902496	2447.268464
615.250994	2449.471448
615.599439	2447.444904
615.947830	2449.423557
616.296169	2449.453804
616.644454	2450.686366
616.992686	2451.747529
617.340864	2453.007817
617.688990	2448.586726
618.037063	2449.330296
618.385082	2448.886674
618.733048	2451.603856
619.080961	2446.638320
619.428821	2451.694597
619.776628	2449.542024
620.124382	2448.254009
620.472083	2448.687549
620.819731	2450.063784
621.167326	2447.303752
621.514868	2449.471448
621.862357	2445.219235
622.209793	2448.894236
622.557176	2445.869544
622.904506	2444.518514
623.251783	2441.299738
623.599007	2442.925510
623.946179	2441.700509
624.293297	2441.037598
624.640363	2445.075562
624.987376	2446.265274
625.334336	2445.990531
625.681243	2445.199070
626.028097	2442.597835
626.374899	2443.817794
626.721647	2441.450972
627.068343	2443.190170
627.414987	2441.713112
627.761577	2444.926848
628.108115	2441.816456
628.454600	2441.513987
628.801032	2444.337033
629.147412	2444.957095
629.493739	2443.134718
629.840014	2443.595983
630.186236	2441.645057
630.532405	2443.583380
630.878521	2439.613472
631.224585	2441.934923
631.570597	2440.281425
631.916556	2440.326795
632.262462	2440.137752
632.608316	2441.362752
632.954117	2439.709254
633.299866	2441.216559
633.645562	2441.009871
633.991206	2438.572473
634.336797	2437.733121
634.682336	2442.804522
635.027823	2438.166661
635.373257	2440.278904
635.718639	2437.113059
636.063968	2436.301434
636.409245	2439.459717
636.754470	2436.898810
637.099642	2438.650611
637.444762	2437.730601
637.789829	2438.441403
638.134845	2441.491302
638.479808	2435.089036
638.824719	2435.812442
639.169577	2437.644901
639.514383	2436.135076
639.859137	2433.004519
640.203839	2436.291351
640.548489	2434.758841
640.893086	2430.995619
641.237632	2430.279775
641.582125	2431.850095
641.926566	2429.730290
642.270955	2433.435538
642.615292	2434.516865
642.959576	2434.842020
643.303809	2436.193049
643.647990	2435.134407
643.992118	2437.203800
644.336195	2433.780857
644.680219	2434.942843
645.024192	2435.951073
645.368112	2434.826896
645.711981	2432.651638
646.055797	2431.610640
646.399562	2437.657504
646.743274	2433.576690
647.086935	2435.283121
647.430544	2437.372679
647.774101	2436.830755
648.117606	2436.172884
648.461059	2438.388471
648.804460	2437.113059
649.147810	2436.581218
649.491108	2435.804880
649.834354	2433.047369
650.177548	2433.007040
650.520690	2432.840682
650.863781	2434.539550
651.206820	2435.363779
651.549807	2431.739189
651.892742	2433.705239
652.235626	2432.356731
652.578458	2433.654828
652.921238	2432.611309
653.263967	2432.102153
653.606644	2429.332038
653.949269	2432.263469
654.291843	2430.186514
654.634365	2430.292378
654.976836	2431.139292
655.319255	2432.414704
655.661622	2432.918819
656.003938	2429.576534
656.346203	2430.325146
656.688416	2430.627615
657.030577	2427.958324
657.372687	2430.131061
657.714746	2429.735331
658.056753	2432.770105
658.398708	2426.256935
658.740612	2428.265834
659.082465	2425.190731
659.424266	2426.672830
659.766016	2424.989084
660.107715	2430.909920
660.449362	2430.244487
660.790958	2431.492173
661.132503	2428.754826
661.473996	2430.183993
661.815438	2429.029569
662.156829	2432.349169
662.498168	2430.612492
662.839456	2427.915474
663.180693	2429.074940
663.521879	2429.740372
663.863013	2429.919333
664.204097	2429.591658
664.545129	2429.730290
664.886110	2429.440423
665.227040	2431.560228
665.567918	2430.252049
665.908746	2429.752975
666.249522	2430.307502
666.590248	2431.436720
666.930922	2432.712132
667.271545	2428.202820
667.612118	2429.218612
667.952639	2431.532502
668.293109	2430.854467
668.633528	2430.312543
668.973896	2435.194900
669.314213	2431.552667
669.654480	2431.051072
669.994695	2430.395722
670.334859	2430.163829
670.674973	2427.318098
671.015035	2430.269693
671.355047	2431.613161
671.695008	2428.079312
672.034918	2427.779363
672.374777	2428.349013
672.714585	2429.868921
673.054342	2431.149374
673.394049	2430.390681
673.733705	2427.917995
674.073310	2428.868252
674.412864	2428.389343
674.752368	2429.455547
675.091820	2430.546957
675.431223	2426.186358
675.770574	2427.713828
676.109875	2426.226688
676.449125	2426.521595
676.788324	2423.345668
677.127473	2424.363981
677.466571	2423.161666
677.805619	2425.946904
678.144616	2427.555032
678.483562	2428.409507
678.822458	2425.452871
679.161303	2426.982861
679.500098	2422.692839
679.838842	2426.687953
680.177535	2427.900351
680.516179	2427.832295
680.854771	2423.801893
681.193314	2427.507141
681.531805	2429.490835
681.870247	2428.343972
682.208638	2428.273396
682.546978	2429.200968
682.885268	2427.325659
683.223508	2429.410176
683.561697	2426.544280
683.899836	2428.810279
684.237925	2427.277768
684.575963	2429.218613
684.913951	2429.067378
685.251889	2428.580907
685.589776	2426.181317
685.927614	2428.172573
686.265401	2429.715166
686.603137	2430.680547
686.940824	2431.040990
687.278460	2429.332038
687.616046	2432.321443
687.953582	2430.877152
688.291068	2430.589806
688.628504	2430.108376
688.965889	2430.481422
689.303224	2432.341607
689.640510	2431.439241
689.977745	2425.699887
690.314930	2428.706935
690.652065	2426.854311
690.989150	2427.789445
691.326185	2429.163160
691.663170	2426.256935
692.000105	2426.884558
692.336990	2422.213929
692.673825	2424.888261
693.010610	2424.585792
693.347345	2422.725606
693.684030	2418.796027
694.020665	2420.260482
694.357251	2418.417940
694.693786	2420.202509
695.030272	2421.072108
695.366707	2419.151428
695.703093	2421.208219
696.039429	2420.323497
696.375716	2418.359967
696.711952	2420.537746
697.048139	2420.893147
697.384276	2421.535894
697.720363	2421.785431
698.056400	2420.739392
698.392388	2418.203691
698.728326	2420.608322
699.064214	2420.532704
699.400053	2421.112437
699.735842	2420.149577
700.071581	2419.655544
700.407270	2417.404668
700.742910	2417.447518
701.078501	2420.320976
701.414042	2419.123702
701.749533	2418.158321
702.084974	2417.041705
702.420366	2416.759401
702.755709	2417.301325
703.091002	2416.595563
703.426246	2417.306366
703.761440	2413.790161
704.096584	2419.385842
704.431679	2418.266706
704.766725	2417.102199
705.101721	2414.669843
705.436668	2416.726633
705.771565	2418.201171
706.106413	2417.729823
706.441212	2417.510533
706.775961	2418.564134
707.110661	2420.101686
707.445311	2416.809812
707.779913	2414.911818
708.114465	2414.778227
708.448967	2417.228228
708.783421	2416.744277
709.117825	2419.723599
709.452180	2422.166038
709.786485	2420.459608
710.120742	2421.845925
710.454949	2418.173444
710.789107	2420.562951
711.123216	2416.908115
711.457275	2417.669329
711.791286	2419.413568
712.125247	2418.327200
712.459159	2420.522622
712.793023	2423.441450
713.126837	2422.546645
713.460602	2420.348702
713.794318	2421.445153
714.127985	2420.862900
714.461602	2422.962541
714.795171	2419.194278
715.128691	2418.843918
715.462162	2421.624114
715.795584	2416.628331
716.128957	2417.674370
716.462281	2419.496747
716.795556	2416.978691
717.128782	2417.964237
717.461960	2417.394586
717.795088	2419.053126
718.128167	2418.727971
718.461198	2413.076838
718.794180	2415.468865
719.127113	2413.185223
719.459997	2414.619431
719.792833	2412.202198
720.125619	2412.590367
720.458357	2412.761766
720.791046	2413.948958
721.123686	2411.728329
721.456278	2413.356622
721.788821	2413.202867
722.121315	2414.135480
722.453761	2412.860068
722.786158	2411.161199
723.118506	2413.689338
723.450805	2414.884092
723.783056	2413.240675
724.115259	2415.688156
724.447412	2414.725295
724.779518	2414.526170
725.111574	2414.271591
725.443582	2416.162024
725.775542	2414.377456
726.107453	2417.399627
726.439315	2415.839390
726.771129	2419.935328
727.102895	2416.381314
727.434612	2416.920718
727.766281	2415.108423
728.097901	2415.894843
728.429473	2411.259502
728.760996	2414.269071
729.092471	2412.020716
729.423897	2416.761921
729.755276	2416.918197
730.086606	2419.143867
730.417887	2416.716551
730.749120	2416.938362
731.080305	2416.030954
731.411442	2416.691345
731.742530	2419.322828
732.073570	2418.357447
732.404562	2420.479772
732.735506	2416.814853
733.066401	2418.576737
733.397249	2417.129926
733.728048	2416.088927
734.058798	2414.291756
734.389501	2413.427198
734.720156	2412.381159
735.050762	2413.263361
735.381320	2413.646488
735.711831	2413.139852
736.042293	2413.868299
736.372707	2413.999369
736.703073	2411.085582
737.033391	2414.105233
737.363661	2413.079358
737.693883	2412.615572
738.024056	2417.707138
738.354182	2412.784451
738.684260	2412.822260
739.014290	2412.686148
739.344272	2414.553896
739.674207	2414.155645
740.004093	2415.592374
740.333931	2416.535069
740.663722	2415.360481
740.993464	2414.193453
741.323159	2415.741088
741.652806	2414.705131
741.982405	2414.942065
742.311956	2411.602300
742.641460	2414.604308
742.970915	2412.522311
743.300323	2413.185223
743.629683	2413.074317
743.958996	2417.134967
744.288260	2412.877712
744.617477	2410.803277
744.946647	2407.849161
745.275768	2408.791857
745.604842	2410.601631
745.933869	2410.533576
746.262847	2404.065775
746.591778	2412.353432
746.920662	2412.189595
747.249498	2410.687331
747.578286	2409.404357
747.907027	2410.377300
748.235720	2413.207908
748.564365	2410.662125
748.892963	2411.173802
749.221514	2413.091961
749.550017	2414.395100
749.878473	2414.213618
750.206881	2410.704975
750.535242	2412.338309
750.863555	2409.830335
751.191821	2411.350243
751.520039	2410.326888
751.848210	2410.142886
752.176334	2411.733370
752.504411	2411.262023
752.832440	2410.155489
753.160421	2413.454924
753.488356	2410.480644
753.816243	2414.826118
754.144082	2410.641961
754.471875	2409.754718
754.799620	2411.466189
755.127318	2411.791344
755.454969	2410.856210
755.782572	2412.441652
756.110129	2413.356622
756.437638	2410.170613
756.765100	2412.774369
757.092515	2410.901580
757.419882	2408.862433
757.747203	2413.437280
758.074477	2412.315624
758.401703	2411.803947
758.728882	2410.639440
759.056014	2413.381828
759.383099	2410.387382
759.710138	2411.146076
760.037129	2411.635068
760.364073	2411.967784
760.690970	2409.661456
761.017820	2412.300500
761.344623	2413.144893
761.671379	2411.466189
761.998088	2409.981569
762.324751	2414.364853
762.651366	2418.072621
762.977935	2424.742068
763.304456	2424.353899
763.630931	2426.478745
763.957359	2425.838519
764.283740	2422.899526
764.610074	2421.636717
764.936362	2420.688980
765.262602	2416.716551
765.588796	2418.370049
765.914943	2412.282856
766.241044	2413.454924
766.567097	2407.695406
766.893104	2408.943092
767.219064	2409.109450
767.544978	2408.539799
767.870845	2406.886301
768.196665	2409.595921
768.522438	2407.667680
768.848165	2407.962587
769.173846	2407.302196
769.499479	2407.624830
769.825066	2406.714902
770.150607	2409.656415
770.476101	2404.179201
770.801548	2407.188770
771.126949	2405.948646
771.452303	2405.499984
771.777611	2407.521486
772.102872	2403.770868
772.428087	2407.687844
772.753256	2409.585839
773.078378	2408.454100
773.403453	2406.798081
773.728482	2406.064593
774.053465	2405.641136
774.378401	2404.660632
774.703291	2405.958729
775.028135	2405.013512
775.352932	2408.151631
775.677683	2403.037380
776.002388	2406.442679
776.327046	2404.670714
776.651658	2405.585683
776.976224	2403.659963
777.300743	2405.583163
777.625216	2405.222720
777.949643	2402.568553
778.274024	2408.212124
778.598359	2399.241391
778.922647	2400.017729
779.246889	2402.145096
779.571086	2397.683675
779.895236	2405.535272
780.219339	2404.322874
780.543397	2404.027967
780.867409	2402.500497
781.191374	2405.290776
781.515294	2403.843965
781.839167	2403.859088
782.162995	2404.451424
782.486776	2401.860271
782.810511	2404.527041
783.134201	2405.515107
783.457844	2403.992679
783.781441	2406.367062
784.104993	2403.052503
784.428498	2406.208266
784.751958	2402.361865
785.075372	2403.750703
785.398739	2403.538975
785.722061	2404.915210
786.045337	2402.356824
786.368568	2402.797925
786.691752	2402.624005
787.014891	2403.458316
787.337983	2402.240878
787.661030	2405.389078
787.984031	2407.276990
788.306987	2409.716909
788.629897	2404.229613
788.952760	2408.640622
789.275579	2407.360169
789.598351	2406.508214
789.921078	2403.654921
790.243759	2405.053842
790.566395	2403.969993
790.888984	2405.593245
791.211529	2403.181053
791.534027	2406.659449
791.856480	2404.370765
792.178888	2405.948646
792.501249	2403.564181
792.823566	2405.142062
793.145836	2403.397822
793.468062	2402.669376
793.790241	2401.376320
794.112375	2405.469737
794.434464	2401.456978
794.756507	2402.928995
795.078505	2405.328584
795.400457	2400.088305
795.722364	2396.418345
796.044226	2405.545354
796.366042	2399.269118
796.687812	2403.823800
797.009538	2403.591907
797.331218	2404.098543
797.652852	2407.254305
797.974442	2404.728687
798.295986	2405.313461
798.617484	2402.808008
798.938938	2406.019222
799.260346	2404.872360
799.581709	2403.884294
799.903026	2404.141393
800.224299	2403.586866
800.545526	2403.115518
800.866708	2403.465878
801.187845	2403.864129
801.508936	2405.061403
801.829983	2405.326064
802.150984	2404.060734
802.471940	2404.668193
802.792851	2401.688871
803.113717	2403.516290
803.434538	2401.759447
803.755314	2400.718449
804.076045	2402.465209
804.396731	2402.790363
804.717372	2402.616444
805.037967	2403.735580
805.358518	2400.012688
805.679024	2404.388409
805.999485	2403.516290
806.319901	2407.350087
806.640272	2403.947308
806.960598	2402.384551
807.280879	2402.714746
807.601115	2403.720456
807.921306	2403.964952
808.241453	2403.546537
808.561554	2403.864129
808.881611	2403.954870
809.201623	2402.699623
809.521590	2402.926475
809.841513	2404.395971
810.161390	2402.553429
810.481223	2403.344890
810.801011	2401.643501
811.120755	2400.912534
811.440453	2404.133831
811.760107	2403.433111
812.079716	2400.940260
812.399281	2396.453633
812.718801	2399.037224
813.038276	2397.872718
813.357707	2401.784653
813.677093	2401.189797
813.996434	2403.170971
814.315731	2400.615106
814.634983	2402.079561
814.954191	2401.905641
815.273354	2399.916906
815.592473	2403.412946
815.911547	2402.800446
816.230577	2403.929664
816.549562	2405.568039
816.868502	2402.273645
817.187399	2405.648698
817.506250	2405.502504
817.825058	2404.000240
818.143821	2403.115518
818.462539	2406.064593
818.781213	2403.365055
819.099843	2404.390930
819.418429	2409.215314
819.736970	2411.314955
820.055466	2411.826632
820.373919	2412.960891
820.692327	2417.097158
821.010691	2424.971440
821.329011	2437.841506
821.647286	2467.435600
821.965517	2491.539877
822.283704	2507.664008
822.601847	2508.954543
822.919945	2499.714108
823.237999	2486.236583
823.556010	2473.953812
823.873976	2464.058027
824.191897	2448.896757
824.509775	2443.578339
824.827609	2434.582400
825.145398	2432.293716
825.463144	2432.127358
825.780845	2430.264652
826.098502	2434.423604
826.416116	2440.357042
826.733685	2445.705706
827.051210	2444.485747
827.368692	2443.769903
827.686129	2434.625250
828.003522	2427.136616
828.320872	2422.266861
828.638177	2416.590522
828.955439	2410.846127
829.272656	2411.917372
829.589830	2406.455282
829.906960	2409.361508
830.224046	2407.531569
830.541088	2406.919068
830.858086	2405.517628
831.175041	2409.031312
831.491952	2402.863460
831.808819	2407.186250
832.125642	2405.575601
832.442421	2411.710685
832.759157	2411.141035
833.075849	2414.972312
833.392497	2422.397931
833.709101	2423.932963
834.025662	2421.361974
834.342179	2420.520102
834.658653	2416.910635
834.975083	2412.265212
835.291469	2415.118505
835.607811	2412.275294
835.924110	2408.953174
836.240366	2407.776065
836.556578	2403.841444
836.872746	2402.319016
837.188871	2403.168450
837.504952	2404.479150
837.820990	2402.606361
838.136984	2402.112328
838.452935	2401.814900
838.768842	2403.481002
839.084706	2404.219531
839.400526	2404.494273
839.716303	2405.641136
840.032037	2406.787998
840.347727	2410.029460
840.663373	2406.185581
840.978977	2404.022926
841.294537	2404.179201
841.610054	2404.141393
841.925527	2400.368089
842.240957	2400.403377
842.556344	2401.593089
842.871687	2402.639129
843.186987	2398.003788
843.502244	2399.382543
843.817458	2399.145609
844.132629	2397.285423
844.447756	2400.892369
844.762840	2395.647048
845.077881	2395.140413
845.392879	2395.538664
845.707833	2396.435989
846.022745	2393.570093
846.337613	2397.323232
846.652438	2397.202244
846.967221	2396.970351
847.281960	2398.288613
847.596656	2399.715260
847.911309	2395.377347
848.225919	2395.810886
848.540485	2396.909857
848.855009	2396.065464
849.169490	2395.021945
849.483928	2395.699981
849.798323	2396.194014
850.112675	2394.280896
850.426984	2400.292472
850.741251	2397.915568
851.055474	2397.318191
851.369654	2395.513458
851.683792	2396.251987
851.997887	2398.966648
852.311938	2398.535630
852.625947	2398.260887
852.939914	2398.759961
853.253837	2397.366082
853.567718	2399.826165
853.881555	2398.548233
854.195350	2397.640825
854.509103	2397.872718
854.822812	2397.870197
855.136479	2396.259549
855.450103	2397.635784
855.763685	2399.556463
856.077224	2397.761812
856.390720	2397.240053
856.704173	2398.260887
857.017584	2396.438510
857.330953	2395.813407
857.644278	2398.669220
857.957561	2402.475291
858.270802	2398.767523
858.584000	2398.495300
858.897155	2398.444889
859.210268	2397.645866
859.523339	2397.918088
859.836367	2397.078736
860.149352	2397.285423
860.462295	2397.187121
860.775195	2394.417007
861.088054	2393.063457
861.400869	2396.748541
861.713642	2395.987326
862.026373	2398.480177
862.339062	2396.756102
862.651708	2396.209137
862.964312	2395.127810
863.276873	2395.720145
863.589392	2398.298695
863.901869	2401.240209
864.214303	2397.638304
864.526696	2400.128634
864.839045	2395.972203
865.151353	2397.955897
865.463619	2396.642676
865.775842	2398.906154
866.088023	2396.950187
866.400162	2398.875908
866.712258	2397.910527
867.024313	2397.252656
867.336325	2397.839950
867.648296	2399.261556
867.960224	2397.580331
868.272110	2398.787687
868.583954	2395.962121
868.895755	2397.051010
869.207515	2397.766854
869.519233	2398.651576
869.830909	2395.677295
870.142542	2397.025804
870.454134	2400.388254
870.765684	2399.274159
871.077191	2395.377347
871.388657	2399.342214
871.700081	2398.570918
872.011463	2398.303737
872.322803	2397.897924
872.634101	2400.289951
872.945357	2396.693088
873.256571	2399.155692
873.567744	2397.736607
873.878874	2397.492111
874.189963	2398.790208
874.501010	2396.100752
874.812015	2398.127296
875.122979	2399.816083
875.433900	2396.415824
875.744780	2400.647873
876.055618	2397.902965
876.366415	2399.803480
876.677169	2401.794736
876.987882	2399.256515
877.298554	2394.601009
877.609183	2397.887841
877.919771	2396.932543
878.230317	2397.192162
878.540822	2399.208624
878.851285	2401.522513
879.161707	2402.293810
879.472087	2406.651887
879.782425	2409.069121
880.092722	2412.366035
880.402977	2421.732499
880.713191	2434.194231
881.023363	2444.619338
881.333494	2450.628393
881.643583	2451.795420
881.953631	2452.886830
882.263637	2450.668722
882.573602	2445.685542
882.883526	2440.525921
883.193408	2437.710436
883.503248	2429.420259
883.813048	2427.318097
884.122806	2424.053950
884.432522	2420.101686
884.742197	2418.029772
885.051831	2416.003228
885.361424	2411.869482
885.670975	2409.316137
885.980485	2406.853533
886.289954	2407.506363
886.599382	2406.112484
886.908768	2402.785322
887.218113	2401.703995
887.527417	2401.237688
887.836680	2400.859602
888.145901	2402.755075
888.455082	2398.215516
888.764221	2398.777605
889.073319	2400.053017
889.382376	2401.998902
889.691392	2401.056207
890.000366	2402.369427
890.309300	2398.467574
890.618193	2399.105280
890.927044	2400.405898
891.235855	2399.460681
891.544625	2397.842471
891.853353	2397.814745
892.162041	2398.061761
892.470687	2401.391443
892.779293	2400.698285
893.087858	2399.521175
893.396381	2400.408418
893.704864	2403.223903
894.013306	2405.230282
894.321707	2410.246230
894.630068	2414.450552
894.938387	2413.712023
895.246665	2412.986097
895.554903	2411.955181
895.863100	2409.827814
896.171256	2410.964594
896.479371	2405.875550
896.787446	2406.115004
897.095480	2406.044428
897.403473	2406.848492
897.711425	2401.109139
898.019336	2403.218862
898.327207	2402.671896
898.635038	2401.378840
898.942827	2400.973028
899.250576	2397.577810
899.558284	2397.905485
899.865952	2399.576628
900.173579	2398.883469
900.481165	2401.590569
900.788711	2398.976731
901.096216	2398.583521
901.403681	2399.664848
901.711105	2400.085784
902.018489	2396.420866
902.325832	2400.733573
902.633135	2397.872718
902.940397	2399.972358
903.247619	2401.081412
903.554800	2406.679614
903.861941	2411.390572
904.169041	2416.613207
904.476101	2416.618248
904.783121	2417.084555
905.090100	2413.258319
905.397039	2410.949471
905.703938	2409.986611
906.010796	2408.297824
906.317614	2406.046949
906.624391	2404.655590
906.931129	2401.091495
907.237826	2404.781619
907.544483	2402.160219
907.851099	2400.776422
908.157675	2399.715260
908.464211	2398.273490
908.770707	2393.877603
909.077163	2396.796432
909.383578	2390.817623
909.689954	2393.265103
909.996289	2392.314846
910.302584	2394.069167
910.608839	2394.482542
910.915054	2395.586555
911.221229	2394.001112
911.527363	2394.938766
911.833458	2397.182080
912.139513	2395.029507
912.445527	2396.241905
912.751502	2395.929353
913.057436	2397.630743
913.363331	2395.059754
913.669186	2397.983623
913.975000	2398.828017
914.280775	2400.153840
914.586510	2400.801628
914.892205	2403.722977
915.197859	2409.343863
915.503475	2409.699265
915.809050	2417.303845
916.114585	2413.144893
916.420081	2418.188568
916.725536	2412.781930
917.030952	2413.654050
917.336328	2413.953999
917.641665	2412.509708
917.946961	2412.436611
918.252218	2412.325706
918.557435	2408.585170
918.862612	2406.908986
919.167750	2406.210786
919.472848	2404.905128
919.777906	2402.306413
920.082925	2403.912020
920.387904	2398.321381
920.692843	2403.165929
920.997743	2399.974879
921.302603	2399.261556
921.607423	2397.476987
921.912204	2399.674930
922.216946	2397.315670
922.521647	2396.806514
922.826310	2398.127296
923.130932	2398.046638
923.435516	2395.697460
923.740059	2398.565877
924.044564	2398.964128
924.349028	2395.389950
924.653454	2391.535988
924.957840	2394.301060
925.262186	2387.573641
925.566493	2394.177552
925.870761	2388.720503
926.174989	2395.339538
926.479178	2395.480690
926.783328	2392.849208
927.087438	2394.114538
927.391509	2396.526730
927.695541	2395.082439
927.999533	2393.865001
928.303486	2393.335679
928.607400	2394.938766
928.911275	2393.706204
929.215110	2393.812068
929.518906	2394.603530
929.822663	2394.164949
930.126381	2391.951883
930.430060	2392.939949
930.733699	2394.729558
931.037299	2393.131513
931.340861	2393.350803
931.644383	2396.272152
931.947866	2391.762839
932.251309	2395.016904
932.554714	2393.736451
932.858080	2394.727038
933.161407	2393.431461
933.464694	2397.013201
933.767943	2393.050854
934.071153	2394.701832
934.374323	2393.126472
934.677455	2395.528581
934.980548	2391.619167
935.283602	2396.612429
935.586617	2394.353993
935.889593	2393.179404
936.192530	2392.100597
936.495428	2395.193345
936.798287	2394.079250
937.101108	2396.035217
937.403890	2393.862480
937.706632	2393.736451
938.009336	2395.185783
938.312002	2396.599827
938.614628	2395.962121
938.917216	2398.422204
939.219765	2394.845505
939.522275	2394.391801
939.824747	2395.221071
940.127179	2392.082953
940.429573	2389.453991
940.731929	2395.132851
941.034246	2390.716800
941.336524	2394.500186
941.638763	2394.409445
941.940964	2398.210475
942.243126	2395.238715
942.545250	2394.595968
942.847335	2392.032541
943.149381	2395.185783
943.451389	2391.813251
943.753359	2394.016235
944.055290	2394.487583
944.357182	2394.729558
944.659036	2394.969013
944.960851	2393.655793
945.262628	2392.831564
945.564367	2394.734600
945.866067	2390.626059
946.167729	2393.491955
946.469352	2391.165463
946.770937	2394.754764
947.072484	2391.828374
947.373992	2394.777449
947.675462	2393.212171
947.976893	2394.754764
948.278286	2392.655124
948.579641	2391.057078
948.880958	2393.683519
949.182236	2392.370298
949.483476	2394.353993
949.784678	2395.226112
950.085841	2394.603530
950.386967	2394.268293
950.688054	2392.085473
950.989103	2393.693601
951.290114	2394.805176
951.591087	2392.687891
951.892021	2394.016235
952.192917	2395.145454
952.493776	2397.618140
952.794596	2394.769888
953.095378	2395.440361
953.396122	2395.132851
953.696828	2394.543036
953.997496	2394.706873
954.298126	2394.311143
954.598718	2397.045969
954.899272	2393.368447
955.199788	2396.153684
955.500266	2392.065309
955.800706	2391.672099
956.101108	2389.224618
956.401472	2390.711759
956.701798	2388.765873
957.002087	2390.852911
957.302337	2393.302912
957.602550	2391.793086
957.902724	2393.174363
958.202861	2393.391132
958.502960	2392.335010
958.803022	2391.500699
959.103045	2392.476163
959.403031	2391.979609
959.702979	2390.910884
960.002889	2393.302912
960.302762	2392.899620
960.602596	2392.342572
960.902393	2388.917108
961.202153	2391.359547
961.501875	2390.759650
961.801559	2391.853580
962.101205	2391.004146
962.400814	2392.392984
962.700385	2391.238559
962.999918	2391.651934
963.299414	2391.747716
963.598873	2392.148488
963.898293	2392.753426
964.197677	2391.898951
964.497022	2390.184958
964.796331	2393.542367
965.095601	2391.581358
965.394835	2394.270813
965.694030	2389.837119
965.993189	2391.934239
966.292309	2392.521533
966.591393	2392.576986
966.890439	2390.749568
967.189447	2392.703015
967.488419	2391.805689
967.787353	2391.319218
968.086249	2392.597150
968.385108	2390.109341
968.683930	2392.932387
968.982714	2391.568755
969.281462	2392.148488
969.580172	2390.139588
969.878844	2388.443240
970.177480	2390.663868
970.476078	2392.271996
970.774639	2393.282747
971.073162	2391.878786
971.371649	2386.565410
971.670098	2388.755791
971.968510	2390.497510
972.266885	2386.320914
972.565223	2392.365257
972.863524	2390.142108
973.161788	2392.584547
973.460014	2391.457850
973.758204	2391.503220
974.056356	2387.787890
974.354471	2393.600340
974.652550	2392.183776
974.950591	2394.117058
975.248595	2388.463404
975.546563	2395.586555
975.844493	2390.376522
976.142386	2392.138405
976.440243	2390.656306
976.738062	2390.578168
977.035845	2390.273178
977.333590	2392.778632
977.631299	2391.730072
977.928971	2389.799310
978.226606	2389.683363
978.524204	2396.236863
978.821765	2388.506254
979.119290	2390.469783
979.416777	2391.893909
979.714228	2391.505741
980.011642	2392.950031
980.309020	2392.415669
980.606360	2392.287119
980.903664	2391.402397
981.200931	2391.311656
981.498162	2393.199568
981.795356	2391.538508
982.092513	2394.069167
982.389633	2390.963817
982.686717	2391.674619
982.983764	2393.232336
983.280775	2394.361554
983.577749	2394.411966
983.874686	2393.928015
984.171587	2390.996584
984.468451	2394.250649
984.765279	2394.497665
985.062070	2393.343241
985.358824	2392.292161
985.655543	2393.186965
985.952224	2393.834754
986.248869	2394.159908
986.545478	2386.043650
986.842050	2388.047509
987.138586	2389.496841
987.435086	2386.719165
987.731549	2388.150853
988.027975	2389.970709
988.324366	2392.249311
988.620719	2391.523385
988.917037	2391.611605
989.213318	2391.442726
989.509563	2391.856101
989.805772	2389.068343
990.101944	2391.462891
990.398080	2390.777294
990.694180	2391.777963
990.990244	2390.742006
991.286271	2390.111862
991.582262	2389.065822
991.878217	2390.512633
992.174136	2391.326780
992.470019	2390.023641
992.765865	2389.574979
993.061676	2391.180586
993.357450	2391.644372
993.653188	2389.385935
993.948890	2391.881307
994.244556	2390.472304
994.540186	2391.488097
994.835780	2390.464742
995.131337	2389.088507
995.426859	2388.743188
995.722345	2392.929867
996.017795	2391.306615
996.313208	2392.433313
996.608586	2392.450957
996.903928	2393.323077
997.199234	2392.705535
997.494504	2395.057233
997.789738	2391.503220
998.084936	2390.666388
998.380099	2390.684033
998.675225	2388.891902
998.970316	2391.488097
999.265371	2388.780997
999.560390	2388.629762
999.855373	2389.912736
1000.150320	2387.235883
1000.445232	2389.945503
1000.740108	2389.892571
1001.034948	2386.260420
1001.329752	2389.743857
1001.624521	2390.512633
1001.919254	2385.204298
1002.213951	2386.608260
1002.508613	2387.808054
1002.803239	2387.273692
1003.097829	2385.983157
1003.392384	2391.543549
1003.686903	2391.644372
1003.981386	2390.288302
1004.275834	2390.913405
1004.570246	2391.505741
1004.864623	2388.390307
1005.158964	2388.665050
1005.453270	2389.874927
1005.747540	2390.376522
1006.041775	2390.263096
1006.335974	2389.695966
1006.630138	2391.394835
1006.924266	2391.205792
1007.218359	2390.752088
1007.512416	2390.880638
1007.806438	2389.643034
1008.100425	2389.532129
1008.394376	2387.462735
1008.688292	2390.005997
1008.982172	2390.275699
1009.276017	2388.259238
1009.569827	2390.379043
1009.863602	2390.187479
1010.157341	2389.012890
1010.451045	2390.147150
1010.744714	2388.171017
1011.038347	2389.837119
1011.331945	2386.817468
1011.625508	2389.537170
1011.919036	2389.373333
1012.212528	2389.738816
1012.505986	2389.849722
1012.799408	2390.784856
1013.092795	2390.021121
1013.386147	2388.786038
1013.679464	2389.827036
1013.972745	2390.666388
1014.265992	2389.370812
1014.559204	2389.325442
1014.852380	2391.316697
1015.145521	2390.389125
1015.438628	2388.970040
1015.731699	2389.799310
1016.024736	2388.312170
1016.317737	2390.139588
1016.610703	2391.067160
1016.903635	2387.742519
1017.196531	2385.010214
1017.489393	2387.195554
1017.782219	2385.905019
1018.075011	2388.821326
1018.367768	2387.813095
1018.660490	2388.838970
1018.953177	2388.838970
1019.245829	2388.838970
