Dividing Wavelength (nm)	Counts (n)	Blue Motor Position (mm): 0.000000	Red Motor Position (mm): 14.800000	
326.493990	1980.462659
326.888308	1980.462659
327.282561	1980.462659
327.676750	1955.040120
328.070874	1959.017590
328.464933	1964.577983
328.858929	1974.650208
329.252859	1985.881899
329.646726	2000.839003
330.040528	2015.531446
330.434265	2035.527182
330.827938	2054.081149
331.221547	2075.420353
331.615091	2094.743096
332.008571	2114.358226
332.401986	2135.528551
332.795338	2154.745430
333.188625	2174.663028
333.581847	2197.827130
333.975006	2215.140973
334.368100	2231.998592
334.761129	2246.166755
335.154095	2262.512696
335.546996	2280.930552
335.939833	2294.496297
336.332606	2307.361321
336.725315	2319.404638
337.117960	2326.429486
337.510540	2333.635815
337.903056	2343.939933
338.295508	2349.429750
338.687896	2355.159021
339.080220	2364.190248
339.472480	2371.356249
339.864676	2374.595190
340.256807	2374.627958
340.648875	2375.931096
341.040879	2380.682383
341.432818	2378.328164
341.824694	2380.208515
342.216506	2376.818339
342.608253	2380.722712
342.999937	2379.598535
343.391557	2376.657022
343.783113	2374.378420
344.174605	2376.291538
344.566033	2374.136445
344.957397	2370.181660
345.348697	2369.901876
345.739934	2370.589993
346.131106	2369.407843
346.522215	2363.499610
346.913260	2364.253263
347.304241	2360.845443
347.695159	2357.833353
348.086012	2358.471059
348.476802	2356.247911
348.867528	2357.513240
349.258191	2354.549042
349.648789	2351.852024
350.039324	2353.946624
350.429796	2353.177848
350.820203	2346.841118
351.210548	2352.030985
351.600828	2348.839935
351.991045	2350.831191
352.381198	2349.507888
352.771288	2351.834380
353.161314	2351.153825
353.551276	2351.741119
353.941175	2350.813547
354.331010	2351.771366
354.720782	2352.033506
355.110490	2351.073166
355.500135	2351.743640
355.889717	2352.487210
356.279235	2352.398990
356.668689	2354.213805
357.058080	2352.983763
357.447408	2351.811695
357.836672	2350.528722
358.225873	2353.205574
358.615010	2352.925790
359.004084	2356.371419
359.393095	2357.929135
359.782043	2359.280165
360.170927	2359.247397
360.559748	2357.351923
360.948505	2360.391739
361.337199	2360.424507
361.725830	2360.071626
362.114398	2363.802080
362.502903	2363.809641
362.891344	2365.362317
363.279722	2365.632018
363.668037	2364.873325
364.056289	2365.992461
364.444478	2365.450537
364.832603	2366.408356
365.220665	2368.697040
365.608665	2368.049252
365.996601	2368.870960
366.384474	2369.307020
366.772284	2371.550333
367.160031	2370.093440
367.547715	2368.152595
367.935336	2372.246012
368.322893	2375.121991
368.710388	2373.181146
369.097820	2376.805736
369.485189	2374.794316
369.872495	2376.704913
370.259738	2379.835469
370.646918	2382.587939
371.034035	2383.172713
371.421090	2387.387118
371.808081	2385.988198
372.195010	2391.881307
372.581875	2398.787687
372.968678	2406.072155
373.355418	2407.581980
373.742096	2416.787127
374.128710	2428.613674
374.515262	2440.178081
374.901751	2454.900771
375.288177	2470.293934
375.674540	2489.420072
376.060841	2508.276508
376.447079	2531.924560
376.833254	2561.942111
377.219367	2583.856007
377.605417	2617.082252
377.991404	2641.186529
378.377329	2684.515246
378.763191	2716.022458
379.148991	2760.293871
379.534727	2811.648105
379.920402	2854.442460
380.306013	2903.152609
380.691563	2963.354068
381.077049	3018.388345
381.462474	3074.564443
381.847835	3145.864002
382.233134	3216.016699
382.618371	3276.208076
383.003545	3357.857124
383.388657	3434.712035
383.773706	3525.919111
384.158693	3601.047427
384.543618	3692.130995
384.928480	3769.671503
385.313280	3872.982389
385.698017	3976.545333
386.082692	4088.821911
386.467305	4152.950429
386.851856	4276.660345
387.236344	4432.689097
387.620770	4491.526925
388.005133	4610.034369
388.389435	4753.354373
388.773674	4831.121733
389.157851	4969.420748
389.541965	5100.904122
389.926018	5122.868429
390.310008	5299.437363
390.693936	5421.186270
391.077802	5531.942941
391.461606	5663.411192
391.845348	5774.460249
392.229027	5896.403240
392.612645	6113.654286
392.996200	6222.848199
393.379694	6401.915024
393.763125	6617.971317
394.146494	6709.112858
394.529801	6841.682601
394.913047	7084.230156
395.296230	7069.507467
395.679351	7126.835468
396.062410	7379.893829
396.445408	7273.323837
396.828343	7421.770694
397.211217	7553.606950
397.594028	7438.255267
397.976778	7631.926316
398.359466	7800.560474
398.742092	7770.018643
399.124656	7909.290601
399.507158	8088.924556
399.889598	8104.121114
400.271977	8305.119480
400.654294	8328.364240
401.036549	8519.139146
401.418742	8529.201289
401.800874	8815.380031
402.182944	8887.176144
402.564952	9221.878513
402.946898	9037.520996
403.328783	9075.954753
403.710606	9244.581349
404.092367	9469.368920
404.474067	9785.207290
404.855705	9561.246469
405.237282	9486.753339
405.618797	9852.723464
406.000250	10049.197394
406.381642	10332.540487
406.762972	10243.864070
407.144240	10010.768678
407.525447	10180.448875
407.906593	10052.781654
408.287677	10227.871010
408.668700	10299.301639
409.049661	10192.194764
409.430560	10259.141287
409.811399	10154.973404
410.192176	10208.457526
410.572891	10173.383698
410.953545	10476.170522
411.334138	9947.101426
411.714669	10336.732206
412.095139	9674.667389
412.475547	9963.802768
412.855894	9739.985620
413.236180	9863.526657
413.616405	9517.116208
413.996568	9595.775852
414.376670	9453.108678
414.756711	9240.891224
415.136691	9308.120052
415.516609	9290.796127
415.896466	9204.093322
416.276262	9243.119414
416.655997	9381.920024
417.035670	9253.121064
417.415283	9496.545780
417.794834	9396.171366
418.174324	9077.439373
418.553753	8861.259572
418.933121	8969.369637
419.312428	8695.607257
419.691674	8485.686049
420.070859	8557.348572
420.449983	8217.862148
420.829045	8321.074732
421.208047	8035.836165
421.586988	8078.607835
421.965867	8010.272474
422.344686	7836.329981
422.723444	7889.836788
423.102141	7205.810184
423.480777	7494.433886
423.859352	7144.960937
424.237866	7370.245061
424.616319	7097.132990
424.994712	7146.455639
425.373044	6911.328662
425.751314	6943.334948
426.129524	6526.247522
426.507673	6657.587224
426.885762	6424.441420
427.263789	6308.966230
427.641756	6190.214289
428.019662	6050.178597
428.397508	5903.985136
428.775292	5814.204706
429.153016	5654.508514
429.530679	5523.390623
429.908282	5386.813163
430.285824	5196.663360
430.663305	5182.379251
431.040726	4985.549919
431.418086	4831.194830
431.795385	4800.106034
432.172624	4736.088421
432.549802	4560.996545
432.926920	4470.976661
433.303977	4346.495449
433.680974	4264.967388
434.057910	4194.902912
434.434786	4099.612501
434.811601	3989.276767
435.188355	3986.597394
435.565050	3867.787480
435.941683	3776.381278
436.318257	3751.281373
436.694770	3658.143535
437.071222	3614.643419
437.447614	3486.875375
437.823946	3413.710588
438.200218	3356.216229
438.576429	3287.979170
438.952580	3237.376068
439.328670	3181.474713
439.704700	3147.741832
440.080670	3083.671287
440.456580	3056.507030
440.832429	3017.949764
441.208218	2943.940585
441.583947	2922.500558
441.959616	2892.369581
442.335224	2862.851105
442.710773	2836.080057
443.086261	2819.068683
443.461689	2778.542848
443.837057	2758.269847
444.212365	2744.618403
444.587612	2724.904971
444.962800	2699.313553
445.337927	2687.497089
445.712995	2654.729589
446.088002	2664.751402
446.462949	2648.584422
446.837837	2642.706437
447.212664	2627.308232
447.587431	2646.696510
447.962139	2662.684529
448.336786	2675.446210
448.711374	2655.389980
449.085901	2614.486057
449.460369	2601.860488
449.834776	2595.496031
450.209124	2606.800818
450.583412	2596.922678
450.957640	2594.308839
451.331808	2580.564133
451.705917	2564.324056
452.079965	2560.064281
452.453954	2556.417006
452.827883	2554.846687
453.201752	2546.972405
453.575562	2545.949050
453.949311	2549.243444
454.323001	2546.155738
454.696632	2544.794626
455.070202	2549.069525
455.443713	2543.325130
455.817164	2542.916796
456.190556	2543.110881
456.563888	2539.546785
456.937160	2535.314736
457.310373	2531.556556
457.683526	2528.063037
458.056619	2528.108407
458.429653	2528.211751
458.802628	2525.055988
459.175542	2524.708149
459.548398	2532.017822
459.921194	2534.820703
460.293930	2534.908923
460.666607	2544.850079
461.039224	2552.033723
461.411782	2549.765204
461.784280	2543.768751
462.156719	2541.127187
462.529099	2538.372196
462.901419	2528.713345
463.273680	2524.486338
463.645882	2524.299815
464.018024	2523.483148
464.390106	2527.503468
464.762130	2537.573173
465.134094	2552.069011
465.505999	2574.043401
465.877845	2588.808940
466.249631	2593.449323
466.621358	2584.899526
466.993026	2577.524317
467.364634	2571.837896
467.736184	2558.249466
468.107674	2551.317879
468.479105	2548.381407
468.850477	2546.611962
469.221790	2539.524100
469.593043	2534.480425
469.964238	2527.163191
470.335373	2526.926256
470.706449	2533.991433
471.077467	2539.569470
471.448425	2559.585372
471.819324	2566.963100
472.190164	2564.003943
472.560945	2547.862168
472.931667	2539.556867
473.302330	2531.927081
473.672934	2528.118489
474.043479	2528.529343
474.413965	2526.729651
474.784393	2523.725124
475.154761	2526.825433
475.525070	2526.071781
475.895321	2525.560104
476.265513	2526.865763
476.635645	2530.230733
477.005719	2528.594878
477.375734	2531.468336
477.745691	2536.549819
478.115588	2541.129707
478.485427	2547.511808
478.855207	2560.966648
479.224928	2569.092988
479.594591	2576.919379
479.964194	2571.207752
480.333739	2570.827145
480.703226	2573.723287
481.072653	2574.176991
481.442022	2575.510377
481.811333	2575.064234
482.180584	2573.808987
482.549777	2568.568708
482.918912	2567.870508
483.287988	2564.097204
483.657005	2564.634087
484.025964	2560.260886
484.394864	2558.224260
484.763706	2559.030845
485.132489	2555.980947
485.501213	2555.471790
485.869879	2555.121430
486.238487	2557.440361
486.607036	2552.046326
486.975527	2551.345606
487.343959	2551.574978
487.712333	2554.466080
488.080648	2552.237890
488.448905	2556.711914
488.817104	2557.266441
489.185244	2557.064795
489.553326	2562.670558
489.921350	2577.068093
490.289315	2586.530339
490.657222	2589.761718
491.025070	2592.458736
491.392861	2586.643765
491.760593	2581.184195
492.128267	2572.730180
492.495883	2568.009140
492.863440	2565.349931
493.230939	2559.771894
493.598380	2556.671585
493.965763	2550.271840
494.333088	2550.292004
494.700354	2546.264122
495.067563	2549.180430
495.434713	2544.645912
495.801805	2547.239586
496.168839	2548.620862
496.535815	2546.034750
496.902733	2544.509801
497.269593	2547.756304
497.636395	2543.927548
498.003139	2549.679504
498.369825	2544.522404
498.736453	2548.363763
499.103023	2548.923331
499.469535	2549.359391
499.835989	2552.076573
500.202385	2550.357539
500.568723	2550.725544
500.935003	2550.274360
501.301226	2553.714948
501.667390	2556.298539
502.033497	2559.010680
502.399546	2555.388611
502.765537	2556.270813
503.131470	2556.830381
503.497345	2562.070660
503.863163	2558.867007
504.228923	2561.082594
504.594625	2563.807338
504.960269	2564.392112
505.325856	2566.166598
505.691385	2572.621795
506.056856	2571.505180
506.422270	2574.247567
506.787625	2573.821590
507.152924	2577.415933
507.518164	2578.406519
507.883347	2577.161354
508.248472	2580.569174
508.613540	2586.535380
508.978550	2590.147367
509.343503	2591.269023
509.708398	2592.723396
510.073236	2597.116762
510.438016	2606.064810
510.802738	2601.772267
511.167403	2607.131014
511.532010	2610.927003
511.896561	2611.534462
512.261053	2620.853035
512.625488	2619.355812
512.989866	2619.580143
513.354186	2619.819598
513.718449	2620.696759
514.082655	2629.410393
514.446803	2627.479632
514.810894	2633.750827
515.174927	2633.713018
515.538904	2637.224182
515.902822	2637.629995
516.266684	2639.470016
516.630488	2645.181643
516.994235	2643.530665
517.357925	2647.243475
517.721558	2649.668270
518.085133	2650.121974
518.448651	2652.564413
518.812112	2655.261430
519.175516	2655.349651
519.538863	2655.763025
519.902152	2656.972902
520.265385	2660.650424
520.628560	2660.947852
520.991678	2660.141267
521.354739	2661.522543
521.717743	2663.886845
522.080690	2666.462874
522.443580	2668.315498
522.806413	2670.578976
523.169189	2669.127124
523.531908	2671.367917
523.894569	2671.335149
524.257174	2673.117197
524.619722	2673.901097
524.982213	2674.732887
525.344647	2675.804132
525.707025	2672.723987
526.069345	2676.431756
526.431608	2674.848834
526.793815	2677.051818
527.155964	2671.685510
527.518057	2673.608710
527.880093	2671.758606
528.242072	2673.623833
528.603995	2672.393792
528.965860	2670.528565
529.327669	2669.522855
529.689421	2668.620488
530.051117	2670.828513
530.412755	2667.760971
530.774337	2667.448420
531.135862	2665.089160
531.497331	2660.940290
531.858743	2657.192192
532.220098	2660.950373
532.581396	2655.692449
532.942638	2652.302273
533.303824	2652.403096
533.664953	2650.278250
534.026025	2649.111223
534.387040	2648.362611
534.747999	2645.741211
535.108902	2643.573515
535.469748	2640.793319
535.830537	2636.316774
536.191270	2635.064048
536.551947	2631.326032
536.912567	2628.255969
537.273131	2625.309415
537.633638	2623.297994
537.994089	2619.018055
538.354483	2614.652416
538.714821	2615.398506
539.075103	2612.998917
539.435328	2608.166971
539.795497	2604.862495
540.155609	2603.559357
540.515665	2600.832092
540.875665	2599.042483
541.235609	2595.163315
541.595496	2592.010073
541.955328	2586.227870
542.315102	2585.580081
542.674821	2578.741756
543.034483	2577.574729
543.394090	2571.071641
543.753640	2571.777402
544.113134	2573.413257
544.472571	2564.959242
544.831953	2566.985785
545.191278	2559.126627
545.550548	2557.505896
545.909761	2556.714434
546.268918	2552.255534
546.628019	2554.493806
546.987064	2548.560368
547.346053	2542.735315
547.704986	2541.734646
548.063863	2538.561239
548.422684	2535.292051
548.781449	2534.039324
549.140158	2533.565456
549.498811	2533.512524
549.857408	2526.792666
550.215949	2525.512213
550.574434	2520.017355
550.932864	2519.596419
551.291237	2521.398631
551.649555	2518.285719
552.007817	2515.659278
552.366022	2517.983249
552.724173	2516.395286
553.082267	2515.374452
553.440305	2514.887981
553.798288	2512.720285
554.156215	2510.983607
554.514086	2510.799605
554.871902	2505.229130
555.229661	2507.452279
555.587365	2505.312309
555.945014	2505.143431
556.302606	2506.111332
556.660143	2504.094871
557.017625	2501.995230
557.375050	2502.655621
557.732421	2502.396002
558.089735	2500.137565
558.446994	2497.992554
558.804197	2500.994561
559.161345	2502.332987
559.518437	2498.584889
559.875474	2495.688747
560.232455	2496.976761
560.589381	2493.521050
560.946251	2497.047338
561.303065	2496.681854
561.659825	2495.643376
562.016528	2494.136071
562.373177	2493.359733
562.729770	2495.300578
563.086307	2497.576659
563.442789	2493.095073
563.799216	2492.502737
564.155587	2490.047695
564.511904	2492.041472
564.868164	2493.992398
565.224370	2491.986019
565.580520	2492.296050
565.936615	2491.572644
566.292654	2492.114568
566.648638	2492.482573
567.004567	2493.765546
567.360441	2489.551142
567.716260	2493.493324
568.072023	2490.755978
568.427732	2484.454535
568.783385	2487.670791
569.138982	2485.578713
569.494525	2484.804895
569.850013	2486.516367
570.205445	2491.882675
570.560823	2489.326810
570.916145	2489.500730
571.271412	2487.711121
571.626625	2489.115082
571.981782	2488.714310
572.336884	2488.868065
572.691931	2485.180461
573.046923	2488.270689
573.401860	2487.695997
573.756743	2485.303970
574.111570	2487.070894
574.466342	2484.426809
574.821059	2484.467138
575.175722	2483.884885
575.530330	2483.310193
575.884882	2480.656026
576.239380	2483.277426
576.593823	2483.842035
576.948211	2484.089052
577.302544	2482.937148
577.656823	2482.828763
578.011047	2483.259782
578.365216	2483.010245
578.719330	2483.100985
579.073389	2478.606797
579.427394	2483.721047
579.781344	2481.064359
580.135239	2476.781899
580.489080	2479.574698
580.842866	2478.866416
581.196597	2478.269039
581.550273	2480.613176
581.903895	2477.495222
582.257463	2480.204843
582.610975	2478.074955
582.964434	2475.866930
583.317837	2479.519246
583.671186	2477.283494
584.024481	2479.887250
584.377721	2476.015644
584.730906	2476.300469
585.084037	2480.159472
585.437113	2478.453042
585.790135	2475.113277
586.143103	2475.486322
586.496016	2476.300469
586.848874	2472.857361
587.201679	2473.265694
587.554428	2468.915178
587.907124	2473.270735
588.259765	2469.189921
588.612352	2477.505305
588.964884	2473.300982
589.317362	2474.455407
589.669786	2473.028760
590.022155	2473.391723
590.374470	2475.269553
590.726731	2474.168061
591.078937	2472.877525
591.431090	2471.193780
591.783188	2470.777885
592.135232	2469.817545
592.487222	2471.123204
592.839157	2470.130097
593.191038	2470.672021
593.542866	2471.826445
593.894639	2470.049438
594.246358	2467.518779
594.598022	2469.260498
594.949633	2468.418625
595.301190	2466.041721
595.652692	2471.118163
596.004141	2470.041876
596.355535	2471.697895
596.706876	2465.683799
597.058162	2465.131793
597.409395	2465.693881
597.760573	2465.774540
598.111698	2465.590538
598.462768	2467.861577
598.813785	2465.814869
599.164748	2463.276648
599.515657	2464.728500
599.866511	2465.618264
600.217312	2467.402832
600.568060	2465.620784
600.918753	2467.440641
601.269392	2465.504838
601.619978	2463.536267
601.970510	2464.209261
602.320988	2464.357975
602.671412	2465.787143
603.021783	2463.006946
603.372100	2465.751854
603.722363	2463.425362
604.072572	2465.824951
604.422728	2464.287399
604.772830	2459.987295
605.122878	2460.844291
605.472872	2463.914354
605.822813	2460.698098
606.172701	2464.136165
606.522534	2461.348407
606.872314	2462.402008
607.222041	2463.523664
607.571714	2462.306226
607.921333	2464.017698
608.270899	2462.467543
608.620411	2465.519961
608.969870	2464.713377
609.319276	2463.931998
609.668627	2465.305712
610.017926	2463.987451
610.367171	2466.598768
610.716362	2463.775722
611.065500	2463.407718
611.414585	2460.932511
611.763616	2464.852008
612.112594	2462.560804
612.461518	2462.654065
612.810389	2463.924436
613.159207	2462.472584
613.507971	2462.195320
613.856682	2461.539970
614.205340	2461.913016
614.553945	2463.758078
614.902496	2462.757409
615.250994	2463.974848
615.599439	2463.362348
615.947830	2464.340331
616.296169	2462.238170
616.644454	2462.588530
616.992686	2464.113479
617.340864	2464.824282
617.688990	2462.149950
618.037063	2463.465691
618.385082	2462.933849
618.733048	2463.485856
619.080961	2462.628860
619.428821	2463.216154
619.776628	2461.418983
620.124382	2465.706484
620.472083	2464.312605
620.819731	2466.714715
621.167326	2464.539457
621.514868	2466.006433
621.862357	2458.948817
622.209793	2462.336473
622.557176	2461.119034
622.904506	2456.498817
623.251783	2457.338169
623.599007	2458.061574
623.946179	2455.261213
624.293297	2456.193827
624.640363	2459.110134
624.987376	2456.100565
625.334336	2458.767336
625.681243	2458.003601
626.028097	2454.048816
626.374899	2456.614763
626.721647	2455.480503
627.068343	2456.871862
627.414987	2457.582665
627.761577	2457.101234
628.108115	2457.252469
628.454600	2454.898250
628.801032	2455.266254
629.147412	2456.377829
629.493739	2455.987139
629.840014	2456.760957
630.186236	2455.568724
630.532405	2453.736264
630.878521	2453.194340
631.224585	2452.589402
631.570597	2454.520164
631.916556	2453.353137
632.262462	2451.679473
632.608316	2453.738785
632.954117	2450.764504
633.299866	2453.194340
633.645562	2452.596963
633.991206	2450.726695
634.336797	2449.151335
634.682336	2451.739967
635.027823	2450.615790
635.373257	2447.886005
635.718639	2447.291149
636.063968	2449.413475
636.409245	2451.014041
636.754470	2446.847528
637.099642	2448.357353
637.444762	2449.347940
637.789829	2447.472631
638.134845	2449.005141
638.479808	2444.407609
638.824719	2445.831735
639.169577	2445.188988
639.514383	2447.119750
639.859137	2448.122939
640.203839	2446.466920
640.548489	2446.550099
640.893086	2441.806374
641.237632	2441.922320
641.582125	2441.110694
641.926566	2440.029367
642.270955	2444.415171
642.615292	2443.018771
642.959576	2445.957764
643.303809	2441.806374
643.647990	2446.978597
643.992118	2443.313679
644.336195	2445.337702
644.680219	2445.365428
645.024192	2444.175716
645.368112	2447.752415
645.711981	2442.587752
646.055797	2445.952723
646.399562	2446.913063
646.743274	2445.912393
647.086935	2448.422888
647.430544	2445.965326
647.774101	2447.200408
648.117606	2449.899946
648.461059	2446.406427
648.804460	2450.814916
649.147810	2446.845007
649.491108	2447.134873
649.834354	2445.793926
650.177548	2447.649071
650.520690	2444.329471
650.863781	2442.532300
651.206820	2447.613783
651.549807	2445.672939
651.892742	2445.017589
652.235626	2440.145313
652.578458	2439.908379
652.921238	2441.355190
653.263967	2442.227310
653.606644	2440.420056
653.949269	2441.962649
654.291843	2440.863678
654.634365	2440.266301
654.976836	2438.885025
655.319255	2438.459047
655.661622	2441.516507
656.003938	2440.455344
656.346203	2437.634819
656.688416	2437.856630
657.030577	2437.919644
657.372687	2439.918462
657.714746	2439.593307
658.056753	2439.013574
658.398708	2436.364448
658.740612	2437.377720
659.082465	2434.274890
659.424266	2436.878646
659.766016	2430.504107
660.107715	2438.297731
660.449362	2437.990220
660.790958	2438.476692
661.132503	2438.670776
661.473996	2437.133224
661.815438	2438.544747
662.156829	2437.183636
662.498168	2438.201949
662.839456	2439.978955
663.180693	2435.814962
663.521879	2439.860488
663.863013	2440.949378
664.204097	2437.060127
664.545129	2441.723195
664.886110	2437.135745
665.227040	2439.164809
665.567918	2439.832762
665.908746	2437.569284
666.249522	2441.060283
666.590248	2442.030705
666.930922	2440.891404
667.271545	2439.391661
667.612118	2441.072886
667.952639	2441.584563
668.293109	2437.546599
668.633528	2440.241095
668.973896	2441.430808
669.314213	2438.549788
669.654480	2437.392843
669.994695	2438.002823
670.334859	2437.435693
670.674973	2436.200611
671.015035	2439.232865
671.355047	2435.454520
671.695008	2439.983997
672.034918	2439.371496
672.374777	2438.983327
672.714585	2439.517690
673.054342	2440.125149
673.394049	2436.082143
673.733705	2439.802515
674.073310	2438.285128
674.412864	2436.828234
674.752368	2438.728749
675.091820	2435.351176
675.431223	2437.717998
675.770574	2436.984510
676.109875	2430.441092
676.449125	2435.968718
676.788324	2433.672472
677.127473	2434.776485
677.466571	2431.288006
677.805619	2431.812286
678.144616	2433.145671
678.483562	2436.460230
678.822458	2434.257246
679.161303	2433.407811
679.500098	2434.930240
679.838842	2434.942843
680.177535	2432.394539
680.516179	2434.335384
680.854771	2435.963676
681.193314	2436.674479
681.531805	2434.499221
681.870247	2437.176074
682.208638	2435.754468
682.546978	2437.866712
682.885268	2438.030549
683.223508	2436.445107
683.561697	2436.364448
683.899836	2436.939140
684.237925	2436.924016
684.575963	2435.159612
684.913951	2435.091557
685.251889	2436.732452
685.589776	2435.958635
685.927614	2433.470826
686.265401	2434.937802
686.603137	2436.026691
686.940824	2439.830241
687.278460	2439.535334
687.616046	2439.797474
687.953582	2439.953750
688.291068	2438.232196
688.628504	2439.399223
688.965889	2438.156578
689.303224	2440.752773
689.640510	2436.568615
689.977745	2438.295210
690.314930	2437.486105
690.652065	2436.182967
690.989150	2433.027204
691.326185	2436.024170
691.663170	2435.416711
692.000105	2435.487287
692.336990	2429.899168
692.673825	2435.462082
693.010610	2432.782708
693.347345	2427.439085
693.684030	2426.624939
694.020665	2428.462439
694.357251	2424.469846
694.693786	2429.206010
695.030272	2427.517223
695.366707	2428.956472
695.703093	2427.192069
696.039429	2428.404466
696.375716	2429.253901
696.711952	2428.248190
697.048139	2427.696184
697.384276	2426.405649
697.720363	2429.170722
698.056400	2426.536719
698.392388	2424.759712
698.728326	2426.579568
699.064214	2428.596030
699.400053	2425.294074
699.735842	2424.109403
700.071581	2424.215267
700.407270	2424.973961
700.742910	2427.396235
701.078501	2423.232242
701.414042	2426.811462
701.749533	2420.575554
702.084974	2421.790472
702.420366	2423.159146
702.755709	2423.348189
703.091002	2421.530853
703.426246	2423.161666
703.761440	2421.235945
704.096584	2419.443815
704.431679	2419.771490
704.766725	2423.443971
705.101721	2421.321645
705.436668	2423.837181
705.771565	2420.522622
706.106413	2422.723086
706.441212	2421.309042
706.775961	2422.304670
707.110661	2426.100659
707.445311	2423.322983
707.779913	2423.849784
708.114465	2424.341296
708.448967	2423.983374
708.783421	2425.835998
709.117825	2422.818868
709.452180	2427.068560
709.786485	2425.906574
710.120742	2427.335742
710.454949	2428.296081
710.789107	2426.259455
711.123216	2426.801379
711.457275	2426.902202
711.791286	2425.866245
712.125247	2424.432037
712.459159	2427.766760
712.793023	2429.964703
713.126837	2428.200299
713.460602	2431.303130
713.794318	2426.970258
714.127985	2429.092584
714.461602	2425.994795
714.795171	2427.171904
715.128691	2424.036306
715.462162	2428.041503
715.795584	2425.581420
716.128957	2424.462284
716.462281	2421.447674
716.795556	2422.561769
717.128782	2422.929773
717.461960	2422.062695
717.795088	2421.772828
718.128167	2420.696542
718.461198	2419.521953
718.794180	2420.840215
719.127113	2418.332241
719.459997	2422.738209
719.792833	2418.289391
720.125619	2421.165369
720.458357	2416.918197
720.791046	2418.279309
721.123686	2418.110430
721.456278	2420.217632
721.788821	2417.974319
722.121315	2419.920204
722.453761	2417.470203
722.786158	2418.906932
723.118506	2420.704104
723.450805	2417.724782
723.783056	2417.596232
724.115259	2420.278126
724.447412	2420.091603
724.779518	2418.992632
725.111574	2418.601943
725.443582	2417.686973
725.775542	2419.713517
726.107453	2417.394586
726.439315	2421.135122
726.771129	2424.406831
727.102895	2421.856007
727.434612	2423.751481
727.766281	2421.445153
728.097901	2421.402303
728.429473	2421.054464
728.760996	2417.492889
729.092471	2419.025399
729.423897	2421.689649
729.755276	2422.506316
730.086606	2423.176790
730.417887	2419.423651
730.749120	2421.162849
731.080305	2424.527819
731.411442	2420.976326
731.742530	2424.071594
732.073570	2425.712490
732.404562	2423.159146
732.735506	2424.053950
733.066401	2422.269382
733.397249	2426.713159
733.728048	2425.702408
734.058798	2419.844587
734.389501	2421.452715
734.720156	2421.659402
735.050762	2417.986922
735.381320	2417.324010
735.711831	2416.708989
736.042293	2418.422982
736.372707	2418.112951
736.703073	2419.774011
737.033391	2417.845769
737.363661	2416.731674
737.693883	2417.986922
738.024056	2420.593198
738.354182	2419.073290
738.684260	2419.678229
739.014290	2417.737385
739.344272	2420.131933
739.674207	2421.135122
740.004093	2418.586819
740.333931	2421.180493
740.663722	2417.596232
740.993464	2418.962385
741.323159	2422.571851
741.652806	2421.646799
741.982405	2421.558579
742.311956	2419.010276
742.641460	2419.501788
742.970915	2420.817530
743.300323	2416.847621
743.629683	2415.476427
743.958996	2416.547672
744.288260	2416.459452
744.617477	2414.541293
744.946647	2410.183216
745.275768	2415.373083
745.604842	2413.021385
745.933869	2412.991138
746.262847	2414.170768
746.591778	2415.660429
746.920662	2414.616910
747.249498	2412.839904
747.578286	2415.927610
747.907027	2419.138825
748.235720	2416.524987
748.564365	2416.724113
748.892963	2418.233938
749.221514	2419.325348
749.550017	2414.256468
749.878473	2419.524474
750.206881	2416.104051
750.535242	2415.529359
750.863555	2416.676222
751.191821	2415.388207
751.520039	2417.409710
751.848210	2415.683114
752.176334	2416.192271
752.504411	2414.019534
752.832440	2414.195974
753.160421	2414.596746
753.488356	2415.219328
753.816243	2415.894843
754.144082	2411.861920
754.471875	2413.386869
754.799620	2416.724113
755.127318	2416.547672
755.454969	2413.346540
755.782572	2416.925759
756.110129	2414.236303
756.437638	2415.536921
756.765100	2412.113977
757.092515	2413.497774
757.419882	2414.662281
757.747203	2414.226221
758.074477	2415.549524
758.401703	2412.877712
758.728882	2416.366191
759.056014	2412.716395
759.383099	2418.012128
759.710138	2415.597415
760.037129	2416.588002
760.364073	2416.358629
760.690970	2414.737898
761.017820	2416.119174
761.344623	2414.377456
761.671379	2413.016344
761.998088	2411.680438
762.324751	2419.065729
762.651366	2422.279464
762.977935	2429.306833
763.304456	2430.267173
763.630931	2438.983327
763.957359	2434.491659
764.283740	2430.136103
764.610074	2427.958324
764.936362	2426.871955
765.262602	2422.334917
765.588796	2421.835843
765.914943	2416.746798
766.241044	2417.419792
766.567097	2416.701427
766.893104	2415.995666
767.219064	2414.611869
767.544978	2414.077507
767.870845	2412.265212
768.196665	2415.050450
768.522438	2413.190264
768.848165	2411.624986
769.173846	2412.381159
769.499479	2411.088103
769.825066	2410.520973
770.150607	2410.606673
770.476101	2410.861251
770.801548	2409.729512
771.126949	2411.130953
771.452303	2404.327915
771.777611	2407.942423
772.102872	2409.069121
772.428087	2408.494429
772.753256	2409.386713
773.078378	2409.432084
773.403453	2407.529048
773.728482	2404.975704
774.053465	2409.379152
774.378401	2407.821435
774.703291	2409.442166
775.028135	2408.537279
775.352932	2406.702299
775.677683	2407.453431
776.002388	2406.414953
776.327046	2407.244223
776.651658	2408.743966
776.976224	2408.854872
777.300743	2408.234810
777.625216	2407.675242
777.949643	2405.996537
778.274024	2408.038205
778.598359	2405.074006
778.922647	2403.821279
779.246889	2406.974521
779.571086	2401.552760
779.895236	2408.287742
780.219339	2403.445713
780.543397	2407.743297
780.867409	2405.371434
781.191374	2407.990314
781.515294	2407.861764
781.839167	2408.411250
782.162995	2405.184912
782.486776	2405.961249
782.810511	2406.432597
783.134201	2407.221538
783.457844	2407.839079
783.781441	2405.048800
784.104993	2406.248595
784.428498	2407.602145
784.751958	2408.179357
785.075372	2406.314130
785.398739	2405.341187
785.722061	2403.435631
786.045337	2408.479306
786.368568	2406.606517
786.691752	2405.817576
787.014891	2408.179357
787.337983	2407.397978
787.661030	2409.752197
787.984031	2409.008627
788.306987	2410.586508
788.629897	2410.102557
788.952760	2410.911662
789.275579	2412.164389
789.598351	2410.079872
789.921078	2410.127763
790.243759	2408.370921
790.566395	2408.847310
790.888984	2407.440828
791.211529	2409.298493
791.534027	2407.972670
791.856480	2407.161044
792.178888	2408.537279
792.501249	2407.314799
792.823566	2407.529048
793.145836	2406.367062
793.468062	2405.497463
793.790241	2407.198853
794.112375	2409.548030
794.434464	2407.639953
794.756507	2409.699265
795.078505	2409.074162
795.400457	2404.809346
795.722364	2402.530744
796.044226	2402.208110
796.366042	2405.961249
796.687812	2403.977555
797.009538	2407.622309
797.331218	2407.042577
797.652852	2409.578277
797.974442	2406.682134
798.295986	2408.012999
798.617484	2407.667680
798.938938	2408.570046
799.260346	2409.358987
799.581709	2406.402350
799.903026	2407.892011
800.224299	2407.536610
800.545526	2404.068296
800.866708	2403.266752
801.187845	2405.512587
801.508936	2403.798594
801.829983	2405.714233
802.150984	2407.060221
802.471940	2404.547206
802.792851	2406.057031
803.113717	2403.259191
803.434538	2405.923441
803.755314	2403.037380
804.076045	2407.035015
804.396731	2403.846485
804.717372	2404.499315
805.037967	2405.404202
805.358518	2402.762637
805.679024	2404.912689
805.999485	2405.162226
806.319901	2405.709192
806.640272	2406.208266
806.960598	2409.245561
807.280879	2404.663152
807.601115	2407.181208
807.921306	2405.258008
808.241453	2404.915210
808.561554	2406.367062
808.881611	2404.864798
809.201623	2404.700961
809.521590	2405.822618
809.841513	2405.447052
810.161390	2406.435118
810.481223	2404.196845
810.801011	2406.425035
811.120755	2405.210117
811.440453	2406.596435
811.760107	2406.092319
812.079716	2405.016033
812.399281	2398.596123
812.718801	2402.326577
813.038276	2401.338511
813.357707	2402.777761
813.677093	2401.348593
813.996434	2407.584501
814.315731	2404.758934
814.634983	2404.887483
814.954191	2404.418656
815.273354	2403.990158
815.592473	2406.775396
815.911547	2404.756413
816.230577	2405.505025
816.549562	2406.682134
816.868502	2407.445869
817.187399	2406.238513
817.506250	2406.513256
817.825058	2405.089130
818.143821	2407.498801
818.462539	2406.793040
818.781213	2408.925448
819.099843	2410.198339
819.418429	2413.613721
819.736970	2415.967940
820.055466	2415.007600
820.373919	2419.519432
820.692327	2423.171748
821.010691	2431.782039
821.329011	2451.180399
821.647286	2480.489668
821.965517	2512.571571
822.283704	2534.533357
822.601847	2538.924203
822.919945	2524.302336
823.237999	2504.483039
823.556010	2492.913591
823.873976	2476.590335
824.191897	2464.340331
824.509775	2452.821295
824.827609	2445.985490
825.145398	2438.890066
825.463144	2439.527772
825.780845	2438.557350
826.098502	2439.789912
826.416116	2449.168979
826.733685	2457.063426
827.051210	2457.996039
827.368692	2454.298353
827.686129	2449.446242
828.003522	2437.597010
828.320872	2428.119641
828.638177	2424.890782
828.955439	2419.108578
829.272656	2415.859555
829.589830	2412.456776
829.906960	2415.065573
830.224046	2410.286559
830.541088	2409.490057
830.858086	2410.556261
831.175041	2408.622978
831.491952	2408.839748
831.808819	2408.688513
832.125642	2410.243709
832.442421	2411.743453
832.759157	2413.374266
833.075849	2423.648137
833.392497	2424.374064
833.709101	2431.121648
834.025662	2429.692481
834.342179	2428.800197
834.658653	2424.951276
834.975083	2420.447005
835.291469	2421.664443
835.607811	2414.692528
835.924110	2412.280336
836.240366	2411.682959
836.556578	2409.018709
836.872746	2407.876888
837.188871	2403.861609
837.504952	2403.221382
837.820990	2403.801115
838.136984	2405.230282
838.452935	2406.349418
838.768842	2403.029818
839.084706	2404.174160
839.400526	2407.266908
839.716303	2413.172620
840.032037	2413.144893
840.347727	2413.228073
840.663373	2410.818401
840.978977	2410.145407
841.294537	2408.935530
841.610054	2405.089130
841.925527	2406.157854
842.240957	2403.347411
842.556344	2401.267935
842.871687	2402.170302
843.186987	2404.020405
843.502244	2402.349263
843.817458	2401.189797
844.132629	2402.097205
844.447756	2401.308264
844.762840	2395.009343
845.077881	2397.116545
845.392879	2397.056051
845.707833	2398.757440
846.022745	2394.606050
846.337613	2399.110321
846.652438	2401.262894
846.967221	2401.396484
847.281960	2399.495969
847.596656	2400.728532
847.911309	2399.145609
848.225919	2400.322719
848.540485	2400.892369
848.855009	2398.722152
849.169490	2398.770043
849.483928	2397.834909
849.798323	2400.446227
850.112675	2398.296175
850.426984	2399.143089
850.741251	2399.314488
851.055474	2396.955228
851.369654	2400.287431
851.683792	2398.989333
851.997887	2397.356000
852.311938	2397.227450
852.625947	2399.032183
852.939914	2398.207955
853.253837	2399.223747
853.567718	2397.098901
853.881555	2399.221227
854.195350	2396.441030
854.509103	2397.088818
854.822812	2398.175187
855.136479	2401.111659
855.450103	2397.771895
855.763685	2400.647873
856.077224	2398.989333
856.390720	2398.064282
856.704173	2396.977913
857.017584	2396.776267
857.330953	2398.986813
857.644278	2399.097718
857.957561	2398.248284
858.270802	2401.096536
858.584000	2398.684344
858.897155	2400.544529
859.210268	2400.042935
859.523339	2399.344735
859.836367	2399.967317
860.149352	2398.001267
860.462295	2399.344735
860.775195	2396.907337
861.088054	2394.815258
861.400869	2398.565877
861.713642	2396.814076
862.026373	2399.858933
862.339062	2399.148130
862.651708	2399.506052
862.964312	2400.627708
863.276873	2397.219888
863.589392	2399.775753
863.901869	2402.099725
864.214303	2401.005795
864.526696	2400.216854
864.839045	2402.482853
865.151353	2399.737945
865.463619	2398.777605
865.775842	2398.921278
866.088023	2400.506721
866.400162	2400.617626
866.712258	2399.057389
867.024313	2398.979251
867.336325	2397.280382
867.648296	2398.938922
867.960224	2399.528737
868.272110	2397.887841
868.583954	2396.168808
868.895755	2398.765002
869.207515	2399.369941
869.519233	2402.971845
869.830909	2399.067471
870.142542	2397.580331
870.454134	2400.332801
870.765684	2402.271125
871.077191	2400.088305
871.388657	2401.830024
871.700081	2400.007647
872.011463	2401.341032
872.322803	2398.956566
872.634101	2399.929509
872.945357	2401.275497
873.256571	2399.755589
873.567744	2400.199210
873.878874	2402.155178
874.189963	2402.024108
874.501010	2402.182904
874.812015	2401.031001
875.122979	2402.233316
875.433900	2401.078892
875.744780	2405.197514
876.055618	2397.628222
876.366415	2401.935888
876.677169	2403.334808
876.987882	2400.012688
877.298554	2397.363561
877.609183	2400.922616
877.919771	2397.716442
878.230317	2400.405898
878.540822	2403.400343
878.851285	2404.476629
879.161707	2405.028636
879.472087	2407.022412
879.782425	2413.795202
880.092722	2415.622621
880.402977	2431.109045
880.713191	2446.837445
881.023363	2457.496965
881.333494	2465.373768
881.643583	2467.695219
881.953631	2465.030969
882.263637	2461.706328
882.573602	2456.844136
882.883526	2452.196192
883.193408	2445.962805
883.503248	2438.771599
883.813048	2435.446958
884.122806	2430.209199
884.432522	2426.062850
884.742197	2422.236614
885.051831	2420.109248
885.361424	2418.284350
885.670975	2412.474420
885.980485	2412.469379
886.289954	2409.684141
886.599382	2411.211611
886.908768	2403.483522
887.218113	2405.840262
887.527417	2404.668193
887.836680	2405.449572
888.145901	2400.426062
888.455082	2402.157699
888.764221	2402.802966
889.073319	2402.092164
889.382376	2402.102246
889.691392	2401.832544
890.000366	2403.949829
890.309300	2402.266083
890.618193	2401.456978
890.927044	2402.487894
891.235855	2400.627708
891.544625	2401.472102
891.853353	2402.248439
892.162041	2401.192318
892.470687	2401.925806
892.779293	2404.103584
893.087858	2401.333470
893.396381	2403.342370
893.704864	2407.884449
894.013306	2407.103071
894.321707	2417.071952
894.630068	2417.666808
894.938387	2416.870306
895.246665	2417.813002
895.554903	2415.050450
895.863100	2415.299987
896.171256	2413.432239
896.479371	2410.873854
896.787446	2410.556261
897.095480	2407.254305
897.403473	2407.803791
897.711425	2409.701785
898.019336	2405.295817
898.327207	2402.588717
898.635038	2403.952349
898.942827	2403.123080
899.250576	2405.099212
899.558284	2400.970507
899.865952	2402.659293
900.173579	2402.124931
900.481165	2402.871022
900.788711	2398.457492
901.096216	2403.533934
901.403681	2400.811711
901.711105	2402.349263
902.018489	2400.980589
902.325832	2402.775240
902.633135	2402.046793
902.940397	2402.608882
903.247619	2404.960580
903.554800	2411.783782
903.861941	2415.052970
904.169041	2422.788621
904.476101	2425.599064
904.783121	2421.485482
905.090100	2421.334248
905.397039	2418.203691
905.703938	2413.578433
906.010796	2411.854358
906.317614	2410.430232
906.624391	2407.650036
906.931129	2407.120715
907.237826	2406.470406
907.544483	2404.199366
907.851099	2404.693399
908.157675	2400.484036
908.464211	2398.142420
908.770707	2397.434138
909.077163	2396.239384
909.383578	2395.964641
909.689954	2396.473798
909.996289	2396.688047
910.302584	2400.231978
910.608839	2399.077554
910.915054	2398.139899
911.221229	2396.693088
911.527363	2397.834909
911.833458	2393.718807
912.139513	2399.130486
912.445527	2399.198541
912.751502	2400.675599
913.057436	2397.844992
913.363331	2398.243243
913.669186	2398.313819
913.975000	2401.441855
914.280775	2403.750703
914.586510	2404.446383
914.892205	2410.863771
915.197859	2412.028278
915.503475	2415.100861
915.809050	2419.940369
916.114585	2421.472880
916.420081	2421.924063
916.725536	2423.948086
917.030952	2423.320462
917.336328	2421.137643
917.641665	2419.259813
917.946961	2416.310738
918.252218	2416.126736
918.557435	2415.610018
918.862612	2409.522824
919.167750	2406.916548
919.472848	2410.130283
919.777906	2405.678945
920.082925	2408.111301
920.387904	2402.843296
920.692843	2403.296999
920.997743	2403.191135
921.302603	2399.435476
921.607423	2400.426062
921.912204	2404.116187
922.216946	2400.403377
922.521647	2399.218706
922.826310	2397.298026
923.130932	2400.131155
923.435516	2396.604868
923.740059	2398.583521
924.044564	2398.858263
924.349028	2398.339025
924.653454	2395.014384
924.957840	2398.313819
925.262186	2394.427089
925.566493	2395.049672
925.870761	2392.647562
926.174989	2395.914230
926.479178	2396.577141
926.783328	2397.471946
927.087438	2397.252656
927.391509	2398.770043
927.695541	2395.939435
927.999533	2394.890875
928.303486	2395.251318
928.607400	2396.597306
928.911275	2394.507748
929.215110	2395.437841
929.518906	2393.738972
929.822663	2394.306102
930.126381	2395.362223
930.430060	2393.449105
930.733699	2397.550084
931.037299	2395.344579
931.340861	2398.767523
931.644383	2393.403735
931.947866	2393.560011
932.251309	2395.072357
932.554714	2394.285937
932.858080	2398.555794
933.161407	2393.892727
933.464694	2394.724517
933.767943	2396.158726
934.071153	2395.500855
934.374323	2395.742830
934.677455	2395.276524
934.980548	2395.001781
935.283602	2395.064795
935.586617	2394.442213
935.889593	2397.335835
936.192530	2395.551267
936.495428	2395.601678
936.798287	2393.928015
937.101108	2395.674775
937.403890	2396.294837
937.706632	2395.508417
938.009336	2394.059085
938.312002	2397.918088
938.614628	2397.366082
938.917216	2396.015053
939.219765	2398.465053
939.522275	2396.398180
939.824747	2398.822975
940.127179	2395.778118
940.429573	2394.046482
940.731929	2396.332645
941.034246	2395.611760
941.336524	2399.604354
941.638763	2394.568242
941.940964	2396.234343
942.243126	2397.902965
942.545250	2397.492111
942.847335	2397.797101
943.149381	2397.310629
943.451389	2398.102090
943.753359	2400.005126
944.055290	2394.762326
944.357182	2394.298540
944.659036	2398.255846
944.960851	2396.146123
945.262628	2394.787532
945.564367	2397.900444
945.866067	2396.178890
946.167729	2396.156205
946.469352	2396.378016
946.770937	2394.986657
947.072484	2396.975392
947.373992	2396.967831
947.675462	2394.815258
947.976893	2392.977757
948.278286	2394.023797
948.579641	2395.342059
948.880958	2393.819630
949.182236	2396.488921
949.483476	2395.536143
949.784678	2395.195865
950.085841	2394.210320
950.386967	2395.616802
950.688054	2394.550598
950.989103	2396.950187
951.290114	2394.296019
951.591087	2399.117883
951.892021	2393.015566
952.192917	2396.491442
952.493776	2395.866339
952.794596	2393.920453
953.095378	2395.702501
953.396122	2394.858108
953.696828	2394.762326
953.997496	2392.909702
954.298126	2397.371123
954.598718	2395.107645
954.899272	2395.379867
955.199788	2395.407594
955.500266	2396.196534
955.800706	2394.059085
956.101108	2391.445247
956.401472	2392.178735
956.701798	2391.956924
957.002087	2393.620505
957.302337	2394.432130
957.602550	2395.170659
957.902724	2392.813920
958.202861	2393.358365
958.502960	2393.940618
958.803022	2392.629918
959.103045	2393.751575
959.403031	2396.672923
959.702979	2391.934239
960.002889	2394.185114
960.302762	2392.133364
960.602596	2393.252500
960.902393	2393.048334
961.202153	2393.103786
961.501875	2391.846018
961.801559	2393.350803
962.101205	2394.643859
962.400814	2395.153015
962.700385	2393.499517
962.999918	2395.742830
963.299414	2391.558673
963.598873	2391.551111
963.898293	2392.304763
964.197677	2394.474980
964.497022	2392.390463
964.796331	2393.993550
965.095601	2391.982130
965.394835	2393.885165
965.694030	2395.440361
965.993189	2393.832233
966.292309	2392.864332
966.591393	2395.026987
966.890439	2391.162942
967.189447	2391.818292
967.488419	2391.203271
967.787353	2391.873745
968.086249	2391.382232
968.385108	2390.968858
968.683930	2394.575803
968.982714	2394.134702
969.281462	2391.823333
969.580172	2393.323077
969.878844	2394.860628
970.177480	2395.372306
970.476078	2392.677809
970.774639	2392.009856
971.073162	2390.053888
971.371649	2391.155380
971.670098	2389.237221
971.968510	2390.527757
972.266885	2389.723693
972.565223	2391.246121
972.863524	2393.517161
973.161788	2394.311143
973.460014	2394.162429
973.758204	2393.875083
974.056356	2393.028169
974.354471	2392.385422
974.652550	2393.910371
974.950591	2394.641338
975.248595	2391.649413
975.546563	2394.729558
975.844493	2392.156049
976.142386	2395.014384
976.440243	2392.985319
976.738062	2393.459188
977.035845	2395.571431
977.333590	2391.551111
977.631299	2393.151677
977.928971	2391.407438
978.226606	2390.434495
978.524204	2394.059085
978.821765	2392.279558
979.119290	2393.280227
979.416777	2391.977088
979.714228	2394.059085
980.011642	2393.355844
980.309020	2395.026987
980.606360	2390.391646
980.903664	2392.665206
981.200931	2394.200237
981.498162	2396.347769
981.795356	2391.906512
982.092513	2397.111504
982.389633	2392.571945
982.686717	2394.142264
982.983764	2393.131513
983.280775	2396.062944
983.577749	2395.221071
983.874686	2394.812738
984.171587	2395.682337
984.468451	2397.169477
984.765279	2394.878273
985.062070	2395.349620
985.358824	2395.188303
985.655543	2393.476832
985.952224	2392.597150
986.248869	2391.099928
986.545478	2388.942314
986.842050	2391.094887
987.138586	2390.018600
987.435086	2388.665050
987.731549	2389.522047
988.027975	2388.657489
988.324366	2390.920967
988.620719	2391.626728
988.917037	2392.259393
989.213318	2394.227964
989.509563	2390.245452
989.805772	2391.208313
990.101944	2390.943652
990.398080	2391.082284
990.694180	2391.334341
990.990244	2392.690412
991.286271	2391.125133
991.582262	2392.274517
991.878217	2391.639331
992.174136	2391.483055
992.470019	2390.711759
992.765865	2388.276882
993.061676	2389.151522
993.357450	2390.711759
993.653188	2391.535987
993.948890	2391.538508
994.244556	2391.442726
994.540186	2394.487583
994.835780	2392.019938
995.131337	2392.569424
995.426859	2393.718807
995.722345	2396.756102
996.017795	2393.877603
996.313208	2394.737120
996.608586	2392.473642
996.903928	2392.400545
997.199234	2394.638818
997.494504	2393.083622
997.789738	2393.658313
998.084936	2395.059754
998.380099	2394.273334
998.675225	2392.082953
998.970316	2392.455998
999.265371	2393.897768
999.560390	2392.937428
999.855373	2389.058260
1000.150320	2391.288971
1000.445232	2393.048334
1000.740108	2389.133878
1001.034948	2391.314177
1001.329752	2391.233518
1001.624521	2392.423231
1001.919254	2388.183620
1002.213951	2390.250493
1002.508613	2388.007180
1002.803239	2390.237890
1003.097829	2388.758312
1003.392384	2391.447767
1003.686903	2390.437016
1003.981386	2392.914743
1004.275834	2392.045144
1004.570246	2391.863662
1004.864623	2391.886348
1005.158964	2391.646893
1005.453270	2391.036913
1005.747540	2391.777963
1006.041775	2389.882489
1006.335974	2392.965155
1006.630138	2388.516336
1006.924266	2393.171842
1007.218359	2391.891389
1007.512416	2392.309805
1007.806438	2389.869886
1008.100425	2391.727551
1008.394376	2392.612274
1008.688292	2392.839126
1008.982172	2390.454660
1009.276017	2390.704197
1009.569827	2391.886348
1009.863602	2390.779814
1010.157341	2390.109341
1010.451045	2391.319218
1010.744714	2393.118910
1011.038347	2391.649413
1011.331945	2391.210833
1011.625508	2391.054557
1011.919036	2391.074722
1012.212528	2391.621687
1012.505986	2391.281409
1012.799408	2391.495658
1013.092795	2388.150853
1013.386147	2390.971378
1013.679464	2390.505072
1013.972745	2388.788559
1014.265992	2390.752088
1014.559204	2390.608415
1014.852380	2392.450957
1015.145521	2393.186965
1015.438628	2388.289484
1015.731699	2391.203271
1016.024736	2390.621018
1016.317737	2391.162942
1016.610703	2393.902809
1016.903635	2388.602036
1017.196531	2386.325955
1017.489393	2386.711603
1017.782219	2385.688249
1018.075011	2392.201420
1018.367768	2389.799310
1018.660490	2390.406769
1018.953177	2390.406769
1019.245829	2390.406769
