Dividing Wavelength (nm)	Counts (n)	Blue Motor Position (mm): 0.000000	Red Motor Position (mm): 23.400000	
326.493990	1985.186220
326.888308	1985.186220
327.282561	1985.186220
327.676750	1960.693774
328.070874	1961.505400
328.464933	1968.391616
328.858929	1976.215487
329.252859	1989.004894
329.646726	2003.465444
330.040528	2019.551766
330.434265	2038.251926
330.827938	2059.243291
331.221547	2079.269274
331.615091	2099.824579
332.008571	2118.045830
332.401986	2140.151289
332.795338	2161.203148
333.188625	2181.534121
333.581847	2199.198324
333.975006	2218.400079
334.368100	2233.689899
334.761129	2249.811509
335.154095	2268.095774
335.546996	2283.511622
335.939833	2306.292597
336.332606	2320.047385
336.725315	2330.459888
337.117960	2337.933399
337.510540	2343.445900
337.903056	2352.010821
338.295508	2360.966431
338.687896	2367.353573
339.080220	2376.248688
339.472480	2381.030223
339.864676	2385.806716
340.256807	2385.206819
340.648875	2387.981974
341.040879	2392.924825
341.432818	2392.342572
341.824694	2394.371637
342.216506	2390.580689
342.608253	2393.660834
342.999937	2393.318035
343.391557	2391.104969
343.783113	2389.375853
344.174605	2386.194885
344.566033	2385.731099
344.957397	2387.175389
345.348697	2381.410830
345.739934	2380.510984
346.131106	2376.246168
346.522215	2377.574512
346.913260	2373.476054
347.304241	2375.021168
347.695159	2373.571836
348.086012	2373.400437
348.476802	2369.632174
348.867528	2369.221320
349.258191	2367.219982
349.648789	2366.272245
350.039324	2365.090094
350.429796	2366.854498
350.820203	2366.221833
351.210548	2366.063037
351.600828	2364.769981
351.991045	2363.232429
352.381198	2363.333252
352.771288	2365.183356
353.161314	2359.885103
353.551276	2365.498428
353.941175	2362.849302
354.331010	2366.063037
354.720782	2363.928108
355.110490	2364.427183
355.500135	2364.212934
355.889717	2366.176463
356.279235	2365.178315
356.668689	2370.340456
357.058080	2366.030270
357.447408	2365.264014
357.836672	2364.170084
358.225873	2366.385671
358.615010	2363.940711
359.004084	2370.983203
359.393095	2369.493542
359.782043	2372.074613
360.170927	2371.688965
360.559748	2372.745087
360.948505	2371.860364
361.337199	2373.032432
361.725830	2374.161651
362.114398	2374.648122
362.502903	2378.733977
362.891344	2379.684235
363.279722	2378.287835
363.668037	2379.182640
364.056289	2380.079965
364.444478	2382.051057
364.832603	2380.765562
365.220665	2381.988042
365.608665	2381.451159
365.996601	2383.684390
366.384474	2384.153218
366.772284	2385.658002
367.160031	2384.221273
367.547715	2383.263454
367.935336	2387.104813
368.322893	2389.312839
368.710388	2387.984495
369.097820	2390.137067
369.485189	2390.865514
369.872495	2393.723848
370.259738	2392.526574
370.646918	2398.339025
371.034035	2397.693757
371.421090	2399.919426
371.808081	2404.892525
372.195010	2406.833369
372.581875	2414.180851
372.968678	2418.959864
373.355418	2426.922367
373.742096	2437.344952
374.128710	2447.833073
374.515262	2461.645835
374.901751	2473.893318
375.288177	2493.074908
375.674540	2509.982938
376.060841	2530.681916
376.447079	2554.488765
376.833254	2580.324678
377.219367	2605.845520
377.605417	2641.073103
377.991404	2664.506907
378.377329	2705.594831
378.763191	2742.347363
379.148991	2787.201029
379.534727	2833.665344
379.920402	2879.610421
380.306013	2932.534974
380.691563	2994.939418
381.077049	3051.516287
381.462474	3106.462344
381.847835	3178.835669
382.233134	3252.532297
382.618371	3312.973211
383.003545	3395.635531
383.388657	3476.677120
383.773706	3569.285637
384.158693	3641.898417
384.543618	3735.086667
384.928480	3814.789829
385.313280	3918.929986
385.698017	4024.766490
386.082692	4146.860716
386.467305	4207.503276
386.851856	4332.055064
387.236344	4485.449814
387.620770	4551.120925
388.005133	4672.736241
388.389435	4817.319054
388.773674	4905.211571
389.157851	5037.556983
389.541965	5167.467518
389.926018	5190.893759
390.310008	5371.868662
390.693936	5493.284852
391.077802	5607.693839
391.461606	5738.809209
391.845348	5850.092680
392.229027	5974.135312
392.612645	6196.997162
392.996200	6313.510830
393.379694	6483.750595
393.763125	6708.737292
394.146494	6802.240613
394.529801	6938.553413
394.913047	7179.875968
395.296230	7172.755338
395.679351	7231.706592
396.062410	7488.596230
396.445408	7382.547997
396.828343	7534.241357
397.211217	7665.427304
397.594028	7549.145529
397.976778	7750.990808
398.359466	7921.820388
398.742092	7897.091008
399.124656	8037.225003
399.507158	8226.056544
399.889598	8241.353925
400.271977	8445.979401
400.654294	8483.873754
401.036549	8677.905245
401.418742	8705.230820
401.800874	9006.091922
402.182944	9085.114529
402.564952	9448.216238
402.946898	9269.668651
403.328783	9327.014297
403.710606	9518.721816
404.092367	9781.098750
404.474067	10136.878183
404.855705	9930.437892
405.237282	9883.867712
405.618797	10305.451847
406.000250	10557.529704
406.381642	10914.672768
406.762972	10859.860303
407.144240	10662.615076
407.525447	10910.002139
407.906593	10848.409322
408.287677	11110.982861
408.668700	11260.100192
409.049661	11239.083621
409.430560	11396.589432
409.811399	11370.534228
410.192176	11529.572550
410.572891	11595.752818
410.953545	12077.949265
411.334138	11558.387785
411.714669	12141.195582
412.095139	11467.178189
412.475547	11960.601286
412.855894	11811.799028
413.236180	12130.664611
413.616405	11824.096922
413.996568	12095.479878
414.376670	12065.963922
414.756711	11949.757764
415.136691	12222.774054
415.516609	12393.674210
415.896466	12460.540075
416.276262	12749.211667
416.655997	13199.820245
417.035670	13228.446437
417.415283	13871.692627
417.794834	13964.757368
418.174324	13702.705588
418.553753	13605.386113
418.933121	14093.470629
419.312428	13900.316298
419.691674	13810.563595
420.070859	14260.536988
420.449983	13923.102314
420.829045	14465.333863
421.208047	14213.671901
421.586988	14661.999357
421.965867	14909.489763
422.344686	14908.814249
422.723444	15462.466532
423.102141	14179.747456
423.480777	15339.399363
423.859352	14854.853738
424.237866	15943.478308
424.616319	15650.816642
424.994712	16301.115406
425.373044	16087.645226
425.751314	16751.570229
426.129524	15890.037036
426.507673	16957.335005
426.885762	16666.021848
427.263789	16856.713574
427.641756	17021.231630
428.019662	17078.524344
428.397508	17115.425590
428.775292	17415.013801
429.153016	17365.988580
429.530679	17445.253163
429.908282	17465.606821
430.285824	17186.180705
430.663305	17874.840129
431.040726	17490.986510
431.418086	17314.226012
431.795385	17953.514896
432.172624	18348.668261
432.549802	17900.449190
432.926920	18084.272345
433.303977	17961.303479
433.680974	18213.104072
434.057910	18482.752871
434.434786	18503.270367
434.811601	18411.488600
435.188355	19416.558565
435.565050	19056.257218
435.941683	19003.158744
436.318257	19844.265181
436.694770	19636.050404
437.071222	20187.933242
437.447614	19247.284181
437.823946	19258.795656
438.200218	19376.506598
438.576429	19118.762484
438.952580	19353.483648
439.328670	19281.493451
439.704700	19647.811416
440.080670	19202.972439
440.456580	19713.996725
440.832429	19835.309571
441.208218	18818.551690
441.583947	19179.581485
441.959616	19235.684486
442.335224	19389.787518
442.710773	19445.749367
443.086261	19873.987824
443.461689	19211.592812
443.837057	19239.969467
444.212365	19755.732437
444.587612	19663.252470
444.962800	19185.915695
445.337927	19471.539910
445.712995	18243.116582
446.088002	19808.402413
446.462949	19871.066476
446.837837	19913.835625
447.212664	19761.459188
447.587431	22081.481367
447.962139	24506.223435
448.336786	26413.591884
448.711374	24913.067236
449.085901	21607.728852
449.460369	21378.023636
449.834776	21137.747120
450.209124	23028.570502
450.583412	22479.651863
450.957640	22736.097879
451.331808	21450.384358
451.705917	20166.979686
452.079965	20008.657208
452.453954	20100.819583
452.827883	19823.427572
453.201752	19479.494851
453.575562	19405.062214
453.949311	20056.258303
454.323001	19888.017355
454.696632	19504.224231
455.070202	20415.790875
455.443713	20289.857811
455.817164	20468.218875
456.190556	20597.300140
456.563888	19970.286466
456.937160	20019.898981
457.310373	18676.126491
457.683526	18717.053099
458.056619	18458.865363
458.429653	18167.705961
458.802628	18282.903888
459.175542	18110.362836
459.548398	18649.695722
459.921194	19332.963632
460.293930	19478.221959
460.666607	20384.724764
461.039224	21100.644228
461.411782	21011.027636
461.784280	20005.640078
462.156719	19405.644467
462.529099	18772.820863
462.901419	17764.217049
463.273680	16902.215029
463.645882	16660.413564
464.018024	16365.279212
464.390106	16484.817573
464.762130	17497.318199
465.134094	19166.557664
465.505999	21398.034496
465.877845	23244.299119
466.249631	23372.785528
466.621358	22065.503430
466.993026	20631.849688
467.364634	19287.058885
467.736184	18064.314417
468.107674	17173.524888
468.479105	16526.402051
468.850477	15927.626400
469.221790	15075.187449
469.593043	14155.093693
469.964238	13553.797465
470.335373	13235.990524
470.706449	13506.662677
471.077467	14041.377865
471.448425	15220.692793
471.819324	15858.086203
472.190164	14984.066073
472.560945	13607.924334
472.931667	12385.235319
473.302330	11795.795885
473.672934	11323.134779
474.043479	11200.975019
474.413965	10768.529718
474.784393	10442.634246
475.154761	10425.890053
475.525070	10207.305623
475.895321	9883.267815
476.265513	9789.605697
476.635645	9785.454307
477.005719	9536.305360
477.375734	9415.501670
477.745691	9337.431841
478.115588	9373.622285
478.485427	9526.139874
478.855207	9931.418396
479.224928	10195.259785
479.594591	10248.388506
479.964194	9807.244694
480.333739	9566.499351
480.703226	9335.836316
481.072653	9222.049912
481.442022	9078.031708
481.811333	8902.029904
482.180584	8497.830189
482.549777	8213.783855
482.918912	7949.024975
483.287988	7711.465641
483.657005	7423.252794
484.025964	7157.445354
484.394864	6977.803837
484.763706	6765.170488
485.132489	6510.740933
485.501213	6339.830694
485.869879	6194.872315
486.238487	6026.064238
486.607036	5901.396503
486.975527	5722.362445
487.343959	5612.377071
487.712333	5493.272249
488.080648	5364.483372
488.448905	5276.608498
488.817104	5150.796422
489.185244	5098.040747
489.553326	5102.474442
489.921350	5164.883926
490.289315	5242.313529
490.657222	5178.447151
491.025070	5089.271660
491.392861	4926.795271
491.760593	4747.040328
492.128267	4568.407041
492.495883	4401.373450
492.863440	4261.922532
493.230939	4132.465701
493.598380	4019.115357
493.965763	3940.677523
494.333088	3851.769213
494.700354	3778.012092
495.067563	3717.041856
495.434713	3660.880882
495.801805	3618.704068
496.168839	3562.843043
496.535815	3514.614324
496.902733	3471.706543
497.269593	3429.005449
497.636395	3387.743605
498.003139	3367.175697
498.369825	3319.685507
498.736453	3300.234215
499.103023	3261.399687
499.469535	3229.637897
499.835989	3208.870863
500.202385	3180.905062
500.568723	3155.976557
500.935003	3144.265956
501.301226	3120.562451
501.667390	3112.567181
502.033497	3104.108125
502.399546	3077.352201
502.765537	3052.403530
503.131470	3043.601676
503.497345	3039.513300
503.863163	3005.009123
504.228923	3005.374606
504.594625	2998.803462
504.960269	2978.109526
505.325856	2982.220587
505.691385	2964.959676
506.056856	2958.902729
506.422270	2957.788634
506.787625	2945.929320
507.152924	2940.134514
507.518164	2933.228133
507.883347	2919.677511
508.248472	2916.874630
508.613540	2920.708427
508.978550	2914.172571
509.343503	2910.394227
509.708398	2910.752148
510.073236	2911.760379
510.438016	2908.118146
510.802738	2895.111969
511.167403	2897.945097
511.532010	2893.445867
511.896561	2899.296126
512.261053	2904.919533
512.625488	2896.372257
512.989866	2887.441853
513.354186	2886.141235
513.718449	2880.855586
514.082655	2889.695249
514.446803	2884.339023
514.810894	2886.892367
515.174927	2882.405740
515.538904	2879.733929
515.902822	2884.313817
516.266684	2879.118908
516.630488	2879.141593
516.994235	2874.728063
517.357925	2880.931203
517.721558	2879.764176
518.085133	2878.914741
518.448651	2880.054042
518.812112	2874.775954
519.175516	2875.915255
519.538863	2875.007847
519.902152	2872.494832
520.265385	2875.779144
520.628560	2874.942312
520.991678	2871.705891
521.354739	2871.345449
521.717743	2876.220245
522.080690	2872.257898
522.443580	2874.896942
522.806413	2877.810729
523.169189	2874.314688
523.531908	2875.174205
523.894569	2873.752600
524.257174	2873.523227
524.619722	2870.727908
524.982213	2875.401057
525.344647	2870.238916
525.707025	2870.949718
526.069345	2872.356200
526.431608	2870.342259
526.793815	2872.144472
527.155964	2869.616333
527.518057	2869.651621
527.880093	2866.251363
528.242072	2875.151520
528.603995	2866.107690
528.965860	2864.471836
529.327669	2865.570807
529.689421	2865.228009
530.051117	2865.893441
530.412755	2862.404963
530.774337	2866.548791
531.135862	2861.142153
531.497331	2857.310877
531.858743	2856.297605
532.220098	2861.742051
532.581396	2855.329703
532.942638	2853.923221
533.303824	2855.392717
533.664953	2857.280630
534.026025	2854.785258
534.387040	2859.874303
534.747999	2857.220136
535.108902	2857.136957
535.469748	2852.592357
535.830537	2853.540093
536.191270	2855.974971
536.551947	2854.855835
536.912567	2851.518591
537.273131	2857.046216
537.633638	2846.842921
537.994089	2851.387521
538.354483	2847.999865
538.714821	2852.410875
539.075103	2853.381297
539.435328	2852.857017
539.795497	2850.109588
540.155609	2849.391224
540.515665	2851.034640
540.875665	2847.399968
541.235609	2849.555061
541.595496	2848.730833
541.955328	2855.773325
542.315102	2850.081862
542.674821	2846.376614
543.034483	2843.178002
543.394090	2842.744462
543.753640	2841.834534
544.113134	2852.514219
544.472571	2839.918896
544.831953	2851.448015
545.191278	2844.498784
545.550548	2841.247240
545.909761	2844.909638
546.268918	2844.594566
546.628019	2846.288394
546.987064	2845.068434
547.346053	2837.405881
547.704986	2838.832527
548.063863	2838.313288
548.422684	2838.928309
548.781449	2833.917402
549.140158	2837.037876
549.498811	2836.490911
549.857408	2831.888338
550.215949	2834.295489
550.574434	2832.357165
550.932864	2831.749706
551.291237	2834.653411
551.649555	2832.478153
552.007817	2835.845643
552.366022	2832.314315
552.724173	2831.263235
553.082267	2835.003771
553.440305	2835.142402
553.798288	2829.282061
554.156215	2832.165601
554.514086	2830.738955
554.871902	2831.416990
555.229661	2828.757781
555.587365	2824.871052
555.945014	2824.543377
556.302606	2824.397183
556.660143	2825.017245
557.017625	2821.806030
557.375050	2820.896102
557.732421	2821.153201
558.089735	2820.460042
558.446994	2819.315700
558.804197	2823.411637
559.161345	2817.727737
559.518437	2812.318578
559.875474	2811.393527
560.232455	2812.958805
560.589381	2810.407981
560.946251	2807.559729
561.303065	2809.177940
561.659825	2808.179791
562.016528	2803.390695
562.373177	2798.634366
562.729770	2797.973975
563.086307	2793.701597
563.442789	2796.408697
563.799216	2795.251752
564.155587	2788.221863
564.511904	2785.116512
564.868164	2783.397479
565.224370	2784.352777
565.580520	2779.135183
565.936615	2781.839762
566.292654	2776.997734
566.648638	2775.971859
567.004567	2770.315685
567.360441	2770.572783
567.716260	2766.454161
568.072023	2760.702204
568.427732	2757.793458
568.783385	2753.253899
569.138982	2751.618045
569.494525	2749.021851
569.850013	2745.387179
570.205445	2744.986407
570.560823	2740.051117
570.916145	2737.699419
571.271412	2732.822103
571.626625	2728.988305
571.981782	2726.760115
572.336884	2722.097048
572.691931	2722.124774
573.046923	2716.060266
573.401860	2713.222097
573.756743	2709.312682
574.111570	2708.304451
574.466342	2703.109542
574.821059	2702.542412
575.175722	2697.851619
575.530330	2696.336752
575.884882	2691.678726
576.239380	2688.986750
576.593823	2685.520956
576.948211	2681.203208
577.302544	2676.348577
577.656823	2672.887825
578.011047	2673.795232
578.365216	2669.500169
578.719330	2666.185611
579.073389	2663.327277
579.427394	2663.228974
579.781344	2660.705877
580.135239	2656.811585
580.489080	2654.790082
580.842866	2648.629792
581.196597	2648.221459
581.550273	2645.539565
581.903895	2644.697692
582.257463	2645.123670
582.610975	2642.537558
582.964434	2641.083185
583.317837	2637.927423
583.671186	2635.313585
584.024481	2634.680920
584.377721	2632.311577
584.730906	2631.568007
585.084037	2628.003912
585.437113	2628.145064
585.790135	2624.971658
586.143103	2623.308077
586.496016	2621.906636
586.848874	2617.712396
587.201679	2617.019237
587.554428	2612.401540
587.907124	2613.165275
588.259765	2609.346601
588.612352	2617.011676
588.964884	2610.778289
589.317362	2609.916252
589.669786	2609.573453
590.022155	2608.557661
590.374470	2610.553957
590.726731	2608.590428
591.078937	2603.773606
591.431090	2601.578183
591.783188	2600.131372
592.135232	2598.382092
592.487222	2596.305136
592.839157	2598.006526
593.191038	2595.485949
593.542866	2597.583069
593.894639	2588.781214
594.246358	2592.637697
594.598022	2593.265320
594.949633	2590.777511
595.301190	2589.320618
595.652692	2587.513364
596.004141	2590.260793
596.355535	2587.122674
596.706876	2581.476582
597.058162	2584.342478
597.409395	2584.410534
597.760573	2583.079669
598.111698	2584.602097
598.462768	2581.842066
598.813785	2582.431881
599.164748	2579.727302
599.515657	2577.884760
599.866511	2578.940882
600.217312	2578.635892
600.568060	2576.637074
600.918753	2582.167220
601.269392	2578.189750
601.619978	2578.338464
601.970510	2578.887950
602.320988	2578.300655
602.671412	2580.012127
603.021783	2575.646488
603.372100	2576.649677
603.722363	2576.697568
604.072572	2576.987435
604.422728	2578.613207
604.772830	2570.469223
605.122878	2571.537947
605.472872	2572.515931
605.822813	2569.836558
606.172701	2575.260839
606.522534	2570.975859
606.872314	2574.436611
607.222041	2573.998030
607.571714	2576.253947
607.921333	2575.613720
608.270899	2573.708164
608.620411	2573.554409
608.969870	2574.393761
609.319276	2573.698082
609.668627	2571.918554
610.017926	2576.392578
610.367171	2576.957188
610.716362	2575.268401
611.065500	2574.030798
611.414585	2572.684810
611.763616	2576.805953
612.112594	2576.440469
612.461518	2573.662794
612.810389	2575.601117
613.159207	2575.260839
613.507971	2577.045408
613.856682	2578.078844
614.205340	2576.858885
614.553945	2577.741087
614.902496	2576.037177
615.250994	2575.686817
615.599439	2578.759400
615.947830	2576.813515
616.296169	2575.296127
616.644454	2575.565829
616.992686	2576.357290
617.340864	2578.930799
617.688990	2576.117836
618.037063	2579.999524
618.385082	2579.621437
618.733048	2578.683783
619.080961	2579.313927
619.428821	2578.025912
619.776628	2576.266550
620.124382	2580.662436
620.472083	2577.552044
620.819731	2577.461303
621.167326	2575.873340
621.514868	2575.326374
621.862357	2571.860581
622.209793	2574.154306
622.557176	2567.802452
622.904506	2563.852708
623.251783	2564.581155
623.599007	2565.982596
623.946179	2561.861452
624.293297	2561.775753
624.640363	2560.218036
624.987376	2558.753581
625.334336	2562.012687
625.681243	2560.117213
626.028097	2555.910370
626.374899	2557.321893
626.721647	2554.866852
627.068343	2559.114024
627.414987	2552.787376
627.761577	2555.625545
628.108115	2555.043292
628.454600	2553.662016
628.801032	2552.558003
629.147412	2552.011038
629.493739	2553.057077
629.840014	2550.239072
630.186236	2551.542211
630.532405	2552.096738
630.878521	2545.817980
631.224585	2551.786707
631.570597	2544.638350
631.916556	2549.329144
632.262462	2545.160110
632.608316	2547.161448
632.954117	2544.466951
633.299866	2548.580533
633.645562	2546.407795
633.991206	2546.264123
634.336797	2541.525438
634.682336	2541.318751
635.027823	2542.558874
635.373257	2541.540561
635.718639	2534.926567
636.063968	2538.546116
636.409245	2535.667617
636.754470	2536.343132
637.099642	2535.130734
637.444762	2533.598223
637.789829	2533.215096
638.134845	2533.046217
638.479808	2529.373737
638.824719	2530.762574
639.169577	2526.689322
639.514383	2528.862059
639.859137	2527.611853
640.203839	2527.863911
640.548489	2526.623787
640.893086	2526.346524
641.237632	2522.590864
641.582125	2524.314939
641.926566	2521.270082
642.270955	2529.073788
642.615292	2523.692356
642.959576	2526.570855
643.303809	2525.169414
643.647990	2528.123530
643.992118	2523.359640
644.336195	2524.322500
644.680219	2523.341996
645.024192	2525.469363
645.368112	2525.353416
645.711981	2524.264527
646.055797	2527.135464
646.399562	2528.121010
646.743274	2532.025383
647.086935	2532.854653
647.430544	2531.269210
647.774101	2530.729807
648.117606	2530.462626
648.461059	2534.505631
648.804460	2533.845240
649.147810	2528.577234
649.491108	2527.448016
649.834354	2527.140505
650.177548	2525.887779
650.520690	2520.977695
650.863781	2520.902077
651.206820	2521.479290
651.549807	2520.355112
651.892742	2518.232787
652.235626	2515.684483
652.578458	2518.628517
652.921238	2517.302694
653.263967	2517.285050
653.606644	2511.611231
653.949269	2516.201202
654.291843	2513.068124
654.634365	2512.407733
654.976836	2513.118536
655.319255	2509.582167
655.661622	2509.977897
656.003938	2510.156858
656.346203	2509.017557
656.688416	2513.025275
657.030577	2511.018895
657.372687	2511.301200
657.714746	2512.291787
658.056753	2509.977897
658.398708	2504.916579
658.740612	2508.057217
659.082465	2505.067813
659.424266	2506.827176
659.766016	2503.983965
660.107715	2507.578308
660.449362	2507.437156
660.790958	2509.130983
661.132503	2509.123422
661.473996	2509.826662
661.815438	2508.344563
662.156829	2507.222907
662.498168	2508.289111
662.839456	2510.693741
663.180693	2508.059738
663.521879	2505.103101
663.863013	2508.216014
664.204097	2507.986641
664.545129	2511.669204
664.886110	2507.626199
665.227040	2510.517301
665.567918	2510.466889
665.908746	2507.381703
666.249522	2510.333298
666.590248	2506.930520
666.930922	2510.550068
667.271545	2508.977228
667.612118	2509.183915
667.952639	2509.496467
668.293109	2509.572084
668.633528	2507.800119
668.973896	2510.081241
669.314213	2507.958915
669.654480	2506.764162
669.994695	2507.384223
670.334859	2506.033194
670.674973	2507.162413
671.015035	2505.614778
671.355047	2510.461848
671.695008	2507.356497
672.034918	2506.827176
672.374777	2507.353977
672.714585	2503.058913
673.054342	2509.206601
673.394049	2507.517814
673.733705	2508.868843
674.073310	2504.629233
674.412864	2505.904645
674.752368	2502.292658
675.091820	2502.640498
675.431223	2504.173008
675.770574	2504.233502
676.109875	2499.109169
676.449125	2499.358707
676.788324	2496.137409
677.127473	2495.630773
677.466571	2495.285454
677.805619	2499.227637
678.144616	2497.770743
678.483562	2497.775784
678.822458	2496.573469
679.161303	2498.181597
679.500098	2495.267810
679.838842	2494.259579
680.177535	2497.198572
680.516179	2493.420227
680.854771	2496.079436
681.193314	2499.109169
681.531805	2503.976403
681.870247	2502.645539
682.208638	2508.309275
682.546978	2506.993534
682.885268	2510.255161
683.223508	2507.878257
683.561697	2506.529748
683.899836	2505.614778
684.237925	2504.964470
684.575963	2500.452637
684.913951	2502.862308
685.251889	2501.637308
685.589776	2502.506907
685.927614	2497.730414
686.265401	2500.929026
686.603137	2501.559170
686.940824	2504.261229
687.278460	2504.183091
687.616046	2505.352638
687.953582	2505.531599
688.291068	2506.159223
688.628504	2505.251815
688.965889	2507.832886
689.303224	2506.186949
689.640510	2506.078565
689.977745	2501.302071
690.314930	2502.794253
690.652065	2499.935919
690.989150	2496.268479
691.326185	2496.805362
691.663170	2494.045330
692.000105	2491.310504
692.336990	2487.199443
692.673825	2485.848414
693.010610	2485.261120
693.347345	2482.143166
693.684030	2479.317599
694.020665	2483.020327
694.357251	2475.839203
694.693786	2481.485296
695.030272	2478.793319
695.366707	2478.710140
695.703093	2477.661580
696.039429	2475.524131
696.375716	2475.803915
696.711952	2478.516056
697.048139	2474.097485
697.384276	2475.738380
697.720363	2476.003041
698.056400	2477.023874
698.392388	2476.948257
698.728326	2471.919706
699.064214	2472.905252
699.400053	2473.832824
699.735842	2473.374079
700.071581	2472.322998
700.407270	2472.383492
700.742910	2469.721763
701.078501	2468.216979
701.414042	2468.670683
701.749533	2466.966772
702.084974	2467.175980
702.420366	2466.709674
702.755709	2466.765126
703.091002	2465.852678
703.426246	2467.037349
703.761440	2465.731690
704.096584	2462.974179
704.431679	2464.383181
704.766725	2464.277317
705.101721	2464.577266
705.436668	2462.787656
705.771565	2465.361165
706.106413	2466.293778
706.441212	2463.233798
706.775961	2464.655403
707.110661	2464.058027
707.445311	2465.923254
707.779913	2465.353603
708.114465	2466.336628
708.448967	2464.340331
708.783421	2468.544654
709.117825	2468.857205
709.452180	2470.772844
709.786485	2472.943060
710.120742	2474.072279
710.454949	2472.401136
710.789107	2473.336270
711.123216	2475.231744
711.457275	2477.132259
711.791286	2475.345170
712.125247	2476.484471
712.459159	2479.788947
712.793023	2479.453711
713.126837	2479.294914
713.460602	2479.020171
713.794318	2476.746611
714.127985	2477.575881
714.461602	2474.911631
714.795171	2471.644963
715.128691	2470.530868
715.462162	2469.182360
715.795584	2468.542133
716.128957	2467.196145
716.462281	2462.674230
716.795556	2466.344190
717.128782	2463.216154
717.461960	2462.308746
717.795088	2461.983592
718.128167	2462.558283
718.461198	2460.602316
718.794180	2460.367902
719.127113	2457.524691
719.459997	2458.462346
719.792833	2456.614763
720.125619	2456.826492
720.458357	2457.176852
720.791046	2457.141564
721.123686	2453.569906
721.456278	2456.992850
721.788821	2456.488734
722.121315	2453.842128
722.453761	2453.935390
722.786158	2454.525205
723.118506	2450.048660
723.450805	2455.286419
723.783056	2452.627210
724.115259	2455.314145
724.447412	2452.453291
724.779518	2455.286419
725.111574	2453.398507
725.443582	2455.664506
725.775542	2454.434464
726.107453	2456.365226
726.439315	2456.203909
726.771129	2462.848150
727.102895	2457.423868
727.434612	2458.946297
727.766281	2460.844291
728.097901	2459.914198
728.429473	2457.895216
728.760996	2460.851853
729.092471	2457.302881
729.423897	2462.306226
729.755276	2458.180041
730.086606	2462.354117
730.417887	2462.177676
730.749120	2464.988120
731.080305	2464.536936
731.411442	2469.043728
731.742530	2466.389560
732.073570	2471.740745
732.404562	2466.182873
732.735506	2466.918882
733.066401	2466.424848
733.397249	2466.457616
733.728048	2461.212295
734.058798	2459.810855
734.389501	2457.824640
734.720156	2456.604681
735.050762	2454.459670
735.381320	2454.608384
735.711831	2451.631583
736.042293	2452.947324
736.372707	2454.200050
736.703073	2449.738629
737.033391	2452.869186
737.363661	2450.207457
737.693883	2452.160904
738.024056	2455.286419
738.354182	2451.881120
738.684260	2453.852211
739.014290	2457.370936
739.344272	2458.661472
739.674207	2453.133846
740.004093	2459.236163
740.333931	2456.274485
740.663722	2457.484362
740.993464	2456.846656
741.323159	2460.894703
741.652806	2457.988477
741.982405	2455.228446
742.311956	2456.188786
742.641460	2455.218363
742.970915	2455.019238
743.300323	2452.188630
743.629683	2454.028651
743.958996	2454.137036
744.288260	2448.642178
744.617477	2446.648402
744.946647	2444.377362
745.275768	2445.935079
745.604842	2443.638833
745.933869	2445.118412
746.262847	2441.584563
746.591778	2446.456838
746.920662	2447.442384
747.249498	2445.171344
747.578286	2446.534976
747.907027	2451.306428
748.235720	2449.683177
748.564365	2449.100923
748.892963	2446.426591
749.221514	2446.159410
749.550017	2449.252158
749.878473	2446.212342
750.206881	2445.677980
750.535242	2445.355346
750.863555	2446.960953
751.191821	2446.310645
751.520039	2444.422733
751.848210	2445.090685
752.176334	2444.894080
752.504411	2445.307455
752.832440	2445.756118
753.160421	2443.855603
753.488356	2444.475665
753.816243	2445.922476
754.144082	2445.161262
754.471875	2443.409461
754.799620	2443.333843
755.127318	2447.623865
755.454969	2444.198401
755.782572	2444.883998
756.110129	2444.294183
756.437638	2444.858792
756.765100	2440.709923
757.092515	2442.653287
757.419882	2441.811415
757.747203	2444.021961
758.074477	2443.807712
758.401703	2443.787547
758.728882	2445.675459
759.056014	2447.525563
759.383099	2447.863320
759.710138	2445.486416
760.037129	2447.303752
760.364073	2444.611776
760.690970	2446.129163
761.017820	2445.781323
761.344623	2446.592949
761.671379	2447.412137
761.998088	2444.009358
762.324751	2456.934876
762.651366	2463.906792
762.977935	2482.201139
763.304456	2487.499392
763.630931	2493.369816
763.957359	2489.271358
764.283740	2483.063177
764.610074	2474.760396
764.936362	2469.741928
765.262602	2462.437296
765.588796	2457.809517
765.914943	2449.380707
766.241044	2447.865841
766.567097	2442.859975
766.893104	2444.155551
767.219064	2438.809408
767.544978	2439.263112
767.870845	2437.985179
768.196665	2437.276897
768.522438	2435.502411
768.848165	2437.440734
769.173846	2437.047524
769.499479	2435.998964
769.825066	2433.702719
770.150607	2433.178439
770.476101	2431.978644
770.801548	2433.120466
771.126949	2433.191042
771.452303	2431.096442
771.777611	2431.527461
772.102872	2431.726587
772.428087	2433.170877
772.753256	2427.938159
773.078378	2428.711977
773.403453	2427.781884
773.728482	2427.615526
774.053465	2429.652152
774.378401	2428.432192
774.703291	2428.865732
775.028135	2428.419590
775.352932	2425.394897
775.677683	2428.943870
776.002388	2426.730803
776.327046	2427.373550
776.651658	2425.256266
776.976224	2426.204002
777.300743	2424.817685
777.625216	2423.275092
777.949643	2426.718200
778.274024	2427.212233
778.598359	2422.017324
778.922647	2421.125040
779.246889	2420.578075
779.571086	2421.389701
779.895236	2422.077818
780.219339	2426.519075
780.543397	2423.998498
780.867409	2424.527819
781.191374	2424.873138
781.515294	2424.058992
781.839167	2427.693663
782.162995	2427.141657
782.486776	2424.752150
782.810511	2426.758529
783.134201	2422.657551
783.457844	2426.607295
783.781441	2422.912129
784.104993	2424.258117
784.428498	2425.772984
784.751958	2424.699218
785.075372	2426.201482
785.398739	2419.607653
785.722061	2423.738878
786.045337	2422.483631
786.368568	2425.031934
786.691752	2421.188054
787.014891	2426.841708
787.337983	2428.543098
787.661030	2430.599889
787.984031	2431.509817
788.306987	2432.959149
788.629897	2432.210537
788.952760	2432.603747
789.275579	2433.052410
789.598351	2430.055444
789.921078	2431.149374
790.243759	2428.548139
790.566395	2427.118972
790.888984	2425.500762
791.211529	2426.148550
791.534027	2426.541760
791.856480	2424.011101
792.178888	2424.948755
792.501249	2423.433888
792.823566	2424.101841
793.145836	2425.155443
793.468062	2423.665782
793.790241	2424.179979
794.112375	2423.814496
794.434464	2423.391039
794.756507	2424.356420
795.078505	2425.157963
795.400457	2424.805082
795.722364	2422.866759
796.044226	2424.598395
796.366042	2424.540422
796.687812	2427.081163
797.009538	2426.395566
797.331218	2429.148036
797.652852	2427.907913
797.974442	2428.275917
798.295986	2425.369692
798.617484	2425.170566
798.938938	2427.408838
799.260346	2426.962696
799.581709	2425.841039
799.903026	2427.713828
800.224299	2424.447160
800.545526	2423.070925
800.866708	2421.994639
801.187845	2424.860535
801.508936	2424.338776
801.829983	2421.740061
802.150984	2420.694021
802.471940	2425.750299
802.792851	2420.099165
803.113717	2423.232242
803.434538	2419.952972
803.755314	2421.901378
804.076045	2421.863569
804.396731	2421.840884
804.717372	2420.696542
805.037967	2424.074115
805.358518	2422.760894
805.679024	2421.583785
805.999485	2421.034299
806.319901	2422.385328
806.640272	2420.711665
806.960598	2423.557397
807.280879	2424.064033
807.601115	2421.838363
807.921306	2421.021696
808.241453	2424.210226
808.561554	2422.367684
808.881611	2424.232911
809.201623	2421.969433
809.521590	2423.201995
809.841513	2423.471697
810.161390	2420.129412
810.481223	2421.019176
810.801011	2420.537746
811.120755	2419.363157
811.440453	2422.660071
811.760107	2420.827612
812.079716	2420.477252
812.399281	2416.298135
812.718801	2420.489855
813.038276	2414.168248
813.357707	2420.154618
813.677093	2419.693352
813.996434	2420.502457
814.315731	2420.036151
814.634983	2420.285688
814.954191	2422.975143
815.273354	2418.296953
815.592473	2422.425658
815.911547	2424.674012
816.230577	2423.638055
816.549562	2419.741243
816.868502	2424.008580
817.187399	2423.988415
817.506250	2423.615370
817.825058	2424.744588
818.143821	2426.181317
818.462539	2428.669127
818.781213	2430.403284
819.099843	2434.499221
819.418429	2435.724222
819.736970	2442.277722
820.055466	2444.236210
820.373919	2451.452622
820.692327	2461.701287
821.010691	2480.260295
821.329011	2524.072963
821.647286	2588.781214
821.965517	2657.557676
822.283704	2700.591486
822.601847	2708.992569
822.919945	2681.737570
823.237999	2648.891932
823.556010	2618.292129
823.873976	2585.275092
824.191897	2552.555483
824.509775	2532.894983
824.827609	2513.237003
825.145398	2503.784840
825.463144	2493.548777
825.780845	2497.743017
826.098502	2505.771054
826.416116	2518.804957
826.733685	2535.213913
827.051210	2538.717515
827.368692	2532.116124
827.686129	2516.533918
828.003522	2494.393170
828.320872	2479.282311
828.638177	2466.694550
828.955439	2458.485031
829.272656	2449.287446
829.589830	2443.764862
829.906960	2442.144131
830.224046	2437.198759
830.541088	2432.881011
830.858086	2432.220620
831.175041	2429.533685
831.491952	2431.167018
831.808819	2433.269180
832.125642	2431.703901
832.442421	2437.639860
832.759157	2444.710078
833.075849	2457.668364
833.392497	2472.907772
833.709101	2475.362814
834.025662	2477.674183
834.342179	2471.816362
834.658653	2460.226750
834.975083	2452.221398
835.291469	2450.940944
835.607811	2441.060283
835.924110	2436.858481
836.240366	2433.314550
836.556578	2425.997315
836.872746	2425.261307
837.188871	2421.911460
837.504952	2423.136460
837.820990	2422.695359
838.136984	2421.500606
838.452935	2418.422982
838.768842	2418.402817
839.084706	2422.705442
839.400526	2428.318767
839.716303	2435.343614
840.032037	2440.838472
840.347727	2438.088523
840.663373	2435.580549
840.978977	2430.766247
841.294537	2426.198961
841.610054	2424.973961
841.925527	2421.064546
842.240957	2415.917528
842.556344	2417.137487
842.871687	2416.731674
843.186987	2413.722106
843.502244	2414.425347
843.817458	2411.816549
844.132629	2411.894687
844.447756	2413.989287
844.762840	2404.711043
845.077881	2410.173133
845.392879	2406.288924
845.707833	2409.225396
846.022745	2404.373286
846.337613	2408.144069
846.652438	2407.541651
846.967221	2410.014337
847.281960	2408.370921
847.596656	2409.303534
847.911309	2407.856723
848.225919	2410.561302
848.540485	2410.427712
848.855009	2408.580129
849.169490	2409.492578
849.483928	2408.444017
849.798323	2407.062741
850.112675	2407.213976
850.426984	2408.123904
850.741251	2410.725140
851.055474	2408.675911
851.369654	2406.483009
851.683792	2407.168606
851.997887	2407.587021
852.311938	2410.011816
852.625947	2407.778585
852.939914	2405.641136
853.253837	2409.858061
853.567718	2407.070303
853.881555	2407.559295
854.195350	2409.842938
854.509103	2411.357804
854.822812	2408.496950
855.136479	2408.988462
855.450103	2407.569377
855.763685	2408.670869
856.077224	2407.599624
856.390720	2408.433935
856.704173	2407.695406
857.017584	2406.510735
857.330953	2407.944943
857.644278	2408.277659
857.957561	2416.678742
858.270802	2407.642474
858.584000	2409.769841
858.897155	2408.270098
859.210268	2409.404357
859.523339	2406.616599
859.836367	2407.695406
860.149352	2408.585170
860.462295	2410.894018
860.775195	2407.657597
861.088054	2401.711557
861.400869	2405.999058
861.713642	2404.292627
862.026373	2407.642474
862.339062	2405.676424
862.651708	2409.008627
862.964312	2408.454100
863.276873	2407.990314
863.589392	2408.998544
863.901869	2409.343863
864.214303	2409.595921
864.526696	2411.226734
864.839045	2408.839748
865.151353	2411.390572
865.463619	2411.798905
865.775842	2409.595921
866.088023	2406.866136
866.400162	2411.579615
866.712258	2410.291600
867.024313	2410.531055
867.336325	2408.605334
867.648296	2410.399985
867.960224	2408.076013
868.272110	2410.720098
868.583954	2412.849986
868.895755	2409.860582
869.207515	2409.651374
869.519233	2410.894018
869.830909	2410.175654
870.142542	2409.646333
870.454134	2410.054666
870.765684	2410.576426
871.077191	2409.739594
871.388657	2413.407033
871.700081	2412.176992
872.011463	2411.471230
872.322803	2412.749163
872.634101	2412.539955
872.945357	2413.233114
873.256571	2411.675397
873.567744	2412.953330
873.878874	2413.729667
874.189963	2413.694379
874.501010	2415.496592
874.812015	2415.393248
875.122979	2413.228072
875.433900	2414.344688
875.744780	2415.862075
876.055618	2414.546334
876.366415	2417.853331
876.677169	2411.791344
876.987882	2414.233783
877.298554	2411.045253
877.609183	2414.185892
877.919771	2415.345357
878.230317	2420.177303
878.540822	2419.857190
878.851285	2419.917684
879.161707	2425.896492
879.472087	2430.178952
879.782425	2436.729932
880.092722	2452.970009
880.402977	2474.929275
880.713191	2503.157216
881.023363	2530.757533
881.333494	2547.257230
881.643583	2552.936090
881.953631	2553.483055
882.263637	2543.173895
882.573602	2531.662420
882.883526	2521.436440
883.193408	2512.773217
883.503248	2500.243429
883.813048	2488.096769
884.122806	2477.598566
884.432522	2468.743779
884.742197	2460.322532
885.051831	2452.468414
885.361424	2445.302414
885.670975	2439.318564
885.980485	2437.597010
886.289954	2431.769436
886.599382	2427.945721
886.908768	2424.661409
887.218113	2423.554876
887.527417	2423.464135
887.836680	2422.261820
888.145901	2420.492375
888.455082	2418.112951
888.764221	2417.838208
889.073319	2418.070101
889.382376	2418.251582
889.691392	2414.778227
890.000366	2417.886099
890.309300	2417.109761
890.618193	2415.925090
890.927044	2413.318813
891.235855	2416.177148
891.544625	2414.679925
891.853353	2414.546334
892.162041	2418.085224
892.470687	2417.845769
892.779293	2419.829463
893.087858	2422.473549
893.396381	2421.215781
893.704864	2431.595517
894.013306	2435.177256
894.321707	2448.564040
894.630068	2452.218877
894.938387	2457.146605
895.246665	2454.620987
895.554903	2448.490944
895.863100	2445.244441
896.171256	2442.567588
896.479371	2436.490477
896.787446	2434.481577
897.095480	2429.148036
897.403473	2429.783222
897.711425	2426.821544
898.019336	2424.401790
898.327207	2423.842222
898.635038	2421.556059
898.942827	2419.121181
899.250576	2420.202509
899.558284	2416.845100
899.865952	2416.484658
900.173579	2415.345357
900.481165	2413.845614
900.788711	2413.966602
901.096216	2414.032137
901.403681	2415.544483
901.711105	2412.413926
902.018489	2411.377969
902.325832	2418.591860
902.633135	2414.203536
902.940397	2417.087076
903.247619	2424.076636
903.554800	2434.443768
903.861941	2450.767025
904.169041	2459.914198
904.476101	2463.589199
904.783121	2460.650207
905.090100	2455.820781
905.397039	2448.364915
905.703938	2443.490119
906.010796	2437.609613
906.317614	2436.492998
906.624391	2431.605599
906.931129	2425.921698
907.237826	2426.025042
907.544483	2418.909453
907.851099	2419.529515
908.157675	2415.615059
908.464211	2412.857548
908.770707	2408.635581
909.077163	2409.961405
909.383578	2406.162895
909.689954	2406.800601
909.996289	2405.613410
910.302584	2408.491908
910.608839	2407.685324
910.915054	2408.048287
911.221229	2406.805643
911.527363	2407.234141
911.833458	2405.880591
912.139513	2407.206414
912.445527	2408.955695
912.751502	2408.444017
913.057436	2405.925961
913.363331	2409.573236
913.669186	2413.616241
913.975000	2415.773855
914.280775	2416.126736
914.586510	2420.414237
914.892205	2430.264652
915.197859	2436.346804
915.503475	2447.686880
915.809050	2455.432613
916.114585	2458.948817
916.420081	2462.684312
916.725536	2459.626852
917.030952	2458.424537
917.336328	2456.208950
917.641665	2450.560337
917.946961	2445.975408
918.252218	2446.267795
918.557435	2438.259922
918.862612	2437.491146
919.167750	2431.673654
919.472848	2430.312543
919.777906	2424.870617
920.082925	2423.426327
920.387904	2420.923394
920.692843	2417.457601
920.997743	2418.382652
921.302603	2416.953485
921.607423	2415.451221
921.912204	2413.134811
922.216946	2412.494585
922.521647	2410.899059
922.826310	2409.064079
923.130932	2407.972670
923.435516	2410.246230
923.740059	2410.886457
924.044564	2407.697927
924.349028	2408.575088
924.653454	2401.774571
924.957840	2403.339849
925.262186	2402.613923
925.566493	2403.385220
925.870761	2399.841288
926.174989	2403.226423
926.479178	2404.098543
926.783328	2404.726167
927.087438	2405.318502
927.391509	2403.352452
927.695541	2403.302041
927.999533	2404.209448
928.303486	2403.773388
928.607400	2404.564850
928.911275	2403.589386
929.215110	2402.215672
929.518906	2401.436814
929.822663	2403.622154
930.126381	2403.614592
930.430060	2402.465209
930.733699	2400.015208
931.037299	2402.167781
931.340861	2403.458316
931.644383	2399.969838
931.947866	2400.947822
932.251309	2401.507390
932.554714	2402.760117
932.858080	2406.503173
933.161407	2402.913872
933.464694	2399.473284
933.767943	2401.565363
934.071153	2406.077196
934.374323	2401.446896
934.677455	2401.504869
934.980548	2402.566032
935.283602	2399.531258
935.586617	2401.928326
935.889593	2402.639129
936.192530	2401.557801
936.495428	2403.493604
936.798287	2400.030332
937.101108	2401.378840
937.403890	2402.833213
937.706632	2403.339849
938.009336	2403.531413
938.312002	2406.677093
938.614628	2407.609707
938.917216	2404.307751
939.219765	2405.056362
939.522275	2405.421846
939.824747	2407.181208
940.127179	2402.422359
940.429573	2403.266753
940.731929	2404.264901
941.034246	2400.756258
941.336524	2406.495612
941.638763	2406.135169
941.940964	2405.426887
942.243126	2405.769685
942.545250	2405.263049
942.847335	2404.403533
943.149381	2406.331774
943.451389	2402.404715
943.753359	2403.569222
944.055290	2403.612072
944.357182	2404.274983
944.659036	2402.205590
944.960851	2405.595766
945.262628	2400.138717
945.564367	2404.302710
945.866067	2405.681465
946.167729	2402.508059
946.469352	2402.316495
946.770937	2402.399674
947.072484	2402.414798
947.373992	2404.532082
947.675462	2402.192987
947.976893	2401.583007
948.278286	2404.448903
948.579641	2402.056876
948.880958	2401.368758
949.182236	2404.161557
949.483476	2399.301885
949.784678	2400.836916
950.085841	2401.217523
950.386967	2404.395971
950.688054	2402.777761
950.989103	2404.070817
951.290114	2400.358007
951.591087	2403.554098
951.892021	2402.389592
952.192917	2404.912689
952.493776	2402.891187
952.794596	2405.169788
953.095378	2402.165260
953.396122	2404.322874
953.696828	2402.419839
953.997496	2401.991341
954.298126	2404.902607
954.598718	2405.124418
954.899272	2400.751217
955.199788	2405.053842
955.500266	2402.097205
955.800706	2401.393964
956.101108	2398.472615
956.401472	2400.766340
956.701798	2396.136040
957.002087	2397.872718
957.302337	2402.412277
957.602550	2402.059396
957.902724	2400.088305
958.202861	2400.874725
958.502960	2398.119734
958.803022	2398.654097
959.103045	2397.771895
959.403031	2399.611916
959.702979	2400.128634
960.002889	2399.856412
960.302762	2400.499159
960.602596	2399.017060
960.902393	2399.523696
961.202153	2397.262738
961.501875	2396.801473
961.801559	2397.532440
962.101205	2398.724673
962.400814	2397.797101
962.700385	2397.918088
962.999918	2398.439848
963.299414	2395.979765
963.598873	2398.757440
963.898293	2399.929509
964.197677	2399.493449
964.497022	2401.270456
964.796331	2399.553943
965.095601	2397.514796
965.394835	2397.706360
965.694030	2398.770043
965.993189	2398.313819
966.292309	2397.555125
966.591393	2397.691236
966.890439	2396.735938
967.189447	2395.221071
967.488419	2396.136040
967.787353	2401.378840
968.086249	2399.964797
968.385108	2397.240053
968.683930	2397.270300
968.982714	2398.260887
969.281462	2395.594116
969.580172	2397.308109
969.878844	2396.410783
970.177480	2395.281565
970.476078	2396.471277
970.774639	2399.629560
971.073162	2395.533623
971.371649	2396.158726
971.670098	2394.883314
971.968510	2396.146123
972.266885	2393.118910
972.565223	2397.524878
972.863524	2397.401370
973.161788	2401.303223
973.460014	2398.127296
973.758204	2400.799108
974.056356	2397.872718
974.354471	2397.683675
974.652550	2397.179559
974.950591	2396.433468
975.248595	2399.170815
975.546563	2399.599313
975.844493	2396.814076
976.142386	2399.495969
976.440243	2397.683675
976.738062	2398.943963
977.035845	2397.870197
977.333590	2398.815414
977.631299	2396.282234
977.928971	2395.742830
978.226606	2397.197203
978.524204	2399.642163
978.821765	2397.406411
979.119290	2397.764333
979.416777	2394.996740
979.714228	2397.348438
980.011642	2399.485887
980.309020	2400.486556
980.606360	2398.850702
980.903664	2400.385733
981.200931	2398.076885
981.498162	2399.485887
981.795356	2399.236350
982.092513	2400.022770
982.389633	2401.507390
982.686717	2407.713050
982.983764	2406.354459
983.280775	2404.496794
983.577749	2404.401012
983.874686	2404.728687
984.171587	2406.112484
984.468451	2403.601989
984.765279	2404.217010
985.062070	2405.837741
985.358824	2402.124931
985.655543	2400.741134
985.952224	2400.786505
986.248869	2396.829199
986.545478	2394.555639
986.842050	2396.443551
987.138586	2392.697973
987.435086	2397.338356
987.731549	2395.294168
988.027975	2398.389436
988.324366	2396.907337
988.620719	2398.313819
988.917037	2394.003632
989.213318	2396.924981
989.509563	2396.171328
989.805772	2396.241905
990.101944	2396.529250
990.398080	2396.229302
990.694180	2396.834240
990.990244	2397.721483
991.286271	2397.010681
991.582262	2398.270969
991.878217	2396.740979
992.174136	2396.995557
992.470019	2395.304250
992.765865	2396.410783
993.061676	2396.453633
993.357450	2395.649569
993.653188	2398.175187
993.948890	2396.619991
994.244556	2396.231822
994.540186	2399.306926
994.835780	2394.308622
995.131337	2396.443551
995.426859	2398.056720
995.722345	2400.267266
996.017795	2398.938922
996.313208	2400.158881
996.608586	2401.144427
996.903928	2401.729201
997.199234	2403.261711
997.494504	2402.651732
997.789738	2399.498490
998.084936	2399.443037
998.380099	2400.000085
998.675225	2401.595610
998.970316	2400.287431
999.265371	2400.962945
999.560390	2400.514283
999.855373	2397.610578
1000.150320	2398.318860
1000.445232	2398.666700
1000.740108	2395.135371
1001.034948	2397.545043
1001.329752	2395.992368
1001.624521	2395.531102
1001.919254	2392.914743
1002.213951	2395.737789
1002.508613	2393.025648
1002.803239	2396.786349
1003.097829	2391.639331
1003.392384	2394.696791
1003.686903	2394.454816
1003.981386	2395.400032
1004.275834	2394.923643
1004.570246	2396.970351
1004.864623	2394.225443
1005.158964	2394.921122
1005.453270	2396.254507
1005.747540	2395.289127
1006.041775	2394.414486
1006.335974	2396.443551
1006.630138	2396.435989
1006.924266	2397.136709
1007.218359	2394.946328
1007.512416	2394.379198
1007.806438	2395.795763
1008.100425	2396.662841
1008.394376	2394.026318
1008.688292	2396.158726
1008.982172	2394.285937
1009.276017	2394.684188
1009.569827	2396.796432
1009.863602	2394.565721
1010.157341	2394.807696
1010.451045	2395.989847
1010.744714	2393.731410
1011.038347	2394.003632
1011.331945	2395.707542
1011.625508	2394.353993
1011.919036	2393.272665
1012.212528	2394.255690
1012.505986	2396.698129
1012.799408	2393.149157
1013.092795	2395.553787
1013.386147	2396.544374
1013.679464	2393.670916
1013.972745	2396.962790
1014.265992	2392.829043
1014.559204	2398.023952
1014.852380	2396.569580
1015.145521	2395.289127
1015.438628	2397.252656
1015.731699	2392.856770
1016.024736	2393.945659
1016.317737	2395.563869
1016.610703	2394.923643
1016.903635	2393.045813
1017.196531	2391.394835
1017.489393	2392.105638
1017.782219	2386.935935
1018.075011	2395.110166
1018.367768	2394.653941
1018.660490	2397.300547
1018.953177	2397.300547
1019.245829	2397.300547
