Dividing Wavelength (nm)	Counts (n)	Blue Motor Position (mm): 0.000000	Red Motor Position (mm): 8.800000	
326.493990	1976.311269
326.888308	1976.311269
327.282561	1976.311269
327.676750	1952.476693
328.070874	1955.907198
328.464933	1960.013218
328.858929	1970.836576
329.252859	1981.977526
329.646726	1997.106028
330.040528	2012.040447
330.434265	2033.440145
330.827938	2049.377753
331.221547	2071.959601
331.615091	2089.031469
332.008571	2110.879829
332.401986	2129.869856
332.795338	2151.345171
333.188625	2171.557678
333.581847	2190.015863
333.975006	2209.598225
334.368100	2228.187479
334.761129	2243.913359
335.154095	2256.463311
335.546996	2273.943512
335.939833	2286.473300
336.332606	2301.064920
336.725315	2312.034471
337.117960	2322.139464
337.510540	2326.900833
337.903056	2336.562205
338.295508	2341.580673
338.687896	2347.995542
339.080220	2357.276306
339.472480	2362.889631
339.864676	2364.618747
340.256807	2369.874149
340.648875	2368.767616
341.040879	2371.033615
341.432818	2371.474716
341.824694	2372.500591
342.216506	2371.227699
342.608253	2375.525283
342.999937	2371.573018
343.391557	2371.739376
343.783113	2368.573532
344.174605	2370.312730
344.566033	2366.042873
344.957397	2367.610671
345.348697	2365.057327
345.739934	2362.758561
346.131106	2359.320494
346.522215	2360.532891
346.913260	2355.703466
347.304241	2355.451408
347.695159	2352.177179
348.086012	2352.504854
348.476802	2349.936386
348.867528	2348.219873
349.258191	2347.917404
349.648789	2345.177537
350.039324	2346.180726
350.429796	2349.472600
350.820203	2343.962619
351.210548	2344.728874
351.600828	2343.970180
351.991045	2345.666529
352.381198	2341.379027
352.771288	2343.536641
353.161314	2343.017402
353.551276	2344.227279
353.941175	2343.957578
354.331010	2346.286591
354.720782	2345.621158
355.110490	2342.888853
355.500135	2346.029492
355.889717	2345.963957
356.279235	2344.996055
356.668689	2347.531756
357.058080	2343.597135
357.447408	2343.602176
357.836672	2343.894563
358.225873	2347.196519
358.615010	2346.780624
359.004084	2348.555110
359.393095	2347.408247
359.782043	2350.926973
360.170927	2351.050481
360.559748	2352.242714
360.948505	2351.741119
361.337199	2351.461335
361.725830	2351.413444
362.114398	2354.183558
362.502903	2353.238342
362.891344	2354.785976
363.279722	2356.807479
363.668037	2357.798065
364.056289	2355.872345
364.444478	2358.392922
364.832603	2358.055164
365.220665	2359.260000
365.608665	2356.197499
365.996601	2357.916533
366.384474	2359.166739
366.772284	2360.540453
367.160031	2358.062726
367.547715	2361.384846
367.935336	2359.940556
368.322893	2360.386698
368.710388	2363.555063
369.097820	2364.401977
369.485189	2362.156143
369.872495	2365.967255
370.259738	2366.002543
370.646918	2368.860878
371.034035	2370.085878
371.421090	2371.051259
371.808081	2376.125180
372.195010	2381.690614
372.581875	2384.427961
372.968678	2387.124978
373.355418	2396.246946
373.742096	2405.653739
374.128710	2412.502146
374.515262	2427.514703
374.901751	2438.469130
375.288177	2456.496296
375.674540	2473.961373
376.060841	2493.163128
376.447079	2517.456449
376.833254	2541.931251
377.219367	2566.499314
377.605417	2601.235385
377.991404	2627.469549
378.377329	2667.156033
378.763191	2700.886393
379.148991	2745.104874
379.534727	2791.780918
379.920402	2838.439317
380.306013	2884.523025
380.691563	2949.019547
381.077049	3004.283196
381.462474	3054.263716
381.847835	3126.445477
382.233134	3193.059284
382.618371	3253.480034
383.003545	3333.082374
383.388657	3410.327974
383.773706	3500.894823
384.158693	3566.855801
384.543618	3656.401817
384.928480	3729.392683
385.313280	3823.296777
385.698017	3918.153648
386.082692	4029.358981
386.467305	4076.130807
386.851856	4188.251109
387.236344	4321.556861
387.620770	4362.170917
388.005133	4463.697235
388.389435	4578.794339
388.773674	4636.933966
389.157851	4734.621445
389.541965	4823.960774
389.926018	4820.638653
390.310008	4944.048620
390.693936	5013.881204
391.077802	5078.292027
391.461606	5148.621164
391.845348	5199.511612
392.229027	5252.282410
392.612645	5378.502820
392.996200	5417.773409
393.379694	5495.853320
393.763125	5610.721052
394.146494	5615.895796
394.529801	5653.979193
394.913047	5757.416108
395.296230	5683.187638
395.679351	5644.068284
396.062410	5741.405403
396.445408	5593.818063
396.828343	5613.428151
397.211217	5607.033448
397.594028	5454.011743
397.976778	5480.944108
398.359466	5489.161188
398.742092	5383.662441
399.124656	5370.774732
399.507158	5372.256831
399.889598	5290.859840
400.271977	5296.064832
400.654294	5213.152974
401.036549	5199.264595
401.418742	5114.467347
401.800874	5135.254544
402.182944	5064.370880
402.564952	5102.721458
402.946898	4928.398358
403.328783	4849.204352
403.710606	4806.077281
404.092367	4790.502636
404.474067	4796.007576
404.855705	4630.118326
405.237282	4509.009646
405.618797	4524.768293
406.000250	4491.310155
406.381642	4470.704439
406.762972	4355.894680
407.144240	4211.344635
407.525447	4164.729085
407.906593	4058.607756
408.287677	4014.401878
408.668700	3944.314716
409.049661	3851.376003
409.430560	3789.125315
409.811399	3698.760112
410.192176	3640.285248
410.572891	3568.756316
410.953545	3549.768810
411.334138	3414.149169
411.714669	3400.540574
412.095139	3267.381016
412.475547	3244.869743
412.855894	3176.342818
413.236180	3139.078609
413.616405	3059.864438
413.996568	3025.801362
414.376670	2974.432004
414.756711	2919.496030
415.136691	2889.241545
415.516609	2857.109230
415.896466	2820.855772
416.276262	2795.476083
416.655997	2774.318361
417.035670	2741.606313
417.415283	2730.268758
417.794834	2702.232381
418.174324	2673.747342
418.553753	2642.968577
418.933121	2629.400311
419.312428	2605.217896
419.691674	2583.268712
420.070859	2575.417115
420.449983	2552.207643
420.829045	2544.560213
421.208047	2526.265865
421.586988	2520.022396
421.965867	2512.601818
422.344686	2504.770385
422.723444	2499.325939
423.102141	2479.544451
423.480777	2484.194916
423.859352	2472.176805
424.237866	2475.745942
424.616319	2469.343677
424.994712	2469.081537
425.373044	2462.989302
425.751314	2461.686164
426.129524	2456.208950
426.507673	2456.831533
426.885762	2450.250306
427.263789	2450.366253
427.641756	2448.624534
428.019662	2445.521704
428.397508	2443.530448
428.775292	2444.211004
429.153016	2442.673452
429.530679	2442.862495
429.908282	2441.483740
430.285824	2434.315219
430.663305	2435.809921
431.040726	2435.590631
431.418086	2432.641556
431.795385	2432.525609
432.172624	2432.767585
432.549802	2432.036617
432.926920	2429.649631
433.303977	2431.343459
433.680974	2427.086204
434.057910	2429.579055
434.434786	2427.676019
434.811601	2429.011925
435.188355	2429.994950
435.565050	2427.945721
435.941683	2427.613005
436.318257	2429.392532
436.694770	2421.987077
437.071222	2428.457398
437.447614	2424.084197
437.823946	2426.425813
438.200218	2427.471853
438.576429	2424.472366
438.952580	2428.893458
439.328670	2426.282140
439.704700	2425.727613
440.080670	2428.139806
440.456580	2426.766091
440.832429	2429.281627
441.208218	2424.454722
441.583947	2424.999167
441.959616	2426.105700
442.335224	2426.226688
442.710773	2426.017480
443.086261	2426.766091
443.461689	2427.423962
443.837057	2427.615526
444.212365	2427.363468
444.587612	2430.983016
444.962800	2426.806420
445.337927	2427.686102
445.712995	2424.709300
446.088002	2430.186514
446.462949	2429.546288
446.837837	2430.420928
447.212664	2427.575196
447.587431	2432.523089
447.962139	2439.182453
448.336786	2446.585387
448.711374	2440.604058
449.085901	2435.426793
449.460369	2431.439241
449.834776	2433.705239
450.209124	2438.118770
450.583412	2438.534665
450.957640	2436.838317
451.331808	2438.728749
451.705917	2435.197421
452.079965	2433.657348
452.453954	2433.281783
452.827883	2435.199942
453.201752	2434.748758
453.575562	2435.240271
453.949311	2437.677669
454.323001	2436.785384
454.696632	2434.957966
455.070202	2437.791095
455.443713	2437.720518
455.817164	2439.668924
456.190556	2437.302103
456.563888	2441.592125
456.937160	2434.484098
457.310373	2435.426793
457.683526	2438.151537
458.056619	2437.289500
458.429653	2438.960642
458.802628	2438.585076
459.175542	2440.394851
459.548398	2439.464758
459.921194	2445.161262
460.293930	2445.942640
460.666607	2448.112857
461.039224	2453.562344
461.411782	2449.423557
461.784280	2452.029834
462.156719	2450.890533
462.529099	2449.214349
462.901419	2442.212187
463.273680	2444.004317
463.645882	2444.372321
464.018024	2444.654626
464.390106	2444.798298
464.762130	2452.702828
465.134094	2460.166256
465.505999	2467.554067
465.877845	2475.335088
466.249631	2477.971611
466.621358	2474.662094
466.993026	2475.670325
467.364634	2469.817545
467.736184	2463.637090
468.107674	2460.201544
468.479105	2458.427058
468.850477	2456.420679
469.221790	2456.153497
469.593043	2451.198043
469.964238	2452.919597
470.335373	2449.612600
470.706449	2454.696604
471.077467	2455.982098
471.448425	2466.944087
471.819324	2470.041876
472.190164	2465.525002
472.560945	2461.063581
472.931667	2453.436316
473.302330	2454.058898
473.672934	2454.280709
474.043479	2453.723661
474.413965	2450.767025
474.784393	2445.201591
475.154761	2450.119236
475.525070	2446.126642
475.895321	2447.172682
476.265513	2446.918104
476.635645	2452.186109
477.005719	2451.757611
477.375734	2454.875565
477.745691	2454.008487
478.115588	2458.074177
478.485427	2459.783128
478.855207	2465.976186
479.224928	2470.727473
479.594591	2473.764768
479.964194	2470.361990
480.333739	2474.253760
480.703226	2470.525827
481.072653	2471.632360
481.442022	2472.033132
481.811333	2475.113277
482.180584	2469.978862
482.549777	2471.375262
482.918912	2468.668162
483.287988	2468.148923
483.657005	2468.398460
484.025964	2467.453244
484.394864	2463.949642
484.763706	2464.045424
485.132489	2464.718418
485.501213	2462.454940
485.869879	2463.306895
486.238487	2466.051803
486.607036	2463.664817
486.975527	2463.324539
487.343959	2460.471246
487.712333	2464.809159
488.080648	2462.502831
488.448905	2463.266566
488.817104	2461.209775
489.185244	2464.151288
489.553326	2467.193624
489.921350	2470.609006
490.289315	2478.962198
490.657222	2477.200315
491.025070	2477.462455
491.392861	2473.658904
491.760593	2474.195787
492.128267	2471.274438
492.495883	2468.012812
492.863440	2466.039200
493.230939	2463.095166
493.598380	2463.236319
493.965763	2458.195165
494.333088	2457.247428
494.700354	2455.667026
495.067563	2457.353292
495.434713	2457.370936
495.801805	2458.328755
496.168839	2458.157356
496.535815	2458.381687
496.902733	2457.774228
497.269593	2458.928653
497.636395	2457.678447
498.003139	2461.436627
498.369825	2461.020732
498.736453	2462.008798
499.103023	2461.053499
499.469535	2461.227419
499.835989	2461.827316
500.202385	2462.706997
500.568723	2462.381843
500.935003	2465.406535
501.301226	2462.253294
501.667390	2468.998358
502.033497	2470.230920
502.399546	2468.164047
502.765537	2466.084571
503.131470	2469.893162
503.497345	2472.703606
503.863163	2470.513224
504.228923	2475.763586
504.594625	2475.597228
504.960269	2475.408185
505.325856	2481.392034
505.691385	2479.549492
506.056856	2484.716675
506.422270	2485.263640
506.787625	2485.858497
507.152924	2487.955617
507.518164	2492.043992
507.883347	2491.837305
508.248472	2493.374857
508.613540	2494.993067
508.978550	2499.323418
509.343503	2499.711587
509.708398	2500.329129
510.073236	2503.961280
510.438016	2507.396826
510.802738	2504.903976
511.167403	2510.953360
511.532010	2513.022754
511.896561	2516.959895
512.261053	2519.838394
512.625488	2518.202540
512.989866	2518.217663
513.354186	2519.142715
513.718449	2516.972498
514.082655	2524.672861
514.446803	2524.317459
514.810894	2526.815351
515.174927	2524.314939
515.538904	2523.964578
515.902822	2526.802748
516.266684	2529.318284
516.630488	2525.602953
516.994235	2526.601102
517.357925	2526.933818
517.721558	2529.456916
518.085133	2526.167563
518.448651	2527.894158
518.812112	2524.516585
519.175516	2524.806451
519.538863	2524.534229
519.902152	2522.873169
520.265385	2522.585823
520.628560	2520.609691
520.991678	2519.510719
521.354739	2517.254803
521.717743	2516.175996
522.080690	2513.214318
522.443580	2513.032836
522.806413	2513.809174
523.169189	2505.685355
523.531908	2508.644512
523.894569	2504.780467
524.257174	2505.234171
524.619722	2499.489777
524.982213	2499.388953
525.344647	2494.196565
525.707025	2495.227481
526.069345	2491.993581
526.431608	2488.033754
526.793815	2486.710452
527.155964	2484.855307
527.518057	2479.786427
527.880093	2480.479585
528.242072	2476.756693
528.603995	2476.227372
528.965860	2472.494398
529.327669	2470.853502
529.689421	2469.331074
530.051117	2468.406022
530.412755	2464.980558
530.774337	2464.884776
531.135862	2461.048458
531.497331	2461.774384
531.858743	2455.011676
532.220098	2458.104424
532.581396	2451.492951
532.942638	2452.478496
533.303824	2453.859773
533.664953	2451.122426
534.026025	2450.237703
534.387040	2450.325924
534.747999	2447.235696
535.108902	2450.686366
535.469748	2446.350974
535.830537	2447.828032
536.191270	2444.815943
536.551947	2443.290993
536.912567	2443.800150
537.273131	2443.170006
537.633638	2439.116918
537.994089	2440.442742
538.354483	2439.051383
538.714821	2441.778647
539.075103	2441.559357
539.435328	2441.400561
539.795497	2436.896290
540.155609	2439.116918
540.515665	2439.593307
540.875665	2440.369645
541.235609	2437.715477
541.595496	2437.818821
541.955328	2435.893100
542.315102	2437.463420
542.674821	2439.202618
543.034483	2437.216403
543.394090	2434.627771
543.753640	2435.903182
544.113134	2436.709767
544.472571	2436.843358
544.831953	2436.082143
545.191278	2438.292689
545.550548	2432.397060
545.909761	2438.118770
546.268918	2436.556012
546.628019	2438.552309
546.987064	2431.799683
547.346053	2436.238419
547.704986	2433.352359
548.063863	2433.735486
548.422684	2434.542071
548.781449	2431.766916
549.140158	2435.663728
549.498811	2434.181628
549.857408	2434.292534
550.215949	2432.210537
550.574434	2430.751123
550.932864	2431.401432
551.291237	2430.796494
551.649555	2434.738676
552.007817	2431.643408
552.366022	2432.369334
552.724173	2436.568615
553.082267	2432.472677
553.440305	2433.889242
553.798288	2432.744900
554.156215	2433.992585
554.514086	2432.311360
554.871902	2432.707091
555.229661	2433.072575
555.587365	2431.093922
555.945014	2435.381423
556.302606	2434.889911
556.660143	2432.520568
557.017625	2433.493511
557.375050	2432.868408
557.732421	2432.729776
558.089735	2434.847061
558.446994	2432.555856
558.804197	2432.878490
559.161345	2433.891762
559.518437	2433.566608
559.875474	2429.206010
560.232455	2432.255908
560.589381	2430.632656
560.946251	2432.208017
561.303065	2431.678696
561.659825	2432.515527
562.016528	2433.433017
562.373177	2433.001998
562.729770	2431.098963
563.086307	2431.940836
563.442789	2432.697009
563.799216	2433.836309
564.155587	2431.976124
564.511904	2431.701381
564.868164	2433.700198
565.224370	2430.945208
565.580520	2433.024684
565.936615	2432.016453
566.292654	2430.113417
566.648638	2430.806576
567.004567	2431.875301
567.360441	2433.881680
567.716260	2430.448654
568.072023	2431.209868
568.427732	2428.923705
568.783385	2429.843716
569.138982	2427.020669
569.494525	2429.067378
569.850013	2423.948086
570.205445	2430.408325
570.560823	2432.891093
570.916145	2429.689960
571.271412	2428.830444
571.626625	2431.318253
571.981782	2428.969075
572.336884	2431.648449
572.691931	2429.211051
573.046923	2429.395053
573.401860	2432.722214
573.756743	2429.044693
574.111570	2430.355393
574.466342	2429.513520
574.821059	2430.360434
575.175722	2429.798345
575.530330	2428.616195
575.884882	2427.003025
576.239380	2429.158119
576.593823	2430.476380
576.948211	2427.950762
577.302544	2429.390012
577.656823	2429.299271
578.011047	2429.508479
578.365216	2428.165011
578.719330	2427.492017
579.073389	2427.446647
579.427394	2428.802717
579.781344	2424.265679
580.135239	2426.186358
580.489080	2427.169383
580.842866	2426.209044
581.196597	2427.441606
581.550273	2425.001687
581.903895	2427.010587
582.257463	2427.822213
582.610975	2425.354568
582.964434	2426.269537
583.317837	2426.035124
583.671186	2428.086873
584.024481	2427.895310
584.377721	2428.313725
584.730906	2423.771646
585.084037	2427.759198
585.437113	2426.067891
585.790135	2426.821544
586.143103	2424.396749
586.496016	2424.973961
586.848874	2421.119999
587.201679	2424.691656
587.554428	2421.493044
587.907124	2424.432037
588.259765	2422.506316
588.612352	2427.015628
588.964884	2424.628642
589.317362	2427.144178
589.669786	2424.174938
590.022155	2423.108734
590.374470	2423.312901
590.726731	2426.987902
591.078937	2424.288364
591.431090	2424.230391
591.783188	2428.502769
592.135232	2425.596543
592.487222	2424.553025
592.839157	2422.198806
593.191038	2423.441450
593.542866	2425.384815
593.894639	2423.509506
594.246358	2427.703746
594.598022	2423.368353
594.949633	2421.490524
595.301190	2424.132088
595.652692	2427.607964
596.004141	2424.414393
596.355535	2422.614701
596.706876	2423.302818
597.058162	2422.123188
597.409395	2423.607808
597.760573	2424.298446
598.111698	2425.273910
598.462768	2421.916501
598.813785	2423.983374
599.164748	2421.160328
599.515657	2423.461615
599.866511	2421.919022
600.217312	2421.321645
600.568060	2422.055133
600.918753	2421.389701
601.269392	2422.173600
601.619978	2421.195616
601.970510	2423.537232
602.320988	2420.489855
602.671412	2422.307191
603.021783	2424.167376
603.372100	2423.045720
603.722363	2418.342323
604.072572	2424.321132
604.422728	2422.672674
604.772830	2420.073959
605.122878	2418.745615
605.472872	2418.077663
605.822813	2419.032961
606.172701	2422.770977
606.522534	2422.503796
606.872314	2421.488003
607.222041	2421.046902
607.571714	2421.747623
607.921333	2420.787283
608.270899	2422.360123
608.620411	2423.010432
608.969870	2422.743250
609.319276	2422.720565
609.668627	2424.825247
610.017926	2422.939855
610.367171	2423.451532
610.716362	2422.879362
611.065500	2420.731830
611.414585	2422.433219
611.763616	2422.090421
612.112594	2419.562282
612.461518	2419.776531
612.810389	2422.793662
613.159207	2421.440112
613.507971	2422.347520
613.856682	2423.562438
614.205340	2421.689649
614.553945	2422.960020
614.902496	2421.946748
615.250994	2422.980185
615.599439	2422.854156
615.947830	2423.784249
616.296169	2422.271903
616.644454	2423.428847
616.992686	2423.290216
617.340864	2425.893972
617.688990	2420.419278
618.037063	2422.350040
618.385082	2422.319793
618.733048	2421.876172
619.080961	2424.411872
619.428821	2424.192582
619.776628	2420.021027
620.124382	2424.336255
620.472083	2421.964392
620.819731	2422.251738
621.167326	2420.439443
621.514868	2424.001018
621.862357	2419.569844
622.209793	2422.307191
622.557176	2423.406162
622.904506	2420.187385
623.251783	2416.340985
623.599007	2417.659247
623.946179	2415.098341
624.293297	2418.362488
624.640363	2419.688311
624.987376	2418.647313
625.334336	2420.409196
625.681243	2422.226532
626.028097	2418.538928
626.374899	2423.776687
626.721647	2419.199319
627.068343	2420.174782
627.414987	2418.755698
627.761577	2420.590678
628.108115	2418.987591
628.454600	2418.430543
628.801032	2419.683270
629.147412	2420.504978
629.493739	2420.625966
629.840014	2419.988260
630.186236	2417.954154
630.532405	2417.013979
630.878521	2418.990111
631.224585	2420.963723
631.570597	2417.064391
631.916556	2417.510533
632.262462	2419.625297
632.608316	2417.369380
632.954117	2420.444484
633.299866	2419.040523
633.645562	2416.293094
633.991206	2416.482137
634.336797	2419.070770
634.682336	2420.482293
635.027823	2419.486665
635.373257	2418.175965
635.718639	2419.075811
636.063968	2417.160173
636.409245	2416.829977
636.754470	2417.893660
637.099642	2417.039185
637.444762	2420.245359
637.789829	2415.978022
638.134845	2417.457601
638.479808	2416.340985
638.824719	2415.216808
639.169577	2417.137487
639.514383	2417.119843
639.859137	2416.172106
640.203839	2416.595563
640.548489	2416.925759
640.893086	2414.833680
641.237632	2411.463669
641.582125	2414.425347
641.926566	2410.558782
642.270955	2414.964750
642.615292	2414.364853
642.959576	2414.790830
643.303809	2413.341498
643.647990	2414.367373
643.992118	2416.083886
644.336195	2415.839390
644.680219	2414.465676
645.024192	2415.970460
645.368112	2412.081210
645.711981	2415.494071
646.055797	2414.896694
646.399562	2416.804771
646.743274	2416.585481
647.086935	2416.136818
647.430544	2416.393917
647.774101	2416.731674
648.117606	2416.923238
648.461059	2419.408527
648.804460	2419.955492
649.147810	2417.586150
649.491108	2417.182858
649.834354	2414.175809
650.177548	2415.393248
650.520690	2414.695048
650.863781	2414.616910
651.206820	2416.202353
651.549807	2414.442991
651.892742	2414.155645
652.235626	2412.814698
652.578458	2417.271078
652.921238	2414.841242
653.263967	2414.243865
653.606644	2415.776376
653.949269	2414.374935
654.291843	2416.575399
654.634365	2413.896025
654.976836	2414.226221
655.319255	2412.630696
655.661622	2413.033988
656.003938	2415.010120
656.346203	2410.379821
656.688416	2413.323854
657.030577	2414.579102
657.372687	2414.322003
657.714746	2415.357960
658.056753	2412.577764
658.398708	2408.549882
658.740612	2411.514080
659.082465	2409.212793
659.424266	2412.013154
659.766016	2410.367218
660.107715	2411.526683
660.449362	2412.202198
660.790958	2414.372414
661.132503	2411.740932
661.473996	2414.397620
661.815438	2412.013154
662.156829	2413.840573
662.498168	2413.243196
662.839456	2410.762948
663.180693	2412.504667
663.521879	2411.690521
663.863013	2412.809657
664.204097	2411.826632
664.545129	2411.408216
664.886110	2412.681107
665.227040	2411.115829
665.567918	2413.407033
665.908746	2411.783782
666.249522	2412.814698
666.590248	2412.688669
666.930922	2413.981725
667.271545	2411.962743
667.612118	2412.040881
667.952639	2410.475603
668.293109	2415.526839
668.633528	2413.807805
668.973896	2412.360994
669.314213	2413.270922
669.654480	2415.284863
669.994695	2414.959709
670.334859	2414.571540
670.674973	2410.825963
671.015035	2412.252609
671.355047	2414.526170
671.695008	2413.061714
672.034918	2412.237486
672.374777	2414.246386
672.714585	2412.439132
673.054342	2412.764286
673.394049	2412.882753
673.733705	2411.955181
674.073310	2415.178999
674.412864	2415.015162
674.752368	2410.089954
675.091820	2412.129101
675.431223	2410.773031
675.770574	2412.716395
676.109875	2407.299676
676.449125	2410.382341
676.788324	2407.813873
677.127473	2407.992834
677.466571	2407.491239
677.805619	2408.804460
678.144616	2411.030129
678.483562	2410.649522
678.822458	2408.305386
679.161303	2412.189595
679.500098	2412.761766
679.838842	2410.536096
680.177535	2409.628689
680.516179	2413.308731
680.854771	2412.567681
681.193314	2409.853020
681.531805	2412.761766
681.870247	2410.780592
682.208638	2412.045922
682.546978	2412.615572
682.885268	2409.774882
683.223508	2412.030798
683.561697	2411.965263
683.899836	2411.393093
684.237925	2411.872002
684.575963	2413.545665
684.913951	2410.273956
685.251889	2412.124060
685.589776	2411.090623
685.927614	2410.455438
686.265401	2409.091806
686.603137	2412.726478
686.940824	2411.456107
687.278460	2412.194636
687.616046	2410.009296
687.953582	2411.065417
688.291068	2410.291600
688.628504	2415.178999
688.965889	2413.152455
689.303224	2411.745973
689.640510	2415.761252
689.977745	2412.272774
690.314930	2413.288566
690.652065	2411.763617
690.989150	2410.704975
691.326185	2412.187074
691.663170	2409.159861
692.000105	2409.447207
692.336990	2409.263205
692.673825	2408.693555
693.010610	2410.326888
693.347345	2405.149623
693.684030	2405.499984
694.020665	2405.852864
694.357251	2403.705333
694.693786	2409.628689
695.030272	2406.228430
695.366707	2406.740107
695.703093	2406.488050
696.039429	2408.272618
696.375716	2407.675242
696.711952	2407.748338
697.048139	2409.427043
697.384276	2409.588359
697.720363	2407.130797
698.056400	2410.150448
698.392388	2406.167937
698.728326	2405.283214
699.064214	2406.326733
699.400053	2407.556774
699.735842	2409.923596
700.071581	2406.054511
700.407270	2406.235992
700.742910	2407.125756
701.078501	2407.380334
701.414042	2407.430746
701.749533	2404.804304
702.084974	2405.401681
702.420366	2403.090312
702.755709	2405.502504
703.091002	2403.944788
703.426246	2409.220355
703.761440	2402.954201
704.096584	2408.098698
704.431679	2404.534603
704.766725	2405.575601
705.101721	2407.395457
705.436668	2403.080230
705.771565	2404.209448
706.106413	2403.997720
706.441212	2405.036198
706.775961	2406.553585
707.110661	2405.459654
707.445311	2405.537792
707.779913	2405.552916
708.114465	2407.080385
708.448967	2404.423697
708.783421	2406.641805
709.117825	2406.241033
709.452180	2408.277659
709.786485	2408.149110
710.120742	2405.066444
710.454949	2408.633061
710.789107	2405.003430
711.123216	2402.041752
711.457275	2408.592732
711.791286	2403.302041
712.125247	2403.531413
712.459159	2407.198852
712.793023	2408.197001
713.126837	2405.749521
713.460602	2407.912176
713.794318	2408.370921
714.127985	2406.339336
714.461602	2408.330592
714.795171	2408.499470
715.128691	2406.246074
715.462162	2405.590724
715.795584	2404.217010
716.128957	2404.645508
716.462281	2404.501835
716.795556	2404.375806
717.128782	2402.901269
717.461960	2403.808677
717.795088	2404.537123
718.128167	2405.557957
718.461198	2403.788512
718.794180	2403.385220
719.127113	2402.969324
719.459997	2401.885476
719.792833	2402.016546
720.125619	2401.988820
720.458357	2403.400343
720.791046	2403.670045
721.123686	2402.475291
721.456278	2403.380178
721.788821	2402.457647
722.121315	2406.372103
722.453761	2403.206259
722.786158	2403.876732
723.118506	2403.135682
723.450805	2400.831875
723.783056	2404.106105
724.115259	2404.305230
724.447412	2402.064437
724.779518	2402.747514
725.111574	2403.581825
725.443582	2405.184912
725.775542	2402.654252
726.107453	2402.863460
726.439315	2403.382699
726.771129	2406.815725
727.102895	2404.567370
727.434612	2404.506876
727.766281	2405.056362
728.097901	2402.714746
728.429473	2400.000085
728.760996	2402.961763
729.092471	2400.882287
729.423897	2403.082750
729.755276	2405.520148
730.086606	2404.068296
730.417887	2405.139541
730.749120	2406.722463
731.080305	2404.789181
731.411442	2407.609707
731.742530	2406.392268
732.073570	2405.474778
732.404562	2404.632905
732.735506	2404.670714
733.066401	2403.876732
733.397249	2406.115004
733.728048	2404.088461
734.058798	2404.501835
734.389501	2404.418656
734.720156	2402.689540
735.050762	2402.871022
735.381320	2404.476629
735.711831	2404.811866
736.042293	2403.458316
736.372707	2400.786505
736.703073	2402.868501
737.033391	2400.599982
737.363661	2403.264232
737.693883	2402.951680
738.024056	2404.411094
738.354182	2401.595610
738.684260	2405.346228
739.014290	2402.918913
739.344272	2405.426887
739.674207	2402.984448
740.004093	2403.473440
740.333931	2404.443862
740.663722	2404.292627
740.993464	2402.374468
741.323159	2403.183573
741.652806	2403.831362
741.982405	2403.876732
742.311956	2402.117369
742.641460	2401.094015
742.970915	2401.202400
743.300323	2401.961094
743.629683	2402.402195
743.958996	2401.008316
744.288260	2403.430590
744.617477	2401.371279
744.946647	2396.859446
745.275768	2401.893038
745.604842	2397.265259
745.933869	2395.989847
746.262847	2397.749210
746.591778	2402.941598
746.920662	2400.166443
747.249498	2402.094684
747.578286	2400.098387
747.907027	2401.366238
748.235720	2400.753737
748.564365	2400.355486
748.892963	2402.258522
749.221514	2401.131824
749.550017	2403.997720
749.878473	2401.172153
750.206881	2402.631567
750.535242	2400.199210
750.863555	2403.599469
751.191821	2400.897410
751.520039	2400.791546
751.848210	2401.164591
752.176334	2401.943450
752.504411	2402.467730
752.832440	2401.482184
753.160421	2400.237019
753.488356	2400.194169
753.816243	2403.314643
754.144082	2399.319529
754.471875	2402.321536
754.799620	2401.671227
755.127318	2402.054355
755.454969	2401.721639
755.782572	2399.463202
756.110129	2398.691905
756.437638	2399.236350
756.765100	2398.588562
757.092515	2399.445558
757.419882	2399.606875
757.747203	2400.549571
758.074477	2400.574776
758.401703	2402.432442
758.728882	2400.231978
759.056014	2400.577297
759.383099	2401.013357
759.710138	2401.134344
760.037129	2399.322050
760.364073	2398.714591
760.690970	2400.935219
761.017820	2399.511093
761.344623	2399.185938
761.671379	2403.536454
761.998088	2397.698798
762.324751	2400.700805
762.651366	2400.920095
762.977935	2404.227092
763.304456	2401.877915
763.630931	2404.988307
763.957359	2403.634757
764.283740	2406.629202
764.610074	2404.537123
764.936362	2406.087278
765.262602	2403.985117
765.588796	2403.518810
765.914943	2400.063099
766.241044	2403.145765
766.567097	2400.085784
766.893104	2399.034704
767.219064	2399.846330
767.544978	2399.105280
767.870845	2400.665517
768.196665	2400.262225
768.522438	2399.783315
768.848165	2397.552605
769.173846	2399.289282
769.499479	2399.148130
769.825066	2397.184600
770.150607	2395.702501
770.476101	2398.815414
770.801548	2398.016391
771.126949	2396.214178
771.452303	2398.497821
771.777611	2398.497821
772.102872	2397.802142
772.428087	2398.402039
772.753256	2396.519168
773.078378	2397.577810
773.403453	2396.249466
773.728482	2393.877603
774.053465	2397.219888
774.378401	2399.042266
774.703291	2397.872718
775.028135	2395.800804
775.352932	2396.884652
775.677683	2396.360372
776.002388	2399.329611
776.327046	2395.102604
776.651658	2398.757440
776.976224	2396.544374
777.300743	2396.839281
777.625216	2395.032028
777.949643	2397.618140
778.274024	2399.042266
778.598359	2395.213509
778.922647	2392.282078
779.246889	2398.429765
779.571086	2391.478014
779.895236	2396.042779
780.219339	2396.950187
780.543397	2396.327604
780.867409	2396.665362
781.191374	2395.394991
781.515294	2394.653941
781.839167	2399.395146
782.162995	2393.996071
782.486776	2398.268448
782.810511	2397.134189
783.134201	2393.988509
783.457844	2396.869528
783.781441	2397.902965
784.104993	2395.190824
784.428498	2396.935063
784.751958	2396.604868
785.075372	2394.724517
785.398739	2396.478839
785.722061	2397.093860
786.045337	2396.254508
786.368568	2395.518499
786.691752	2398.071843
787.014891	2396.826678
787.337983	2396.133520
787.661030	2397.789539
787.984031	2399.203583
788.306987	2398.971689
788.629897	2399.886659
788.952760	2395.664692
789.275579	2398.618809
789.598351	2398.812893
789.921078	2397.963459
790.243759	2397.877759
790.566395	2395.301729
790.888984	2396.627553
791.211529	2395.962121
791.534027	2393.323077
791.856480	2395.684857
792.178888	2397.061092
792.501249	2394.984137
792.823566	2396.216699
793.145836	2398.054199
793.468062	2395.095042
793.790241	2398.046638
794.112375	2396.693088
794.434464	2395.521020
794.756507	2396.660320
795.078505	2395.689898
795.400457	2395.490773
795.722364	2393.938097
796.044226	2396.987995
796.366042	2394.175032
796.687812	2393.630587
797.009538	2395.662172
797.331218	2396.433468
797.652852	2395.543705
797.974442	2396.488921
798.295986	2396.448592
798.617484	2397.565208
798.938938	2397.108983
799.260346	2398.520506
799.581709	2394.898437
799.903026	2398.059241
800.224299	2397.724004
800.545526	2397.668551
800.866708	2396.191493
801.187845	2396.413304
801.508936	2395.992368
801.829983	2396.846843
802.150984	2397.406411
802.471940	2395.102604
802.792851	2394.653941
803.113717	2397.872718
803.434538	2395.642007
803.755314	2394.104455
804.076045	2394.578324
804.396731	2396.579662
804.717372	2393.128992
805.037967	2394.840464
805.358518	2395.097563
805.679024	2397.416493
805.999485	2394.285937
806.319901	2395.944477
806.640272	2396.604868
806.960598	2398.276010
807.280879	2393.554970
807.601115	2398.462533
807.921306	2395.997409
808.241453	2393.968344
808.561554	2396.788870
808.881611	2394.779970
809.201623	2398.717111
809.521590	2395.367264
809.841513	2396.776267
810.161390	2395.190824
810.481223	2397.350958
810.801011	2395.611760
811.120755	2394.424569
811.440453	2399.841288
811.760107	2393.224774
812.079716	2395.037069
812.399281	2392.506410
812.718801	2395.004301
813.038276	2391.830895
813.357707	2393.363406
813.677093	2395.299209
813.996434	2395.407594
814.315731	2396.287275
814.634983	2392.624877
814.954191	2394.583365
815.273354	2393.065978
815.592473	2395.309291
815.911547	2394.359034
816.230577	2396.458674
816.549562	2395.566390
816.868502	2397.431617
817.187399	2394.197717
817.506250	2397.857594
817.825058	2397.139230
818.143821	2393.701163
818.462539	2394.396842
818.781213	2396.451112
819.099843	2395.357182
819.418429	2395.359703
819.736970	2398.218037
820.055466	2399.306926
820.373919	2400.179046
820.692327	2401.149468
821.010691	2403.665004
821.329011	2412.776889
821.647286	2423.310380
821.965517	2432.339087
822.283704	2436.571135
822.601847	2439.618513
822.919945	2436.644232
823.237999	2431.136772
823.556010	2425.510844
823.873976	2419.973136
824.191897	2412.739081
824.509775	2410.803278
824.827609	2410.992321
825.145398	2409.159861
825.463144	2407.642474
825.780845	2405.812535
826.098502	2408.726322
826.416116	2410.836045
826.733685	2411.660274
827.051210	2414.019534
827.368692	2409.515263
827.686129	2411.998031
828.003522	2405.898235
828.320872	2399.574107
828.638177	2399.014539
828.955439	2399.609395
829.272656	2396.650238
829.589830	2394.507748
829.906960	2397.451782
830.224046	2395.344579
830.541088	2396.284754
830.858086	2394.810217
831.175041	2395.710063
831.491952	2397.555125
831.808819	2397.600496
832.125642	2396.171328
832.442421	2397.910527
832.759157	2398.734755
833.075849	2400.662997
833.392497	2402.283728
833.709101	2402.351783
834.025662	2405.502504
834.342179	2401.711557
834.658653	2399.367420
834.975083	2400.940260
835.291469	2404.373286
835.607811	2398.684344
835.924110	2396.703170
836.240366	2397.456823
836.556578	2393.454147
836.872746	2400.491597
837.188871	2394.099414
837.504952	2394.202758
837.820990	2395.858777
838.136984	2396.435989
838.452935	2394.134702
838.768842	2395.019425
839.084706	2392.690412
839.400526	2396.123437
839.716303	2397.391288
840.032037	2398.233160
840.347727	2397.318191
840.663373	2396.914899
840.978977	2394.865670
841.294537	2395.281565
841.610054	2394.149826
841.925527	2395.097563
842.240957	2393.973385
842.556344	2395.090001
842.871687	2392.569424
843.186987	2392.309805
843.502244	2392.176214
843.817458	2391.157901
844.132629	2392.556821
844.447756	2391.828374
844.762840	2387.329145
845.077881	2393.113869
845.392879	2391.132695
845.707833	2390.331152
846.022745	2389.496841
846.337613	2393.728889
846.652438	2391.520864
846.967221	2390.053888
847.281960	2391.387273
847.596656	2392.866852
847.911309	2393.973385
848.225919	2390.520195
848.540485	2391.707387
848.855009	2391.412479
849.169490	2390.885679
849.483928	2391.369629
849.798323	2394.429610
850.112675	2390.878117
850.426984	2389.380894
850.741251	2394.643859
851.055474	2391.422562
851.369654	2394.230484
851.683792	2393.769219
851.997887	2392.720659
852.311938	2391.099928
852.625947	2392.947511
852.939914	2394.026317
853.253837	2394.396842
853.567718	2390.989022
853.881555	2392.428272
854.195350	2395.568911
854.509103	2392.556821
854.822812	2393.496996
855.136479	2389.784187
855.450103	2393.312994
855.763685	2393.519682
856.077224	2389.756460
856.390720	2394.825340
856.704173	2394.056564
857.017584	2392.549259
857.330953	2392.513971
857.644278	2394.056564
857.957561	2393.489435
858.270802	2393.610422
858.584000	2390.991543
858.897155	2391.611605
859.210268	2390.681512
859.523339	2392.718138
859.836367	2395.747872
860.149352	2392.012377
860.462295	2393.159239
860.775195	2389.476676
861.088054	2385.713455
861.400869	2389.365771
861.713642	2389.663199
862.026373	2392.282078
862.339062	2395.117727
862.651708	2393.280227
862.964312	2391.883827
863.276873	2392.944990
863.589392	2392.014897
863.901869	2393.252500
864.214303	2392.760988
864.526696	2394.427089
864.839045	2392.216543
865.151353	2391.783004
865.463619	2394.381719
865.775842	2392.125802
866.088023	2391.659496
866.400162	2394.485062
866.712258	2392.624877
867.024313	2393.892727
867.336325	2391.732593
867.648296	2392.390463
867.960224	2394.762326
868.272110	2392.312325
868.583954	2395.909188
868.895755	2392.319887
869.207515	2392.264434
869.519233	2392.579506
869.830909	2392.682850
870.142542	2390.348796
870.454134	2389.995915
870.765684	2394.021276
871.077191	2395.437841
871.388657	2391.843498
871.700081	2390.905843
872.011463	2390.736965
872.322803	2390.802500
872.634101	2392.400545
872.945357	2392.881976
873.256571	2394.837943
873.567744	2392.345093
873.878874	2394.386760
874.189963	2393.141595
874.501010	2391.762839
874.812015	2392.080432
875.122979	2392.657644
875.433900	2391.503220
875.744780	2393.915412
876.055618	2391.263765
876.366415	2392.962634
876.677169	2392.970196
876.987882	2389.915257
877.298554	2389.045658
877.609183	2391.672099
877.919771	2386.772097
878.230317	2389.877448
878.540822	2393.499517
878.851285	2393.673437
879.161707	2395.357182
879.472087	2395.090001
879.782425	2396.214178
880.092722	2395.594116
880.402977	2403.622154
880.713191	2407.193811
881.023363	2410.168092
881.333494	2412.638258
881.643583	2414.049781
881.953631	2412.222362
882.263637	2412.250089
882.573602	2411.204049
882.883526	2410.268915
883.193408	2406.997206
883.503248	2406.568708
883.813048	2402.944119
884.122806	2399.932029
884.432522	2400.877246
884.742197	2398.628891
885.051831	2397.683675
885.361424	2399.178377
885.670975	2396.383057
885.980485	2396.564538
886.289954	2396.320042
886.599382	2393.388612
886.908768	2393.050854
887.218113	2395.916750
887.527417	2393.156718
887.836680	2395.435320
888.145901	2392.347613
888.455082	2392.254352
888.764221	2392.085473
889.073319	2391.578837
889.382376	2394.359034
889.691392	2394.424569
890.000366	2391.493138
890.309300	2391.445247
890.618193	2396.483880
890.927044	2392.564383
891.235855	2387.394680
891.544625	2391.266286
891.853353	2392.440875
892.162041	2390.066491
892.470687	2392.473642
892.779293	2395.868859
893.087858	2393.423900
893.396381	2393.207130
893.704864	2395.541184
894.013306	2389.885010
894.321707	2397.734086
894.630068	2395.158057
894.938387	2397.532440
895.246665	2398.480177
895.554903	2394.197717
895.863100	2398.724673
896.171256	2395.831051
896.479371	2393.610422
896.787446	2396.589744
897.095480	2395.672254
897.403473	2395.135371
897.711425	2391.223436
898.019336	2394.253169
898.327207	2393.202089
898.635038	2391.399876
898.942827	2394.996740
899.250576	2392.584547
899.558284	2392.667727
899.865952	2392.405587
900.173579	2391.767881
900.481165	2392.249311
900.788711	2391.351985
901.096216	2392.037582
901.403681	2393.736451
901.711105	2392.471122
902.018489	2391.412479
902.325832	2394.132182
902.633135	2391.092366
902.940397	2395.483211
903.247619	2389.267468
903.554800	2396.375495
903.861941	2396.486401
904.169041	2397.051010
904.476101	2396.935063
904.783121	2400.993192
905.090100	2400.352966
905.397039	2394.366595
905.703938	2393.698643
906.010796	2396.098232
906.317614	2394.011194
906.624391	2393.232336
906.931129	2395.586555
907.237826	2393.096225
907.544483	2393.000443
907.851099	2390.850391
908.157675	2392.042623
908.464211	2394.905999
908.770707	2385.806716
909.077163	2389.232180
909.383578	2385.451315
909.689954	2387.306459
909.996289	2386.154556
910.302584	2388.276882
910.608839	2390.132026
910.915054	2389.300236
911.221229	2389.396018
911.527363	2391.851060
911.833458	2390.953734
912.139513	2390.673950
912.445527	2389.320400
912.751502	2390.661347
913.057436	2390.724362
913.363331	2391.198230
913.669186	2390.356358
913.975000	2393.441544
914.280775	2391.503220
914.586510	2393.693601
914.892205	2394.810217
915.197859	2393.509599
915.503475	2394.268293
915.809050	2398.260887
916.114585	2397.928171
916.420081	2399.813562
916.725536	2397.333314
917.030952	2396.254508
917.336328	2396.935063
917.641665	2397.174518
917.946961	2396.987995
918.252218	2398.086967
918.557435	2394.840464
918.862612	2393.880124
919.167750	2392.007335
919.472848	2394.477501
919.777906	2392.178735
920.082925	2391.026831
920.387904	2393.794424
920.692843	2390.404248
920.997743	2391.440206
921.302603	2393.484393
921.607423	2394.747203
921.912204	2394.850546
922.216946	2392.244270
922.521647	2391.742675
922.826310	2390.991543
923.130932	2392.244270
923.435516	2392.546739
923.740059	2390.515154
924.044564	2391.296533
924.349028	2389.333003
924.653454	2385.658002
924.957840	2387.371994
925.262186	2388.357540
925.566493	2388.874258
925.870761	2388.654968
926.174989	2391.089845
926.479178	2390.517674
926.783328	2389.766543
927.087438	2387.936604
927.391509	2390.621018
927.695541	2389.264948
927.999533	2389.690925
928.303486	2390.336193
928.607400	2388.465925
928.911275	2392.370298
929.215110	2389.446429
929.518906	2388.183620
929.822663	2389.859804
930.126381	2390.623539
930.430060	2389.857283
930.733699	2391.462891
931.037299	2389.201933
931.340861	2389.590102
931.644383	2387.613970
931.947866	2389.927859
932.251309	2390.626059
932.554714	2391.571276
932.858080	2389.854763
933.161407	2389.758981
933.464694	2389.040616
933.767943	2389.070863
934.071153	2390.774773
934.374323	2389.907695
934.677455	2391.024310
934.980548	2389.232180
935.283602	2390.865514
935.586617	2389.741337
935.889593	2388.138250
936.192530	2390.399207
936.495428	2387.828219
936.798287	2387.881151
937.101108	2388.881820
937.403890	2389.960627
937.706632	2392.345093
938.009336	2391.049516
938.312002	2390.174876
938.614628	2390.600853
938.917216	2390.502551
939.219765	2392.138405
939.522275	2391.046996
939.824747	2390.792417
940.127179	2388.528939
940.429573	2387.704711
940.731929	2387.941645
941.034246	2386.124309
941.336524	2391.510782
941.638763	2388.191182
941.940964	2390.031203
942.243126	2393.723848
942.545250	2385.010214
942.847335	2390.835267
943.149381	2391.415000
943.451389	2389.547252
943.753359	2389.885010
944.055290	2386.799823
944.357182	2388.309649
944.659036	2390.449619
944.960851	2389.438868
945.262628	2386.653630
945.564367	2388.506254
945.866067	2389.469114
946.167729	2387.180431
946.469352	2390.159753
946.770937	2388.140770
947.072484	2388.523898
947.373992	2389.660678
947.675462	2387.999618
947.976893	2389.703528
948.278286	2389.403579
948.579641	2387.500544
948.880958	2391.765360
949.182236	2388.407952
949.483476	2390.013559
949.784678	2389.320400
950.085841	2387.959289
950.386967	2388.128167
950.688054	2386.192364
950.989103	2387.387118
951.290114	2387.298898
951.591087	2388.355019
951.892021	2389.459032
952.192917	2387.190513
952.493776	2391.810730
952.794596	2391.833416
953.095378	2389.325442
953.396122	2389.942983
953.696828	2387.603887
953.997496	2389.930380
954.298126	2388.755791
954.598718	2389.814433
954.899272	2391.175545
955.199788	2388.428116
955.500266	2390.162273
955.800706	2385.607591
956.101108	2383.419730
956.401472	2386.527601
956.701798	2385.766387
957.002087	2384.803527
957.302337	2387.019114
957.602550	2391.677140
957.902724	2387.251007
958.202861	2387.581202
958.502960	2386.144473
958.803022	2387.371994
959.103045	2388.244114
959.403031	2389.426265
959.702979	2388.491131
960.002889	2389.302756
960.302762	2389.254865
960.602596	2387.999618
960.902393	2390.502551
961.202153	2390.850391
961.501875	2388.347458
961.801559	2387.510626
962.101205	2387.697149
962.400814	2385.869731
962.700385	2387.170348
962.999918	2387.616490
963.299414	2387.003990
963.598873	2390.235370
963.898293	2388.541542
964.197677	2388.314690
964.497022	2389.968189
964.796331	2388.168497
965.095601	2388.602036
965.394835	2387.394680
965.694030	2385.879813
965.993189	2391.553632
966.292309	2388.312170
966.591393	2384.405275
966.890439	2387.440050
967.189447	2386.913249
967.488419	2387.283774
967.787353	2390.799979
968.086249	2386.905688
968.385108	2391.253683
968.683930	2388.657489
968.982714	2387.447612
969.281462	2386.106665
969.580172	2385.307642
969.878844	2385.741181
970.177480	2386.905688
970.476078	2386.832591
970.774639	2391.649413
971.073162	2386.502395
971.371649	2383.457538
971.670098	2382.121633
971.968510	2387.286295
972.266885	2384.929555
972.565223	2389.272509
972.863524	2385.393342
973.161788	2388.617159
973.460014	2384.884185
973.758204	2388.707900
974.056356	2388.236552
974.354471	2385.617673
974.652550	2387.714793
974.950591	2390.623539
975.248595	2389.930380
975.546563	2388.017262
975.844493	2386.996428
976.142386	2389.701007
976.440243	2388.763353
976.738062	2387.992056
977.035845	2385.804196
977.333590	2386.749412
977.631299	2384.692621
977.928971	2390.260576
978.226606	2389.118754
978.524204	2389.917777
978.821765	2387.046840
979.119290	2386.530122
979.416777	2388.798641
979.714228	2389.827036
980.011642	2387.044319
980.309020	2391.500699
980.606360	2390.522716
980.903664	2388.642365
981.200931	2388.982643
981.498162	2389.106151
981.795356	2387.855945
982.092513	2389.355688
982.389633	2386.968702
982.686717	2390.678991
982.983764	2386.058774
983.280775	2389.801831
983.577749	2388.019783
983.874686	2391.193189
984.171587	2388.697818
984.468451	2388.165976
984.765279	2387.137581
985.062070	2387.835781
985.358824	2384.811088
985.655543	2386.061294
985.952224	2386.754453
986.248869	2388.017262
986.545478	2385.216901
986.842050	2386.699000
987.138586	2381.995604
987.435086	2385.176572
987.731549	2383.817981
988.027975	2387.364433
988.324366	2384.974926
988.620719	2385.433671
988.917037	2389.103631
989.213318	2385.524412
989.509563	2387.308980
989.805772	2387.707231
990.101944	2389.151522
990.398080	2388.168497
990.694180	2387.737478
990.990244	2390.868035
991.286271	2386.585574
991.582262	2387.273692
991.878217	2384.664895
992.174136	2388.410472
992.470019	2386.661192
992.765865	2387.001470
993.061676	2388.057591
993.357450	2389.411141
993.653188	2385.557179
993.948890	2389.753940
994.244556	2386.812426
994.540186	2387.676984
994.835780	2387.707231
995.131337	2388.007180
995.426859	2388.261758
995.722345	2389.567417
996.017795	2386.638507
996.313208	2388.952396
996.608586	2385.466438
996.903928	2387.311501
997.199234	2387.994577
997.494504	2388.052550
997.789738	2388.861655
998.084936	2388.317211
998.380099	2389.075904
998.675225	2385.332848
998.970316	2387.684546
999.265371	2388.168497
999.560390	2387.147663
999.855373	2390.447098
1000.150320	2386.701521
1000.445232	2386.595657
1000.740108	2388.239073
1001.034948	2385.048022
1001.329752	2387.379556
1001.624521	2384.531304
1001.919254	2382.666077
1002.213951	2387.601367
1002.508613	2384.846376
1002.803239	2384.183465
1003.097829	2382.436705
1003.392384	2384.080121
1003.686903	2387.440050
1003.981386	2387.021634
1004.275834	2385.819319
1004.570246	2387.500544
1004.864623	2387.601367
1005.158964	2389.723693
1005.453270	2384.407796
1005.747540	2386.668753
1006.041775	2385.020296
1006.335974	2388.302087
1006.630138	2386.154556
1006.924266	2386.257899
1007.218359	2386.058774
1007.512416	2385.489123
1007.806438	2384.145656
1008.100425	2386.807385
1008.394376	2383.429812
1008.688292	2387.067005
1008.982172	2387.790410
1009.276017	2384.410317
1009.569827	2386.177241
1009.863602	2387.712272
1010.157341	2385.060625
1010.451045	2386.656151
1010.744714	2387.389638
1011.038347	2384.420399
1011.331945	2383.286139
1011.625508	2386.434340
1011.919036	2385.829401
1012.212528	2385.393342
1012.505986	2385.232025
1012.799408	2386.983826
1013.092795	2385.665564
1013.386147	2386.313352
1013.679464	2389.149001
1013.972745	2388.982643
1014.265992	2387.278733
1014.559204	2388.355019
1014.852380	2387.750081
1015.145521	2386.177241
1015.438628	2385.952910
1015.731699	2386.741850
1016.024736	2386.378887
1016.317737	2385.138763
1016.610703	2385.317724
1016.903635	2388.508775
1017.196531	2382.424102
1017.489393	2385.715975
1017.782219	2381.292363
1018.075011	2387.679505
1018.367768	2383.666746
1018.660490	2386.038609
1018.953177	2386.038609
1019.245829	2386.038609
