Dividing Wavelength (nm)	Counts (n)	Blue Motor Position (mm): 0.000000	Red Motor Position (mm): 28.000000	
326.493990	1989.241828
326.888308	1989.241828
327.282561	1989.241828
327.676750	1962.165791
328.070874	1965.871039
328.464933	1970.566874
328.858929	1979.804788
329.252859	1991.729638
329.646726	2007.720178
330.040528	2021.356499
330.434265	2038.950126
330.827938	2060.107848
331.221547	2079.372618
331.615091	2100.769795
332.008571	2122.172014
332.401986	2142.419808
332.795338	2163.408653
333.188625	2182.670901
333.581847	2204.864581
333.975006	2220.227498
334.368100	2239.121742
334.761129	2254.129257
335.154095	2267.521082
335.546996	2291.048147
335.939833	2319.737354
336.332606	2330.384271
336.725315	2340.869871
337.117960	2348.784482
337.510540	2356.568024
337.903056	2367.227544
338.295508	2372.170395
338.687896	2383.202960
339.080220	2388.513816
339.472480	2393.348282
339.864676	2397.585372
340.256807	2398.268448
340.648875	2402.041752
341.040879	2402.621485
341.432818	2403.271794
341.824694	2403.682648
342.216506	2407.866805
342.608253	2405.527710
342.999937	2406.152813
343.391557	2405.802453
343.783113	2400.322719
344.174605	2400.806669
344.566033	2399.969838
344.957397	2398.918757
345.348697	2394.563200
345.739934	2394.109497
346.131106	2394.084291
346.522215	2392.564383
346.913260	2388.564227
347.304241	2387.205636
347.695159	2388.380225
348.086012	2381.078114
348.476802	2385.050543
348.867528	2385.534494
349.258191	2381.211704
349.648789	2381.214225
350.039324	2378.640716
350.429796	2378.983514
350.820203	2378.333206
351.210548	2377.854296
351.600828	2378.204656
351.991045	2377.375386
352.381198	2375.505118
352.771288	2379.699358
353.161314	2377.216590
353.551276	2376.810777
353.941175	2377.955119
354.331010	2377.224152
354.720782	2376.168030
355.110490	2379.906046
355.500135	2375.638709
355.889717	2379.573329
356.279235	2380.261447
356.668689	2379.056611
357.058080	2380.117774
357.447408	2378.670963
357.836672	2377.990407
358.225873	2376.626775
358.615010	2379.210366
359.004084	2384.924514
359.393095	2386.086500
359.782043	2382.928217
360.170927	2385.743702
360.559748	2388.851573
360.948505	2388.322252
361.337199	2389.348127
361.725830	2389.287633
362.114398	2388.266799
362.502903	2391.256203
362.891344	2391.490617
363.279722	2392.030021
363.668037	2395.158057
364.056289	2390.678991
364.444478	2393.749054
364.832603	2395.856256
365.220665	2397.729045
365.608665	2397.189642
365.996601	2397.489590
366.384474	2401.835065
366.772284	2399.017060
367.160031	2399.190980
367.547715	2400.559653
367.935336	2400.907493
368.322893	2403.448234
368.710388	2401.396484
369.097820	2408.010478
369.485189	2406.767834
369.872495	2407.569377
370.259738	2411.982907
370.646918	2413.573392
371.034035	2413.233114
371.421090	2419.249731
371.808081	2421.747623
372.195010	2428.953952
372.581875	2432.790270
372.968678	2437.831424
373.355418	2443.439708
373.742096	2457.050823
374.128710	2467.304530
374.515262	2476.184522
374.901751	2496.023983
375.288177	2509.458658
375.674540	2528.811648
376.060841	2550.294525
376.447079	2574.991138
376.833254	2600.113728
377.219367	2627.882924
377.605417	2664.809376
377.991404	2688.827953
378.377329	2729.303377
378.763191	2763.918460
379.148991	2811.718681
379.534727	2862.772967
379.920402	2909.993455
380.306013	2959.568162
380.691563	3022.355733
381.077049	3077.019485
381.462474	3134.617188
381.847835	3210.884804
382.233134	3279.681431
382.618371	3342.216944
383.003545	3432.251952
383.388657	3509.812625
383.773706	3603.830144
384.158693	3674.504600
384.543618	3775.665434
384.928480	3854.529245
385.313280	3957.704020
385.698017	4063.260741
386.082692	4185.019730
386.467305	4246.662959
386.851856	4371.313049
387.236344	4528.700393
387.620770	4594.994087
388.005133	4717.335329
388.389435	4864.287484
388.773674	4949.659424
389.157851	5084.669086
389.541965	5213.941915
389.926018	5240.723045
390.310008	5425.325057
390.693936	5545.523809
391.077802	5665.273898
391.461606	5797.362211
391.845348	5916.845119
392.229027	6035.317276
392.612645	6258.496718
392.996200	6376.729420
393.379694	6556.270114
393.763125	6778.635410
394.146494	6876.811881
394.529801	7013.280957
394.913047	7257.829851
395.296230	7256.415807
395.679351	7319.624315
396.062410	7577.149138
396.445408	7465.976573
396.828343	7627.353989
397.211217	7758.955831
397.594028	7641.370918
397.976778	7849.283226
398.359466	8018.335799
398.742092	7991.302612
399.124656	8138.705950
399.507158	8329.795928
399.889598	8350.323507
400.271977	8558.185403
400.654294	8589.579189
401.036549	8783.232593
401.418742	8816.771390
401.800874	9120.445456
402.182944	9204.781439
402.564952	9575.480167
402.946898	9391.694821
403.328783	9450.628430
403.710606	9645.295107
404.092367	9910.724459
404.474067	10267.280230
404.855705	10060.101410
405.237282	10015.424184
405.618797	10438.160222
406.000250	10693.378717
406.381642	11061.322454
406.762972	11011.909064
407.144240	10809.867180
407.525447	11068.972405
407.906593	11003.611325
408.287677	11260.868968
408.668700	11419.075499
409.049661	11384.954449
409.430560	11548.512165
409.811399	11524.294462
410.192176	11687.942919
410.572891	11759.189546
410.953545	12243.989750
411.334138	11721.806870
411.714669	12322.616626
412.095139	11630.627520
412.475547	12138.208698
412.855894	11980.176087
413.236180	12300.738018
413.616405	11993.731749
413.996568	12267.168975
414.376670	12238.845252
414.756711	12114.043927
415.136691	12404.469841
415.516609	12587.224271
415.896466	12643.725523
416.276262	12953.471660
416.655997	13382.166342
417.035670	13424.386005
417.415283	14074.694851
417.794834	14172.830993
418.174324	13915.832970
418.553753	13808.496722
418.933121	14297.294561
419.312428	14110.043422
419.691674	14024.502603
420.070859	14488.939066
420.449983	14132.501762
420.829045	14688.296536
421.208047	14423.194858
421.586988	14885.226690
421.965867	15141.743283
422.344686	15144.856195
422.723444	15700.595516
423.102141	14394.087235
423.480777	15576.832668
423.859352	15082.038377
424.237866	16194.280753
424.616319	15892.116512
424.994712	16557.450517
425.373044	16349.165164
425.751314	17022.534768
426.129524	16147.345090
426.507673	17239.541318
426.885762	16933.044205
427.263789	17135.202036
427.641756	17295.246068
428.019662	17360.773506
428.397508	17401.836225
428.775292	17712.104121
429.153016	17668.266247
429.530679	17747.717352
429.908282	17777.966796
430.285824	17486.230182
430.663305	18198.998924
431.040726	17792.044218
431.418086	17622.243033
431.795385	18276.788969
432.172624	18690.100570
432.549802	18244.628928
432.926920	18433.553730
433.303977	18326.255291
433.680974	18570.955419
434.057910	18861.431745
434.434786	18883.771618
434.811601	18798.611406
435.188355	19849.528146
435.565050	19490.504731
435.941683	19440.867009
436.318257	20324.609005
436.694770	20135.333842
437.071222	20730.580686
437.447614	19803.731784
437.823946	19819.984464
438.200218	19975.667897
438.576429	19756.221429
438.952580	20017.900164
439.328670	19987.779269
439.704700	20406.724360
440.080670	19966.714808
440.456580	20559.796476
440.832429	20742.543344
441.208218	19719.214319
441.583947	20172.267856
441.959616	20281.179464
442.335224	20510.095740
442.710773	20641.488374
443.086261	21180.677586
443.461689	20542.419618
443.837057	20665.317908
444.212365	21310.739356
444.587612	21302.113941
444.962800	20879.163654
445.337927	21306.643418
445.712995	20030.445075
446.088002	21889.894836
446.462949	22079.175039
446.837837	22249.750041
447.212664	22215.830638
447.587431	25058.469236
447.962139	27992.395569
448.336786	30367.696520
448.711374	28790.637074
449.085901	25109.924293
449.460369	25058.502003
449.834776	24963.163702
450.209124	27445.143031
450.583412	26990.221746
450.957640	27511.224996
451.331808	26153.919528
451.705917	24792.858402
452.079965	24831.413146
452.453954	25184.707290
452.827883	25076.642596
453.201752	24870.048549
453.575562	25027.355234
453.949311	26154.158983
454.323001	26202.884256
454.696632	25959.295702
455.070202	27516.611469
455.443713	27643.787177
455.817164	28231.895747
456.190556	28760.054915
456.563888	28201.779894
456.937160	28624.780592
457.310373	26950.235313
457.683526	27401.794149
458.056619	27371.879942
458.429653	27307.879973
458.802628	27888.923365
459.175542	27985.229568
459.548398	29279.558421
459.921194	30830.260194
460.293930	31491.775525
460.666607	33493.249713
461.039224	35221.808435
461.411782	35595.173933
461.784280	34380.213006
462.156719	33873.614853
462.529099	33302.381547
462.901419	31997.662876
463.273680	30936.371442
463.645882	31002.546668
464.018024	30961.841871
464.390106	31773.976797
464.762130	34423.985345
465.134094	38385.061898
465.505999	43558.901433
465.877845	48070.945854
466.249631	49178.308393
466.621358	47434.575798
466.993026	45275.371468
467.364634	43171.168647
467.736184	41173.273678
468.107674	39902.663454
468.479105	39051.449504
468.850477	38317.339037
469.221790	36873.381176
469.593043	35120.539216
469.964238	34202.739185
470.335373	34039.128537
470.706449	35632.170961
471.077467	38023.659058
471.448425	42350.451157
471.819324	45013.400347
472.190164	43135.076506
472.560945	39630.131116
472.931667	36559.261839
473.302330	35402.440539
473.672934	34529.133732
474.043479	34916.223771
474.413965	34063.958740
474.784393	33616.011892
475.154761	34358.072259
475.525070	34266.340903
475.895321	33730.761156
476.265513	34182.569529
476.635645	34961.851255
477.005719	34677.260476
477.375734	34988.881922
477.745691	35490.494373
478.115588	36576.772287
478.485427	38236.794001
478.855207	41144.541622
479.224928	43400.465530
479.594591	44751.585501
479.964194	43652.077080
480.333739	43608.093013
480.703226	43436.121611
481.072653	43832.124410
481.442022	44061.640583
481.811333	44104.767654
482.180584	42710.092113
482.549777	42013.248376
482.918912	41329.826711
483.287988	40848.409122
483.657005	39900.107589
484.025964	39135.498141
484.394864	38909.157895
484.763706	38317.308790
485.132489	37348.933383
485.501213	36971.529921
485.869879	36870.976546
486.238487	36293.802239
486.607036	36223.823462
486.975527	35531.010127
487.343959	35454.160257
487.712333	35278.360099
488.080648	34934.994508
488.448905	35050.862908
488.817104	34637.425278
489.185244	35114.774657
489.553326	36126.012474
489.921350	37988.605394
490.289315	40100.349782
490.657222	40319.592083
491.025070	40234.585626
491.392861	39105.031928
491.760593	37737.906293
492.128267	36066.607517
492.495883	34584.503245
492.863440	33234.293202
493.230939	31932.478236
493.598380	30846.830467
493.965763	30296.129780
494.333088	29448.411869
494.700354	28806.945207
495.067563	28306.822416
495.434713	27911.802642
495.801805	27648.888825
496.168839	27087.490809
496.535815	26572.103405
496.902733	26287.835260
497.269593	25740.239923
497.636395	25378.209460
498.003139	25321.829195
498.369825	24687.639438
498.736453	24563.329626
499.103023	23988.285207
499.469535	23602.049643
499.835989	23342.301670
500.202385	22850.111135
500.568723	22566.200912
500.935003	22351.944312
501.301226	21943.825100
501.667390	21958.202470
502.033497	21779.874174
502.399546	21182.109274
502.765537	20546.379445
503.131470	20430.488359
503.497345	20293.240425
503.863163	19370.953767
504.228923	19347.497278
504.594625	19235.795391
504.960269	18611.599722
505.325856	18622.468450
505.691385	18058.005413
506.056856	17814.585737
506.422270	17702.679684
506.787625	17227.974391
507.152924	17022.794388
507.518164	16776.140813
507.883347	16187.482757
508.248472	16002.832854
508.613540	15905.326856
508.978550	15732.979888
509.343503	15366.886255
509.708398	15160.393032
510.073236	15063.517178
510.438016	14795.410973
510.802738	14359.981309
511.167403	14291.615701
511.532010	14102.010343
511.896561	13941.195015
512.261053	13927.362089
512.625488	13537.028067
512.989866	13237.339033
513.354186	12933.281838
513.718449	12673.682580
514.082655	12615.101852
514.446803	12285.790997
514.810894	12167.928820
515.174927	11916.947414
515.538904	11667.327120
515.902822	11589.605131
516.266684	11253.690365
516.630488	11112.472522
516.994235	10870.605522
517.357925	10768.827147
517.721558	10597.400189
518.085133	10442.263721
518.448651	10264.046330
518.812112	10016.084575
519.175516	9836.097738
519.538863	9699.427017
519.902152	9499.179783
520.265385	9381.325168
520.628560	9202.833033
520.991678	8992.702618
521.354739	8841.110080
521.717743	8720.508036
522.080690	8532.215899
522.443580	8435.987834
522.806413	8273.743338
523.169189	8105.182277
523.531908	7964.035011
523.894569	7783.473483
524.257174	7653.729306
524.619722	7536.267901
524.982213	7385.557566
525.344647	7232.926551
525.707025	7094.846826
526.069345	6995.609192
526.431608	6853.221802
526.793815	6758.180928
527.155964	6589.269507
527.518057	6467.225693
527.880093	6333.015054
528.242072	6263.371514
528.603995	6121.962107
528.965860	6008.931876
529.327669	5908.464201
529.689421	5797.586542
530.051117	5688.657290
530.412755	5595.675728
530.774337	5508.642727
531.135862	5399.955451
531.497331	5317.096525
531.858743	5215.802101
532.220098	5161.332433
532.581396	5054.865785
532.942638	4956.117142
533.303824	4893.949633
533.664953	4817.445082
534.026025	4729.368563
534.387040	4691.121329
534.747999	4620.436790
535.108902	4559.963109
535.469748	4475.848936
535.830537	4417.356428
536.191270	4373.178276
536.551947	4298.677584
536.912567	4256.183178
537.273131	4209.171898
537.633638	4140.947442
537.994089	4105.722380
538.354483	4047.950757
538.714821	4020.002600
539.075103	3993.138291
539.435328	3943.775312
539.795497	3901.616143
540.155609	3859.356150
540.515665	3837.124662
540.875665	3788.406951
541.235609	3763.906943
541.595496	3728.742374
541.955328	3716.930951
542.315102	3669.382788
542.674821	3633.421717
543.034483	3612.327009
543.394090	3584.431784
543.753640	3558.396745
544.113134	3556.947413
544.472571	3510.397398
544.831953	3518.279242
545.191278	3481.897235
545.550548	3454.760704
545.909761	3446.321813
546.268918	3429.108793
546.628019	3418.842483
546.987064	3394.592012
547.346053	3363.357023
547.704986	3363.543546
548.063863	3338.569670
548.422684	3331.678412
548.781449	3314.906493
549.140158	3308.141265
549.498811	3294.204995
549.857408	3270.849329
550.215949	3273.969804
550.574434	3256.487082
550.932864	3241.809763
551.291237	3245.512490
551.649555	3228.438102
552.007817	3223.477607
552.366022	3207.499670
552.724173	3203.698640
553.082267	3200.157229
553.440305	3196.451981
553.798288	3177.615710
554.156215	3175.400122
554.514086	3170.401818
554.871902	3158.633245
555.229661	3149.859117
555.587365	3141.074906
555.945014	3133.616519
556.302606	3127.410858
556.660143	3124.527318
557.017625	3116.451390
557.375050	3105.504524
557.732421	3107.304216
558.089735	3101.002774
558.446994	3092.329469
558.804197	3095.129830
559.161345	3087.726895
559.518437	3071.711150
559.875474	3070.397929
560.232455	3062.614387
560.589381	3063.486507
560.946251	3054.969478
561.303065	3057.376629
561.659825	3050.583674
562.016528	3040.466078
562.373177	3031.903678
562.729770	3033.617671
563.086307	3021.957482
563.442789	3023.716844
563.799216	3015.882891
564.155587	3009.881398
564.511904	3010.730832
564.868164	3006.423166
565.224370	3003.446365
565.580520	2998.153153
565.936615	2997.734738
566.292654	2987.269302
566.648638	2986.898777
567.004567	2981.698827
567.360441	2977.628095
567.716260	2973.408650
568.072023	2973.118783
568.427732	2965.970427
568.783385	2959.946248
569.138982	2958.365847
569.494525	2955.036164
569.850013	2947.280349
570.205445	2948.248251
570.560823	2944.847993
570.916145	2939.000254
571.271412	2937.409770
571.626625	2933.800304
571.981782	2933.480191
572.336884	2922.825712
572.691931	2924.980805
573.046923	2920.040474
573.401860	2912.355235
573.756743	2911.944381
574.111570	2908.387847
574.466342	2905.153947
574.821059	2901.547002
575.175722	2895.711866
575.530330	2895.048954
575.884882	2888.142573
576.239380	2886.511760
576.593823	2883.350957
576.948211	2876.953732
577.302544	2870.594317
577.656823	2870.979965
578.011047	2871.854605
578.365216	2865.180118
578.719330	2861.074098
579.073389	2855.007069
579.427394	2856.511854
579.781344	2851.695031
580.135239	2847.868795
580.489080	2846.202694
580.842866	2837.579800
581.196597	2841.960563
581.550273	2838.673731
581.903895	2835.575942
582.257463	2837.849502
582.610975	2827.636124
582.964434	2828.704849
583.317837	2822.413489
583.671186	2822.905002
584.024481	2821.291832
584.377721	2815.527273
584.730906	2813.919145
585.084037	2812.769762
585.437113	2807.186684
585.790135	2801.326342
586.143103	2800.113945
586.496016	2802.664769
586.848874	2794.482976
587.201679	2795.685291
587.554428	2787.619445
587.907124	2788.610032
588.259765	2782.772376
588.612352	2781.239865
588.964884	2778.210132
589.317362	2778.726850
589.669786	2775.480347
590.022155	2771.326436
590.374470	2771.462547
590.726731	2765.919798
591.078937	2763.585744
591.431090	2756.817995
591.783188	2755.834970
592.135232	2751.920514
592.487222	2748.626120
592.839157	2752.175092
593.191038	2746.574371
593.542866	2742.412898
593.894639	2735.559449
594.246358	2736.509707
594.598022	2732.610374
594.949633	2728.365723
595.301190	2725.845146
595.652692	2722.182748
596.004141	2724.670557
596.355535	2715.314176
596.706876	2714.570605
597.058162	2711.472816
597.409395	2711.074565
597.760573	2709.098433
598.111698	2705.340253
598.462768	2704.919316
598.813785	2701.229192
599.164748	2699.845395
599.515657	2698.350693
599.866511	2694.905064
600.217312	2696.114941
600.568060	2686.440967
600.918753	2690.985567
601.269392	2689.185875
601.619978	2684.772345
601.970510	2686.483817
602.320988	2684.966429
602.671412	2685.452901
603.021783	2682.491223
603.372100	2676.779596
603.722363	2677.724812
604.072572	2679.600121
604.422728	2675.032836
604.772830	2672.108967
605.122878	2667.844150
605.472872	2669.147289
605.822813	2667.992864
606.172701	2670.934378
606.522534	2666.407422
606.872314	2670.692402
607.222041	2666.064623
607.571714	2668.048317
607.921333	2664.814417
608.270899	2666.052020
608.620411	2666.031856
608.969870	2660.778973
609.319276	2665.101763
609.668627	2661.023469
610.017926	2663.846515
610.367171	2662.273675
610.716362	2661.018428
611.065500	2658.770073
611.414585	2661.204951
611.763616	2660.421051
612.112594	2659.710249
612.461518	2661.104128
612.810389	2661.023469
613.159207	2659.296874
613.507971	2660.037924
613.856682	2660.922646
614.205340	2658.782676
614.553945	2661.721669
614.902496	2657.469456
615.250994	2657.794610
615.599439	2656.763694
615.947830	2658.112203
616.296169	2655.034578
616.644454	2656.206647
616.992686	2657.739157
617.340864	2660.350475
617.688990	2658.298726
618.037063	2659.032213
618.385082	2657.474497
618.733048	2660.050527
619.080961	2657.655978
619.428821	2657.103972
619.776628	2655.813437
620.124382	2654.520381
620.472083	2658.202944
620.819731	2655.084990
621.167326	2653.358395
621.514868	2654.243117
621.862357	2646.928403
622.209793	2648.748260
622.557176	2645.622744
622.904506	2642.537558
623.251783	2638.411374
623.599007	2637.997999
623.946179	2637.604789
624.293297	2633.652524
624.640363	2633.387864
624.987376	2633.642442
625.334336	2631.719242
625.681243	2633.259314
626.028097	2627.900568
626.374899	2630.043058
626.721647	2628.472739
627.068343	2625.359826
627.414987	2626.115999
627.761577	2622.423354
628.108115	2622.342696
628.454600	2620.651389
628.801032	2621.145422
629.147412	2620.071656
629.493739	2620.195164
629.840014	2618.599639
630.186236	2619.121398
630.532405	2615.128805
630.878521	2619.270112
631.224585	2616.799947
631.570597	2613.099740
631.916556	2615.143928
632.262462	2614.985132
632.608316	2614.589401
632.954117	2613.084617
633.299866	2611.733587
633.645562	2612.048660
633.991206	2609.122270
634.336797	2606.369800
634.682336	2608.630757
635.027823	2604.653287
635.373257	2605.041456
635.718639	2603.491301
636.063968	2600.484253
636.409245	2597.593151
636.754470	2599.871752
637.099642	2596.040476
637.444762	2596.037955
637.789829	2595.238932
638.134845	2594.092070
638.479808	2593.461925
638.824719	2592.607450
639.169577	2586.447160
639.514383	2586.275761
639.859137	2588.738364
640.203839	2591.664754
640.548489	2584.707962
640.893086	2582.416757
641.237632	2584.957499
641.582125	2581.106057
641.926566	2578.892991
642.270955	2584.584453
642.615292	2581.501788
642.959576	2583.054463
643.303809	2581.269895
643.647990	2581.408527
643.992118	2581.647981
644.336195	2581.116140
644.680219	2579.676890
645.024192	2582.389031
645.368112	2583.656881
645.711981	2583.024216
646.055797	2586.409351
646.399562	2588.733323
646.743274	2593.267841
647.086935	2592.859507
647.430544	2591.473190
647.774101	2591.269023
648.117606	2594.631473
648.461059	2594.213057
648.804460	2594.235742
649.147810	2589.043354
649.491108	2591.505958
649.834354	2587.074783
650.177548	2582.872982
650.520690	2579.757549
650.863781	2575.870819
651.206820	2582.066397
651.549807	2578.242682
651.892742	2577.206725
652.235626	2574.529872
652.578458	2573.826631
652.921238	2568.467885
653.263967	2571.734552
653.606644	2571.404357
653.949269	2573.171281
654.291843	2567.373954
654.634365	2570.517114
654.976836	2568.172977
655.319255	2570.038204
655.661622	2567.028635
656.003938	2567.053841
656.346203	2567.507545
656.688416	2563.600651
657.030577	2564.868501
657.372687	2564.467729
657.714746	2562.695763
658.056753	2564.109807
658.398708	2558.569579
658.740612	2560.618808
659.082465	2561.105279
659.424266	2559.933211
659.766016	2557.548745
660.107715	2560.780125
660.449362	2562.007646
660.790958	2564.160219
661.132503	2562.516802
661.473996	2564.959242
661.815438	2562.715928
662.156829	2562.151319
662.498168	2563.953531
662.839456	2562.597461
663.180693	2562.478994
663.521879	2563.230126
663.863013	2562.105948
664.204097	2559.620660
664.545129	2564.921433
664.886110	2566.648028
665.227040	2565.239026
665.567918	2566.953018
665.908746	2564.823130
666.249522	2566.164077
666.590248	2565.362534
666.930922	2565.798594
667.271545	2564.455126
667.612118	2567.285734
667.952639	2564.558470
668.293109	2566.832030
668.633528	2566.458985
668.973896	2563.943449
669.314213	2564.487894
669.654480	2562.647872
669.994695	2561.120403
670.334859	2564.467729
670.674973	2559.726524
671.015035	2562.617626
671.355047	2563.479663
671.695008	2561.949673
672.034918	2559.562686
672.374777	2559.787018
672.714585	2556.104455
673.054342	2564.898748
673.394049	2559.882800
673.733705	2561.347255
674.073310	2563.656103
674.412864	2566.252297
674.752368	2558.652758
675.091820	2561.221226
675.431223	2559.247614
675.770574	2555.922973
676.109875	2551.448949
676.449125	2554.211502
676.788324	2549.382076
677.127473	2553.283929
677.466571	2546.876623
677.805619	2550.324772
678.144616	2550.261758
678.483562	2551.842159
678.822458	2550.415513
679.161303	2553.853580
679.500098	2544.915614
679.838842	2547.055584
680.177535	2545.578526
680.516179	2550.019782
680.854771	2551.277550
681.193314	2553.057077
681.531805	2555.716286
681.870247	2560.142419
682.208638	2563.530074
682.546978	2566.819427
682.885268	2565.400343
683.223508	2562.935218
683.561697	2561.135526
683.899836	2562.680640
684.237925	2558.771225
684.575963	2559.766853
684.913951	2558.057902
685.251889	2556.974054
685.589776	2555.786862
685.927614	2557.110165
686.265401	2557.074877
686.603137	2559.134188
686.940824	2559.555125
687.278460	2562.970506
687.616046	2563.449416
687.953582	2567.361351
688.291068	2565.324725
688.628504	2564.457647
688.965889	2566.128789
689.303224	2565.571742
689.640510	2562.521844
689.977745	2562.022769
690.314930	2558.330124
690.652065	2556.641338
690.989150	2551.017931
691.326185	2546.949719
691.663170	2543.141128
692.000105	2544.076262
692.336990	2540.832279
692.673825	2539.151054
693.010610	2536.383461
693.347345	2530.407173
693.684030	2526.989271
694.020665	2527.937008
694.357251	2519.225894
694.693786	2527.420289
695.030272	2525.179497
695.366707	2521.985926
695.703093	2522.653878
696.039429	2520.365195
696.375716	2521.310411
696.711952	2522.220339
697.048139	2518.782272
697.384276	2519.858559
697.720363	2519.117509
698.056400	2518.981398
698.392388	2517.436284
698.728326	2518.643641
699.064214	2514.618279
699.400053	2517.663136
699.735842	2514.444359
700.071581	2515.805471
700.407270	2512.269102
700.742910	2511.442352
701.078501	2512.231293
701.414042	2509.201559
701.749533	2511.306241
702.084974	2509.191477
702.420366	2506.214676
702.755709	2507.845489
703.091002	2505.607217
703.426246	2501.702843
703.761440	2503.613440
704.096584	2504.788029
704.431679	2503.951198
704.766725	2503.447082
705.101721	2502.552277
705.436668	2503.963801
705.771565	2496.739827
706.106413	2503.840292
706.441212	2502.199397
706.775961	2504.525889
707.110661	2501.657473
707.445311	2504.195694
707.779913	2505.735766
708.114465	2504.362052
708.448967	2508.150479
708.783421	2511.470079
709.117825	2511.170130
709.452180	2512.818587
709.786485	2511.520490
710.120742	2518.462159
710.454949	2518.641120
710.789107	2518.918383
711.123216	2519.656913
711.457275	2522.600946
711.791286	2521.403672
712.125247	2524.493900
712.459159	2526.487676
712.793023	2528.730989
713.126837	2526.664116
713.460602	2528.307532
713.794318	2522.966430
714.127985	2519.162879
714.461602	2517.895029
714.795171	2520.516429
715.128691	2513.559637
715.462162	2514.706499
715.795584	2510.466889
716.128957	2509.100736
716.462281	2507.527896
716.795556	2507.671569
717.128782	2503.678975
717.461960	2503.893224
717.795088	2499.595641
718.128167	2499.704026
718.461198	2498.325270
718.794180	2496.139930
719.127113	2492.890906
719.459997	2495.776967
719.792833	2492.164980
720.125619	2492.716986
720.458357	2490.433344
720.791046	2489.901502
721.123686	2488.235401
721.456278	2486.912098
721.788821	2489.087356
722.121315	2486.760863
722.453761	2487.665750
722.786158	2489.969557
723.118506	2487.771614
723.450805	2486.677684
723.783056	2486.352530
724.115259	2487.161635
724.447412	2485.256079
724.779518	2487.945534
725.111574	2488.258086
725.443582	2490.640031
725.775542	2490.266986
726.107453	2492.338900
726.439315	2490.594661
726.771129	2497.632111
727.102895	2495.918119
727.434612	2498.060609
727.766281	2495.991216
728.097901	2494.907368
728.429473	2496.707060
728.760996	2496.049189
729.092471	2494.511637
729.423897	2500.853409
729.755276	2500.954232
730.086606	2499.751917
730.417887	2500.344252
730.749120	2505.786178
731.080305	2506.181908
731.411442	2509.415808
731.742530	2507.958915
732.073570	2508.694923
732.404562	2511.989318
732.735506	2511.669204
733.066401	2509.569564
733.397249	2506.161744
733.728048	2502.867350
734.058798	2499.862822
734.389501	2495.169508
734.720156	2491.388642
735.050762	2490.675319
735.381320	2488.835298
735.711831	2489.415031
736.042293	2486.975112
736.372707	2485.976964
736.703073	2487.136429
737.033391	2483.312714
737.363661	2486.723054
737.693883	2485.072077
738.024056	2489.415031
738.354182	2489.263796
738.684260	2493.226143
739.014290	2488.363950
739.344272	2491.522233
739.674207	2493.770587
740.004093	2496.586072
740.333931	2494.723366
740.663722	2497.594303
740.993464	2494.962820
741.323159	2498.615136
741.652806	2492.893427
741.982405	2495.466936
742.311956	2491.144146
742.641460	2490.725731
742.970915	2489.409989
743.300323	2485.666933
743.629683	2484.109216
743.958996	2487.295225
744.288260	2482.816160
744.617477	2478.473206
744.946647	2477.064204
745.275768	2476.655870
745.604842	2473.502628
745.933869	2474.725108
746.262847	2472.002885
746.591778	2475.781230
746.920662	2476.451703
747.249498	2475.453555
747.578286	2474.394913
747.907027	2479.030254
748.235720	2482.990080
748.564365	2478.175778
748.892963	2476.978504
749.221514	2479.814153
749.550017	2477.162506
749.878473	2475.771148
750.206881	2478.909266
750.535242	2477.316261
750.863555	2476.918010
751.191821	2475.143524
751.520039	2477.487661
751.848210	2477.112095
752.176334	2475.955150
752.504411	2478.014461
752.832440	2474.899028
753.160421	2473.583287
753.488356	2474.999851
753.816243	2476.078658
754.144082	2471.735704
754.471875	2473.333750
754.799620	2472.932978
755.127318	2475.899697
755.454969	2473.043883
755.782572	2472.499439
756.110129	2469.817545
756.437638	2470.372072
756.765100	2471.818883
757.092515	2471.423152
757.419882	2472.900211
757.747203	2473.505149
758.074477	2475.607310
758.401703	2472.388533
758.728882	2474.823411
759.056014	2475.798874
759.383099	2478.241313
759.710138	2478.143011
760.037129	2480.086375
760.364073	2476.665952
760.690970	2478.150572
761.017820	2476.159317
761.344623	2480.340954
761.671379	2480.456900
761.998088	2483.721047
762.324751	2493.878972
762.651366	2507.366579
762.977935	2533.830117
763.304456	2545.926365
763.630931	2551.247303
763.957359	2544.497198
764.283740	2534.835827
764.610074	2523.110103
764.936362	2510.224914
765.262602	2501.743172
765.588796	2491.713797
765.914943	2484.111737
766.241044	2480.343474
766.567097	2473.900880
766.893104	2470.137658
767.219064	2470.339304
767.544978	2465.474591
767.870845	2465.005764
768.196665	2465.441823
768.522438	2461.882769
768.848165	2461.018211
769.173846	2459.311780
769.499479	2459.989816
769.825066	2456.816409
770.150607	2456.917232
770.476101	2457.514609
770.801548	2457.030658
771.126949	2454.598302
771.452303	2454.396655
771.777611	2451.228290
772.102872	2451.424895
772.428087	2451.162755
772.753256	2454.386573
773.078378	2450.283074
773.403453	2451.225770
773.728482	2449.136211
774.053465	2449.965481
774.378401	2448.591767
774.703291	2447.840635
775.028135	2446.204780
775.352932	2445.461210
775.677683	2447.543207
776.002388	2447.253340
776.327046	2445.166303
776.651658	2448.329627
776.976224	2444.941971
777.300743	2446.129163
777.625216	2444.037084
777.949643	2442.542382
778.274024	2444.263936
778.598359	2439.114398
778.922647	2440.316713
779.246889	2444.362239
779.571086	2435.363779
779.895236	2445.869544
780.219339	2442.658329
780.543397	2446.731581
780.867409	2441.715633
781.191374	2443.275870
781.515294	2442.229831
781.839167	2444.319389
782.162995	2444.515994
782.486776	2445.004986
782.810511	2443.618668
783.134201	2446.330809
783.457844	2441.241764
783.781441	2442.202104
784.104993	2443.974070
784.428498	2439.061465
784.751958	2441.957608
785.075372	2440.437700
785.398739	2442.867537
785.722061	2442.134049
786.045337	2441.423246
786.368568	2441.483740
786.691752	2441.138421
787.014891	2447.013886
787.337983	2447.656633
787.661030	2452.672581
787.984031	2453.721141
788.306987	2454.177365
788.629897	2459.765484
788.952760	2458.558128
789.275579	2453.842128
789.598351	2454.273147
789.921078	2451.820626
790.243759	2447.470110
790.566395	2447.719647
790.888984	2443.376693
791.211529	2443.601024
791.534027	2441.009871
791.856480	2444.014399
792.178888	2441.645057
792.501249	2441.914758
792.823566	2443.164965
793.145836	2441.100612
793.468062	2439.179932
793.790241	2442.219748
794.112375	2442.060952
794.434464	2440.097423
794.756507	2441.904676
795.078505	2441.745880
795.400457	2442.794440
795.722364	2442.313010
796.044226	2445.491457
796.366042	2447.966664
796.687812	2444.906683
797.009538	2450.346088
797.331218	2450.610749
797.652852	2449.093362
797.974442	2448.548917
798.295986	2444.261416
798.617484	2444.899122
798.938938	2445.183947
799.260346	2445.136056
799.581709	2444.634461
799.903026	2444.125304
800.224299	2441.672783
800.545526	2438.877463
800.866708	2440.258739
801.187845	2441.755962
801.508936	2441.153544
801.829983	2440.208328
802.150984	2439.018616
802.471940	2439.091712
802.792851	2439.590787
803.113717	2439.106836
803.434538	2439.948708
803.755314	2438.141455
804.076045	2439.752103
804.396731	2438.040632
804.717372	2436.185487
805.037967	2438.252360
805.358518	2437.586928
805.679024	2440.241095
805.999485	2438.801846
806.319901	2440.994748
806.640272	2436.674479
806.960598	2442.237392
807.280879	2440.014243
807.601115	2439.530293
807.921306	2440.130190
808.241453	2442.265119
808.561554	2439.835283
808.881611	2440.629264
809.201623	2439.918462
809.521590	2438.380910
809.841513	2438.569953
810.161390	2439.668924
810.481223	2438.874943
810.801011	2439.971394
811.120755	2440.689758
811.440453	2436.709767
811.760107	2436.520724
812.079716	2434.990734
812.399281	2434.176587
812.718801	2433.730445
813.038276	2432.240784
813.357707	2437.609613
813.677093	2432.797832
813.996434	2436.866043
814.315731	2435.540219
814.634983	2436.936619
814.954191	2435.683892
815.273354	2436.417380
815.592473	2437.929726
815.911547	2441.980293
816.230577	2439.643719
816.549562	2439.184974
816.868502	2439.517690
817.187399	2441.166147
817.506250	2441.859306
817.825058	2443.069183
818.143821	2447.563371
818.462539	2447.029009
818.781213	2447.502878
819.099843	2456.965123
819.418429	2460.821606
819.736970	2469.129427
820.055466	2478.752990
820.373919	2487.184320
820.692327	2504.394819
821.010691	2534.664428
821.329011	2602.573811
821.647286	2703.797660
821.965517	2810.128197
822.283704	2870.695140
822.601847	2892.407390
822.919945	2847.868795
823.237999	2794.825775
823.556010	2743.990779
823.873976	2695.361289
824.191897	2650.190030
824.509775	2614.460852
824.827609	2585.081007
825.145398	2568.241033
825.463144	2559.552604
825.780845	2556.548076
826.098502	2569.637432
826.416116	2595.327152
826.733685	2618.602160
827.051210	2624.132305
827.368692	2614.208794
827.686129	2587.959506
828.003522	2557.276523
828.320872	2531.856505
828.638177	2513.226921
828.955439	2498.562204
829.272656	2485.482931
829.589830	2474.127732
829.906960	2467.949798
830.224046	2460.415793
830.541088	2456.070318
830.858086	2452.886830
831.175041	2451.281222
831.491952	2451.313990
831.808819	2451.155193
832.125642	2451.729885
832.442421	2463.868983
832.759157	2474.813328
833.075849	2495.517347
833.392497	2516.516274
833.709101	2530.455064
834.025662	2530.366844
834.342179	2519.031809
834.658653	2498.307626
834.975083	2490.118272
835.291469	2485.157776
835.607811	2469.825107
835.924110	2461.328242
836.240366	2455.873713
836.556578	2448.634617
836.872746	2444.226127
837.188871	2441.246806
837.504952	2439.515169
837.820990	2434.887390
838.136984	2435.562905
838.452935	2432.923861
838.768842	2435.106680
839.084706	2440.614141
839.400526	2446.212342
839.716303	2459.074846
840.032037	2467.039869
840.347727	2461.890331
840.663373	2459.420165
840.978977	2450.086469
841.294537	2447.031530
841.610054	2440.493153
841.925527	2437.781012
842.240957	2435.328491
842.556344	2431.812286
842.871687	2426.196441
843.186987	2424.658889
843.502244	2428.729621
843.817458	2426.324990
844.132629	2422.644948
844.447756	2425.082346
844.762840	2415.869637
845.077881	2417.583629
845.392879	2418.254103
845.707833	2419.015317
846.022745	2417.717220
846.337613	2418.271747
846.652438	2419.731161
846.967221	2419.355595
847.281960	2421.936666
847.596656	2421.399783
847.911309	2419.663105
848.225919	2418.606984
848.540485	2418.480955
848.855009	2417.439957
849.169490	2420.285688
849.483928	2419.557241
849.798323	2419.365677
850.112675	2416.343506
850.426984	2416.978691
850.741251	2418.359967
851.055474	2416.222518
851.369654	2418.899371
851.683792	2415.680594
851.997887	2416.537590
852.311938	2417.472724
852.625947	2418.654875
852.939914	2415.103382
853.253837	2419.670667
853.567718	2418.917015
853.881555	2417.601273
854.195350	2420.026068
854.509103	2417.908784
854.822812	2419.905081
855.136479	2415.637744
855.450103	2419.194278
855.763685	2416.416602
856.077224	2418.307035
856.390720	2417.422313
856.704173	2418.438105
857.017584	2417.308887
857.330953	2415.758732
857.644278	2421.208219
857.957561	2418.201171
858.270802	2420.177303
858.584000	2416.595563
858.897155	2418.843918
859.210268	2417.656726
859.523339	2417.661767
859.836367	2416.676222
860.149352	2419.017838
860.462295	2420.782242
860.775195	2415.224369
861.088054	2413.465007
861.400869	2416.804771
861.713642	2413.205387
862.026373	2418.002045
862.339062	2419.189237
862.651708	2416.749318
862.964312	2420.255441
863.276873	2418.828794
863.589392	2416.527508
863.901869	2422.153435
864.214303	2419.143867
864.526696	2421.661923
864.839045	2418.120512
865.151353	2420.668816
865.463619	2419.859710
865.775842	2420.638569
866.088023	2418.266706
866.400162	2421.087231
866.712258	2420.782242
867.024313	2421.054464
867.336325	2420.600760
867.648296	2419.950451
867.960224	2419.690832
868.272110	2422.491193
868.583954	2422.599578
868.895755	2420.419278
869.207515	2421.402303
869.519233	2421.896337
869.830909	2423.348189
870.142542	2423.259969
870.454134	2422.828950
870.765684	2421.248548
871.077191	2421.757705
871.388657	2421.893816
871.700081	2421.684608
872.011463	2421.666964
872.322803	2422.902047
872.634101	2425.004208
872.945357	2424.293405
873.256571	2424.999167
873.567744	2422.811306
873.878874	2426.458581
874.189963	2426.778694
874.501010	2426.196441
874.812015	2426.607295
875.122979	2428.197779
875.433900	2425.644434
875.744780	2427.454209
876.055618	2424.674012
876.366415	2430.367996
876.677169	2430.219282
876.987882	2428.285999
877.298554	2428.641400
877.609183	2426.788776
877.919771	2426.115782
878.230317	2431.310691
878.540822	2435.454520
878.851285	2436.712288
879.161707	2443.658998
879.472087	2450.381376
879.782425	2463.904272
880.092722	2488.353868
880.402977	2525.224867
880.713191	2571.303534
881.023363	2610.798453
881.333494	2637.947587
881.643583	2644.758186
881.953631	2644.803557
882.263637	2628.465177
882.573602	2607.496498
882.883526	2594.223140
883.193408	2577.168916
883.503248	2560.641493
883.813048	2544.842517
884.122806	2529.638397
884.432522	2511.137362
884.742197	2500.369458
885.051831	2490.014928
885.361424	2477.485140
885.670975	2468.804273
885.980485	2459.430247
886.289954	2459.573920
886.599382	2452.279371
886.908768	2446.653443
887.218113	2440.656991
887.527417	2441.317382
887.836680	2439.247988
888.145901	2435.666248
888.455082	2432.603747
888.764221	2431.729107
889.073319	2427.078643
889.382376	2431.764395
889.691392	2428.578386
890.000366	2429.314394
890.309300	2427.348344
890.618193	2428.059147
890.927044	2429.707604
891.235855	2430.148705
891.544625	2429.190886
891.853353	2433.102822
892.162041	2429.420259
892.470687	2434.552153
892.779293	2436.828234
893.087858	2438.184305
893.396381	2444.974739
893.704864	2453.204423
894.013306	2461.436627
894.321707	2479.413381
894.630068	2490.667757
894.938387	2488.873107
895.246665	2488.563076
895.554903	2480.073773
895.863100	2475.672845
896.171256	2468.958028
896.479371	2461.766822
896.787446	2461.325721
897.095480	2451.518157
897.403473	2450.444391
897.711425	2445.216714
898.019336	2443.021292
898.327207	2439.694130
898.635038	2439.941147
898.942827	2435.686413
899.250576	2435.585590
899.558284	2432.770105
899.865952	2432.873449
900.173579	2429.682399
900.481165	2430.176432
900.788711	2426.314908
901.096216	2428.769950
901.403681	2429.853798
901.711105	2427.489497
902.018489	2426.534198
902.325832	2429.642069
902.633135	2429.823551
902.940397	2432.891093
903.247619	2442.325612
903.554800	2460.763633
903.861941	2482.513691
904.169041	2498.637822
904.476101	2504.316681
904.783121	2500.011536
905.090100	2489.092397
905.397039	2481.812971
905.703938	2474.238637
906.010796	2465.063737
906.317614	2461.018211
906.624391	2454.210133
906.931129	2449.960440
907.237826	2445.083124
907.544483	2435.008378
907.851099	2433.284303
908.157675	2431.373706
908.464211	2427.451688
908.770707	2419.852149
909.077163	2418.402817
909.383578	2418.937179
909.689954	2415.398289
909.996289	2416.517425
910.302584	2418.143198
910.608839	2418.244021
910.915054	2417.306366
911.221229	2417.255954
911.527363	2418.523805
911.833458	2417.911304
912.139513	2416.492220
912.445527	2419.227046
912.751502	2420.764597
913.057436	2419.874834
913.363331	2421.336768
913.669186	2425.853642
913.975000	2425.566297
914.280775	2431.282965
914.586510	2439.157247
914.892205	2448.395162
915.197859	2463.516103
915.503475	2478.752990
915.809050	2488.479897
916.114585	2500.417349
916.420081	2501.725528
916.725536	2502.912720
917.030952	2496.870897
917.336328	2490.488796
917.641665	2483.642909
917.946961	2480.298104
918.252218	2474.019347
918.557435	2467.614561
918.862612	2463.090125
919.167750	2455.467901
919.472848	2451.976902
919.777906	2447.495316
920.082925	2441.226641
920.387904	2436.916454
920.692843	2435.638522
920.997743	2431.590475
921.302603	2430.703232
921.607423	2426.501431
921.912204	2424.936152
922.216946	2424.681574
922.521647	2424.363981
922.826310	2420.716707
923.130932	2421.820719
923.435516	2422.042530
923.740059	2419.761408
924.044564	2419.032961
924.349028	2417.659247
924.653454	2414.322003
924.957840	2412.812177
925.262186	2410.757907
925.566493	2413.434760
925.870761	2411.168761
926.174989	2413.346540
926.479178	2414.115316
926.783328	2411.289749
927.087438	2412.456776
927.391509	2410.649522
927.695541	2410.107598
927.999533	2410.712537
928.303486	2410.334450
928.607400	2411.693041
928.911275	2409.457289
929.215110	2405.900755
929.518906	2408.688513
929.822663	2409.537948
930.126381	2409.971487
930.430060	2410.667166
930.733699	2407.463513
931.037299	2410.858730
931.340861	2410.079872
931.644383	2408.859913
931.947866	2410.221024
932.251309	2408.184398
932.554714	2408.809501
932.858080	2410.132804
933.161407	2410.170613
933.464694	2406.667011
933.767943	2410.510891
934.071153	2409.205232
934.374323	2407.385375
934.677455	2410.195818
934.980548	2410.551220
935.283602	2410.556261
935.586617	2406.198183
935.889593	2406.820766
936.192530	2408.930489
936.495428	2412.207239
936.798287	2408.711199
937.101108	2408.338153
937.403890	2412.421488
937.706632	2410.397465
938.009336	2411.443504
938.312002	2413.926272
938.614628	2412.734039
938.917216	2414.884092
939.219765	2415.186561
939.522275	2414.609349
939.824747	2415.902405
940.127179	2412.056004
940.429573	2414.576581
940.731929	2414.982394
941.034246	2410.329409
941.336524	2418.753177
941.638763	2413.250758
941.940964	2416.764442
942.243126	2415.388207
942.545250	2414.526170
942.847335	2411.564492
943.149381	2413.855696
943.451389	2412.106416
943.753359	2410.077351
944.055290	2409.492578
944.357182	2413.994328
944.659036	2409.984090
944.960851	2411.045253
945.262628	2410.717578
945.564367	2411.100706
945.866067	2409.590880
946.167729	2409.464851
946.469352	2409.212793
946.770937	2409.459810
947.072484	2410.420150
947.373992	2411.347722
947.675462	2411.060376
947.976893	2409.603483
948.278286	2408.988462
948.579641	2410.122722
948.880958	2409.200191
949.182236	2411.541807
949.483476	2410.284039
949.784678	2406.999727
950.085841	2408.501991
950.386967	2409.953843
950.688054	2408.020561
950.989103	2409.048956
951.290114	2409.790006
951.591087	2409.883267
951.892021	2411.667835
952.192917	2413.081879
952.493776	2409.447207
952.794596	2413.071797
953.095378	2412.164389
953.396122	2413.119688
953.696828	2411.352763
953.997496	2411.872002
954.298126	2411.680438
954.598718	2409.868143
954.899272	2411.209090
955.199788	2410.704975
955.500266	2411.057856
955.800706	2409.250602
956.101108	2404.963101
956.401472	2406.538461
956.701798	2407.886970
957.002087	2401.109139
957.302337	2407.889491
957.602550	2408.554923
957.902724	2404.476629
958.202861	2402.540826
958.502960	2403.105436
958.803022	2405.658780
959.103045	2405.026115
959.403031	2404.980745
959.702979	2404.222051
960.002889	2404.965621
960.302762	2403.430590
960.602596	2403.062586
960.902393	2403.821279
961.202153	2404.431259
961.501875	2401.633419
961.801559	2406.004099
962.101205	2402.190466
962.400814	2402.641649
962.700385	2401.973697
962.999918	2401.840106
963.299414	2399.339694
963.598873	2401.285579
963.898293	2401.560322
964.197677	2401.814900
964.497022	2400.884807
964.796331	2400.017729
965.095601	2401.938408
965.394835	2401.618295
965.694030	2403.349932
965.993189	2402.654252
966.292309	2402.346742
966.591393	2403.042421
966.890439	2400.196690
967.189447	2399.790877
967.488419	2401.993861
967.787353	2402.802966
968.086249	2402.490415
968.385108	2402.553429
968.683930	2400.962945
968.982714	2402.301372
969.281462	2401.865312
969.580172	2404.713564
969.878844	2401.519993
970.177480	2402.692061
970.476078	2403.811197
970.774639	2401.313305
971.073162	2401.824983
971.371649	2400.809190
971.670098	2400.665517
971.968510	2401.194838
972.266885	2397.461864
972.565223	2403.743142
972.863524	2403.317164
973.161788	2403.632236
973.460014	2404.406053
973.758204	2402.382030
974.056356	2403.087792
974.354471	2403.284397
974.652550	2401.063768
974.950591	2405.018553
975.248595	2403.314643
975.546563	2404.597617
975.844493	2403.685168
976.142386	2405.658780
976.440243	2403.556619
976.738062	2401.167112
977.035845	2400.940260
977.333590	2402.558470
977.631299	2403.254150
977.928971	2403.150806
978.226606	2405.293296
978.524204	2399.911865
978.821765	2404.247257
979.119290	2401.038562
979.416777	2402.820610
979.714228	2397.895403
980.011642	2400.973028
980.309020	2405.031156
980.606360	2400.552091
980.903664	2405.555436
981.200931	2402.752555
981.498162	2403.203738
981.795356	2404.595097
982.092513	2406.863616
982.389633	2410.258833
982.686717	2411.163720
982.983764	2410.541137
983.280775	2413.848134
983.577749	2413.553227
983.874686	2410.861251
984.171587	2413.916190
984.468451	2414.216139
984.765279	2410.052146
985.062070	2410.846127
985.358824	2404.552247
985.655543	2408.859913
985.952224	2406.777916
986.248869	2405.326064
986.545478	2400.647873
986.842050	2401.164591
987.138586	2398.349107
987.435086	2399.518655
987.731549	2399.488408
988.027975	2402.422359
988.324366	2400.267266
988.620719	2398.553274
988.917037	2401.154509
989.213318	2402.402195
989.509563	2401.472102
989.805772	2399.841288
990.101944	2401.106618
990.398080	2401.663666
990.694180	2399.364899
990.990244	2399.455640
991.286271	2402.591238
991.582262	2400.209293
991.878217	2400.118552
992.174136	2399.768192
992.470019	2399.604354
992.765865	2402.288769
993.061676	2403.037380
993.357450	2399.833727
993.653188	2401.353635
993.948890	2400.980589
994.244556	2402.303892
994.540186	2404.428738
994.835780	2406.669531
995.131337	2403.100394
995.426859	2403.680127
995.722345	2407.314799
996.017795	2404.383368
996.313208	2406.911507
996.608586	2404.947977
996.903928	2408.133987
997.199234	2407.612227
997.494504	2407.874367
997.789738	2407.765982
998.084936	2405.242885
998.380099	2405.580642
998.675225	2402.986968
998.970316	2406.021743
999.265371	2402.243398
999.560390	2404.274983
999.855373	2403.518810
1000.150320	2402.203069
1000.445232	2402.059396
1000.740108	2399.342214
1001.034948	2402.891187
1001.329752	2399.904303
1001.624521	2402.119890
1001.919254	2396.062944
1002.213951	2397.371123
1002.508613	2396.960269
1002.803239	2397.416493
1003.097829	2394.469939
1003.392384	2396.786349
1003.686903	2399.649725
1003.981386	2399.460681
1004.275834	2399.624519
1004.570246	2396.872049
1004.864623	2400.063099
1005.158964	2400.174005
1005.453270	2399.536299
1005.747540	2400.042935
1006.041775	2399.884138
1006.335974	2398.321381
1006.630138	2398.530588
1006.924266	2398.613768
1007.218359	2395.735269
1007.512416	2397.313150
1007.806438	2396.143602
1008.100425	2401.172153
1008.394376	2400.423542
1008.688292	2399.410270
1008.982172	2399.405229
1009.276017	2399.319529
1009.569827	2398.694426
1009.863602	2400.352966
1010.157341	2398.439848
1010.451045	2397.255177
1010.744714	2397.446740
1011.038347	2400.012688
1011.331945	2400.423542
1011.625508	2398.404560
1011.919036	2398.487739
1012.212528	2397.739127
1012.505986	2397.348438
1012.799408	2398.293654
1013.092795	2398.223078
1013.386147	2400.904972
1013.679464	2397.154353
1013.972745	2398.235681
1014.265992	2398.333983
1014.559204	2399.742986
1014.852380	2399.342214
1015.145521	2399.700136
1015.438628	2398.069323
1015.731699	2398.994375
1016.024736	2398.868346
1016.317737	2399.190980
1016.610703	2398.054199
1016.903635	2396.113355
1017.196531	2395.205947
1017.489393	2396.645197
1017.782219	2396.723335
1018.075011	2399.730383
1018.367768	2396.950187
1018.660490	2399.410270
1018.953177	2399.410270
1019.245829	2399.410270
