Dividing Wavelength (nm)	Counts (n)	Blue Motor Position (mm): 0.000000	Red Motor Position (mm): 23.800000	
326.493990	1983.769656
326.888308	1983.769656
327.282561	1983.769656
327.676750	1959.425924
328.070874	1964.315843
328.464933	1970.123252
328.858929	1977.604325
329.252859	1990.975985
329.646726	2004.932420
330.040528	2019.803823
330.434265	2039.986083
330.827938	2058.766902
331.221547	2079.475962
331.615091	2099.506986
332.008571	2120.110182
332.401986	2138.797739
332.795338	2160.164670
333.188625	2183.064111
333.581847	2198.101873
333.975006	2219.027703
334.368100	2235.378685
334.761129	2252.899216
335.154095	2267.170722
335.546996	2284.245110
335.939833	2306.973152
336.332606	2321.063177
336.725315	2332.504076
337.117960	2340.227124
337.510540	2347.609893
337.903056	2358.052644
338.295508	2361.911647
338.687896	2371.298275
339.080220	2378.360932
339.472480	2382.958464
339.864676	2385.116078
340.256807	2390.308467
340.648875	2390.668909
341.040879	2391.359547
341.432818	2393.935577
341.824694	2396.035217
342.216506	2391.644372
342.608253	2395.785680
342.999937	2388.949876
343.391557	2393.318035
343.783113	2390.283261
344.174605	2390.991543
344.566033	2386.600698
344.957397	2387.800493
345.348697	2386.351161
345.739934	2383.389483
346.131106	2382.877806
346.522215	2381.017620
346.913260	2377.899666
347.304241	2378.239944
347.695159	2376.523431
348.086012	2375.089223
348.476802	2370.950436
348.867528	2369.846423
349.258191	2369.511186
349.648789	2367.792153
350.039324	2369.052441
350.429796	2366.864581
350.820203	2365.619416
351.210548	2366.403315
351.600828	2364.091946
351.991045	2364.497759
352.381198	2363.618078
352.771288	2366.080681
353.161314	2365.543798
353.551276	2366.582276
353.941175	2365.604292
354.331010	2368.288707
354.720782	2367.731659
355.110490	2367.255270
355.500135	2365.264014
355.889717	2365.909282
356.279235	2370.635364
356.668689	2367.923223
357.058080	2367.260311
357.447408	2365.170753
357.836672	2366.824251
358.225873	2367.449354
358.615010	2364.278469
359.004084	2372.387165
359.393095	2373.803729
359.782043	2376.256250
360.170927	2371.474716
360.559748	2377.687938
360.948505	2374.940509
361.337199	2373.695344
361.725830	2375.600900
362.114398	2377.761035
362.502903	2375.550489
362.891344	2378.050901
363.279722	2381.325130
363.668037	2381.015099
364.056289	2385.161448
364.444478	2382.416540
364.832603	2381.589791
365.220665	2381.892260
365.608665	2383.603732
365.996601	2383.482744
366.384474	2386.462066
366.772284	2389.217057
367.160031	2385.539535
367.547715	2387.613970
367.935336	2389.050699
368.322893	2386.814947
368.710388	2389.829557
369.097820	2391.495658
369.485189	2391.896430
369.872495	2395.916750
370.259738	2395.178221
370.646918	2399.490928
371.034035	2402.603841
371.421090	2404.161557
371.808081	2405.946126
372.195010	2411.451066
372.581875	2413.167579
372.968678	2422.100503
373.355418	2431.383788
373.742096	2438.942998
374.128710	2452.120574
374.515262	2460.332614
374.901751	2473.505149
375.288177	2491.668426
375.674540	2513.458814
376.060841	2531.322142
376.447079	2555.421378
376.833254	2581.040522
377.219367	2607.403236
377.605417	2641.620068
377.991404	2669.981600
378.377329	2707.752445
378.763191	2743.348032
379.148991	2788.446194
379.534727	2837.980572
379.920402	2884.538148
380.306013	2932.169491
380.691563	2994.042092
381.077049	3048.852037
381.462474	3107.904114
381.847835	3180.181657
382.233134	3251.740836
382.618371	3308.771409
383.003545	3396.832805
383.388657	3479.056545
383.773706	3565.376222
384.158693	3642.604179
384.543618	3732.782859
384.928480	3812.339829
385.313280	3918.267074
385.698017	4022.286242
386.082692	4144.630005
386.467305	4201.080846
386.851856	4331.918953
387.236344	4484.184484
387.620770	4545.379051
388.005133	4668.970499
388.389435	4812.797139
388.773674	4900.414913
389.157851	5033.166138
389.541965	5163.585829
389.926018	5185.532492
390.310008	5364.508577
390.693936	5486.093646
391.077802	5603.023210
391.461606	5734.128498
391.845348	5852.804821
392.229027	5971.302183
392.612645	6190.123548
392.996200	6307.451363
393.379694	6482.926367
393.763125	6701.944337
394.146494	6798.293390
394.529801	6936.196674
394.913047	7168.409864
395.296230	7168.586304
395.679351	7226.965386
396.062410	7479.159190
396.445408	7380.460959
396.828343	7532.597941
397.211217	7663.887231
397.594028	7546.186371
397.976778	7753.385356
398.359466	7910.850838
398.742092	7888.238742
399.124656	8037.978655
399.507158	8220.702838
399.889598	8239.566836
400.271977	8451.154145
400.654294	8479.303948
401.036549	8678.979011
401.418742	8701.328967
401.800874	8998.477259
402.182944	9084.403727
402.564952	9449.123646
402.946898	9269.058672
403.328783	9326.505140
403.710606	9525.295480
404.092367	9779.011712
404.474067	10132.726792
404.855705	9925.437067
405.237282	9875.522082
405.618797	10302.686774
406.000250	10547.361696
406.381642	10907.549618
406.762972	10857.327123
407.144240	10663.209932
407.525447	10916.346432
407.906593	10853.087512
408.287677	11109.271389
408.668700	11260.604307
409.049661	11234.044988
409.430560	11389.100798
409.811399	11367.053312
410.192176	11529.290245
410.572891	11601.988725
410.953545	12073.109758
411.334138	11557.729915
411.714669	12151.575317
412.095139	11472.526853
412.475547	11974.277937
412.855894	11819.806900
413.236180	12135.317596
413.616405	11827.174547
413.996568	12088.402098
414.376670	12069.769993
414.756711	11943.342896
415.136691	12217.082591
415.516609	12396.603121
415.896466	12458.248870
416.276262	12753.594951
416.655997	13198.980893
417.035670	13232.628074
417.415283	13867.384961
417.794834	13955.552221
418.174324	13709.185992
418.553753	13609.734108
418.933121	14097.349797
419.312428	13900.767482
419.691674	13815.571982
420.070859	14262.966824
420.449983	13916.624431
420.829045	14463.203975
421.208047	14207.982959
421.586988	14659.267051
421.965867	14912.980763
422.344686	14907.606892
422.723444	15457.006962
423.102141	14173.980376
423.480777	15346.764489
423.859352	14854.470610
424.237866	15940.211641
424.616319	15646.251878
424.994712	16300.155066
425.373044	16090.160762
425.751314	16763.013648
426.129524	15893.134825
426.507673	16966.404041
426.885762	16671.536870
427.263789	16857.346239
427.641756	17021.559305
428.019662	17085.965087
428.397508	17121.255684
428.775292	17412.047082
429.153016	17371.357409
429.530679	17449.737269
429.908282	17475.794993
430.285824	17184.617947
430.663305	17885.875214
431.040726	17492.554309
431.418086	17314.026887
431.795385	17951.188404
432.172624	18371.005614
432.549802	17925.705371
432.926920	18102.700282
433.303977	17985.443044
433.680974	18248.674454
434.057910	18509.307149
434.434786	18538.840749
434.811601	18449.957645
435.188355	19460.260328
435.565050	19107.026678
435.941683	19056.620181
436.318257	19919.459032
436.694770	19719.042920
437.071222	20281.539907
437.447614	19351.182362
437.823946	19370.694148
438.200218	19491.563373
438.576429	19257.898330
438.952580	19504.468727
439.328670	19446.555951
439.704700	19835.269242
440.080670	19380.015241
440.456580	19925.276523
440.832429	20055.504651
441.208218	19060.506910
441.583947	19445.872875
441.959616	19526.594351
442.335224	19701.219920
442.710773	19775.917217
443.086261	20243.267467
443.461689	19576.791640
443.837057	19639.077617
444.212365	20192.392142
444.587612	20122.047882
444.962800	19662.183745
445.337927	19995.953500
445.712995	18736.131346
446.088002	20372.300841
446.462949	20459.021290
446.837837	20536.917199
447.212664	20397.831764
447.587431	22860.231252
447.962139	25402.533027
448.336786	27431.042923
448.711374	25888.107048
449.085901	22465.733237
449.460369	22285.312861
449.834776	22063.179458
450.209124	24084.084774
450.583412	23539.846846
450.957640	23832.841228
451.331808	22527.114326
451.705917	21198.155267
452.079965	21062.472611
452.453954	21206.894107
452.827883	20942.384765
453.201752	20621.885847
453.575562	20579.663663
453.949311	21297.793673
454.323001	21157.057260
454.696632	20773.795977
455.070202	21802.566928
455.443713	21706.742155
455.817164	21930.760949
456.190556	22113.278445
456.563888	21484.954071
456.937160	21578.868246
457.310373	20150.227932
457.683526	20244.409288
458.056619	20004.470530
458.429653	19726.287058
458.802628	19890.091790
459.175542	19742.161651
459.548398	20372.441993
459.921194	21177.206752
460.293930	21364.518385
460.666607	22405.738465
461.039224	23258.873095
461.411782	23209.784859
461.784280	22144.281541
462.156719	21516.342815
462.529099	20864.042713
462.901419	19776.247413
463.273680	18869.681593
463.645882	18625.538513
464.018024	18325.012647
464.390106	18517.897275
464.762130	19704.098419
465.134094	21632.942183
465.505999	24222.043510
465.877845	26385.890743
466.249631	26604.518024
466.621358	25181.455746
466.993026	23579.377053
467.364634	22095.208429
467.736184	20718.144159
468.107674	19756.682695
468.479105	19030.590183
468.850477	18365.465386
469.221790	17380.922998
469.593043	16316.942109
469.964238	15635.126051
470.335373	15301.973837
470.706449	15668.629559
471.077467	16352.260432
471.448425	17836.121547
471.819324	18666.444955
472.190164	17613.350438
472.560945	15956.776872
472.931667	14554.501792
473.302330	13873.920817
473.672934	13324.077126
474.043479	13202.655894
474.413965	12690.111700
474.784393	12299.084520
475.154761	12321.550422
475.525070	12084.596027
475.895321	11717.763864
476.265513	11640.692184
476.635645	11646.497072
477.005719	11371.297963
477.375734	11250.675755
477.745691	11181.727893
478.115588	11264.750656
478.485427	11490.632157
478.855207	12039.807895
479.224928	12413.090214
479.594591	12515.430678
479.964194	11984.322436
480.333739	11724.080430
480.703226	11448.599016
481.072653	11328.062507
481.442022	11177.984837
481.811333	10977.165432
482.180584	10470.148863
482.549777	10126.659764
482.918912	9807.640425
483.287988	9519.324234
483.657005	9167.381119
484.025964	8842.526645
484.394864	8623.690156
484.763706	8357.701235
485.132489	8038.001341
485.501213	7822.118968
485.869879	7652.279975
486.238487	7422.955366
486.607036	7267.743280
486.975527	7045.511574
487.343959	6906.723568
487.712333	6756.963490
488.080648	6591.356545
488.448905	6482.606253
488.817104	6314.929915
489.185244	6257.526296
489.553326	6264.331854
489.921350	6376.268154
490.289315	6503.017885
490.657222	6419.654845
491.025070	6295.566843
491.392861	6075.349078
491.760593	5817.534388
492.128267	5556.788267
492.495883	5323.934851
492.863440	5116.135968
493.230939	4926.828039
493.598380	4765.354840
493.965763	4649.115914
494.333088	4517.045245
494.700354	4412.542126
495.067563	4320.445287
495.434713	4237.485538
495.801805	4172.058923
496.168839	4084.698247
496.535815	4011.104963
496.902733	3945.448975
497.269593	3871.712018
497.636395	3810.605672
498.003139	3771.844240
498.369825	3704.711194
498.736453	3665.604443
499.103023	3604.684619
499.469535	3556.748288
499.835989	3521.664377
500.202385	3471.290648
500.568723	3436.841923
500.935003	3407.121800
501.301226	3367.468084
501.667390	3351.480065
502.033497	3332.180007
502.399546	3291.084521
502.765537	3250.483068
503.131470	3231.750140
503.497345	3219.031309
503.863163	3172.922395
504.228923	3163.709687
504.594625	3152.457831
504.960269	3125.953965
505.325856	3116.635392
505.691385	3096.042279
506.056856	3081.962336
506.422270	3077.783219
506.787625	3058.450394
507.152924	3047.881615
507.518164	3037.869884
507.883347	3018.138808
508.248472	3013.198477
508.613540	3008.361490
508.978550	3005.311592
509.343503	2996.991167
509.708398	2992.988491
510.073236	2990.331803
510.438016	2986.263592
510.802738	2969.655511
511.167403	2976.599700
511.532010	2970.550315
511.896561	2970.562918
512.261053	2974.905872
512.625488	2962.963379
512.989866	2955.351237
513.354186	2947.860082
513.718449	2939.678289
514.082655	2952.268571
514.446803	2941.094853
514.810894	2943.675924
515.174927	2938.612085
515.538904	2930.944490
515.902822	2937.492949
516.266684	2926.742688
516.630488	2930.258893
516.994235	2923.816299
517.357925	2928.693615
517.721558	2927.002308
518.085133	2927.929880
518.448651	2924.267482
518.812112	2916.909918
519.175516	2915.672315
519.538863	2918.122315
519.902152	2915.158117
520.265385	2916.166348
520.628560	2912.849268
520.991678	2906.021026
521.354739	2909.325502
521.717743	2907.253588
522.080690	2904.362486
522.443580	2909.300296
522.806413	2907.001530
523.169189	2903.613875
523.531908	2903.656724
523.894569	2899.220509
524.257174	2901.927609
524.619722	2903.220665
524.982213	2900.594223
525.344647	2897.756054
525.707025	2894.464180
526.069345	2900.458112
526.431608	2897.262021
526.793815	2898.819737
527.155964	2892.924108
527.518057	2891.298336
527.880093	2887.197357
528.242072	2893.067781
528.603995	2887.099055
528.965860	2885.937069
529.327669	2886.327758
529.689421	2886.836915
530.051117	2885.057387
530.412755	2882.713251
530.774337	2884.049157
531.135862	2878.773589
531.497331	2876.293341
531.858743	2874.337374
532.220098	2879.323075
532.581396	2874.770913
532.942638	2868.973586
533.303824	2873.314019
533.664953	2872.595655
534.026025	2872.963659
534.387040	2873.739997
534.747999	2872.948536
535.108902	2870.697661
535.469748	2869.172712
535.830537	2868.555170
536.191270	2867.864532
536.551947	2868.209851
536.912567	2866.127855
537.273131	2867.095756
537.633638	2862.674664
537.994089	2860.731299
538.354483	2856.998325
538.714821	2863.365302
539.075103	2869.255891
539.435328	2865.333873
539.795497	2862.314222
540.155609	2860.522092
540.515665	2865.870756
540.875665	2861.621063
541.235609	2859.458408
541.595496	2860.418748
541.955328	2866.926877
542.315102	2856.476566
542.674821	2854.528160
543.034483	2855.932121
543.394090	2853.489682
543.753640	2854.631503
544.113134	2862.765405
544.472571	2852.264682
544.831953	2862.067205
545.191278	2855.291894
545.550548	2851.649661
545.909761	2855.886751
546.268918	2856.262317
546.628019	2858.193078
546.987064	2853.293077
547.346053	2847.896522
547.704986	2854.001359
548.063863	2848.657736
548.422684	2848.723271
548.781449	2845.859896
549.140158	2848.740915
549.498811	2848.894670
549.857408	2843.062055
550.215949	2847.604135
550.574434	2842.447034
550.932864	2842.076510
551.291237	2844.292097
551.649555	2842.557940
552.007817	2846.676562
552.366022	2841.824452
552.724173	2845.489371
553.082267	2845.244875
553.440305	2846.038857
553.798288	2838.668690
554.156215	2841.625326
554.514086	2844.748321
554.871902	2838.283041
555.229661	2835.918740
555.587365	2831.175014
555.945014	2837.259687
556.302606	2832.301712
556.660143	2836.516117
557.017625	2834.683657
557.375050	2833.839264
557.732421	2832.311795
558.089735	2832.752896
558.446994	2831.666527
558.804197	2835.505366
559.161345	2831.968996
559.518437	2822.148828
559.875474	2821.314517
560.232455	2826.370795
560.589381	2823.971206
560.946251	2821.296873
561.303065	2824.850887
561.659825	2823.081442
562.016528	2817.082469
562.373177	2812.167344
562.729770	2814.826552
563.086307	2805.578556
563.442789	2809.669452
563.799216	2807.796663
564.155587	2805.535706
564.511904	2802.107721
564.868164	2802.034625
565.224370	2803.708288
565.580520	2798.828451
565.936615	2795.738223
566.292654	2788.433592
566.648638	2790.019034
567.004567	2787.195988
567.360441	2786.255813
567.716260	2786.240690
568.072023	2780.718106
568.427732	2777.370779
568.783385	2771.719646
569.138982	2769.143616
569.494525	2771.487753
569.850013	2761.251690
570.205445	2761.796135
570.560823	2759.469642
570.916145	2754.773807
571.271412	2753.727768
571.626625	2747.970770
571.981782	2743.731160
572.336884	2743.889956
572.691931	2737.800242
573.046923	2736.345869
573.401860	2732.368399
573.756743	2729.431927
574.111570	2729.154663
574.466342	2722.245762
574.821059	2720.914897
575.175722	2715.588918
575.530330	2714.527756
575.884882	2708.632126
576.239380	2704.541230
576.593823	2702.681044
576.948211	2695.857842
577.302544	2696.356917
577.656823	2691.605629
578.011047	2692.094621
578.365216	2684.863086
578.719330	2683.557427
579.073389	2678.881757
579.427394	2678.228927
579.781344	2673.326405
580.135239	2672.524862
580.489080	2669.127124
580.842866	2665.298368
581.196597	2667.226609
581.550273	2662.984478
581.903895	2660.390804
582.257463	2661.285609
582.610975	2654.235556
582.964434	2655.211019
583.317837	2652.705565
583.671186	2649.975781
584.024481	2648.765904
584.377721	2645.295069
584.730906	2642.744245
585.084037	2645.237096
585.437113	2641.599903
585.790135	2640.407671
586.143103	2637.098153
586.496016	2636.652011
586.848874	2627.499796
587.201679	2632.309057
587.554428	2624.296143
587.907124	2628.870990
588.259765	2623.610546
588.612352	2628.187914
588.964884	2623.275309
589.317362	2621.941924
589.669786	2622.022582
590.022155	2620.520319
590.374470	2619.945627
590.726731	2619.491923
591.078937	2614.276850
591.431090	2614.120574
591.783188	2612.272991
592.135232	2608.565222
592.487222	2609.071858
592.839157	2607.385592
593.191038	2605.832917
593.542866	2606.173195
593.894639	2599.831423
594.246358	2603.425766
594.598022	2604.151692
594.949633	2600.358224
595.301190	2597.893100
595.652692	2597.394025
596.004141	2596.438727
596.355535	2594.394539
596.706876	2595.417893
597.058162	2591.768098
597.409395	2593.577872
597.760573	2593.903026
598.111698	2591.687439
598.462768	2589.655854
598.813785	2590.525453
599.164748	2589.527305
599.515657	2589.166862
599.866511	2586.520257
600.217312	2586.663929
600.568060	2584.632344
600.918753	2587.906574
601.269392	2585.975812
601.619978	2583.825760
601.970510	2586.033785
602.320988	2586.731985
602.671412	2584.597056
603.021783	2584.965061
603.372100	2582.721747
603.722363	2583.377097
604.072572	2583.687128
604.422728	2580.420460
604.772830	2581.108578
605.122878	2575.399471
605.472872	2579.092116
605.822813	2577.088258
606.172701	2580.198650
606.522534	2581.685790
606.872314	2587.959506
607.222041	2582.441963
607.571714	2582.893146
607.921333	2579.709658
608.270899	2582.575554
608.620411	2581.035481
608.969870	2578.638413
609.319276	2579.008937
609.668627	2578.905594
610.017926	2583.384659
610.367171	2580.193608
610.716362	2581.877354
611.065500	2581.330389
611.414585	2581.584967
611.763616	2582.746953
612.112594	2580.649833
612.461518	2585.189392
612.810389	2585.577561
613.159207	2580.720409
613.507971	2583.114957
613.856682	2581.458938
614.205340	2582.530183
614.553945	2585.494382
614.902496	2580.138156
615.250994	2580.659915
615.599439	2584.274422
615.947830	2583.694690
616.296169	2584.082859
616.644454	2583.417426
616.992686	2585.474217
617.340864	2584.123188
617.688990	2582.504978
618.037063	2585.824577
618.385082	2585.196954
618.733048	2583.437591
619.080961	2584.685277
619.428821	2586.961357
619.776628	2584.786100
620.124382	2584.660071
620.472083	2582.479772
620.819731	2584.624783
621.167326	2581.879874
621.514868	2582.603280
621.862357	2580.047415
622.209793	2580.017168
622.557176	2578.368711
622.904506	2573.604820
623.251783	2572.263873
623.599007	2572.513411
623.946179	2568.896383
624.293297	2567.510065
624.640363	2568.568708
624.987376	2567.620971
625.334336	2570.469223
625.681243	2566.448903
626.028097	2562.529405
626.374899	2564.066957
626.721647	2565.564180
627.068343	2565.170970
627.414987	2565.002091
627.761577	2561.163253
628.108115	2561.012018
628.454600	2559.066133
628.801032	2559.603016
629.147412	2558.115875
629.493739	2561.405228
629.840014	2558.806513
630.186236	2557.468087
630.532405	2556.091852
630.878521	2556.958930
631.224585	2554.198899
631.570597	2556.802655
631.916556	2552.124464
632.262462	2555.131512
632.608316	2553.425082
632.954117	2551.998435
633.299866	2553.094886
633.645562	2552.870555
633.991206	2549.855945
634.336797	2545.351674
634.682336	2549.472817
635.027823	2548.714123
635.373257	2547.632796
635.718639	2545.520552
636.063968	2543.844369
636.409245	2542.332022
636.754470	2544.696324
637.099642	2542.052238
637.444762	2539.471168
637.789829	2540.592824
638.134845	2538.760365
638.479808	2536.166691
638.824719	2537.124511
639.169577	2533.946063
639.514383	2535.357586
639.859137	2536.259953
640.203839	2534.883718
640.548489	2533.895652
640.893086	2529.635877
641.237632	2529.590506
641.582125	2529.363654
641.926566	2527.372398
642.270955	2529.978675
642.615292	2527.979857
642.959576	2531.977493
643.303809	2529.146885
643.647990	2532.227030
643.992118	2531.251566
644.336195	2529.653521
644.680219	2531.044879
645.024192	2529.714014
645.368112	2527.261493
645.711981	2533.028573
646.055797	2532.663089
646.399562	2534.011598
646.743274	2535.619726
647.086935	2537.028729
647.430544	2537.139634
647.774101	2536.280117
648.117606	2535.473533
648.461059	2539.960160
648.804460	2537.540406
649.147810	2531.133099
649.491108	2534.087215
649.834354	2532.005219
650.177548	2531.987575
650.520690	2528.030269
650.863781	2528.022707
651.206820	2528.141174
651.549807	2523.858714
651.892742	2524.854342
652.235626	2523.256296
652.578458	2525.698735
652.921238	2516.743126
653.263967	2521.340658
653.606644	2519.735050
653.949269	2520.738240
654.291843	2517.799247
654.634365	2523.551204
654.976836	2517.806809
655.319255	2517.789165
655.661622	2519.712365
656.003938	2519.036851
656.346203	2517.400996
656.688416	2515.475275
657.030577	2515.571057
657.372687	2515.218177
657.714746	2515.003928
658.056753	2515.024092
658.398708	2510.877743
658.740612	2513.599966
659.082465	2511.631396
659.424266	2511.253309
659.766016	2510.111488
660.107715	2514.033505
660.449362	2516.382683
660.790958	2512.904287
661.132503	2511.412105
661.473996	2514.696417
661.815438	2513.567199
662.156829	2512.611900
662.498168	2513.179030
662.839456	2514.653567
663.180693	2512.357322
663.521879	2512.032167
663.863013	2511.376817
664.204097	2515.311438
664.545129	2515.684483
664.886110	2516.554082
665.227040	2512.659791
665.567918	2513.819256
665.908746	2515.142559
666.249522	2513.481499
666.590248	2514.809843
666.930922	2516.264216
667.271545	2512.400172
667.612118	2517.685821
667.952639	2515.422343
668.293109	2516.987622
668.633528	2513.413443
668.973896	2513.431087
669.314213	2514.449401
669.654480	2511.921262
669.994695	2513.080727
670.334859	2513.330264
670.674973	2511.298679
671.015035	2510.129132
671.355047	2513.594925
671.695008	2509.002434
672.034918	2511.601149
672.374777	2512.415295
672.714585	2510.373628
673.054342	2513.247085
673.394049	2510.141735
673.733705	2509.062928
674.073310	2512.538803
674.412864	2508.883967
674.752368	2507.064110
675.091820	2511.994359
675.431223	2507.384223
675.770574	2507.686693
676.109875	2504.573780
676.449125	2505.589573
676.788324	2504.508245
677.127473	2502.312823
677.466571	2497.889210
677.805619	2502.927843
678.144616	2503.782319
678.483562	2502.073368
678.822458	2500.273676
679.161303	2501.735611
679.500098	2502.706033
679.838842	2502.413646
680.177535	2501.874242
680.516179	2501.362565
680.854771	2502.206958
681.193314	2504.636795
681.531805	2507.154851
681.870247	2511.717095
682.208638	2514.882940
682.546978	2511.654081
682.885268	2511.641478
683.223508	2511.833042
683.561697	2510.081241
683.899836	2510.020747
684.237925	2507.875736
684.575963	2505.587052
684.913951	2505.481188
685.251889	2506.605365
685.589776	2504.684686
685.927614	2508.483195
686.265401	2507.709378
686.603137	2507.696775
686.940824	2507.200221
687.278460	2509.095695
687.616046	2511.429749
687.953582	2511.858248
688.291068	2513.756242
688.628504	2509.950171
688.965889	2513.927641
689.303224	2510.628206
689.640510	2514.358660
689.977745	2508.843638
690.314930	2505.322392
690.652065	2507.081754
690.989150	2504.319202
691.326185	2499.492297
691.663170	2497.226298
692.000105	2494.819148
692.336990	2494.783859
692.673825	2490.239259
693.010610	2493.314363
693.347345	2486.460914
693.684030	2482.158290
694.020665	2484.736840
694.357251	2479.025212
694.693786	2485.364463
695.030272	2483.688280
695.366707	2482.470841
695.703093	2480.451859
696.039429	2482.659884
696.375716	2481.238279
696.711952	2480.683752
697.048139	2479.529328
697.384276	2480.154431
697.720363	2480.537559
698.056400	2482.312045
698.392388	2479.675521
698.728326	2476.509677
699.064214	2476.865078
699.400053	2478.697538
699.735842	2476.613020
700.071581	2472.328040
700.407270	2472.577577
700.742910	2476.245016
701.078501	2473.225365
701.414042	2472.522124
701.749533	2470.966928
702.084974	2469.656228
702.420366	2470.114973
702.755709	2472.441466
703.091002	2468.146402
703.426246	2468.365693
703.761440	2467.667493
704.096584	2468.481639
704.431679	2468.159005
704.766725	2469.444500
705.101721	2468.108594
705.436668	2467.987606
705.771565	2468.194293
706.106413	2466.908799
706.441212	2466.649180
706.775961	2467.347380
707.110661	2466.941567
707.445311	2471.284521
707.779913	2468.789150
708.114465	2472.358287
708.448967	2469.847792
708.783421	2472.312916
709.117825	2472.338122
709.452180	2472.111270
709.786485	2475.047742
710.120742	2479.841879
710.454949	2477.205356
710.789107	2478.972280
711.123216	2476.860037
711.457275	2481.691983
711.791286	2479.254585
712.125247	2482.947230
712.459159	2484.305821
712.793023	2483.887405
713.126837	2482.924545
713.460602	2481.709627
713.794318	2480.164513
714.127985	2481.175265
714.461602	2478.687455
714.795171	2478.314410
715.128691	2472.353245
715.462162	2473.419449
715.795584	2472.146558
716.128957	2471.501290
716.462281	2468.229582
716.795556	2469.081537
717.128782	2470.107411
717.461960	2465.262863
717.795088	2468.090950
718.128167	2461.824796
718.461198	2463.881586
718.794180	2466.238326
719.127113	2462.225567
719.459997	2464.269755
719.792833	2461.139199
720.125619	2461.444188
720.458357	2459.309260
720.791046	2459.825978
721.123686	2454.933538
721.456278	2456.478652
721.788821	2458.033848
722.121315	2456.851697
722.453761	2454.492437
722.786158	2456.922273
723.118506	2457.156687
723.450805	2457.088632
723.783056	2457.938066
724.115259	2458.106945
724.447412	2453.486727
724.779518	2454.772221
725.111574	2457.257510
725.443582	2458.883282
725.775542	2461.529888
726.107453	2457.570062
726.439315	2461.532409
726.771129	2465.966103
727.102895	2463.185907
727.434612	2463.904272
727.766281	2461.812193
728.097901	2463.120372
728.429473	2461.784466
728.760996	2462.772533
729.092471	2459.354630
729.423897	2464.668006
729.755276	2463.964765
730.086606	2465.560291
730.417887	2466.392081
730.749120	2466.344190
731.080305	2465.550208
731.411442	2470.480457
731.742530	2470.500621
732.073570	2473.048925
732.404562	2469.058851
732.735506	2469.310909
733.066401	2468.438789
733.397249	2467.347380
733.728048	2466.845785
734.058798	2465.840075
734.389501	2462.497790
734.720156	2460.811524
735.050762	2458.631225
735.381320	2454.971347
735.711831	2455.891358
736.042293	2455.286419
736.372707	2457.456636
736.703073	2456.065277
737.033391	2451.404731
737.363661	2454.230297
737.693883	2454.552931
738.024056	2458.984105
738.354182	2455.747685
738.684260	2459.190793
739.014290	2457.958231
739.344272	2461.355968
739.674207	2459.639455
740.004093	2459.957048
740.333931	2458.759774
740.663722	2459.818416
740.993464	2461.877728
741.323159	2460.967799
741.652806	2459.236163
741.982405	2459.271451
742.311956	2457.063426
742.641460	2459.599126
742.970915	2456.458487
743.300323	2456.697942
743.629683	2454.008487
743.958996	2453.532097
744.288260	2449.834411
744.617477	2450.630913
744.946647	2447.031530
745.275768	2448.531273
745.604842	2447.596139
745.933869	2445.912393
746.262847	2444.941971
746.591778	2451.354319
746.920662	2449.118567
747.249498	2447.598659
747.578286	2447.565892
747.907027	2450.719134
748.235720	2450.121757
748.564365	2452.551593
748.892963	2450.608228
749.221514	2452.944803
749.550017	2451.802982
749.878473	2450.832560
750.206881	2453.000256
750.535242	2449.494133
750.863555	2448.841304
751.191821	2449.302569
751.520039	2446.948351
751.848210	2446.330809
752.176334	2448.823660
752.504411	2449.736109
752.832440	2447.802826
753.160421	2447.213011
753.488356	2447.560851
753.816243	2448.001952
754.144082	2444.243772
754.471875	2446.890377
754.799620	2443.611107
755.127318	2450.845163
755.454969	2447.018927
755.782572	2445.302414
756.110129	2449.284925
756.437638	2445.458690
756.765100	2446.676128
757.092515	2446.323248
757.419882	2446.477003
757.747203	2445.448607
758.074477	2446.376180
758.401703	2448.344750
758.728882	2445.630089
759.056014	2446.804678
759.383099	2447.046653
759.710138	2448.911880
760.037129	2449.436160
760.364073	2448.969853
760.690970	2449.257199
761.017820	2451.187961
761.344623	2451.114864
761.671379	2450.419185
761.998088	2449.531942
762.324751	2454.888168
762.651366	2468.937864
762.977935	2486.077787
763.304456	2492.096924
763.630931	2496.664210
763.957359	2495.277893
764.283740	2486.985194
764.610074	2478.034626
764.936362	2470.117494
765.262602	2464.214303
765.588796	2460.816565
765.914943	2456.856738
766.241044	2450.580502
766.567097	2447.538166
766.893104	2441.839141
767.219064	2443.129677
767.544978	2444.412650
767.870845	2440.551126
768.196665	2441.030036
768.522438	2438.428801
768.848165	2440.203287
769.173846	2439.169850
769.499479	2437.748245
769.825066	2433.644746
770.150607	2434.955446
770.476101	2434.897472
770.801548	2437.095415
771.126949	2433.853953
771.452303	2430.476380
771.777611	2431.466967
772.102872	2435.593152
772.428087	2433.697678
772.753256	2432.374375
773.078378	2433.266659
773.403453	2432.833120
773.728482	2429.785742
774.053465	2429.170722
774.378401	2429.815989
774.703291	2429.760537
775.028135	2428.659044
775.352932	2430.020156
775.677683	2427.648293
776.002388	2429.296750
776.327046	2429.831113
776.651658	2426.347675
776.976224	2428.389343
777.300743	2427.386153
777.625216	2427.262645
777.949643	2427.247521
778.274024	2427.872624
778.598359	2424.280802
778.922647	2423.486821
779.246889	2424.200144
779.571086	2422.410534
779.895236	2428.480083
780.219339	2427.600402
780.543397	2426.899682
780.867409	2427.464291
781.191374	2428.129723
781.515294	2426.425813
781.839167	2430.002512
782.162995	2429.137954
782.486776	2425.377253
782.810511	2428.409507
783.134201	2427.025711
783.457844	2426.340114
783.781441	2426.700556
784.104993	2425.021852
784.428498	2426.635021
784.751958	2423.985895
785.075372	2426.471184
785.398739	2423.542273
785.722061	2428.870773
786.045337	2426.836667
786.368568	2427.217274
786.691752	2425.989753
787.014891	2424.263158
787.337983	2430.312543
787.661030	2432.938984
787.984031	2433.201124
788.306987	2437.024839
788.629897	2434.116093
788.952760	2432.949066
789.275579	2431.923192
789.598351	2436.011567
789.921078	2429.473191
790.243759	2430.390681
790.566395	2427.668458
790.888984	2432.845723
791.211529	2428.522933
791.534027	2427.640731
791.856480	2425.347006
792.178888	2428.154929
792.501249	2427.287851
792.823566	2424.361461
793.145836	2424.328693
793.468062	2424.810123
793.790241	2424.812644
794.112375	2425.341965
794.434464	2425.858683
794.756507	2426.894641
795.078505	2425.899013
795.400457	2425.553694
795.722364	2423.880031
796.044226	2428.379260
796.366042	2426.952614
796.687812	2426.599733
797.009538	2431.204827
797.331218	2428.651483
797.652852	2430.249528
797.974442	2427.224836
798.295986	2429.001843
798.617484	2428.477563
798.938938	2429.919333
799.260346	2427.108890
799.581709	2424.739547
799.903026	2428.099476
800.224299	2425.883889
800.545526	2426.289702
800.866708	2426.899682
801.187845	2422.491193
801.508936	2424.043868
801.829983	2425.203333
802.150984	2424.399269
802.471940	2423.204516
802.792851	2424.729465
803.113717	2421.140163
803.434538	2424.520257
803.755314	2425.387336
804.076045	2424.580751
804.396731	2424.553025
804.717372	2423.212078
805.037967	2422.634866
805.358518	2424.817685
805.679024	2423.748961
805.999485	2424.726944
806.319901	2423.421286
806.640272	2422.866759
806.960598	2424.235432
807.280879	2423.665782
807.601115	2424.479928
807.921306	2423.655699
808.241453	2422.143353
808.561554	2424.656368
808.881611	2424.212747
809.201623	2425.074784
809.521590	2422.428178
809.841513	2425.626790
810.161390	2424.726944
810.481223	2423.277613
810.801011	2422.584454
811.120755	2421.979516
811.440453	2424.237953
811.760107	2423.229722
812.079716	2421.629155
812.399281	2417.366860
812.718801	2421.440112
813.038276	2419.779052
813.357707	2422.773497
813.677093	2419.819381
813.996434	2422.302149
814.315731	2421.540935
814.634983	2422.279464
814.954191	2420.671336
815.273354	2423.081008
815.592473	2423.443971
815.911547	2426.304826
816.230577	2424.827767
816.549562	2424.860535
816.868502	2426.007397
817.187399	2426.640062
817.506250	2425.866245
817.825058	2424.878179
818.143821	2427.517223
818.462539	2430.186514
818.781213	2431.197265
819.099843	2434.617688
819.418429	2438.764037
819.736970	2445.171344
820.055466	2447.959102
820.373919	2459.183231
820.692327	2466.296299
821.010691	2484.968733
821.329011	2526.749816
821.647286	2598.896289
821.965517	2669.953873
822.283704	2708.851416
822.601847	2723.901781
822.919945	2695.487317
823.237999	2659.070022
823.556010	2627.772018
823.873976	2592.453695
824.191897	2559.945814
824.509775	2535.279448
824.827609	2516.377642
825.145398	2506.880108
825.463144	2501.097905
825.780845	2500.127483
826.098502	2508.082423
826.416116	2525.222346
826.733685	2541.815304
827.051210	2546.097764
827.368692	2538.833462
827.686129	2519.858559
828.003522	2498.897441
828.320872	2484.013434
828.638177	2471.206383
828.955439	2459.684826
829.272656	2456.070318
829.589830	2440.709923
829.906960	2445.564554
830.224046	2434.539550
830.541088	2436.853440
830.858086	2433.175918
831.175041	2431.656010
831.491952	2430.524271
831.808819	2433.238933
832.125642	2436.533327
832.442421	2438.489294
832.759157	2447.780141
833.075849	2460.277161
833.392497	2475.385499
833.709101	2483.794144
834.025662	2483.247179
834.342179	2475.478761
834.658653	2463.947121
834.975083	2459.079887
835.291469	2455.508230
835.607811	2444.707558
835.924110	2437.909562
836.240366	2438.345622
836.556578	2432.439910
836.872746	2428.016297
837.188871	2425.435227
837.504952	2423.504465
837.820990	2420.280647
838.136984	2421.039340
838.452935	2422.166038
838.768842	2418.400296
839.084706	2421.258631
839.400526	2429.498397
839.716303	2438.474171
840.032037	2442.005499
840.347727	2439.983997
840.663373	2434.705908
840.978977	2431.739189
841.294537	2427.343303
841.610054	2423.428847
841.925527	2422.768456
842.240957	2418.531366
842.556344	2417.311407
842.871687	2419.116140
843.186987	2417.991963
843.502244	2415.360481
843.817458	2412.441653
844.132629	2414.223700
844.447756	2413.298649
844.762840	2410.808319
845.077881	2410.805798
845.392879	2407.501322
845.707833	2413.018865
846.022745	2406.800601
846.337613	2411.498957
846.652438	2410.180695
846.967221	2411.015006
847.281960	2411.057856
847.596656	2410.969636
847.911309	2414.044739
848.225919	2412.159348
848.540485	2409.918555
848.855009	2409.840417
849.169490	2408.542320
849.483928	2412.613052
849.798323	2409.164902
850.112675	2410.528535
850.426984	2410.296642
850.741251	2409.575757
851.055474	2409.442166
851.369654	2409.268246
851.683792	2409.424522
851.997887	2410.624317
852.311938	2406.374624
852.625947	2412.527352
852.939914	2409.381672
853.253837	2411.642630
853.567718	2410.513411
853.881555	2410.634399
854.195350	2407.092988
854.509103	2411.887126
854.822812	2409.308575
855.136479	2411.493916
855.450103	2410.823442
855.763685	2409.575757
856.077224	2407.874367
856.390720	2407.753379
856.704173	2408.330592
857.017584	2410.079872
857.330953	2408.670869
857.644278	2408.242371
857.957561	2414.024575
858.270802	2408.275139
858.584000	2411.990469
858.897155	2409.563154
859.210268	2409.812691
859.523339	2409.890829
859.836367	2407.476116
860.149352	2409.676580
860.462295	2408.257495
860.775195	2408.751528
861.088054	2405.812535
861.400869	2405.353790
861.713642	2403.818759
862.026373	2407.569377
862.339062	2409.137176
862.651708	2413.306210
862.964312	2412.030798
863.276873	2412.539955
863.589392	2410.437794
863.901869	2413.364184
864.214303	2411.955181
864.526696	2410.546179
864.839045	2411.297311
865.151353	2412.739081
865.463619	2409.905952
865.775842	2412.897877
866.088023	2409.752197
866.400162	2413.641447
866.712258	2412.489543
867.024313	2410.473082
867.336325	2413.638927
867.648296	2412.323185
867.960224	2411.987949
868.272110	2410.856210
868.583954	2412.552558
868.895755	2412.744122
869.207515	2412.159348
869.519233	2412.650860
869.830909	2412.040881
870.142542	2412.514749
870.454134	2412.282856
870.765684	2414.760583
871.077191	2413.603638
871.388657	2416.086407
871.700081	2411.531724
872.011463	2414.090110
872.322803	2411.380490
872.634101	2411.060376
872.945357	2413.480130
873.256571	2415.534400
873.567744	2413.154976
873.878874	2412.575243
874.189963	2414.261509
874.501010	2415.297466
874.812015	2415.284863
875.122979	2415.030285
875.433900	2413.454924
875.744780	2417.611356
876.055618	2417.175296
876.366415	2418.692683
876.677169	2414.498443
876.987882	2411.539286
877.298554	2412.116498
877.609183	2415.496592
877.919771	2412.212280
878.230317	2418.491037
878.540822	2422.649989
878.851285	2425.956986
879.161707	2425.931780
879.472087	2434.819334
879.782425	2441.072886
880.092722	2458.495113
880.402977	2479.378093
880.713191	2507.623678
881.023363	2534.578728
881.333494	2553.556152
881.643583	2560.833057
881.953631	2556.603529
882.263637	2545.815460
882.573602	2537.250539
882.883526	2525.464322
883.193408	2515.545852
883.503248	2501.448265
883.813048	2491.302943
884.122806	2479.983032
884.432522	2471.128245
884.742197	2463.407718
885.051831	2457.307922
885.361424	2448.725357
885.670975	2442.683534
885.980485	2435.794798
886.289954	2434.524427
886.599382	2430.443613
886.908768	2427.212233
887.218113	2425.299115
887.527417	2425.442788
887.836680	2422.937335
888.145901	2423.078487
888.455082	2421.735020
888.764221	2419.612694
889.073319	2416.953485
889.382376	2420.409196
889.691392	2419.068249
890.000366	2417.286201
890.309300	2417.621438
890.618193	2419.892478
890.927044	2417.966757
891.235855	2418.269226
891.544625	2417.578588
891.853353	2418.085224
892.162041	2419.577406
892.470687	2423.201995
892.779293	2421.117478
893.087858	2420.923394
893.396381	2424.941193
893.704864	2432.263469
894.013306	2435.769592
894.321707	2450.772066
894.630068	2457.033179
894.938387	2457.801955
895.246665	2452.942283
895.554903	2451.853393
895.863100	2445.776282
896.171256	2440.629264
896.479371	2438.053235
896.787446	2437.276897
897.095480	2433.934612
897.403473	2432.006371
897.711425	2429.614343
898.019336	2424.001018
898.327207	2425.853642
898.635038	2424.711821
898.942827	2421.833322
899.250576	2421.934145
899.558284	2418.964906
899.865952	2419.315266
900.173579	2418.790986
900.481165	2416.456932
900.788711	2412.212280
901.096216	2414.853845
901.403681	2413.550706
901.711105	2412.930644
902.018489	2414.674884
902.325832	2416.645975
902.633135	2415.264699
902.940397	2419.731161
903.247619	2424.994126
903.554800	2439.409305
903.861941	2452.773404
904.169041	2462.333952
904.476101	2465.255301
904.783121	2465.071299
905.090100	2458.608539
905.397039	2453.320369
905.703938	2447.843155
906.010796	2441.448452
906.317614	2437.539037
906.624391	2432.349169
906.931129	2431.104004
907.237826	2426.597212
907.544483	2423.932963
907.851099	2420.000863
908.157675	2419.902560
908.464211	2417.049267
908.770707	2410.596590
909.077163	2409.222876
909.383578	2407.866805
909.689954	2409.560633
909.996289	2404.852195
910.302584	2408.917886
910.608839	2407.123235
910.915054	2410.074831
911.221229	2407.115673
911.527363	2408.464182
911.833458	2408.633061
912.139513	2409.053997
912.445527	2411.549368
912.751502	2410.800757
913.057436	2412.799574
913.363331	2413.036509
913.669186	2412.388720
913.975000	2416.635892
914.280775	2419.584967
914.586510	2427.570155
914.892205	2427.618046
915.197859	2438.494336
915.503475	2446.787034
915.809050	2459.490741
916.114585	2461.396297
916.420081	2465.116669
916.725536	2463.173304
917.030952	2461.209775
917.336328	2456.697942
917.641665	2451.301387
917.946961	2448.001952
918.252218	2448.654781
918.557435	2440.956939
918.862612	2436.150199
919.167750	2432.628953
919.472848	2432.623912
919.777906	2428.651483
920.082925	2425.808272
920.387904	2420.641089
920.692843	2419.471542
920.997743	2418.236459
921.302603	2417.220666
921.607423	2418.370049
921.912204	2414.919380
922.216946	2415.020203
922.521647	2412.577764
922.826310	2410.977197
923.130932	2410.548699
923.435516	2408.272618
923.740059	2409.757238
924.044564	2407.856723
924.349028	2409.222876
924.653454	2403.591907
924.957840	2406.830848
925.262186	2401.948491
925.566493	2409.716909
925.870761	2401.020918
926.174989	2405.038718
926.479178	2405.338667
926.783328	2407.226579
927.087438	2403.440672
927.391509	2405.114335
927.695541	2404.166598
927.999533	2406.281362
928.303486	2404.012843
928.607400	2404.917730
928.911275	2403.932185
929.215110	2402.039232
929.518906	2402.881104
929.822663	2405.915879
930.126381	2403.440672
930.430060	2405.240364
930.733699	2405.164747
931.037299	2404.143913
931.340861	2401.877915
931.644383	2400.761299
931.947866	2403.118038
932.251309	2401.318347
932.554714	2403.801115
932.858080	2406.319171
933.161407	2402.782802
933.464694	2401.918244
933.767943	2402.679458
934.071153	2407.042577
934.374323	2403.067627
934.677455	2403.377658
934.980548	2401.703995
935.283602	2405.477298
935.586617	2402.533265
935.889593	2401.648542
936.192530	2403.808677
936.495428	2400.499159
936.798287	2404.045611
937.101108	2402.941598
937.403890	2406.062072
937.706632	2405.772206
938.009336	2405.810015
938.312002	2406.195663
938.614628	2406.004099
938.917216	2405.547875
939.219765	2408.093657
939.522275	2405.668862
939.824747	2408.580129
940.127179	2404.607699
940.429573	2403.697771
940.731929	2404.958060
941.034246	2401.343552
941.336524	2405.701630
941.638763	2406.213307
941.940964	2404.816907
942.243126	2404.829510
942.545250	2405.769685
942.847335	2405.285735
943.149381	2408.247412
943.451389	2404.280024
943.753359	2404.353121
944.055290	2404.199366
944.357182	2405.605848
944.659036	2403.486043
944.960851	2405.111815
945.262628	2403.546537
945.564367	2401.424211
945.866067	2403.443193
946.167729	2403.140724
946.469352	2402.939077
946.770937	2404.537123
947.072484	2403.491084
947.373992	2403.473440
947.675462	2404.506876
947.976893	2403.493604
948.278286	2404.600138
948.579641	2402.477812
948.880958	2404.605179
949.182236	2404.958060
949.483476	2399.281720
949.784678	2404.474109
950.085841	2405.066444
950.386967	2402.155178
950.688054	2403.460837
950.989103	2404.655590
951.290114	2404.640467
951.591087	2403.299520
951.892021	2404.975704
952.192917	2407.655077
952.493776	2406.162895
952.794596	2406.246074
953.095378	2404.678276
953.396122	2405.951167
953.696828	2405.963770
953.997496	2405.784809
954.298126	2404.796743
954.598718	2405.933523
954.899272	2401.008316
955.199788	2404.174160
955.500266	2404.148954
955.800706	2400.829355
956.101108	2399.866494
956.401472	2400.037893
956.701798	2398.291134
957.002087	2398.908675
957.302337	2399.649725
957.602550	2402.576114
957.902724	2400.597462
958.202861	2399.448078
958.502960	2400.136196
958.803022	2400.642832
959.103045	2399.755589
959.403031	2401.111659
959.702979	2402.434962
960.002889	2400.915054
960.302762	2401.217523
960.602596	2399.863974
960.902393	2400.133675
961.202153	2400.320198
961.501875	2398.447409
961.801559	2398.049158
962.101205	2399.110321
962.400814	2399.576628
962.700385	2399.329611
962.999918	2398.220558
963.299414	2399.616957
963.598873	2400.305075
963.898293	2397.497152
964.197677	2399.185938
964.497022	2398.006308
964.796331	2398.248284
965.095601	2395.647048
965.394835	2400.254663
965.694030	2399.508572
965.993189	2400.998233
966.292309	2396.834240
966.591393	2400.224416
966.890439	2398.802811
967.189447	2397.129148
967.488419	2400.098387
967.787353	2397.456823
968.086249	2398.868346
968.385108	2399.833727
968.683930	2399.014539
968.982714	2401.807338
969.281462	2398.661658
969.580172	2393.794424
969.878844	2399.553943
970.177480	2399.833727
970.476078	2398.185269
970.774639	2398.044117
971.073162	2396.867008
971.371649	2397.960938
971.670098	2394.674106
971.968510	2397.411452
972.266885	2392.561862
972.565223	2400.131155
972.863524	2397.308109
973.161788	2399.679972
973.460014	2397.469426
973.758204	2396.935063
974.056356	2398.767523
974.354471	2398.984292
974.652550	2399.705177
974.950591	2398.215516
975.248595	2399.553943
975.546563	2398.081926
975.844493	2400.912534
976.142386	2400.110990
976.440243	2400.168963
976.738062	2398.649056
977.035845	2400.542009
977.333590	2398.815414
977.631299	2398.981772
977.928971	2398.966648
978.226606	2396.471277
978.524204	2397.482028
978.821765	2398.949004
979.119290	2399.430434
979.416777	2398.326422
979.714228	2400.385733
980.011642	2397.522358
980.309020	2402.508059
980.606360	2397.653428
980.903664	2400.927657
981.200931	2396.546894
981.498162	2400.872204
981.795356	2400.310116
982.092513	2401.061248
982.389633	2402.447565
982.686717	2403.145765
982.983764	2407.352608
983.280775	2405.527710
983.577749	2404.895045
983.874686	2408.388565
984.171587	2407.438307
984.468451	2407.808832
984.765279	2400.728532
985.062070	2401.325908
985.358824	2403.876732
985.655543	2401.424211
985.952224	2399.707698
986.248869	2400.133675
986.545478	2396.768705
986.842050	2397.030845
987.138586	2393.212171
987.435086	2395.044631
987.731549	2393.975906
988.027975	2402.157699
988.324366	2396.289796
988.620719	2398.381874
988.917037	2397.545043
989.213318	2395.543705
989.509563	2396.499003
989.805772	2397.270300
990.101944	2400.249622
990.398080	2399.979920
990.694180	2395.642007
990.990244	2397.487070
991.286271	2396.027656
991.582262	2398.749879
991.878217	2397.708880
992.174136	2397.729045
992.470019	2401.308264
992.765865	2400.211813
993.061676	2401.068809
993.357450	2396.700650
993.653188	2400.521844
993.948890	2399.059910
994.244556	2399.836247
994.540186	2400.403377
994.835780	2400.673079
995.131337	2398.046638
995.426859	2398.031514
995.722345	2404.035528
996.017795	2400.473953
996.313208	2400.393295
996.608586	2398.175187
996.903928	2402.077040
997.199234	2401.560322
997.494504	2401.257853
997.789738	2400.753737
998.084936	2402.273645
998.380099	2400.894890
998.675225	2401.330949
998.970316	2399.657286
999.265371	2397.711401
999.560390	2399.032183
999.855373	2397.965979
1000.150320	2399.415311
1000.445232	2398.568397
1000.740108	2398.016391
1001.034948	2398.104611
1001.329752	2398.454971
1001.624521	2398.545712
1001.919254	2393.849877
1002.213951	2394.921122
1002.508613	2392.564383
1002.803239	2397.207286
1003.097829	2393.018087
1003.392384	2396.493962
1003.686903	2398.633932
1003.981386	2396.667882
1004.275834	2396.128479
1004.570246	2395.407594
1004.864623	2399.100239
1005.158964	2395.120248
1005.453270	2397.229971
1005.747540	2396.153684
1006.041775	2396.887172
1006.335974	2396.067985
1006.630138	2397.446740
1006.924266	2396.095711
1007.218359	2396.569580
1007.512416	2398.500342
1007.806438	2396.950187
1008.100425	2395.364744
1008.394376	2397.073695
1008.688292	2394.870711
1008.982172	2396.587224
1009.276017	2398.026473
1009.569827	2396.647718
1009.863602	2397.252656
1010.157341	2395.586555
1010.451045	2396.806514
1010.744714	2393.461708
1011.038347	2397.739127
1011.331945	2397.519837
1011.625508	2396.937584
1011.919036	2395.674775
1012.212528	2395.437841
1012.505986	2395.730228
1012.799408	2395.725186
1013.092795	2393.870042
1013.386147	2393.736451
1013.679464	2393.567573
1013.972745	2396.851884
1014.265992	2395.720145
1014.559204	2399.407749
1014.852380	2396.070505
1015.145521	2397.792059
1015.438628	2395.478170
1015.731699	2395.526061
1016.024736	2393.789383
1016.317737	2394.865670
1016.610703	2399.049827
1016.903635	2394.207799
1017.196531	2391.659496
1017.489393	2394.129661
1017.782219	2390.295864
1018.075011	2396.879611
1018.367768	2395.987326
1018.660490	2395.087480
1018.953177	2395.087480
1019.245829	2395.087480
