Dividing Wavelength (nm)	Counts (n)	Blue Motor Position (mm): 0.000000	Red Motor Position (mm): 35.000000	
326.493990	1990.509678
326.888308	1990.509678
327.282561	1990.509678
327.676750	1964.620833
328.070874	1967.688375
328.464933	1971.713736
328.858929	1983.993987
329.252859	1994.618219
329.646726	2009.824859
330.040528	2021.530419
330.434265	2047.101672
330.827938	2062.651111
331.221547	2082.006621
331.615091	2104.275918
332.008571	2124.674947
332.401986	2146.677063
332.795338	2165.102480
333.188625	2186.464370
333.581847	2204.962884
333.975006	2219.274719
334.368100	2240.873543
334.761129	2258.381470
335.154095	2271.778337
335.546996	2294.687860
335.939833	2336.746207
336.332606	2348.766838
336.725315	2360.038858
337.117960	2369.291896
337.510540	2377.786240
337.903056	2388.125647
338.295508	2391.079763
338.687896	2398.016391
339.080220	2406.117525
339.472480	2411.844276
339.864676	2417.402148
340.256807	2420.089083
340.648875	2421.132602
341.040879	2424.958838
341.432818	2429.054775
341.824694	2424.235432
342.216506	2428.585948
342.608253	2427.809610
342.999937	2425.601585
343.391557	2423.486821
343.783113	2422.642427
344.174605	2421.034299
344.566033	2420.061357
344.957397	2417.646644
345.348697	2415.708320
345.739934	2414.082548
346.131106	2414.130439
346.522215	2410.868813
346.913260	2406.349418
347.304241	2408.824625
347.695159	2405.290776
348.086012	2404.413615
348.476802	2403.443193
348.867528	2401.245250
349.258191	2401.996382
349.648789	2398.888510
350.039324	2398.901113
350.429796	2400.715929
350.820203	2399.536299
351.210548	2399.180897
351.600828	2394.331307
351.991045	2398.124776
352.381198	2394.643859
352.771288	2397.436658
353.161314	2395.236194
353.551276	2397.537481
353.941175	2397.126627
354.331010	2399.760630
354.720782	2399.072512
355.110490	2396.231822
355.500135	2398.102090
355.889717	2399.072513
356.279235	2397.580331
356.668689	2401.625857
357.058080	2401.088974
357.447408	2398.356669
357.836672	2398.114693
358.225873	2401.391443
358.615010	2396.488921
359.004084	2403.622154
359.393095	2404.854716
359.782043	2405.757082
360.170927	2405.908317
360.559748	2409.137176
360.948505	2406.172978
361.337199	2410.094995
361.725830	2408.749007
362.114398	2412.928124
362.502903	2409.563154
362.891344	2413.767476
363.279722	2410.268915
363.668037	2417.518094
364.056289	2411.793864
364.444478	2417.071952
364.832603	2415.799061
365.220665	2418.987591
365.608665	2417.429874
365.996601	2421.311563
366.384474	2419.574885
366.772284	2419.153949
367.160031	2422.216450
367.547715	2421.707293
367.935336	2424.694177
368.322893	2424.903385
368.710388	2426.551842
369.097820	2429.379929
369.485189	2428.386822
369.872495	2430.695671
370.259738	2430.163829
370.646918	2434.660538
371.034035	2437.435693
371.421090	2437.052566
371.808081	2443.716971
372.195010	2449.254678
372.581875	2451.792899
372.968678	2461.119034
373.355418	2466.288737
373.742096	2480.353557
374.128710	2486.675163
374.515262	2501.579335
374.901751	2514.968639
375.288177	2533.567977
375.674540	2556.951369
376.060841	2575.979204
376.447079	2600.454006
376.833254	2626.587347
377.219367	2653.224804
377.605417	2691.928263
377.991404	2714.031202
378.377329	2755.111565
378.763191	2791.687656
379.148991	2840.491067
379.534727	2892.397307
379.920402	2938.138217
380.306013	2992.048316
380.691563	3052.758932
381.077049	3112.962912
381.462474	3168.375275
381.847835	3246.850917
382.233134	3319.693069
382.618371	3378.694734
383.003545	3467.368630
383.388657	3550.618244
383.773706	3644.794560
384.158693	3717.498081
384.543618	3815.762772
384.928480	3892.526942
385.313280	3998.318076
385.698017	4109.094912
386.082692	4232.535125
386.467305	4297.422337
386.851856	4426.697686
387.236344	4587.535700
387.620770	4649.141120
388.005133	4773.806334
388.389435	4921.829735
388.773674	5005.805275
389.157851	5145.029342
389.541965	5276.956338
389.926018	5303.397190
390.310008	5484.949304
390.693936	5609.480928
391.077802	5732.354012
391.461606	5867.073807
391.845348	5983.078319
392.229027	6106.115240
392.612645	6334.141752
392.996200	6454.612726
393.379694	6629.364324
393.763125	6859.127514
394.146494	6959.653162
394.529801	7095.613082
394.913047	7348.492482
395.296230	7341.392017
395.679351	7402.397540
396.062410	7674.040115
396.445408	7561.045172
396.828343	7721.348823
397.211217	7860.381326
397.594028	7743.013182
397.976778	7952.584030
398.359466	8122.077704
398.742092	8093.028055
399.124656	8245.603618
399.507158	8432.085981
399.889598	8458.869631
400.271977	8669.405860
400.654294	8699.428452
401.036549	8901.200634
401.418742	8932.581817
401.800874	9237.266635
402.182944	9319.702103
402.564952	9694.821922
402.946898	9508.657152
403.328783	9574.512265
403.710606	9768.286657
404.092367	10030.565289
404.474067	10405.546477
404.855705	10186.382313
405.237282	10144.815479
405.618797	10582.944681
406.000250	10833.784934
406.381642	11204.602129
406.762972	11147.049796
407.144240	10951.379930
407.525447	11201.814371
407.906593	11144.153653
408.287677	11410.969323
408.668700	11571.577964
409.049661	11537.532532
409.430560	11699.948427
409.811399	11674.266268
410.192176	11831.121770
410.572891	11915.155284
410.953545	12412.351685
411.334138	11875.894778
411.714669	12500.977690
412.095139	11785.244750
412.475547	12301.925210
412.855894	12136.497226
413.236180	12476.485244
413.616405	12150.786377
413.996568	12432.947319
414.376670	12411.469483
414.756711	12286.784105
415.136691	12575.974936
415.516609	12764.493925
415.896466	12820.773367
416.276262	13120.220426
416.655997	13569.079723
417.035670	13599.848406
417.415283	14259.531278
417.794834	14355.759343
418.174324	14098.161422
418.553753	13987.434999
418.933121	14503.954142
419.312428	14309.068176
419.691674	14218.163569
420.070859	14684.442573
420.449983	14325.918233
420.829045	14886.943203
421.208047	14628.747906
421.586988	15092.546663
421.965867	15360.042888
422.344686	15347.838255
422.723444	15923.638847
423.102141	14584.005145
423.480777	15801.920188
423.859352	15292.645182
424.237866	16428.102072
424.616319	16115.064062
424.994712	16796.754091
425.373044	16584.952532
425.751314	17266.698014
426.129524	16367.872886
426.507673	17488.634812
426.885762	17184.139037
427.263789	17391.960605
427.641756	17551.235860
428.019662	17616.508720
428.397508	17662.448755
428.775292	17965.530486
429.153016	17926.358200
429.530679	18017.224998
429.908282	18043.454122
430.285824	17750.681551
430.663305	18464.723184
431.040726	18059.427018
431.418086	17877.900109
431.795385	18546.652017
432.172624	18960.971848
432.549802	18506.809257
432.926920	18697.586683
433.303977	18587.858408
433.680974	18843.938941
434.057910	19145.266351
434.434786	19165.549433
434.811601	19078.549200
435.188355	20135.638832
435.565050	19766.003788
435.941683	19728.338807
436.318257	20619.937441
436.694770	20426.039541
437.071222	21022.496261
437.447614	20084.329968
437.823946	20119.577716
438.200218	20259.794890
438.576429	20046.680111
438.952580	20313.969650
439.328670	20271.192939
439.704700	20692.852690
440.080670	20264.692371
440.456580	20857.708503
440.832429	21046.797143
441.208218	20015.561068
441.583947	20471.901438
441.959616	20577.180895
442.335224	20817.263326
442.710773	20942.873757
443.086261	21492.591419
443.461689	20853.279850
443.837057	20975.023715
444.212365	21635.840847
444.587612	21619.487343
444.962800	21194.399607
445.337927	21626.199640
445.712995	20340.158444
446.088002	22214.106563
446.462949	22418.333788
446.837837	22595.240479
447.212664	22555.387637
447.587431	25430.690392
447.962139	28384.133552
448.336786	30794.578907
448.711374	29223.989783
449.085901	25488.860266
449.460369	25448.589009
449.834776	25359.970565
450.209124	27878.228558
450.583412	27394.237459
450.957640	27918.325895
451.331808	26567.523516
451.705917	25184.372053
452.079965	25226.289247
452.453954	25580.019451
452.827883	25471.138090
453.201752	25267.362048
453.575562	25431.489415
453.949311	26573.545175
454.323001	26629.146581
454.696632	26385.492492
455.070202	27965.969840
455.443713	28105.768598
455.817164	28711.513644
456.190556	29227.717716
456.563888	28676.265897
456.937160	29120.404153
457.310373	27423.017406
457.683526	27893.301607
458.056619	27871.173463
458.429653	27796.466083
458.802628	28390.664367
459.175542	28504.448250
459.548398	29816.645473
459.921194	31405.536507
460.293930	32077.471903
460.666607	34118.693068
461.039224	35876.147684
461.411782	36298.452703
461.784280	35087.532261
462.156719	34615.992813
462.529099	34069.874534
462.901419	32755.441560
463.273680	31691.231298
463.645882	31772.444286
464.018024	31739.127301
464.390106	32590.517691
464.762130	35306.598122
465.134094	39400.632587
465.505999	44719.972426
465.877845	49310.789916
466.249631	50493.595843
466.621358	48818.609463
466.993026	46714.232723
467.364634	44639.497966
467.736184	42642.170127
468.107674	41368.721733
468.479105	40573.903171
468.850477	39879.380885
469.221790	38431.745503
469.593043	36677.093769
469.964238	35779.110513
470.335373	35694.688831
470.706449	37430.330373
471.077467	40025.947392
471.448425	44632.173170
471.819324	47440.544525
472.190164	45577.991934
472.560945	42013.732327
472.931667	38881.817197
473.302330	37776.269474
473.672934	36957.671789
474.043479	37453.582696
474.413965	36645.115209
474.784393	36264.792919
475.154761	37164.333891
475.525070	37197.920578
475.895321	36718.038020
476.265513	37331.788419
476.635645	38322.176024
477.005719	38113.900753
477.375734	38596.979402
477.745691	39295.675764
478.115588	40645.192648
478.485427	42611.449336
478.855207	45992.480644
479.224928	48609.031054
479.594591	50258.748650
479.964194	49261.419376
480.333739	49414.746070
480.703226	49451.813675
481.072653	50093.998701
481.442022	50554.739998
481.811333	50825.084476
482.180584	49526.195900
482.549777	48994.228140
482.918912	48472.375456
483.287988	48177.367133
483.657005	47341.896706
484.025964	46705.292236
484.394864	46711.732310
484.763706	46274.351720
485.132489	45412.858857
485.501213	45242.684627
485.869879	45392.391773
486.238487	44961.176514
486.607036	45170.555798
486.975527	44615.169358
487.343959	44816.689483
487.712333	44904.062761
488.080648	44812.039018
488.448905	45282.308096
488.817104	45093.617707
489.185244	46048.114818
489.553326	47726.204028
489.921350	50442.995262
490.289315	53293.800529
490.657222	53881.326845
491.025070	54151.114276
491.392861	53260.821301
491.760593	52037.575237
492.128267	50367.728314
492.495883	48851.825626
492.863440	47443.675081
493.230939	46099.191789
493.598380	45001.321742
493.965763	44654.087065
494.333088	43839.431563
494.700354	43361.847771
495.067563	43062.304930
495.434713	42916.121551
495.801805	42981.384328
496.168839	42583.889347
496.535815	42255.679985
496.902733	42287.872794
497.269593	41869.318393
497.636395	41803.274236
498.003139	42203.136039
498.369825	41637.198464
498.736453	41956.747124
499.103023	41476.010090
499.469535	41341.580161
499.835989	41436.258072
500.202385	41101.147370
500.568723	41112.336211
500.935003	41298.868985
501.301226	41080.549215
501.667390	41701.276570
502.033497	41934.460183
502.399546	41371.461601
502.765537	40681.990551
503.131470	41060.810577
503.497345	41412.461305
503.863163	40068.656048
504.228923	40676.783039
504.594625	41079.561149
504.960269	40378.366896
505.325856	41038.780735
505.691385	40401.790617
506.056856	40526.642354
506.422270	40960.105967
506.787625	40542.577441
507.152924	40715.378113
507.518164	40804.218367
507.883347	39998.485707
508.248472	40268.588209
508.613540	40719.474050
508.978550	41018.268280
509.343503	40737.518860
509.708398	40922.914855
510.073236	41457.952677
510.438016	41436.497526
510.802738	40877.027752
511.167403	41488.512152
511.532010	41684.524816
511.896561	41972.866213
512.261053	42811.079028
512.625488	42329.416942
512.989866	42190.281096
513.354186	42015.484128
513.718449	41965.138124
514.082655	42633.219558
514.446803	42285.846250
514.810894	42774.697021
515.174927	42671.093747
515.538904	42567.427460
515.902822	43193.957183
516.266684	42605.203346
516.630488	43008.919111
516.994235	42839.929551
517.357925	43372.910583
517.721558	43514.655226
518.085133	43769.203248
518.448651	43854.003018
518.812112	43608.987818
519.175516	43658.383563
519.538863	43958.692660
519.902152	43892.890479
520.265385	44298.448785
520.628560	44285.697186
520.991678	44039.767017
521.354739	44232.334052
521.717743	44488.727137
522.080690	44341.442266
522.443580	44824.795658
522.806413	44821.871789
523.169189	44702.023397
523.531908	44833.443757
523.894569	44618.756139
524.257174	44723.793620
524.619722	44972.196476
524.982213	44875.592845
525.344647	44737.321557
525.707025	44720.032919
526.069345	45037.423966
526.431608	44885.223969
526.793815	45119.720802
527.155964	44585.426550
527.518057	44670.284293
527.880093	44377.156320
528.242072	44810.201518
528.603995	44449.275067
528.965860	44372.389909
529.327669	44374.928130
529.689421	44189.537177
530.051117	44075.017285
530.412755	44121.080828
530.774337	44091.746354
531.135862	43820.938090
531.497331	43911.487295
531.858743	43728.468205
532.220098	43961.152743
532.581396	43585.906895
532.942638	43165.807380
533.303824	43354.102038
533.664953	43203.101836
534.026025	42835.430322
534.387040	43199.653687
534.747999	43033.895507
535.108902	43074.217176
535.469748	42532.295658
535.830537	42538.549210
536.191270	42601.077162
536.551947	42176.722913
536.912567	42345.856145
537.273131	42357.322250
537.633638	41754.846392
537.994089	41964.853299
538.354483	41479.843888
538.714821	41877.447253
539.075103	42075.289857
539.435328	41741.149577
539.795497	41505.712569
540.155609	41389.032542
540.515665	41672.040399
540.875665	41051.933105
541.235609	41236.830025
541.595496	41086.054155
541.955328	41562.297000
542.315102	40866.595084
542.674821	40545.587010
543.034483	40452.655859
543.394090	40295.712137
543.753640	40125.762238
544.113134	40867.709179
544.472571	39867.960151
544.831953	40828.859527
545.191278	39999.171303
545.550548	39604.511972
545.909761	39865.996622
546.268918	39894.869830
546.628019	40021.120487
546.987064	39490.534004
547.346053	38716.588339
547.704986	39325.123664
548.063863	38782.589646
548.422684	38808.904469
548.781449	38527.088845
549.140158	38715.481806
549.498811	38436.678272
549.857408	37781.887840
550.215949	38320.540169
550.574434	38112.201884
550.932864	37754.005218
551.291237	38189.172741
551.649555	37678.110647
552.007817	37703.036632
552.366022	37267.924561
552.724173	37237.851558
553.082267	37394.253356
553.440305	37460.912533
553.798288	36726.038331
554.156215	36797.105998
554.514086	36779.373739
554.871902	36412.402945
555.229661	36248.630980
555.587365	35939.661181
555.945014	35822.000650
556.302606	35562.449283
556.660143	35572.584523
557.017625	35463.246937
557.375050	35121.267663
557.732421	35185.648239
558.089735	34973.269468
558.446994	34732.922376
558.804197	34902.070732
559.161345	34667.213457
559.518437	33918.806277
559.875474	33930.224491
560.232455	33861.528687
560.589381	33795.129129
560.946251	33379.463309
561.303065	33664.137267
561.659825	33322.011800
562.016528	32904.556370
562.373177	32475.395382
562.729770	32622.506333
563.086307	32078.896029
563.442789	32203.972097
563.799216	32036.993958
564.155587	31668.639367
564.511904	31497.265342
564.868164	31337.007061
565.224370	31295.346966
565.580520	30911.465621
565.936615	30839.548520
566.292654	30444.758118
566.648638	30393.411446
567.004567	30141.555400
567.360441	29959.879777
567.716260	29652.210596
568.072023	29617.159453
568.427732	29390.201666
568.783385	28887.041580
569.138982	28913.759695
569.494525	28681.957359
569.850013	28319.014447
570.205445	28079.859588
570.560823	27839.469646
570.916145	27551.549185
571.271412	27350.298762
571.626625	26986.947516
571.981782	26818.094068
572.336884	26416.455259
572.691931	26382.966874
573.046923	25953.609280
573.401860	25655.009135
573.756743	25452.924401
574.111570	25279.667505
574.466342	24996.430276
574.821059	24842.281874
575.175722	24375.047571
575.530330	24173.451828
575.884882	23819.935874
576.239380	23602.790693
576.593823	23366.174054
576.948211	23126.235296
577.302544	22679.825999
577.656823	22477.007777
578.011047	22391.315724
578.365216	22049.134803
578.719330	21747.290676
579.073389	21483.784523
579.427394	21301.337604
579.781344	21092.044019
580.135239	20731.861139
580.489080	20572.127138
580.842866	20153.880248
581.196597	20148.937396
581.550273	19933.140723
581.903895	19684.626962
582.257463	19660.053858
582.610975	19201.470175
582.964434	19127.977713
583.317837	18779.598695
583.671186	18529.895221
584.024481	18423.060568
584.377721	18044.721972
584.730906	17968.101475
585.084037	17794.980690
585.437113	17483.092063
585.790135	17311.786094
586.143103	16986.205693
586.496016	16853.323398
586.848874	16684.543047
587.201679	16510.083836
587.554428	16150.790719
587.907124	16042.221909
588.259765	15777.079902
588.612352	15699.962851
588.964884	15323.398741
589.317362	15251.673204
589.669786	15075.840279
590.022155	14837.635677
590.374470	14797.664368
590.726731	14493.312267
591.078937	14183.999669
591.431090	14053.716089
591.783188	13810.248523
592.135232	13552.822002
592.487222	13469.441318
592.839157	13345.166793
593.191038	13104.771810
593.542866	12879.248231
593.894639	12562.452041
594.246358	12484.112510
594.598022	12334.879233
594.949633	12096.813263
595.301190	11945.273658
595.652692	11768.384611
596.004141	11705.176103
596.355535	11337.713796
596.706876	11194.522342
597.058162	11031.882116
597.409395	11000.289205
597.760573	10899.687939
598.111698	10676.208547
598.462768	10547.039063
598.813785	10437.724162
599.164748	10201.883862
599.515657	10153.733281
599.866511	9934.450650
600.217312	9940.878121
600.568060	9623.860120
600.918753	9647.112442
601.269392	9530.659268
601.619978	9359.164255
601.970510	9275.735680
602.320988	9204.410915
602.671412	9147.513932
603.021783	8995.364347
603.372100	8833.482815
603.722363	8744.214062
604.072572	8655.530084
604.422728	8558.984426
604.772830	8425.308149
605.122878	8337.433276
605.472872	8231.349755
605.822813	8179.650202
606.172701	8059.438847
606.522534	7999.234867
606.872314	7943.782175
607.222041	7815.951117
607.571714	7776.554499
607.921333	7605.578725
608.270899	7558.753968
608.620411	7520.668051
608.969870	7405.616317
609.319276	7319.578944
609.668627	7243.119764
610.017926	7222.693008
610.367171	7164.752507
610.716362	7093.440344
611.065500	7008.454052
611.414585	6950.558921
611.763616	6907.615852
612.112594	6825.618964
612.461518	6771.098885
612.810389	6729.935343
613.159207	6643.151880
613.507971	6582.766419
613.856682	6563.617596
614.205340	6489.084136
614.553945	6483.869062
614.902496	6358.523293
615.250994	6337.105951
615.599439	6281.587723
615.947830	6244.212609
616.296169	6178.239028
616.644454	6131.767152
616.992686	6087.704946
617.340864	6076.584161
617.688990	5998.015258
618.037063	5992.517879
618.385082	5937.896978
618.733048	5905.348768
619.080961	5850.894224
619.428821	5796.895904
619.776628	5752.311940
620.124382	5681.133368
620.472083	5634.588395
620.819731	5589.129790
621.167326	5507.344630
621.514868	5448.468995
621.862357	5364.952199
622.209793	5313.890352
622.557176	5235.515533
622.904506	5164.397455
623.251783	5089.397688
623.599007	5025.357391
623.946179	4961.493533
624.293297	4916.937295
624.640363	4836.714893
624.987376	4793.492040
625.334336	4737.142022
625.681243	4678.604144
626.028097	4637.170900
626.374899	4591.356894
626.721647	4551.947674
627.068343	4513.042569
627.414987	4466.555569
627.761577	4421.051594
628.108115	4403.475611
628.454600	4340.085622
628.801032	4317.944874
629.147412	4287.844145
629.493739	4256.052108
629.840014	4213.033422
630.186236	4198.938355
630.532405	4155.138290
630.878521	4139.291423
631.224585	4109.112556
631.570597	4069.726021
631.916556	4051.451838
632.262462	4027.576933
632.608316	4006.542719
632.954117	3975.768995
633.299866	3950.101960
633.645562	3921.745470
633.991206	3878.920868
634.336797	3836.764219
634.682336	3809.378151
635.027823	3774.717698
635.373257	3742.066144
635.718639	3710.044735
636.063968	3680.745549
636.409245	3640.247439
636.754470	3619.273719
637.099642	3589.354471
637.444762	3564.771284
637.789829	3541.859240
638.134845	3513.840507
638.479808	3495.561283
638.824719	3473.060093
639.169577	3447.801391
639.514383	3432.009977
639.859137	3407.845206
640.203839	3398.501427
640.548489	3373.298178
640.893086	3357.511805
641.237632	3335.580265
641.582125	3325.843277
641.926566	3308.113539
642.270955	3301.345790
642.615292	3285.428346
642.959576	3274.874691
643.303809	3258.921959
643.647990	3252.844848
643.992118	3238.122159
644.336195	3225.153790
644.680219	3216.125084
645.024192	3210.226934
645.368112	3211.424208
645.711981	3203.161757
646.055797	3214.486709
646.399562	3206.670400
646.743274	3216.825804
647.086935	3215.159703
647.430544	3205.883980
647.774101	3197.248483
648.117606	3194.012062
648.461059	3187.382945
648.804460	3175.768127
649.147810	3150.864827
649.491108	3133.369502
649.834354	3116.859723
650.177548	3092.752926
650.520690	3077.551326
650.863781	3072.051428
651.206820	3061.747309
651.549807	3045.787016
651.892742	3031.944007
652.235626	3018.819363
652.578458	3010.776203
652.921238	2993.076711
653.263967	2994.669716
653.606644	2981.272850
653.949269	2975.016778
654.291843	2964.765591
654.634365	2964.679892
654.976836	2954.005248
655.319255	2947.227417
655.661622	2940.812549
656.003938	2931.093204
656.346203	2922.311514
656.688416	2921.157090
657.030577	2914.192736
657.372687	2904.266704
657.714746	2904.140675
658.056753	2898.237484
658.398708	2884.197871
658.740612	2883.693755
659.082465	2881.412633
659.424266	2875.106150
659.766016	2870.672455
660.107715	2869.036600
660.449362	2867.932588
660.790958	2863.640045
661.132503	2857.414220
661.473996	2858.684591
661.815438	2854.422295
662.156829	2852.403313
662.498168	2846.280832
662.839456	2841.254802
663.180693	2838.222547
663.521879	2835.643997
663.863013	2833.715756
664.204097	2831.832885
664.545129	2834.658452
664.886110	2829.536639
665.227040	2828.437668
665.567918	2826.605208
665.908746	2823.802327
666.249522	2822.153870
666.590248	2821.213694
666.930922	2817.367294
667.271545	2816.719506
667.612118	2813.503250
667.952639	2810.685245
668.293109	2807.872281
668.633528	2805.082002
668.973896	2800.055972
669.314213	2797.187555
669.654480	2788.594908
669.994695	2788.824281
670.334859	2782.550565
670.674973	2779.994700
671.015035	2781.844803
671.355047	2778.096706
671.695008	2775.545882
672.034918	2770.338370
672.374777	2772.932043
672.714585	2767.142278
673.054342	2767.525406
673.394049	2763.300919
673.733705	2766.058430
674.073310	2759.847729
674.412864	2757.498551
674.752368	2753.821029
675.091820	2752.109557
675.431223	2746.261819
675.770574	2741.939030
676.109875	2737.873339
676.449125	2733.033831
676.788324	2731.375292
677.127473	2727.135681
677.466571	2720.700648
677.805619	2720.355329
678.144616	2717.202088
678.483562	2716.766028
678.822458	2711.119936
679.161303	2708.801005
679.500098	2707.308823
679.838842	2707.162630
680.177535	2707.442414
680.516179	2705.052907
680.854771	2707.954091
681.193314	2711.308979
681.531805	2719.596636
681.870247	2727.884293
682.208638	2729.580641
682.546978	2730.057030
682.885268	2728.337997
683.223508	2726.044272
683.561697	2724.839436
683.899836	2718.618652
684.237925	2714.396686
684.575963	2712.604555
684.913951	2705.766230
685.251889	2704.856302
685.589776	2705.544419
685.927614	2705.604913
686.265401	2703.747248
686.603137	2704.016950
686.940824	2708.732949
687.278460	2709.358052
687.616046	2712.964998
687.953582	2716.660164
688.291068	2713.466593
688.628504	2714.807540
688.965889	2714.752087
689.303224	2711.644216
689.640510	2706.295551
689.977745	2700.324305
690.314930	2691.461956
690.652065	2687.996163
690.989150	2680.527693
691.326185	2675.668021
691.663170	2667.226609
692.000105	2661.124292
692.336990	2654.638848
692.673825	2652.980308
693.010610	2647.051911
693.347345	2639.013792
693.684030	2631.522637
694.020665	2630.746299
694.357251	2622.299846
694.693786	2626.340331
695.030272	2623.209774
695.366707	2618.342540
695.703093	2614.145780
696.039429	2614.057559
696.375716	2613.104781
696.711952	2613.613938
697.048139	2610.498505
697.384276	2608.706375
697.720363	2611.496653
698.056400	2608.862650
698.392388	2605.908534
698.728326	2605.268308
699.064214	2602.672113
699.400053	2604.749069
699.735842	2600.703543
700.071581	2596.058120
700.407270	2593.983685
700.742910	2591.705083
701.078501	2590.853128
701.414042	2591.165680
701.749533	2585.554876
702.084974	2582.517580
702.420366	2581.050605
702.755709	2579.457600
703.091002	2574.053483
703.426246	2578.013309
703.761440	2574.597928
704.096584	2573.919892
704.431679	2574.058524
704.766725	2573.229254
705.101721	2572.284038
705.436668	2569.639953
705.771565	2571.174984
706.106413	2572.780592
706.441212	2572.999882
706.775961	2575.964080
707.110661	2574.580284
707.445311	2573.443503
707.779913	2574.121539
708.114465	2572.747824
708.448967	2575.654049
708.783421	2582.618403
709.117825	2583.722416
709.452180	2586.694176
709.786485	2586.290884
710.120742	2598.268666
710.454949	2595.211206
710.789107	2595.243973
711.123216	2598.392174
711.457275	2602.941815
711.791286	2604.323091
712.125247	2605.729573
712.459159	2605.331322
712.793023	2610.705192
713.126837	2604.287803
713.460602	2606.314347
713.794318	2603.839141
714.127985	2598.256063
714.461602	2592.342789
714.795171	2592.534353
715.128691	2581.395924
715.462162	2581.879874
715.795584	2576.314441
716.128957	2576.082548
716.462281	2572.702454
716.795556	2570.055848
717.128782	2566.106104
717.461960	2562.042934
717.795088	2558.937583
718.128167	2562.806669
718.461198	2556.381718
718.794180	2553.825853
719.127113	2551.453990
719.459997	2553.205791
719.792833	2550.395348
720.125619	2546.362425
720.458357	2544.527445
720.791046	2543.030222
721.123686	2540.670962
721.456278	2544.101467
721.788821	2541.535520
722.121315	2539.055272
722.453761	2538.122659
722.786158	2537.154758
723.118506	2539.151054
723.450805	2538.190715
723.783056	2536.706095
724.115259	2536.852288
724.447412	2537.963863
724.779518	2538.878832
725.111574	2541.086858
725.443582	2540.461754
725.775542	2540.439069
726.107453	2542.838658
726.439315	2544.335881
726.771129	2550.334854
727.102895	2548.623382
727.434612	2551.080945
727.766281	2551.370811
728.097901	2553.001625
728.429473	2551.297715
728.760996	2554.491286
729.092471	2552.389124
729.423897	2556.845504
729.755276	2556.727037
730.086606	2556.162428
730.417887	2558.299877
730.749120	2562.244580
731.080305	2562.988150
731.411442	2565.982596
731.742530	2568.765313
732.073570	2568.951835
732.404562	2572.284038
732.735506	2570.320509
733.066401	2566.327915
733.397249	2564.417317
733.728048	2562.244580
734.058798	2555.844835
734.389501	2550.105482
734.720156	2546.397713
735.050762	2544.136756
735.381320	2538.520910
735.711831	2536.597710
736.042293	2533.326001
736.372707	2531.286854
736.703073	2533.147040
737.033391	2529.880373
737.363661	2535.395395
737.693883	2531.528830
738.024056	2538.314223
738.354182	2538.573842
738.684260	2540.181970
739.014290	2540.476878
739.344272	2545.888557
739.674207	2545.792775
740.004093	2549.772766
740.333931	2548.078938
740.663722	2546.611962
740.993464	2547.521890
741.323159	2546.072559
741.652806	2543.403268
741.982405	2541.913607
742.311956	2537.129552
742.641460	2540.751621
742.970915	2535.725590
743.300323	2532.597554
743.629683	2533.457071
743.958996	2532.048069
744.288260	2530.061854
744.617477	2523.687315
744.946647	2521.454084
745.275768	2523.793179
745.604842	2519.006604
745.933869	2515.936541
746.262847	2516.397807
746.591778	2517.769000
746.920662	2517.184227
747.249498	2518.938548
747.578286	2519.036851
747.907027	2522.742099
748.235720	2521.103724
748.564365	2523.894002
748.892963	2525.247552
749.221514	2523.815864
749.550017	2523.722603
749.878473	2522.971471
750.206881	2523.558766
750.535242	2522.149763
750.863555	2516.201202
751.191821	2516.501150
751.520039	2519.276305
751.848210	2518.005935
752.176334	2518.079031
752.504411	2519.147756
752.832440	2518.568023
753.160421	2518.820081
753.488356	2517.562313
753.816243	2517.711027
754.144082	2512.982425
754.471875	2517.940400
754.799620	2513.370594
755.127318	2517.075842
755.454969	2513.108454
755.782572	2515.190450
756.110129	2512.667353
756.437638	2514.537621
756.765100	2512.309431
757.092515	2515.250944
757.419882	2512.112826
757.747203	2514.628362
758.074477	2512.329595
758.401703	2513.867147
758.728882	2514.719102
759.056014	2517.310255
759.383099	2519.049453
759.710138	2520.453415
760.037129	2516.344874
760.364073	2521.408713
760.690970	2520.433250
761.017820	2519.064577
761.344623	2521.312932
761.671379	2526.147398
761.998088	2527.493386
762.324751	2544.401416
762.651366	2566.630384
762.977935	2604.275200
763.304456	2619.799434
763.630931	2631.273100
763.957359	2621.952006
764.283740	2607.025150
764.610074	2586.973960
764.936362	2570.040725
765.262602	2555.665874
765.588796	2541.583411
765.914943	2531.768285
766.241044	2520.672705
766.567097	2518.530215
766.893104	2512.175840
767.219064	2509.332629
767.544978	2502.428769
767.870845	2500.437513
768.196665	2499.290651
768.522438	2496.833088
768.848165	2496.180259
769.173846	2492.467449
769.499479	2491.852428
769.825066	2489.339413
770.150607	2489.583909
770.476101	2488.910915
770.801548	2487.607777
771.126949	2485.861017
771.452303	2487.275061
771.777611	2484.363794
772.102872	2484.202478
772.428087	2482.803557
772.753256	2485.092241
773.078378	2482.985039
773.403453	2479.907414
773.728482	2478.508494
774.053465	2479.332723
774.378401	2478.213587
774.703291	2476.093782
775.028135	2476.605459
775.352932	2476.930613
775.677683	2473.679069
776.002388	2472.764099
776.327046	2473.162351
776.651658	2474.440283
776.976224	2470.246043
777.300743	2471.097998
777.625216	2470.848461
777.949643	2473.600931
778.274024	2470.520786
778.598359	2467.123048
778.922647	2467.864098
779.246889	2470.276290
779.571086	2464.337811
779.895236	2472.310396
780.219339	2471.821404
780.543397	2470.248564
780.867409	2469.172277
781.191374	2472.007926
781.515294	2468.799232
781.839167	2471.032463
782.162995	2469.736887
782.486776	2472.315437
782.810511	2468.169088
783.134201	2470.422483
783.457844	2467.667493
783.781441	2469.323512
784.104993	2468.690847
784.428498	2470.329222
784.751958	2467.017184
785.075372	2472.033132
785.398739	2466.755044
785.722061	2468.194293
786.045337	2469.056331
786.368568	2467.980044
786.691752	2472.325519
787.014891	2474.485653
787.337983	2473.565643
787.661030	2481.334061
787.984031	2485.467807
788.306987	2489.921667
788.629897	2490.937459
788.952760	2490.738333
789.275579	2486.249186
789.598351	2483.708444
789.921078	2480.761890
790.243759	2478.337095
790.566395	2478.750470
790.888984	2474.042032
791.211529	2475.224183
791.534027	2471.168574
791.856480	2469.320991
792.178888	2469.328553
792.501249	2468.753862
792.823566	2465.620784
793.145836	2467.400312
793.468062	2466.384519
793.790241	2464.431072
794.112375	2468.895014
794.434464	2466.172791
794.756507	2467.927112
795.078505	2469.099181
795.400457	2471.770992
795.722364	2473.961373
796.044226	2474.417598
796.366042	2477.270891
796.687812	2479.708289
797.009538	2480.172075
797.331218	2478.329533
797.652852	2479.115953
797.974442	2475.725777
798.295986	2474.901549
798.617484	2471.687813
798.938938	2472.048256
799.260346	2471.155971
799.581709	2470.866105
799.903026	2470.427525
800.224299	2467.541464
800.545526	2467.271762
800.866708	2465.456947
801.187845	2468.247226
801.508936	2463.011987
801.829983	2468.262349
802.150984	2460.438478
802.471940	2462.520475
802.792851	2461.620629
803.113717	2461.474435
803.434538	2463.011987
803.755314	2462.220526
804.076045	2461.976030
804.396731	2462.502831
804.717372	2463.619446
805.037967	2462.528037
805.358518	2462.205403
805.679024	2464.945270
805.999485	2462.848150
806.319901	2464.801597
806.640272	2465.330918
806.960598	2460.836729
807.280879	2464.020218
807.601115	2464.615074
807.921306	2462.830506
808.241453	2464.489045
808.561554	2463.914354
808.881611	2462.117183
809.201623	2466.797894
809.521590	2465.545167
809.841513	2465.303192
810.161390	2464.652883
810.481223	2462.802779
810.801011	2462.270938
811.120755	2464.557101
811.440453	2462.835547
811.760107	2461.935701
812.079716	2461.824796
812.399281	2458.767336
812.718801	2458.111986
813.038276	2457.307922
813.357707	2462.674230
813.677093	2460.680454
813.996434	2461.862604
814.315731	2461.136678
814.634983	2459.679785
814.954191	2463.110290
815.273354	2462.013839
815.592473	2462.215485
815.911547	2463.150619
816.230577	2466.591207
816.549562	2468.075826
816.868502	2467.528861
817.187399	2469.920889
817.506250	2469.111783
817.825058	2474.316775
818.143821	2472.559933
818.462539	2475.834162
818.781213	2481.550831
819.099843	2487.214567
819.418429	2494.589775
819.736970	2508.551251
820.055466	2518.005935
820.373919	2534.475384
820.692327	2559.345917
821.010691	2603.365272
821.329011	2691.603108
821.647286	2835.903617
821.965517	2987.405413
822.283704	3078.380596
822.601847	3105.804473
822.919945	3044.549413
823.237999	2973.121304
823.556010	2894.859911
823.873976	2827.817606
824.191897	2763.300919
824.509775	2714.431974
824.827609	2675.075686
825.145398	2646.436891
825.463144	2632.508183
825.780845	2634.527165
826.098502	2652.629948
826.416116	2687.981039
826.733685	2721.673591
827.051210	2729.386557
827.368692	2711.349308
827.686129	2676.328412
828.003522	2636.228554
828.320872	2598.195569
828.638177	2575.147413
828.955439	2549.261088
829.272656	2529.015815
829.589830	2515.850841
829.906960	2509.095695
830.224046	2496.182780
830.541088	2488.305977
830.858086	2484.943527
831.175041	2483.380769
831.491952	2480.610655
831.808819	2483.559730
832.125642	2487.658188
832.442421	2494.952738
832.759157	2513.431088
833.075849	2545.860830
833.392497	2575.848134
833.709101	2596.058120
834.025662	2590.916143
834.342179	2576.863926
834.658653	2556.827860
834.975083	2536.590148
835.291469	2521.670853
835.607811	2506.638133
835.924110	2497.122955
836.240366	2491.701194
836.556578	2477.961529
836.872746	2473.464820
837.188871	2466.540795
837.504952	2465.048613
837.820990	2459.624332
838.136984	2460.287244
838.452935	2454.177365
838.768842	2457.297839
839.084706	2462.737244
839.400526	2474.289048
839.716303	2491.224805
840.032037	2504.049500
840.347727	2499.393995
840.663373	2491.925525
840.978977	2481.167703
841.294537	2473.041363
841.610054	2467.977524
841.925527	2462.686833
842.240957	2457.106276
842.556344	2453.791717
842.871687	2451.669391
843.186987	2446.376180
843.502244	2445.219235
843.817458	2443.820315
844.132629	2441.274532
844.447756	2443.752259
844.762840	2436.069541
845.077881	2436.709767
845.392879	2433.831268
845.707833	2436.704726
846.022745	2432.250867
846.337613	2436.871084
846.652438	2434.867225
846.967221	2435.089036
847.281960	2435.457040
847.596656	2435.966197
847.911309	2431.494693
848.225919	2434.869746
848.540485	2434.960487
848.855009	2435.250353
849.169490	2433.541402
849.483928	2431.766916
849.798323	2434.985693
850.112675	2432.601227
850.426984	2434.950404
850.741251	2431.444282
851.055474	2433.183480
851.369654	2432.003850
851.683792	2433.191042
851.997887	2430.620053
852.311938	2434.116093
852.625947	2435.194900
852.939914	2433.332194
853.253837	2437.302103
853.567718	2434.683223
853.881555	2430.975455
854.195350	2433.559046
854.509103	2434.922678
854.822812	2433.783377
855.136479	2431.739189
855.450103	2431.376226
855.763685	2436.208172
856.077224	2434.249684
856.390720	2433.483429
856.704173	2430.862029
857.017584	2433.861515
857.330953	2434.421083
857.644278	2433.453182
857.957561	2434.940322
858.270802	2433.957297
858.584000	2435.474684
858.897155	2432.535692
859.210268	2431.847574
859.523339	2433.301947
859.836367	2432.326484
860.149352	2432.986875
860.462295	2435.076433
860.775195	2431.351021
861.088054	2431.789601
861.400869	2432.515527
861.713642	2429.427820
862.026373	2435.028542
862.339062	2432.374375
862.651708	2432.941505
862.964312	2435.865374
863.276873	2434.519386
863.589392	2435.147009
863.901869	2435.376382
864.214303	2437.332350
864.526696	2438.703543
864.839045	2435.809921
865.151353	2436.853440
865.463619	2438.275045
865.775842	2437.453337
866.088023	2436.714808
866.400162	2439.777309
866.712258	2437.304623
867.024313	2438.017947
867.336325	2440.377207
867.648296	2437.738162
867.960224	2437.541557
868.272110	2437.271856
868.583954	2437.778492
868.895755	2435.363779
869.207515	2437.579366
869.519233	2438.718667
869.830909	2439.101795
870.142542	2439.552978
870.454134	2440.490633
870.765684	2439.721857
871.077191	2439.137083
871.388657	2441.428287
871.700081	2443.638833
872.011463	2443.931220
872.322803	2441.546754
872.634101	2446.315686
872.945357	2444.019440
873.256571	2444.984821
873.567744	2444.266457
873.878874	2446.429112
874.189963	2447.959102
874.501010	2446.139245
874.812015	2445.118412
875.122979	2446.996242
875.433900	2446.376180
875.744780	2450.237703
876.055618	2447.339040
876.366415	2449.302569
876.677169	2447.780141
876.987882	2447.356684
877.298554	2447.023968
877.609183	2448.715275
877.919771	2451.550924
878.230317	2452.586881
878.540822	2460.012501
878.851285	2463.995012
879.161707	2473.721919
879.472087	2482.748105
879.782425	2502.320384
880.092722	2536.375899
880.402977	2588.393045
880.713191	2649.141470
881.023363	2702.174408
881.333494	2737.953997
881.643583	2752.212901
881.953631	2747.388517
882.263637	2731.150960
882.573602	2707.898638
882.883526	2686.148580
883.193408	2659.064981
883.503248	2636.551188
883.813048	2616.678959
884.122806	2594.460074
884.432522	2572.084912
884.742197	2553.304094
885.051831	2538.057124
885.361424	2518.353774
885.670975	2508.092506
885.980485	2497.838799
886.289954	2491.388642
886.599382	2483.693321
886.908768	2478.011941
887.218113	2472.668317
887.527417	2469.285703
887.836680	2464.645321
888.145901	2459.468056
888.455082	2456.957562
888.764221	2455.319187
889.073319	2454.842798
889.382376	2455.140226
889.691392	2452.475976
890.000366	2450.693928
890.309300	2449.037909
890.618193	2449.952878
890.927044	2451.833229
891.235855	2451.729885
891.544625	2449.952878
891.853353	2450.789710
892.162041	2455.372119
892.470687	2457.862449
892.779293	2462.775053
893.087858	2465.366206
893.396381	2474.445324
893.704864	2486.014772
894.013306	2502.466578
894.321707	2524.332583
894.630068	2535.113090
894.938387	2539.408153
895.246665	2533.157123
895.554903	2526.202851
895.863100	2515.281191
896.171256	2508.016888
896.479371	2501.758296
896.787446	2494.982985
897.095480	2485.714824
897.403473	2479.972949
897.711425	2477.313741
898.019336	2471.471043
898.327207	2468.728656
898.635038	2466.545836
898.942827	2459.218519
899.250576	2460.118365
899.558284	2455.190637
899.865952	2454.348764
900.173579	2450.688887
900.481165	2452.455811
900.788711	2448.858948
901.096216	2446.098916
901.403681	2446.545058
901.711105	2448.397682
902.018489	2445.950202
902.325832	2450.209977
902.633135	2449.259720
902.940397	2453.973198
903.247619	2467.629684
903.554800	2496.785197
903.861941	2527.770650
904.169041	2549.162786
904.476101	2558.163766
904.783121	2553.437684
905.090100	2539.680376
905.397039	2526.727131
905.703938	2515.865965
906.010796	2503.810045
906.317614	2494.118427
906.624391	2483.348002
906.931129	2479.065542
907.237826	2470.813173
907.544483	2466.707153
907.851099	2458.870679
908.157675	2454.227777
908.464211	2447.265943
908.770707	2441.750921
909.077163	2441.682865
909.383578	2435.260435
909.689954	2433.180959
909.996289	2434.279931
910.302584	2435.797318
910.608839	2432.659200
910.915054	2432.006371
911.221229	2434.405960
911.527363	2433.065013
911.833458	2434.736155
912.139513	2433.843871
912.445527	2435.179777
912.751502	2438.141455
913.057436	2436.578697
913.363331	2440.813266
913.669186	2445.546910
913.975000	2448.064966
914.280775	2459.856225
914.586510	2467.428038
914.892205	2479.007568
915.197859	2499.346104
915.503475	2522.099352
915.809050	2541.999306
916.114585	2547.907539
916.420081	2554.902140
916.725536	2551.643034
917.030952	2549.707231
917.336328	2536.363296
917.641665	2530.175280
917.946961	2521.075997
918.252218	2516.521315
918.557435	2504.281393
918.862612	2498.342914
919.167750	2493.579024
919.472848	2485.331696
919.777906	2479.771303
920.082925	2471.690334
920.387904	2462.719600
920.692843	2461.028293
920.997743	2456.193827
921.302603	2450.068825
921.607423	2447.908690
921.912204	2449.060594
922.216946	2445.428443
922.521647	2442.900304
922.826310	2441.168668
923.130932	2439.807556
923.435516	2438.794284
923.740059	2436.581218
924.044564	2433.720363
924.349028	2437.717998
924.653454	2425.704928
924.957840	2428.056627
925.262186	2427.731472
925.566493	2430.458736
925.870761	2423.806934
926.174989	2426.690474
926.479178	2429.276586
926.783328	2428.853129
927.087438	2425.336924
927.391509	2425.888930
927.695541	2424.195103
927.999533	2423.441450
928.303486	2422.972623
928.607400	2423.927922
928.911275	2420.210071
929.215110	2424.762233
929.518906	2420.104206
929.822663	2423.958168
930.126381	2422.634866
930.430060	2422.934814
930.733699	2422.221491
931.037299	2422.125709
931.340861	2422.408014
931.644383	2422.624783
931.947866	2424.618560
932.251309	2422.662592
932.554714	2420.394073
932.858080	2424.051430
933.161407	2423.436409
933.464694	2421.992118
933.767943	2422.755853
934.071153	2422.486152
934.374323	2420.908270
934.677455	2421.316604
934.980548	2423.249886
935.283602	2419.370718
935.586617	2420.510019
935.889593	2421.251069
936.192530	2420.668816
936.495428	2422.085380
936.798287	2421.447674
937.101108	2422.554207
937.403890	2427.358427
937.706632	2427.325659
938.009336	2423.990936
938.312002	2429.805907
938.614628	2430.705753
938.917216	2432.409663
939.219765	2431.356062
939.522275	2429.924374
939.824747	2433.186001
940.127179	2427.759198
940.429573	2427.396235
940.731929	2430.176432
941.034246	2426.040165
941.336524	2430.070567
941.638763	2427.292892
941.940964	2427.834816
942.243126	2425.662078
942.545250	2430.887234
942.847335	2427.686102
943.149381	2429.072419
943.451389	2426.433375
943.753359	2423.428847
944.055290	2426.025042
944.357182	2422.244176
944.659036	2424.265679
944.960851	2425.674681
945.262628	2423.532191
945.564367	2424.361461
945.866067	2426.183838
946.167729	2425.536050
946.469352	2423.776687
946.770937	2424.767274
947.072484	2423.355751
947.373992	2418.911973
947.675462	2422.682757
947.976893	2424.444640
948.278286	2422.465987
948.579641	2425.576379
948.880958	2423.975812
949.182236	2421.845925
949.483476	2421.419947
949.784678	2423.411203
950.085841	2423.123857
950.386967	2425.941862
950.688054	2422.760894
950.989103	2423.943045
951.290114	2424.689136
951.591087	2426.113262
951.892021	2425.518406
952.192917	2424.366502
952.493776	2425.606626
952.794596	2425.906574
953.095378	2427.623087
953.396122	2424.971440
953.696828	2423.416244
953.997496	2427.179466
954.298126	2426.652665
954.598718	2426.342634
954.899272	2423.635535
955.199788	2425.435227
955.500266	2423.025555
955.800706	2420.378949
956.101108	2416.454411
956.401472	2418.755698
956.701798	2418.052457
957.002087	2419.698393
957.302337	2416.235121
957.602550	2417.523136
957.902724	2415.708320
958.202861	2417.848290
958.502960	2417.467683
958.803022	2417.717220
959.103045	2415.516756
959.403031	2415.635223
959.702979	2417.535738
960.002889	2415.277302
960.302762	2414.697569
960.602596	2414.652198
960.902393	2414.856365
961.202153	2412.698751
961.501875	2412.444173
961.801559	2413.298649
962.101205	2416.729154
962.400814	2415.080697
962.700385	2415.037847
962.999918	2413.956519
963.299414	2410.783113
963.598873	2412.769328
963.898293	2414.067425
964.197677	2413.220511
964.497022	2411.423339
964.796331	2412.232445
965.095601	2409.570715
965.394835	2412.749163
965.694030	2413.313772
965.993189	2413.293608
966.292309	2412.056004
966.591393	2409.437125
966.890439	2411.491395
967.189447	2412.232445
967.488419	2411.650191
967.787353	2413.767476
968.086249	2411.466189
968.385108	2413.225552
968.683930	2412.250089
968.982714	2411.778741
969.281462	2411.128432
969.580172	2412.403844
969.878844	2413.706982
970.177480	2414.067425
970.476078	2410.740263
970.774639	2413.162537
971.073162	2411.496436
971.371649	2410.825963
971.670098	2411.451066
971.968510	2410.901580
972.266885	2409.432084
972.565223	2412.053484
972.863524	2412.360994
973.161788	2411.526683
973.460014	2412.330747
973.758204	2412.212280
974.056356	2413.281005
974.354471	2415.269740
974.652550	2410.316806
974.950591	2413.591036
975.248595	2412.595408
975.546563	2414.299318
975.844493	2412.091292
976.142386	2414.347209
976.440243	2414.120357
976.738062	2411.748494
977.035845	2411.491395
977.333590	2412.202198
977.631299	2414.480799
977.928971	2409.777403
978.226606	2410.697413
978.524204	2413.875861
978.821765	2410.379821
979.119290	2412.855027
979.416777	2410.526014
979.714228	2413.762435
980.011642	2413.563309
980.309020	2414.342167
980.606360	2413.926272
980.903664	2412.918042
981.200931	2412.620613
981.498162	2416.756880
981.795356	2416.721592
982.092513	2421.850966
982.389633	2420.925914
982.686717	2425.125196
982.983764	2423.194434
983.280775	2427.875145
983.577749	2426.844229
983.874686	2427.923036
984.171587	2427.733993
984.468451	2424.527819
984.765279	2426.385484
985.062070	2422.934814
985.358824	2421.087231
985.655543	2418.125553
985.952224	2418.072621
986.248869	2414.445511
986.545478	2411.428381
986.842050	2412.691190
987.138586	2409.563154
987.435086	2408.809501
987.731549	2406.714902
988.027975	2410.924265
988.324366	2411.408216
988.620719	2409.026271
988.917037	2410.740263
989.213318	2409.726991
989.509563	2410.354615
989.805772	2409.880746
990.101944	2408.068452
990.398080	2406.707340
990.694180	2409.701785
990.990244	2409.366549
991.286271	2408.270098
991.582262	2410.105078
991.878217	2407.072824
992.174136	2407.692886
992.470019	2408.882598
992.765865	2408.509552
993.061676	2408.781775
993.357450	2409.674059
993.653188	2409.613565
993.948890	2407.642474
994.244556	2409.190108
994.540186	2411.017527
994.835780	2413.061714
995.131337	2412.547517
995.426859	2412.446694
995.722345	2417.855852
996.017795	2415.667991
996.313208	2417.185378
996.608586	2418.710327
996.903928	2417.366860
997.199234	2416.519946
997.494504	2416.595563
997.789738	2413.845614
998.084936	2415.993145
998.380099	2416.260327
998.675225	2415.274781
998.970316	2413.661612
999.265371	2413.790161
999.560390	2412.711354
999.855373	2412.081210
1000.150320	2408.315468
1000.445232	2411.889646
1000.740108	2408.537279
1001.034948	2408.217166
1001.329752	2409.202711
1001.624521	2407.564336
1001.919254	2404.012843
1002.213951	2405.376475
1002.508613	2404.126269
1002.803239	2407.937382
1003.097829	2402.041752
1003.392384	2406.495612
1003.686903	2406.057031
1003.981386	2407.481157
1004.275834	2404.950498
1004.570246	2406.477967
1004.864623	2403.917061
1005.158964	2407.440828
1005.453270	2403.977555
1005.747540	2404.317833
1006.041775	2407.455951
1006.335974	2405.021074
1006.630138	2405.457134
1006.924266	2406.404871
1007.218359	2403.430590
1007.512416	2404.799263
1007.806438	2404.363203
1008.100425	2405.104253
1008.394376	2406.893863
1008.688292	2404.287586
1008.982172	2405.865467
1009.276017	2406.341856
1009.569827	2405.691547
1009.863602	2403.652401
1010.157341	2405.613410
1010.451045	2402.563512
1010.744714	2404.330436
1011.038347	2400.514283
1011.331945	2404.534603
1011.625508	2406.051990
1011.919036	2403.823800
1012.212528	2405.399161
1012.505986	2405.900755
1012.799408	2407.019892
1013.092795	2404.569891
1013.386147	2405.535272
1013.679464	2404.038049
1013.972745	2404.204407
1014.265992	2404.781619
1014.559204	2404.489232
1014.852380	2404.169119
1015.145521	2402.417318
1015.438628	2404.282545
1015.731699	2404.884963
1016.024736	2405.353790
1016.317737	2405.169788
1016.610703	2407.027453
1016.903635	2402.878584
1017.196531	2400.660476
1017.489393	2403.065106
1017.782219	2400.723490
1018.075011	2406.266239
1018.367768	2403.090312
1018.660490	2404.678276
1018.953177	2404.678276
1019.245829	2404.678276
