Dividing Wavelength (nm)	Counts (n)	Blue Motor Position (mm): 0.000000	Red Motor Position (mm): 49.000000	
326.493990	1997.927736
326.888308	1997.927736
327.282561	1997.927736
327.676750	1976.081896
328.070874	1976.946454
328.464933	1984.793010
328.858929	1991.651500
329.252859	2006.255722
329.646726	2020.638134
330.040528	2036.432069
330.434265	2053.133412
330.827938	2073.232493
331.221547	2094.019690
331.615091	2113.415530
332.008571	2133.496966
332.401986	2157.490338
332.795338	2174.937771
333.188625	2196.057685
333.581847	2216.892774
333.975006	2230.408108
334.368100	2251.149935
334.761129	2265.928078
335.154095	2282.699997
335.546996	2325.002839
335.939833	2415.806623
336.332606	2427.953283
336.725315	2441.768565
337.117960	2450.809874
337.510540	2456.466049
337.903056	2469.071454
338.295508	2471.745786
338.687896	2481.558392
339.080220	2488.273209
339.472480	2492.835453
339.864676	2497.929539
340.256807	2499.877945
340.648875	2502.854747
341.040879	2503.464726
341.432818	2502.806856
341.824694	2503.154695
342.216506	2506.065962
342.608253	2504.871208
342.999937	2503.827689
343.391557	2503.976403
343.783113	2504.112515
344.174605	2499.726711
344.566033	2501.163440
344.957397	2497.803511
345.348697	2493.236225
345.739934	2492.742192
346.131106	2492.659013
346.522215	2488.686584
346.913260	2491.398725
347.304241	2487.660709
347.695159	2485.979484
348.086012	2488.880668
348.476802	2483.461428
348.867528	2482.375059
349.258191	2479.761221
349.648789	2480.257775
350.039324	2480.676190
350.429796	2479.090747
350.820203	2476.219810
351.210548	2474.377269
351.600828	2480.204843
351.991045	2476.413895
352.381198	2472.789305
352.771288	2476.398771
353.161314	2473.885756
353.551276	2475.309882
353.941175	2475.763586
354.331010	2478.828607
354.720782	2476.726446
355.110490	2479.821715
355.500135	2475.561940
355.889717	2479.710809
356.279235	2476.552527
356.668689	2479.131077
357.058080	2478.936992
357.447408	2475.831642
357.836672	2476.194605
358.225873	2476.413895
358.615010	2479.128556
359.004084	2480.414050
359.393095	2486.055102
359.782043	2482.150728
360.170927	2483.705924
360.559748	2484.479741
360.948505	2490.395535
361.337199	2489.402428
361.725830	2488.290853
362.114398	2489.740185
362.502903	2491.706235
362.891344	2494.103304
363.279722	2490.753457
363.668037	2493.354692
364.056289	2492.008704
364.444478	2494.025166
364.832603	2495.197234
365.220665	2496.177738
365.608665	2496.018942
365.996601	2499.514982
366.384474	2500.772750
366.772284	2499.038593
367.160031	2501.450785
367.547715	2504.309120
367.935336	2501.397853
368.322893	2507.563184
368.710388	2502.665703
369.097820	2510.401354
369.485189	2509.509070
369.872495	2510.988648
370.259738	2511.860768
370.646918	2513.196674
371.034035	2514.789678
371.421090	2521.832170
371.808081	2524.791328
372.195010	2527.639580
372.581875	2534.392205
372.968678	2541.139790
373.355418	2545.860830
373.742096	2560.165104
374.128710	2572.624316
374.515262	2583.246027
374.901751	2599.670106
375.288177	2617.609052
375.674540	2638.086219
376.060841	2657.260248
376.447079	2682.529032
376.833254	2708.120449
377.219367	2732.708677
377.605417	2768.878956
377.991404	2794.977009
378.377329	2837.297496
378.763191	2871.040459
379.148991	2921.719179
379.534727	2971.855974
379.920402	3020.966895
380.306013	3071.408680
380.691563	3138.355203
381.077049	3196.078936
381.462474	3255.002462
381.847835	3329.730006
382.233134	3400.981675
382.618371	3466.057930
383.003545	3558.096796
383.388657	3637.305926
383.773706	3733.193713
384.158693	3806.683654
384.543618	3908.986310
384.928480	3986.741067
385.313280	4097.230556
385.698017	4205.312894
386.082692	4329.932738
386.467305	4393.720978
386.851856	4526.557903
387.236344	4688.326009
387.620770	4752.222634
388.005133	4872.270151
388.389435	5028.482906
388.773674	5114.222851
389.157851	5256.431280
389.541965	5389.817690
389.926018	5408.230505
390.310008	5596.384010
390.693936	5727.617848
391.077802	5846.198389
391.461606	5987.995964
391.845348	6099.024857
392.229027	6223.934567
392.612645	6454.327901
392.996200	6575.592857
393.379694	6756.091370
393.763125	6982.527398
394.146494	7081.260917
394.529801	7226.776343
394.913047	7481.178172
395.296230	7476.270609
395.679351	7533.109618
396.062410	7810.229407
396.445408	7704.929785
396.828343	7864.220165
397.211217	7999.297882
397.594028	7881.375211
397.976778	8088.375070
398.359466	8264.389477
398.742092	8235.559119
399.124656	8383.844659
399.507158	8578.478568
399.889598	8604.372455
400.271977	8816.650402
400.654294	8855.263120
401.036549	9053.856855
401.418742	9084.711237
401.800874	9393.481910
402.182944	9478.682451
402.564952	9854.129946
402.946898	9677.596300
403.328783	9733.590916
403.710606	9936.688922
404.092367	10204.815292
404.474067	10574.939328
404.855705	10351.321306
405.237282	10311.929729
405.618797	10743.218085
406.000250	11001.859524
406.381642	11383.792463
406.762972	11332.052581
407.144240	11130.860131
407.525447	11386.189532
407.906593	11317.919706
408.287677	11587.835686
408.668700	11749.157650
409.049661	11724.841644
409.430560	11883.264945
409.811399	11857.739062
410.192176	12019.789473
410.572891	12102.532452
410.953545	12612.651851
411.334138	12067.977863
411.714669	12695.271321
412.095139	11970.890281
412.475547	12495.684479
412.855894	12333.460148
413.236180	12681.841688
413.616405	12347.565297
413.996568	12641.701500
414.376670	12611.865431
414.756711	12477.987508
415.136691	12772.763938
415.516609	12964.605048
415.896466	13037.772355
416.276262	13324.820696
416.655997	13765.319240
417.035670	13801.449189
417.415283	14480.114526
417.794834	14567.243308
418.174324	14309.153875
418.553753	14211.098392
418.933121	14719.894488
419.312428	14523.110527
419.691674	14433.317495
420.070859	14905.219906
420.449983	14550.703282
420.829045	15110.974600
421.208047	14843.261605
421.586988	15317.271219
421.965867	15587.731643
422.344686	15580.346353
422.723444	16163.007955
423.102141	14814.234641
423.480777	16036.109510
423.859352	15529.869279
424.237866	16669.664082
424.616319	16369.463370
424.994712	17047.516206
425.373044	16832.929411
425.751314	17530.700720
426.129524	16626.458872
426.507673	17762.530783
426.885762	17436.574816
427.263789	17650.223957
427.641756	17821.219896
428.019662	17891.428045
428.397508	17920.598682
428.775292	18238.740860
429.153016	18202.739460
429.530679	18289.354045
429.908282	18312.308939
430.285824	18022.079630
430.663305	18751.597606
431.040726	18340.683073
431.418086	18163.294952
431.795385	18815.463984
432.172624	19254.263658
432.549802	18800.567374
432.926920	18981.922884
433.303977	18874.536224
433.680974	19118.386918
434.057910	19427.984341
434.434786	19441.734088
434.811601	19355.744606
435.188355	20418.974364
435.565050	20059.540094
435.941683	20008.420274
436.318257	20920.128070
436.694770	20719.296063
437.071222	21330.208292
437.447614	20375.078517
437.823946	20411.531100
438.200218	20567.864843
438.576429	20342.205152
438.952580	20612.340422
439.328670	20578.617624
439.704700	21003.410452
440.080670	20559.806558
440.456580	21168.261224
440.832429	21348.888287
441.208218	20311.822118
441.583947	20777.516349
441.959616	20886.836290
442.335224	21129.683795
442.710773	21260.373188
443.086261	21810.249646
443.461689	21166.534629
443.837057	21283.743977
444.212365	21953.985545
444.587612	21947.573197
444.962800	21507.402329
445.337927	21941.639759
445.712995	20645.899383
446.088002	22546.114435
446.462949	22738.179876
446.837837	22934.184978
447.212664	22891.577146
447.587431	25826.809138
447.962139	28820.132866
448.336786	31213.150952
448.711374	29604.196126
449.085901	25849.547262
449.460369	25806.694934
449.834776	25745.097075
450.209124	28271.138609
450.583412	27780.972097
450.957640	28316.312388
451.331808	26932.606398
451.705917	25549.676746
452.079965	25586.951038
452.453954	25960.195548
452.827883	25824.376781
453.201752	25641.151003
453.575562	25816.893188
453.949311	26956.090614
454.323001	27018.863061
454.696632	26773.610927
455.070202	28375.530823
455.443713	28498.300563
455.817164	29113.127248
456.190556	29641.145263
456.563888	29071.547811
456.937160	29517.790749
457.310373	27817.459968
457.683526	28296.203226
458.056619	28279.325443
458.429653	28201.563124
458.802628	28802.128385
459.175542	28921.628937
459.548398	30222.488604
459.921194	31840.058762
460.293930	32513.264529
460.666607	34595.455152
461.039224	36360.494184
461.411782	36772.588346
461.784280	35560.735291
462.156719	35078.304429
462.529099	34528.122981
462.901419	33217.445666
463.273680	32145.630823
463.645882	32216.643037
464.018024	32207.778168
464.390106	33050.931313
464.762130	35801.929296
465.134094	39924.068193
465.505999	45258.665084
465.877845	49881.345188
466.249631	51033.213554
466.621358	49382.480165
466.993026	47284.949311
467.364634	45221.942799
467.736184	43206.053432
468.107674	41948.308232
468.479105	41138.189768
468.850477	40443.783429
469.221790	38980.381837
469.593043	37219.652993
469.964238	36302.185678
470.335373	36205.680349
470.706449	38006.007458
471.077467	40658.912148
471.448425	45247.912303
471.819324	48032.214669
472.190164	46156.371076
472.560945	42578.971702
472.931667	39437.301940
473.302330	38302.144999
473.672934	37488.404466
474.043479	38013.997686
474.413965	37180.621859
474.784393	36809.204767
475.154761	37719.188489
475.525070	37739.746314
475.895321	37267.324664
476.265513	37890.658296
476.635645	38867.175166
477.005719	38688.557003
477.375734	39162.740537
477.745691	39871.667920
478.115588	41221.880484
478.485427	43229.391453
478.855207	46631.857748
479.224928	49237.347867
479.594591	50885.517828
479.964194	49896.264483
480.333739	50067.056255
480.703226	50107.806422
481.072653	50757.636358
481.442022	51218.049980
481.811333	51477.157726
482.180584	50173.399395
482.549777	49672.638898
482.918912	49135.829110
483.287988	48849.554586
483.657005	48016.103142
484.025964	47366.449645
484.394864	47392.381341
484.763706	46959.709188
485.132489	46093.205418
485.501213	45915.416525
485.869879	46062.567806
486.238487	45640.935781
486.607036	45838.206213
486.975527	45292.072811
487.343959	45494.717113
487.712333	45582.768427
488.080648	45498.664337
488.448905	45961.409492
488.817104	45788.172761
489.185244	46752.855523
489.553326	48451.454667
489.921350	51145.800163
490.289315	53959.847858
490.657222	54532.197780
491.025070	54804.667104
491.392861	53931.929947
491.760593	52718.630081
492.128267	51092.472317
492.495883	49579.513663
492.863440	48193.627374
493.230939	46832.420054
493.598380	45726.388379
493.965763	45386.609569
494.333088	44561.528960
494.700354	44073.830093
495.067563	43772.858085
495.434713	43645.216070
495.801805	43709.886512
496.168839	43318.367819
496.535815	42978.586488
496.902733	43012.120243
497.269593	42584.358175
497.636395	42527.665359
498.003139	42936.495374
498.369825	42375.835887
498.736453	42697.456461
499.103023	42225.992630
499.469535	42080.930908
499.835989	42181.070908
500.202385	41832.911180
500.568723	41847.439785
500.935003	42047.082080
501.301226	41820.641011
501.667390	42465.354177
502.033497	42758.121707
502.399546	42164.692199
502.765537	41467.354429
503.131470	41857.207021
503.497345	42217.599109
503.863163	40864.356812
504.228923	41503.910356
504.594625	41912.029569
504.960269	41186.121059
505.325856	41900.268557
505.691385	41247.734041
506.056856	41391.817780
506.422270	41837.770852
506.787625	41411.188413
507.152924	41607.780811
507.518164	41708.160266
507.883347	40898.613973
508.248472	41184.419669
508.613540	41650.502069
508.978550	41966.894967
509.343503	41710.189330
509.708398	41919.492997
510.073236	42453.981333
510.438016	42452.375726
510.802738	41904.709813
511.167403	42536.605845
511.532010	42774.175261
511.896561	43077.118360
512.261053	43949.230414
512.625488	43471.276097
512.989866	43337.642671
513.354186	43196.177811
513.718449	43185.571224
514.082655	43871.314340
514.446803	43529.216599
514.810894	44064.645111
515.174927	43986.456815
515.538904	43882.062080
515.902822	44575.238378
516.266684	44006.500442
516.630488	44453.335716
516.994235	44305.773582
517.357925	44888.336882
517.721558	45054.652109
518.085133	45364.637700
518.448651	45503.312281
518.812112	45268.606240
519.175516	45376.983486
519.538863	45712.676441
519.902152	45682.071596
520.265385	46133.476676
520.628560	46190.338371
520.991678	45977.306771
521.354739	46218.029429
521.717743	46529.096348
522.080690	46428.028775
522.443580	46991.927203
522.806413	47021.914506
523.169189	46961.758418
523.531908	47151.973755
523.894569	47012.026283
524.257174	47187.453396
524.619722	47507.748147
524.982213	47491.137545
525.344647	47397.606497
525.707025	47432.924821
526.069345	47840.847428
526.431608	47756.221578
526.793815	48085.754244
527.155964	47621.804252
527.518057	47763.546375
527.880093	47559.198163
528.242072	48088.461343
528.603995	47783.204354
528.965860	47795.557702
529.327669	47886.739572
529.689421	47775.642624
530.051117	47739.779855
530.412755	47898.533352
530.774337	47961.905697
531.135862	47765.640974
531.497331	47940.233776
531.858743	47848.905713
532.220098	48223.342456
532.581396	47928.684493
532.942638	47581.671627
533.303824	47874.580309
533.664953	47845.417234
534.026025	47537.269143
534.387040	48035.866985
534.747999	47983.864963
535.108902	48149.744130
535.469748	47669.054987
535.830537	47770.712375
536.191270	47970.957088
536.551947	47624.685272
536.912567	47937.335113
537.273131	48059.941015
537.633638	47519.640228
537.994089	47890.853154
538.354483	47474.781521
538.714821	48051.756702
539.075103	48403.611597
539.435328	48149.038368
539.795497	48044.966268
540.155609	48022.656642
540.515665	48485.530347
540.875665	47945.181669
541.235609	48272.954971
541.595496	48239.615300
541.955328	48921.932953
542.315102	48280.970406
542.674821	48068.866378
543.034483	48125.838978
543.394090	48081.479345
543.753640	48048.943738
544.113134	49052.834074
544.472571	48050.698060
544.831953	49324.476649
545.191278	48518.118886
545.550548	48225.863033
545.909761	48693.863591
546.268918	48901.952339
546.628019	49209.175378
546.987064	48764.762379
547.346053	48019.820992
547.704986	48915.560934
548.063863	48455.207806
548.422684	48664.360238
548.781449	48512.676960
549.140158	48911.452394
549.498811	48754.231408
549.857408	48196.558805
550.215949	49020.331235
550.574434	48948.983784
550.932864	48709.564265
551.291237	49449.734199
551.649555	49032.319098
552.007817	49265.379202
552.366022	48912.415254
552.724173	49078.400286
553.082267	49498.217496
553.440305	49814.534776
553.798288	49094.189180
554.156215	49399.138658
554.514086	49628.707763
554.871902	49380.441018
555.229661	49395.831661
555.587365	49203.609944
555.945014	49305.879832
556.302606	49207.234534
556.660143	49449.807295
557.017625	49540.664011
557.375050	49325.933542
557.732421	49679.686431
558.089735	49675.887922
558.446994	49583.047512
558.804197	50051.708462
559.161345	49989.727475
559.518437	49250.031410
559.875474	49537.354494
560.232455	49696.302074
560.589381	49888.246528
560.946251	49573.514690
561.303065	50271.696854
561.659825	50078.706361
562.016528	49744.094733
562.373177	49458.674685
562.729770	49940.170412
563.086307	49446.606163
563.442789	49909.048849
563.799216	49968.862139
564.155587	49736.666593
564.511904	49780.121339
564.868164	49871.784640
565.224370	50100.519434
565.580520	49839.082675
565.936615	50052.719213
566.292654	49782.583943
566.648638	50028.839267
567.004567	49970.132510
567.360441	50016.183451
567.716260	49876.011647
568.072023	50145.980559
568.427732	50129.763167
568.783385	49689.362926
569.138982	50085.237176
569.494525	50046.155631
569.850013	49840.111070
570.205445	49782.926742
570.560823	49746.353170
570.916145	49634.691613
571.271412	49656.144243
571.626625	49418.640362
571.981782	49472.958794
572.336884	49158.872225
572.691931	49488.583851
573.046923	49084.800031
573.401860	48931.652297
573.756743	48917.796686
574.111570	49047.553465
574.466342	48878.405110
574.821059	49000.229634
575.175722	48517.241725
575.530330	48540.539417
575.884882	48247.373636
576.239380	48208.894509
576.593823	48186.907516
576.948211	48122.262280
577.302544	47635.516191
577.656823	47662.146086
578.011047	47866.630409
578.365216	47600.565871
578.719330	47414.191893
579.073389	47245.540091
579.427394	47329.813060
579.781344	47282.587531
580.135239	46940.066333
580.489080	47022.958025
580.842866	46502.859662
581.196597	46970.124212
581.550273	46904.354799
581.903895	46768.586443
582.257463	47187.818879
582.610975	46568.929025
582.964434	46825.223807
583.317837	46471.526371
583.671186	46296.036243
584.024481	46551.214410
584.377721	46063.674339
584.730906	46369.506020
585.084037	46410.488080
585.437113	46114.804242
585.790135	46147.125600
586.143103	45742.421769
586.496016	45870.804834
586.848874	45914.783860
587.201679	45924.339368
587.554428	45408.767961
587.907124	45573.275934
588.259765	45338.499317
588.612352	45581.596359
588.964884	44968.657586
589.317362	45284.397654
589.669786	45214.418877
590.022155	44981.028577
590.374470	45410.539926
590.726731	44919.816367
591.078937	44450.419409
591.431090	44546.357608
591.783188	44193.338207
592.135232	43850.146535
592.487222	44107.832676
592.839157	44210.573912
593.191038	43860.566600
593.542866	43629.719563
593.894639	43016.929504
594.246358	43276.685038
594.598022	43287.465546
594.949633	42879.663926
595.301190	42821.743589
595.652692	42648.579954
596.004141	42984.167045
596.355535	41971.873106
596.706876	41930.661673
597.058162	41777.080401
597.409395	42247.425096
597.760573	42323.823782
598.111698	41905.294587
598.462768	41923.412494
598.813785	41955.680920
599.164748	41376.396890
599.515657	41788.531382
599.866511	41232.779458
600.217312	41860.647608
600.568060	40802.080918
600.918753	41567.040726
601.269392	41520.218489
601.619978	41177.525892
601.970510	41391.346432
602.320988	41579.225195
602.671412	41883.726010
603.021783	41627.647998
603.372100	41277.008022
603.722363	41399.014027
604.072572	41469.149080
604.422728	41490.876453
604.772830	41284.088322
605.122878	41378.428475
605.472872	41327.684221
605.822813	41616.970834
606.172701	41436.336209
606.522534	41671.143073
606.872314	41933.663680
607.222041	41681.605988
607.571714	42069.195102
607.921333	41496.341064
608.270899	41797.247537
608.620411	42163.144565
608.969870	41957.896507
609.319276	41941.326234
609.668627	41999.450738
610.017926	42499.145031
610.367171	42670.539220
610.716362	42745.912032
611.065500	42676.775128
611.414585	42868.495250
611.763616	43152.438240
612.112594	43096.282307
612.461518	43318.718179
612.810389	43616.017707
613.159207	43478.721882
613.507971	43551.047316
613.856682	44036.868353
614.205340	43917.750929
614.553945	44631.101924
614.902496	44066.477570
615.250994	44517.086148
615.599439	44598.616729
615.947830	44806.171115
616.296169	44856.249937
616.644454	44984.925389
616.992686	45169.492114
617.340864	45669.503999
617.688990	45393.049643
618.037063	45997.715882
618.385082	45955.206353
618.733048	46261.075842
619.080961	46281.507638
619.428821	46282.967052
619.776628	46424.341171
620.124382	46232.000987
620.472083	46370.534415
620.819731	46531.763118
621.167326	46185.249326
621.514868	46172.633838
621.862357	45746.374034
622.209793	45773.533250
622.557176	45454.897039
622.904506	45196.779880
623.251783	44858.389907
623.599007	44617.997445
623.946179	44403.849230
624.293297	44358.887178
624.640363	43747.324641
624.987376	43738.346346
625.334336	43473.219462
625.681243	43099.286834
626.028097	43052.900657
626.374899	42914.314297
626.721647	42870.461300
627.068343	42750.421344
627.414987	42508.786238
627.761577	42260.020419
628.108115	42602.723098
628.454600	42043.076883
628.801032	42216.890827
629.147412	42174.595546
629.493739	42168.725123
629.840014	41801.454380
630.186236	42131.909576
630.532405	41742.298960
630.878521	41942.805813
631.224585	41817.306288
631.570597	41535.238607
631.916556	41692.862885
632.262462	41637.662250
632.608316	41640.076963
632.954117	41547.483569
633.299866	41534.537886
633.645562	41455.540485
633.991206	40967.750877
634.336797	40537.372450
634.682336	40540.051823
635.027823	40286.842227
635.373257	40102.830029
635.718639	39848.196307
636.063968	39720.645033
636.409245	39132.982606
636.754470	39186.464207
637.099642	38922.222046
637.444762	38427.263917
637.789829	38564.955473
638.134845	38209.652429
638.479808	38151.172524
638.824719	38055.514109
639.169577	37640.198649
639.514383	37697.130920
639.859137	37377.294914
640.203839	37626.953018
640.548489	37260.814014
640.893086	37328.879673
641.237632	37039.933337
641.582125	37164.137286
641.926566	37100.971628
642.270955	37044.908956
642.615292	37071.939623
642.959576	37031.771709
643.303809	37035.368572
643.647990	37190.376492
643.992118	37140.453945
644.336195	37122.028528
644.680219	37203.826290
645.024192	37484.419434
645.368112	38024.566465
645.711981	38021.645117
646.055797	38910.617309
646.399562	38817.673556
646.743274	39793.855190
647.086935	40249.696485
647.430544	40134.347323
647.774101	40263.758784
648.117606	40513.464778
648.461059	40837.495023
648.804460	40483.190128
649.147810	39837.377991
649.491108	39613.470102
649.834354	39222.349660
650.177548	38377.265753
650.520690	37914.744929
650.863781	37929.906199
651.206820	37777.408775
651.549807	37319.213260
651.892742	36825.686819
652.235626	36603.535772
652.578458	36471.696996
652.921238	35829.895097
653.263967	36166.515625
653.606644	35830.797464
653.949269	35777.197396
654.291843	35359.260536
654.634365	35770.764883
654.976836	35353.238878
655.319255	35337.170200
655.661622	35346.387950
656.003938	35113.857167
656.346203	34966.340402
656.688416	35180.884348
657.030577	34983.850850
657.372687	34820.325902
657.714746	35101.501299
658.056753	35224.329012
658.398708	34657.703320
658.740612	34705.012028
659.082465	35000.746277
659.424266	34796.266995
659.766016	34911.704377
660.107715	34797.620545
660.449362	34934.729847
660.790958	34898.347840
661.132503	34922.656284
661.473996	34939.226556
661.815438	35066.866051
662.156829	35271.625117
662.498168	35030.022778
662.839456	35041.221702
663.180693	35189.565215
663.521879	35356.719794
663.863013	35300.057225
664.204097	35295.237882
664.545129	35777.164628
664.886110	35720.151699
665.227040	35782.029342
665.567918	35909.610863
665.908746	35960.042566
666.249522	36128.843082
666.590248	36136.031767
666.930922	36253.536023
667.271545	36228.302527
667.612118	36305.762376
667.952639	36087.445127
668.293109	36146.542573
668.633528	36039.818826
668.973896	35967.911807
669.314213	36007.447056
669.654480	35748.898878
669.994695	35774.286129
670.334859	35637.479296
670.674973	35568.324748
671.015035	35718.702367
671.355047	35665.031722
671.695008	35593.964056
672.034918	35487.457078
672.374777	35554.088529
672.714585	35380.130913
673.054342	35596.519921
673.394049	35359.442017
673.733705	35659.758676
674.073310	35316.294782
674.412864	35402.357360
674.752368	34982.126776
675.091820	35300.785672
675.431223	34875.559304
675.770574	34573.843726
676.109875	34440.505206
676.449125	34148.955115
676.788324	34079.137655
677.127473	33514.543547
677.466571	33446.125007
677.805619	33082.877105
678.144616	33082.945161
678.483562	32977.075889
678.822458	32639.794970
679.161303	32556.134502
679.500098	32460.123206
679.838842	32335.329442
680.177535	32486.674963
680.516179	32739.423294
680.854771	32996.118848
681.193314	33862.327710
681.531805	34991.357128
681.870247	35761.607627
682.208638	36503.877202
682.546978	36733.146358
682.885268	36852.667075
683.223508	36318.004818
683.561697	35996.739646
683.899836	35816.089898
684.237925	35290.973066
684.575963	35135.145959
684.913951	34643.048686
685.251889	34789.857168
685.589776	34764.784989
685.927614	34740.582410
686.265401	34869.746853
686.603137	34944.008091
686.940824	35437.917659
687.278460	35822.338408
687.616046	35940.722344
687.953582	36560.655718
688.291068	36423.012053
688.628504	36748.915088
688.965889	36682.984357
689.303224	36311.191699
689.640510	36007.036202
689.977745	35265.018685
690.314930	34488.960777
690.652065	33963.155828
690.989150	33211.630695
691.326185	32284.093675
691.663170	31567.667576
692.000105	30805.155248
692.336990	30090.390209
692.673825	29621.068868
693.010610	29071.641072
693.347345	28466.753022
693.684030	27761.747657
694.020665	27473.557494
694.357251	26777.553109
694.693786	26702.452520
695.030272	26452.282739
695.366707	25875.100871
695.703093	25579.036426
696.039429	25567.668624
696.375716	25274.379335
696.711952	25227.907458
697.048139	25053.387753
697.384276	24855.489697
697.720363	24991.373999
698.056400	24767.219093
698.392388	24564.479009
698.728326	24520.608368
699.064214	24312.847294
699.400053	24260.638584
699.735842	23909.834770
700.071581	23599.740794
700.407270	23298.103354
700.742910	23108.843315
701.078501	22826.573988
701.414042	22525.596939
701.749533	22216.304506
702.084974	21849.048887
702.420366	22062.592164
702.755709	21606.516455
703.091002	21292.301335
703.426246	21324.340389
703.761440	21207.748583
704.096584	20925.106210
704.431679	20877.361442
704.766725	20765.173083
705.101721	20698.929801
705.436668	20795.120058
705.771565	20436.308371
706.106413	20791.681991
706.441212	20772.147520
706.775961	20902.655431
707.110661	20963.963424
707.445311	21330.362047
707.779913	21136.648149
708.114465	21379.682176
708.448967	21660.683653
708.783421	22378.075133
709.117825	22641.850987
709.452180	22859.313762
709.786485	23246.519747
710.120742	24072.714451
710.454949	24078.554628
710.789107	24546.063674
711.123216	25267.757779
711.457275	25377.533945
711.791286	25964.412473
712.125247	26038.671190
712.459159	25761.203562
712.793023	26473.337118
713.126837	25352.703742
713.460602	25651.024103
713.794318	25279.354953
714.127985	24904.615741
714.461602	23994.137986
714.795171	23981.744309
715.128691	22921.438421
715.462162	22366.082228
715.795584	21927.138880
716.128957	21658.417654
716.462281	21240.921895
716.795556	20985.441260
717.128782	20459.558173
717.461960	19894.598582
717.795088	19810.209666
718.128167	19393.843126
718.461198	18913.645496
718.794180	18749.119878
719.127113	18377.627169
719.459997	18163.615065
719.792833	17798.985887
720.125619	17763.402902
720.458357	17404.616421
720.791046	17232.438332
721.123686	17055.120787
721.456278	16801.878423
721.788821	16757.128101
722.121315	16480.154506
722.453761	16549.929116
722.786158	16468.552290
723.118506	16477.734752
723.450805	16329.492061
723.783056	16487.411247
724.115259	16381.289917
724.447412	16300.104655
724.779518	16549.359466
725.111574	16571.540543
725.443582	16769.660409
725.775542	16740.008342
726.107453	17221.234368
726.439315	17096.110409
726.771129	17511.922422
727.102895	17894.777892
727.434612	18101.966795
727.766281	18227.806597
728.097901	18514.189506
728.429473	18547.090597
728.760996	18537.318320
729.092471	18639.741963
729.423897	18519.770064
729.755276	18389.330208
730.086606	18516.042130
730.417887	19030.340646
730.749120	19543.900632
731.080305	19721.276151
731.411442	20077.688248
731.742530	20169.391878
732.073570	20271.999523
732.404562	20603.546129
732.735506	20424.872514
733.066401	20141.882301
733.397249	19609.115519
733.728048	18968.047108
734.058798	18104.499974
734.389501	17393.861120
734.720156	16906.129485
735.050762	16347.720873
735.381320	15963.847090
735.711831	15707.479212
736.042293	15321.205839
736.372707	15328.230687
736.703073	15090.953658
737.033391	15282.373831
737.363661	15220.387803
737.693883	15315.753831
738.024056	15478.736856
738.354182	15651.638350
738.684260	15937.408759
739.014290	16145.958773
739.344272	16340.025552
739.674207	16638.408928
740.004093	16756.951660
740.333931	16753.851351
740.663722	16818.027760
740.993464	16830.479410
741.323159	16656.345353
741.652806	16398.404634
741.982405	16184.715164
742.311956	15846.511714
742.641460	15725.506378
742.970915	15417.098668
743.300323	15068.235698
743.629683	14865.775398
743.958996	14571.412342
744.288260	14286.120843
744.617477	13975.754645
744.946647	13896.868149
745.275768	13614.714768
745.604842	13430.758023
745.933869	13246.962595
746.262847	13192.003936
746.591778	13115.834622
746.920662	13005.856810
747.249498	12996.069410
747.578286	13116.616001
747.907027	13250.645158
748.235720	13468.075165
748.564365	13490.087363
748.892963	13398.401378
749.221514	13453.637300
749.550017	13298.752889
749.878473	13268.165688
750.206881	13036.217159
750.535242	12939.243003
750.863555	12849.374353
751.191821	12736.628948
751.520039	12768.108433
751.848210	12663.640602
752.176334	12691.046834
752.504411	12587.655290
752.832440	12425.952718
753.160421	12478.312663
753.488356	12351.376409
753.816243	12255.763364
754.144082	12104.700148
754.471875	12043.508102
754.799620	11980.196251
755.127318	11949.873711
755.454969	11914.194944
755.782572	11857.502128
756.110129	11876.136753
756.437638	11790.114504
756.765100	11780.679985
757.092515	11775.538008
757.419882	11785.060748
757.747203	11782.109152
758.074477	11862.311389
758.401703	11807.594705
758.728882	11973.408338
759.056014	12016.520285
759.383099	12137.223152
759.710138	12232.369890
760.037129	12321.661328
760.364073	12338.292094
760.690970	12323.256853
761.017820	12318.286275
761.344623	12526.987524
761.671379	12881.075649
761.998088	13533.121173
762.324751	15149.824252
762.651366	18115.519937
762.977935	21825.113488
763.304456	24113.230205
763.630931	24627.420335
763.957359	23488.308609
764.283740	21562.938200
764.610074	19654.705194
764.936362	17442.278882
765.262602	15874.855602
765.588796	14337.651518
765.914943	13279.939303
766.241044	12363.581042
766.567097	11698.650329
766.893104	11121.423091
767.219064	10741.690615
767.544978	10327.582512
767.870845	10001.024128
768.196665	9808.867946
768.522438	9595.352395
768.848165	9424.779914
769.173846	9244.631761
769.499479	9112.762738
769.825066	8956.837329
770.150607	8763.728369
770.476101	8699.214202
770.801548	8588.961647
771.126949	8436.333153
771.452303	8346.731684
771.777611	8175.087958
772.102872	8151.578537
772.428087	8028.473560
772.753256	7900.266935
773.078378	7808.434756
773.403453	7658.944380
773.728482	7545.057153
774.053465	7475.915207
774.378401	7383.813327
774.703291	7281.855990
775.028135	7178.913108
775.352932	7141.618652
775.677683	7053.000208
776.002388	6962.836651
776.327046	6960.432021
776.651658	6867.916765
776.976224	6790.522451
777.300743	6773.795903
777.625216	6702.761004
777.949643	6652.268807
778.274024	6659.911196
778.598359	6583.454536
778.922647	6584.926553
779.246889	6540.014913
779.571086	6547.233846
779.895236	6561.149951
780.219339	6545.623197
780.543397	6543.586571
780.867409	6596.485919
781.191374	6593.809066
781.515294	6559.796401
781.839167	6613.754391
782.162995	6588.029383
782.486776	6536.120622
782.810511	6496.628223
783.134201	6414.412045
783.457844	6408.730664
783.781441	6363.083016
784.104993	6317.107693
784.428498	6289.391429
784.751958	6268.576505
785.075372	6247.718731
785.398739	6203.699376
785.722061	6231.443366
786.045337	6226.992027
786.368568	6338.305745
786.691752	6356.158992
787.014891	6615.417972
787.337983	6895.680920
787.661030	7340.673652
787.984031	7770.250536
788.306987	8045.235396
788.629897	8135.532544
788.952760	8059.552273
789.275579	7891.747385
789.598351	7587.367557
789.921078	7310.278015
790.243759	7027.549943
790.566395	6819.325083
790.888984	6613.958558
791.211529	6468.848945
791.534027	6301.109592
791.856480	6156.630122
792.178888	6088.849288
792.501249	6016.407908
792.823566	5908.413789
793.145836	5899.861472
793.468062	5879.122165
793.790241	5834.916287
794.112375	5880.485797
794.434464	5978.269058
794.756507	6003.250496
795.078505	6119.628053
795.400457	6343.162897
795.722364	6582.169042
796.044226	6781.002232
796.366042	6943.271933
796.687812	6890.339818
797.009538	6932.425891
797.331218	6841.740574
797.652852	6774.047960
797.974442	6654.892727
798.295986	6582.153918
798.617484	6452.969310
798.938938	6341.867320
799.260346	6267.553151
799.581709	6124.127283
799.903026	6069.266926
800.224299	5994.380586
800.545526	5872.460280
800.866708	5802.400844
801.187845	5753.915027
801.508936	5672.097100
801.829983	5645.694057
802.150984	5526.823649
802.471940	5497.060677
802.792851	5478.214323
803.113717	5451.881856
803.434538	5429.806643
803.755314	5395.042846
804.076045	5380.400815
804.396731	5340.555535
804.717372	5351.973748
805.037967	5352.472822
805.358518	5377.224888
805.679024	5434.532725
805.999485	5439.243683
806.319901	5453.477381
806.640272	5477.054857
806.960598	5521.399367
807.280879	5516.164129
807.601115	5551.134613
807.921306	5516.940467
808.241453	5513.114231
808.561554	5528.323392
808.881611	5493.489019
809.201623	5495.424822
809.521590	5448.083346
809.841513	5433.655564
810.161390	5456.817145
810.481223	5363.727198
810.801011	5352.427452
811.120755	5331.637734
811.440453	5270.755719
811.760107	5243.004167
812.079716	5218.904931
812.399281	5165.877033
812.718801	5163.245551
813.038276	5126.976970
813.357707	5089.992545
813.677093	5114.336277
813.996434	5051.221030
814.315731	5075.549639
814.634983	5068.895316
814.954191	5074.422941
815.273354	5140.479700
815.592473	5179.200803
815.911547	5262.349595
816.230577	5310.785001
816.549562	5406.002315
816.868502	5468.179906
817.187399	5527.763824
817.506250	5615.797494
817.825058	5645.361340
818.143821	5810.748995
818.462539	5993.415205
818.781213	6227.901955
819.099843	6602.608400
819.418429	7251.868686
819.736970	7899.808190
820.055466	8642.753279
820.373919	9616.555488
820.692327	11181.092708
821.010691	14054.053847
821.329011	20594.842577
821.647286	30443.941452
821.965517	40996.193067
822.283704	46495.676018
822.601847	48052.379285
822.919945	43510.725647
823.237999	38403.288189
823.556010	33136.784684
823.873976	28294.620303
824.191897	23898.847576
824.509775	20669.938126
824.827609	17774.579140
825.145398	16114.663290
825.463144	15306.379806
825.780845	15617.640809
826.098502	16906.316008
826.416116	19397.326563
826.733685	21658.584012
827.051210	22094.661464
827.368692	20598.439441
827.686129	18001.998193
828.003522	15465.796214
828.320872	13193.753217
828.638177	11462.691562
828.955439	10165.340537
829.272656	9054.577740
829.589830	8172.285076
829.906960	7401.301089
830.224046	6840.170255
830.541088	6411.168062
830.858086	6136.221011
831.175041	5919.511889
831.491952	5856.870512
831.808819	5888.370162
832.125642	6155.049721
832.442421	6733.653194
832.759157	7891.094556
833.075849	9708.173418
833.392497	11579.908471
833.709101	12723.637894
834.025662	12449.361316
834.342179	11386.915458
834.658653	10055.881964
834.975083	8914.998272
835.291469	7978.712330
835.607811	7206.952006
835.924110	6662.479664
836.240366	6147.475387
836.556578	5676.929046
836.872746	5303.611439
837.188871	5014.576883
837.504952	4780.385040
837.820990	4600.004994
838.136984	4482.152899
838.452935	4432.099282
838.768842	4466.384170
839.084706	4763.532463
839.400526	5532.101737
839.716303	6467.603780
840.032037	7047.338993
840.347727	6892.016001
840.663373	6280.236694
840.978977	5678.320404
841.294537	5222.647987
841.610054	4871.768556
841.925527	4619.703302
842.240957	4399.601484
842.556344	4202.767112
842.871687	4038.412893
843.186987	3876.065054
843.502244	3748.302051
843.817458	3656.469872
844.132629	3581.528079
844.447756	3530.894730
844.762840	3481.917400
845.077881	3438.986934
845.392879	3404.031573
845.707833	3374.684496
846.022745	3342.474043
846.337613	3330.339986
846.652438	3308.763847
846.967221	3296.211374
847.281960	3276.893673
847.596656	3265.283896
847.911309	3255.836773
848.225919	3235.755337
848.540485	3231.556056
848.855009	3222.199674
849.169490	3206.942622
849.483928	3202.231664
849.798323	3196.177238
850.112675	3181.832635
850.426984	3184.033098
850.741251	3176.778878
851.055474	3170.384174
851.369654	3172.597241
851.683792	3166.270593
851.997887	3173.025739
852.311938	3168.392919
852.625947	3170.923578
852.939914	3162.567865
853.253837	3168.687826
853.567718	3167.793021
853.881555	3160.611898
854.195350	3168.944925
854.509103	3163.807989
854.822812	3163.621467
855.136479	3156.611742
855.450103	3161.375632
855.763685	3154.207112
856.077224	3155.205260
856.390720	3163.510561
856.704173	3174.167560
857.017584	3179.430525
857.330953	3186.856145
857.644278	3192.083821
857.957561	3193.928883
858.270802	3194.985005
858.584000	3197.067002
858.897155	3188.222297
859.210268	3176.960360
859.523339	3164.433092
859.836367	3165.418638
860.149352	3160.654747
860.462295	3155.041423
860.775195	3143.562715
861.088054	3143.018271
861.400869	3141.901655
861.713642	3139.524751
862.026373	3146.282418
862.339062	3150.244765
862.651708	3158.386228
862.964312	3175.054803
863.276873	3183.012265
863.589392	3216.934189
863.901869	3241.600555
864.214303	3263.133843
864.526696	3281.176133
864.839045	3302.868218
865.151353	3317.711896
865.463619	3316.360866
865.775842	3316.257523
866.088023	3322.526198
866.400162	3319.889674
866.712258	3316.864982
867.024313	3317.807678
867.336325	3319.922442
867.648296	3321.759942
867.960224	3318.115188
868.272110	3320.272802
868.583954	3319.524190
868.895755	3329.099862
869.207515	3325.039213
869.519233	3345.992769
869.830909	3353.120960
870.142542	3363.311653
870.454134	3369.804659
870.765684	3384.008110
871.077191	3407.782191
871.388657	3417.849376
871.700081	3435.750513
872.011463	3457.503092
872.322803	3476.851040
872.634101	3493.554903
872.945357	3514.062317
873.256571	3544.843603
873.567744	3559.904050
873.878874	3568.930236
874.189963	3587.645519
874.501010	3587.779110
874.812015	3584.537648
875.122979	3600.268569
875.433900	3596.749843
875.744780	3601.823765
876.055618	3615.951598
876.366415	3610.592852
876.677169	3619.573667
876.987882	3641.653921
877.298554	3660.863238
877.609183	3708.832337
877.919771	3754.795058
878.230317	3828.476562
878.540822	3943.155250
878.851285	4101.649127
879.161707	4348.917723
879.472087	4748.098970
879.782425	5422.363379
880.092722	6683.307191
880.402977	8710.420688
880.713191	11167.486634
881.023363	13608.340229
881.333494	14970.984279
881.643583	15462.252283
881.953631	15067.897941
882.263637	14225.286719
882.573602	13194.474102
882.883526	12191.037470
883.193408	11204.962572
883.503248	10249.205173
883.813048	9371.396615
884.122806	8572.638391
884.432522	7760.609330
884.742197	7059.473050
885.051831	6461.156144
885.361424	5929.556388
885.670975	5510.608777
885.980485	5156.750024
886.289954	4871.249318
886.599382	4636.573524
886.908768	4448.165440
887.218113	4267.205661
887.527417	4130.613077
887.836680	3994.363291
888.145901	3890.071900
888.455082	3804.105104
888.764221	3732.392170
889.073319	3667.827592
889.382376	3629.842498
889.691392	3602.469032
890.000366	3594.728341
890.309300	3589.215839
890.618193	3591.673401
890.927044	3584.467072
891.235855	3592.361519
891.544625	3613.388172
891.853353	3643.337667
892.162041	3706.901575
892.470687	3802.592758
892.779293	3928.815688
893.087858	4117.652270
893.396381	4415.123197
893.704864	4854.051421
894.013306	5445.708963
894.321707	6028.136152
894.630068	6376.684049
894.938387	6417.812303
895.246665	6240.794706
895.554903	5915.383184
895.863100	5568.589608
896.171256	5292.510818
896.479371	5040.687539
896.787446	4806.006704
897.095480	4598.898460
897.403473	4442.146302
897.711425	4284.690903
898.019336	4155.660050
898.327207	4026.654402
898.635038	3921.251437
898.942827	3809.826813
899.250576	3716.620920
899.558284	3632.073208
899.865952	3573.253025
900.173579	3509.101822
900.481165	3458.138277
900.788711	3418.139242
901.096216	3379.579456
901.403681	3349.476206
901.711105	3335.779391
902.018489	3333.510872
902.325832	3371.387581
902.633135	3431.029472
902.940397	3612.291721
903.247619	4049.725243
903.554800	4842.262683
903.861941	5847.133523
904.169041	6571.622948
904.476101	6792.465816
904.783121	6521.967583
905.090100	6109.278564
905.397039	5683.343914
905.703938	5308.173683
906.010796	4963.089058
906.317614	4694.319941
906.624391	4440.210499
906.931129	4228.872727
907.237826	4034.198489
907.544483	3853.289121
907.851099	3668.639218
908.157675	3500.057992
908.464211	3351.527956
908.770707	3242.946543
909.077163	3155.815240
909.383578	3090.658326
909.689954	3042.840462
909.996289	3010.410719
910.302584	2987.435660
910.608839	2974.091726
910.915054	2961.471197
911.221229	2955.762091
911.527363	2962.166877
911.833458	2968.307002
912.139513	2978.588435
912.445527	2994.430261
912.751502	3031.359234
913.057436	3079.353539
913.363331	3144.281080
913.669186	3238.414546
913.975000	3365.471787
914.280775	3567.871593
914.586510	3858.907487
914.892205	4255.026233
915.197859	4779.119710
915.503475	5376.635073
915.809050	5883.563421
916.114585	6171.607390
916.420081	6238.208594
916.725536	6169.729561
917.030952	5926.723260
917.336328	5723.274894
917.641665	5504.869424
917.946961	5270.783445
918.252218	5060.947937
918.557435	4824.273325
918.862612	4614.541161
919.167750	4436.452319
919.472848	4235.917739
919.777906	4056.669432
920.082925	3892.514339
920.387904	3729.133064
920.692843	3612.710136
920.997743	3506.165350
921.302603	3406.894948
921.607423	3336.434741
921.912204	3262.947321
922.216946	3207.925647
922.521647	3156.823471
922.826310	3116.542131
923.130932	3072.628640
923.435516	3033.035417
923.740059	3002.475943
924.044564	2970.671303
924.349028	2945.745318
924.653454	2910.752148
924.957840	2882.420864
925.262186	2862.170549
925.566493	2836.531240
925.870761	2811.443938
926.174989	2799.330046
926.479178	2785.149280
926.783328	2765.166146
927.087438	2753.944537
927.391509	2737.255798
927.695541	2727.541494
927.999533	2716.357694
928.303486	2706.620706
928.607400	2697.488656
928.911275	2693.186031
929.215110	2686.899712
929.518906	2680.472241
929.822663	2682.521470
930.126381	2679.779082
930.430060	2684.369053
930.733699	2685.367201
931.037299	2688.162521
931.340861	2686.234280
931.644383	2692.011442
931.947866	2692.210567
932.251309	2684.187571
932.554714	2687.582788
932.858080	2685.112623
933.161407	2679.789164
933.464694	2674.261539
933.767943	2672.764317
934.071153	2670.594100
934.374323	2664.675785
934.677455	2661.482214
934.980548	2660.927687
935.283602	2655.374856
935.586617	2655.959630
935.889593	2658.039106
936.192530	2659.150681
936.495428	2663.864159
936.798287	2675.791529
937.101108	2688.250741
937.403890	2711.613969
937.706632	2734.331928
938.009336	2768.178235
938.312002	2800.446661
938.614628	2824.855928
938.917216	2845.938033
939.219765	2855.276771
939.522275	2865.895962
939.824747	2869.160109
940.127179	2858.800537
940.429573	2857.499920
940.731929	2855.067563
941.034246	2845.229751
941.336524	2845.131449
941.638763	2836.780777
941.940964	2833.279696
942.243126	2816.520380
942.545250	2805.124852
942.847335	2791.090280
943.149381	2775.492950
943.451389	2764.636825
943.753359	2750.324989
944.055290	2742.085223
944.357182	2732.000395
944.659036	2726.109807
944.960851	2723.319528
945.262628	2717.560010
945.564367	2716.435832
945.866067	2714.583208
946.167729	2713.658157
946.469352	2711.392158
946.770937	2712.352498
947.072484	2700.099973
947.373992	2704.601724
947.675462	2698.645600
947.976893	2696.258614
948.278286	2687.693694
948.579641	2686.695545
948.880958	2684.573219
949.182236	2682.324865
949.483476	2680.416788
949.784678	2678.906962
950.085841	2681.588856
950.386967	2683.756552
950.688054	2690.105886
950.989103	2698.247349
951.290114	2705.267156
951.591087	2718.601008
951.892021	2727.488562
952.192917	2742.932137
952.493776	2753.967223
952.794596	2756.291195
953.095378	2759.484766
953.396122	2756.334044
953.696828	2753.621904
953.997496	2750.216604
954.298126	2738.027094
954.598718	2732.829665
954.899272	2720.393138
955.199788	2710.111705
955.500266	2697.667617
955.800706	2680.724298
956.101108	2665.079077
956.401472	2651.243631
956.701798	2638.252577
957.002087	2621.624331
957.302337	2613.558485
957.602550	2600.431321
957.902724	2590.457398
958.202861	2580.357446
958.502960	2570.754048
958.803022	2563.535116
959.103045	2556.870710
959.403031	2549.177909
959.702979	2541.107022
960.002889	2537.411856
960.302762	2531.871628
960.602596	2528.247039
960.902393	2524.168745
961.202153	2521.154135
961.501875	2517.038033
961.801559	2514.121726
962.101205	2510.247599
962.400814	2511.225583
962.700385	2508.316837
962.999918	2505.261898
963.299414	2503.376506
963.598873	2501.511279
963.898293	2496.770074
964.197677	2498.100939
964.497022	2499.341062
964.796331	2497.059940
965.095601	2494.095742
965.394835	2495.056082
965.694030	2496.248315
965.993189	2494.630104
966.292309	2489.513333
966.591393	2491.933087
966.890439	2491.454177
967.189447	2490.435864
967.488419	2491.081132
967.787353	2494.922491
968.086249	2494.027686
968.385108	2494.589775
968.683930	2494.390649
968.982714	2495.492142
969.281462	2496.644045
969.580172	2500.866012
969.878844	2499.252842
970.177480	2507.091837
970.476078	2506.040756
970.774639	2510.764317
971.073162	2510.829852
971.371649	2511.283556
971.670098	2511.964112
971.968510	2514.194822
972.266885	2514.537621
972.565223	2519.815709
972.863524	2518.774711
973.161788	2520.662623
973.460014	2525.476925
973.758204	2527.770650
974.056356	2527.523633
974.354471	2525.860052
974.652550	2527.949611
974.950591	2523.762932
975.248595	2526.603623
975.546563	2524.042716
975.844493	2523.069774
976.142386	2520.221522
976.440243	2517.703465
976.738062	2518.396624
977.035845	2513.945285
977.333590	2510.214831
977.631299	2509.438494
977.928971	2505.892042
978.226606	2506.496980
978.524204	2502.330467
978.821765	2501.135713
979.119290	2501.165960
979.416777	2500.979438
979.714228	2501.188645
980.011642	2503.149654
980.309020	2509.519152
980.606360	2513.705830
980.903664	2521.247397
981.200931	2536.887576
981.498162	2557.795762
981.795356	2593.116606
982.092513	2628.971813
982.389633	2673.669204
982.686717	2718.482541
982.983764	2750.889598
983.280775	2770.003133
983.577749	2769.599841
983.874686	2761.980137
984.171587	2745.160327
984.468451	2729.021073
984.765279	2710.111705
985.062070	2690.660413
985.358824	2671.849347
985.655543	2647.223311
985.952224	2623.426544
986.248869	2599.670106
986.545478	2564.936556
986.842050	2546.801005
987.138586	2527.049765
987.435086	2511.870850
987.731549	2498.022801
988.027975	2494.362923
988.324366	2486.980153
988.620719	2482.059987
988.917037	2479.650316
989.213318	2477.159986
989.509563	2470.873667
989.805772	2472.547330
990.101944	2470.689665
990.398080	2469.812504
990.694180	2465.149437
990.990244	2469.820066
991.286271	2467.382668
991.582262	2469.600775
991.878217	2470.961887
992.174136	2472.701085
992.470019	2470.150261
992.765865	2473.316106
993.061676	2477.923720
993.357450	2479.289873
993.653188	2482.806078
993.948890	2486.102993
994.244556	2493.389980
994.540186	2504.122597
994.835780	2514.686335
995.131337	2533.121834
995.426859	2548.961140
995.722345	2568.452761
996.017795	2589.917994
996.313208	2604.900303
996.608586	2615.479165
996.903928	2619.013014
997.199234	2618.216511
997.494504	2613.613938
997.789738	2603.902155
998.084936	2595.140630
998.380099	2583.125039
998.675225	2572.339491
998.970316	2555.870041
999.265371	2542.974770
999.560390	2527.301822
999.855373	2517.889988
1000.150320	2506.736435
1000.445232	2496.487769
1000.740108	2489.014259
1001.034948	2482.402786
1001.329752	2479.108392
1001.624521	2472.360807
1001.919254	2460.221709
1002.213951	2465.429221
1002.508613	2460.388067
1002.803239	2460.292285
1003.097829	2454.263065
1003.392384	2459.037037
1003.686903	2457.680967
1003.981386	2457.446553
1004.275834	2453.769032
1004.570246	2453.814402
1004.864623	2450.918259
1005.158964	2449.456325
1005.453270	2449.219390
1005.747540	2449.695779
1006.041775	2450.202415
1006.335974	2449.708382
1006.630138	2447.442384
1006.924266	2449.408434
1007.218359	2446.845007
1007.512416	2446.845007
1007.806438	2447.613783
1008.100425	2446.716457
1008.394376	2446.895418
1008.688292	2445.884667
1008.982172	2447.727209
1009.276017	2447.263423
1009.569827	2443.134718
1009.863602	2443.684203
1010.157341	2444.526076
1010.451045	2444.004317
1010.744714	2442.544903
1011.038347	2444.163113
1011.331945	2442.171857
1011.625508	2444.881477
1011.919036	2441.266970
1012.212528	2440.415015
1012.505986	2442.948195
1012.799408	2442.403750
1013.092795	2443.139759
1013.386147	2442.305448
1013.679464	2443.326282
1013.972745	2441.352670
1014.265992	2442.373503
1014.559204	2439.109356
1014.852380	2442.192022
1015.145521	2440.059614
1015.438628	2438.595159
1015.731699	2439.197577
1016.024736	2439.870571
1016.317737	2440.472988
1016.610703	2444.208483
1016.903635	2439.356373
1017.196531	2438.511980
1017.489393	2439.454675
1017.782219	2437.460899
1018.075011	2443.162444
1018.367768	2442.809563
1018.660490	2440.530962
1018.953177	2440.530962
1019.245829	2440.530962
