Dividing Wavelength (nm)	Counts (n)	Blue Motor Position (mm): 0.000000	Red Motor Position (mm): 23.000000	
326.493990	1984.356950
326.888308	1984.356950
327.282561	1984.356950
327.676750	1960.976079
328.070874	1960.073712
328.464933	1967.186780
328.858929	1975.726495
329.252859	1989.549339
329.646726	2001.925371
330.040528	2018.694770
330.434265	2040.263346
330.827938	2057.917467
331.221547	2078.379511
331.615091	2096.149578
332.008571	2118.812085
332.401986	2139.274128
332.795338	2159.438744
333.188625	2179.615962
333.581847	2200.841740
333.975006	2216.068546
334.368100	2234.309961
334.761129	2252.231263
335.154095	2265.408839
335.546996	2283.352826
335.939833	2307.489871
336.332606	2318.638382
336.725315	2327.888900
337.117960	2336.297544
337.510540	2344.565037
337.903056	2353.210615
338.295508	2355.373270
338.687896	2367.429190
339.080220	2377.004862
339.472480	2379.127187
339.864676	2383.026520
340.256807	2388.196223
340.648875	2388.576830
341.040879	2389.711090
341.432818	2387.331665
341.824694	2392.604712
342.216506	2390.898282
342.608253	2390.502551
342.999937	2389.020452
343.391557	2388.186141
343.783113	2386.514998
344.174605	2388.753271
344.566033	2384.296891
344.957397	2384.274205
345.348697	2383.162631
345.739934	2378.444111
346.131106	2379.480068
346.522215	2377.624923
346.913260	2375.275746
347.304241	2373.095447
347.695159	2374.872453
348.086012	2369.816176
348.476802	2369.836341
348.867528	2368.994468
349.258191	2365.362317
349.648789	2365.223685
350.039324	2362.478777
350.429796	2367.451875
350.820203	2365.352234
351.210548	2364.190248
351.600828	2364.165043
351.991045	2363.222347
352.381198	2361.583972
352.771288	2364.391895
353.161314	2361.773015
353.551276	2362.957686
353.941175	2364.170084
354.331010	2362.970289
354.720782	2364.144878
355.110490	2362.574559
355.500135	2363.885259
355.889717	2362.554394
356.279235	2364.422142
356.668689	2366.801566
357.058080	2365.720239
357.447408	2366.438603
357.836672	2366.259642
358.225873	2365.838706
358.615010	2364.964066
359.004084	2368.024046
359.393095	2368.230733
359.782043	2369.289376
360.170927	2371.832638
360.559748	2372.036804
360.948505	2370.300127
361.337199	2374.716178
361.725830	2374.799357
362.114398	2375.227855
362.502903	2374.897659
362.891344	2375.021168
363.279722	2377.889584
363.668037	2381.216746
364.056289	2379.280942
364.444478	2382.290511
364.832603	2379.921169
365.220665	2380.818494
365.608665	2379.626262
365.996601	2380.528628
366.384474	2382.204812
366.772284	2385.678167
367.160031	2385.325286
367.547715	2386.426778
367.935336	2384.528784
368.322893	2387.762684
368.710388	2386.862838
369.097820	2394.341390
369.485189	2390.063971
369.872495	2395.526061
370.259738	2394.316184
370.646918	2397.212327
371.034035	2396.246946
371.421090	2399.286762
371.808081	2403.173491
372.195010	2408.524676
372.581875	2411.869482
372.968678	2421.089752
373.355418	2424.190062
373.742096	2436.556012
374.128710	2445.304934
374.515262	2457.489403
374.901751	2472.580097
375.288177	2489.929228
375.674540	2507.180057
376.060841	2529.577903
376.447079	2552.920966
376.833254	2578.416602
377.219367	2602.941815
377.605417	2640.392547
377.991404	2663.365085
378.377329	2704.954604
378.763191	2737.533061
379.148991	2785.953344
379.534727	2833.108297
379.920402	2879.093702
380.306013	2929.164963
380.691563	2989.079076
381.077049	3046.822973
381.462474	3101.806838
381.847835	3174.512879
382.233134	3245.096595
382.618371	3304.751089
383.003545	3389.699573
383.388657	3468.273517
383.773706	3564.408321
384.158693	3627.447950
384.543618	3727.436716
384.928480	3805.468736
385.313280	3911.360693
385.698017	4011.508255
386.082692	4133.733551
386.467305	4195.959033
386.851856	4322.239937
387.236344	4478.498062
387.620770	4536.148698
388.005133	4658.527749
388.389435	4801.174758
388.773674	4886.171133
389.157851	5020.361607
389.541965	5155.406557
389.926018	5177.817006
390.310008	5355.973904
390.693936	5475.736596
391.077802	5592.835038
391.461606	5721.361776
391.845348	5837.671277
392.229027	5954.885666
392.612645	6180.245407
392.996200	6299.846782
393.379694	6477.663402
393.763125	6688.466812
394.146494	6783.404342
394.529801	6923.666886
394.913047	7162.259656
395.296230	7162.662948
395.679351	7211.768828
396.062410	7474.148283
396.445408	7365.793722
396.828343	7521.444388
397.211217	7653.600757
397.594028	7536.272942
397.976778	7742.425888
398.359466	7907.185919
398.742092	7872.696865
399.124656	8024.967437
399.507158	8212.311838
399.889598	8229.779436
400.271977	8441.129811
400.654294	8472.384965
401.036549	8672.546499
401.418742	8692.529632
401.800874	8997.501796
402.182944	9074.850740
402.564952	9436.097304
402.946898	9254.633410
403.328783	9314.343357
403.710606	9504.704888
404.092367	9761.997818
404.474067	10121.036357
404.855705	9920.700903
405.237282	9868.973623
405.618797	10295.384662
406.000250	10539.018587
406.381642	10898.392362
406.762972	10844.373878
407.144240	10653.699796
407.525447	10901.711962
407.906593	10843.970586
408.287677	11095.814029
408.668700	11252.021743
409.049661	11233.959288
409.430560	11382.212061
409.811399	11356.920592
410.192176	11513.718121
410.572891	11594.074113
410.953545	12063.327399
411.334138	11550.712629
411.714669	12135.778862
412.095139	11460.980090
412.475547	11952.769854
412.855894	11800.350567
413.236180	12125.784774
413.616405	11809.994294
413.996568	12077.455232
414.376670	12060.960577
414.756711	11936.161772
415.136691	12209.309132
415.516609	12384.506872
415.896466	12451.526492
416.276262	12743.709248
416.655997	13186.872042
417.035670	13228.416190
417.415283	13859.588817
417.794834	13954.236480
418.174324	13695.421121
418.553753	13584.956837
418.933121	14081.835646
419.312428	13884.361047
419.691674	13802.863233
420.070859	14251.687242
420.449983	13904.848296
420.829045	14452.635196
421.208047	14198.989540
421.586988	14647.836235
421.965867	14899.830913
422.344686	14890.794644
422.723444	15453.354646
423.102141	14149.971881
423.480777	15320.447146
423.859352	14835.258773
424.237866	15925.758653
424.616319	15634.143026
424.994712	16283.153775
425.373044	16073.000674
425.751314	16728.212042
426.129524	15871.765374
426.507673	16942.423272
426.885762	16647.578787
427.263789	16831.366653
427.641756	17000.557858
428.019662	17056.877629
428.397508	17093.867095
428.775292	17381.873256
429.153016	17342.872369
429.530679	17417.652845
429.908282	17439.546576
430.285824	17156.291703
430.663305	17848.137137
431.040726	17443.226619
431.418086	17262.511336
431.795385	17892.794198
432.172624	18302.841652
432.549802	17845.946755
432.926920	18020.824382
433.303977	17893.474754
433.680974	18135.137587
434.057910	18404.695645
434.434786	18403.821005
434.811601	18312.450091
435.188355	19294.804618
435.565050	18941.386966
435.941683	18865.802425
436.318257	19702.797801
436.694770	19465.117480
437.071222	20008.442959
437.447614	19075.786648
437.823946	19051.460560
438.200218	19152.833123
438.576429	18891.277896
438.952580	19101.693137
439.328670	19018.413276
439.704700	19351.888123
440.080670	18879.980671
440.456580	19366.124342
440.832429	19482.065839
441.208218	18456.314540
441.583947	18789.681002
441.959616	18811.786462
442.335224	18936.875133
442.710773	18973.541965
443.086261	19368.929744
443.461689	18698.080716
443.837057	18702.658084
444.212365	19184.458801
444.587612	19069.709537
444.962800	18568.938958
445.337927	18836.974587
445.712995	17590.045183
446.088002	19086.892310
446.462949	19125.769688
446.837837	19130.067272
447.212664	18957.674934
447.587431	21155.547434
447.962139	23409.696856
448.336786	25217.663833
448.711374	23755.517489
449.085901	20576.729712
449.460369	20326.756536
449.834776	20072.949564
450.209124	21812.636632
450.583412	21268.534816
450.957640	21470.168367
451.331808	20240.096581
451.705917	18994.099791
452.079965	18810.795875
452.453954	18860.005098
452.827883	18579.243076
453.201752	18226.934478
453.575562	18133.426115
453.949311	18699.353608
454.323001	18500.434718
454.696632	18107.015510
455.070202	18922.933822
455.443713	18781.345454
455.817164	18910.787162
456.190556	18993.638525
456.563888	18397.000323
456.937160	18401.376045
457.310373	17129.513094
457.683526	17131.862272
458.056619	16867.277312
458.429653	16571.888382
458.802628	16645.658107
459.175542	16462.883512
459.548398	16909.620484
459.921194	17488.158423
460.293930	17595.323271
460.666607	18384.054640
461.039224	19010.947327
461.411782	18877.306338
461.784280	17941.690870
462.156719	17361.748970
462.529099	16782.285979
462.901419	15865.796648
463.273680	15093.990953
463.645882	14846.503067
464.018024	14552.863417
464.390106	14635.203103
464.762130	15474.116638
465.134094	16883.361114
465.505999	18820.757195
465.877845	20384.157635
466.249631	20430.279151
466.621358	19253.484800
466.993026	17969.389490
467.364634	16768.962209
467.736184	15705.019128
468.107674	14947.089209
468.479105	14353.047202
468.850477	13829.077233
469.221790	13083.480497
469.593043	12261.747214
469.964238	11727.536141
470.335373	11448.974582
470.706449	11646.494552
471.077467	12056.829351
471.448425	13030.187939
471.819324	13536.052604
472.190164	12778.896502
472.560945	11609.986516
472.931667	10615.692016
473.302330	10107.747875
473.672934	9694.869813
474.043479	9579.455117
474.413965	9202.543167
474.784393	8917.866689
475.154761	8885.260506
475.525070	8690.366977
475.895321	8417.237262
476.265513	8317.145153
476.635645	8294.833006
477.005719	8078.869975
477.375734	7968.602296
477.745691	7887.341417
478.115588	7901.590238
478.485427	8000.913572
478.855207	8299.861557
479.224928	8487.977253
479.594591	8510.662446
479.964194	8147.480079
480.333739	7940.076927
480.703226	7734.599496
481.072653	7629.050338
481.442022	7509.622882
481.811333	7350.740837
482.180584	7030.052876
482.549777	6799.341950
482.918912	6587.043838
483.287988	6390.133848
483.657005	6162.422408
484.025964	5955.893897
484.394864	5810.537267
484.763706	5634.235514
485.132489	5440.398107
485.501213	5304.188651
485.869879	5190.427453
486.238487	5059.395261
486.607036	4954.902224
486.975527	4824.422039
487.343959	4734.550869
487.712333	4641.100480
488.080648	4545.187487
488.448905	4477.237774
488.817104	4385.045153
489.185244	4340.330118
489.553326	4338.502700
489.921350	4385.118249
490.289315	4437.160601
490.657222	4389.229310
491.025070	4324.727747
491.392861	4203.636711
491.760593	4079.281528
492.128267	3954.535655
492.495883	3839.791432
492.863440	3737.985330
493.230939	3644.348418
493.598380	3571.884352
493.965763	3511.950074
494.333088	3454.070066
494.700354	3406.181625
495.067563	3364.156046
495.434713	3327.738751
495.801805	3299.752785
496.168839	3263.421189
496.535815	3229.824419
496.902733	3201.969524
497.269593	3174.641429
497.636395	3152.775424
498.003139	3139.381078
498.369825	3108.889659
498.736453	3096.077567
499.103023	3072.091757
499.469535	3053.671381
499.835989	3039.283928
500.202385	3020.578726
500.568723	3007.229751
500.935003	2999.557115
501.301226	2984.650423
501.667390	2981.524907
502.033497	2975.767910
502.399546	2958.285188
502.765537	2939.935388
503.131470	2938.652414
503.497345	2930.604212
503.863163	2908.140831
504.228923	2910.250554
504.594625	2910.318609
504.960269	2892.276320
505.325856	2897.161198
505.691385	2884.069321
506.056856	2882.347767
506.422270	2882.148642
506.787625	2875.801829
507.152924	2870.836292
507.518164	2871.035418
507.883347	2854.961699
508.248472	2851.052284
508.613540	2855.196112
508.978550	2857.237780
509.343503	2851.901718
509.708398	2852.118488
510.073236	2853.136801
510.438016	2855.591843
510.802738	2845.519618
511.167403	2845.083558
511.532010	2847.863754
511.896561	2848.982890
512.261053	2858.485465
512.625488	2848.206553
512.989866	2844.476099
513.354186	2840.838906
513.718449	2839.384533
514.082655	2848.965246
514.446803	2842.333608
514.810894	2846.946264
515.174927	2848.476254
515.538904	2841.574915
515.902822	2849.068590
516.266684	2840.783454
516.630488	2845.620441
516.994235	2843.949298
517.357925	2845.602797
517.721558	2848.743436
518.085133	2850.487675
518.448651	2848.720750
518.812112	2848.388034
519.175516	2845.370904
519.538863	2846.527848
519.902152	2849.663446
520.265385	2851.122860
520.628560	2851.891636
520.991678	2846.971470
521.354739	2849.086234
521.717743	2851.412727
522.080690	2850.724609
522.443580	2854.218129
522.806413	2854.684435
523.169189	2854.205526
523.531908	2854.712162
523.894569	2855.294415
524.257174	2854.084538
524.619722	2855.896833
524.982213	2855.801051
525.344647	2852.980525
525.707025	2852.589836
526.069345	2855.546473
526.431608	2854.944055
526.793815	2858.452698
527.155964	2854.205526
527.518057	2856.383304
527.880093	2854.240814
528.242072	2855.727954
528.603995	2851.609332
528.965860	2853.010772
529.327669	2851.977336
529.689421	2853.323324
530.051117	2850.517922
530.412755	2851.634537
530.774337	2852.027747
531.135862	2849.454238
531.497331	2850.197808
531.858743	2845.191943
532.220098	2850.868282
532.581396	2843.719926
532.942638	2843.546006
533.303824	2848.645133
533.664953	2847.581450
534.026025	2845.597756
534.387040	2848.279649
534.747999	2845.564988
535.108902	2849.789475
535.469748	2846.853003
535.830537	2840.682631
536.191270	2845.857375
536.551947	2842.454596
536.912567	2845.822087
537.273131	2844.839062
537.633638	2841.229596
537.994089	2843.006602
538.354483	2835.104594
538.714821	2842.162209
539.075103	2843.150275
539.435328	2843.533403
539.795497	2841.653053
540.155609	2839.558453
540.515665	2844.314782
540.875665	2837.824296
541.235609	2837.504183
541.595496	2839.223217
541.955328	2847.858713
542.315102	2840.264215
542.674821	2835.210458
543.034483	2836.740448
543.394090	2835.845643
543.753640	2838.323371
544.113134	2841.804287
544.472571	2833.418328
544.831953	2845.174299
545.191278	2835.996878
545.550548	2833.067968
545.909761	2837.380675
546.268918	2838.593072
546.628019	2839.011488
546.987064	2835.767506
547.346053	2829.347596
547.704986	2835.225582
548.063863	2829.334993
548.422684	2829.317349
548.781449	2827.646207
549.140158	2830.807010
549.498811	2829.261897
549.857408	2826.048161
550.215949	2828.387256
550.574434	2823.802327
550.932864	2823.048674
551.291237	2825.770897
551.649555	2826.733758
552.007817	2826.335507
552.366022	2823.462049
552.724173	2823.973726
553.082267	2825.803665
553.440305	2828.462874
553.798288	2822.516833
554.156215	2821.347285
554.514086	2824.976916
554.871902	2821.957265
555.229661	2819.895433
555.587365	2820.293684
555.945014	2817.541214
556.302606	2814.531645
556.660143	2814.660194
557.017625	2815.045843
557.375050	2809.248516
557.732421	2810.947385
558.089735	2810.750780
558.446994	2807.247178
558.804197	2810.695327
559.161345	2806.259112
559.518437	2796.779222
559.875474	2799.519089
560.232455	2799.554377
560.589381	2797.147226
560.946251	2798.886424
561.303065	2795.662606
561.659825	2795.551701
562.016528	2788.912501
562.373177	2787.821091
562.729770	2786.865793
563.086307	2780.529062
563.442789	2779.939247
563.799216	2780.750873
564.155587	2777.282559
564.511904	2773.720984
564.868164	2770.290479
565.224370	2771.878442
565.580520	2767.132196
565.936615	2765.249325
566.292654	2760.414858
566.648638	2759.199940
567.004567	2756.790269
567.360441	2753.808426
567.716260	2747.227200
568.072023	2747.358270
568.427732	2743.688310
568.783385	2737.918709
569.138982	2733.555591
569.494525	2730.644324
569.850013	2727.428068
570.205445	2727.841443
570.560823	2723.558983
570.916145	2721.850032
571.271412	2716.483723
571.626625	2715.281408
571.981782	2709.741180
572.336884	2705.735983
572.691931	2705.108360
573.046923	2700.536033
573.401860	2695.066381
573.756743	2694.269879
574.111570	2693.624611
574.466342	2690.264682
574.821059	2686.718230
575.175722	2679.985769
575.530330	2678.047446
575.884882	2673.580983
576.239380	2671.582166
576.593823	2670.407577
576.948211	2667.219047
577.302544	2664.847184
577.656823	2659.309477
578.011047	2657.265289
578.365216	2654.144815
578.719330	2654.038951
579.073389	2649.721202
579.427394	2650.426964
579.781344	2644.538896
580.135239	2639.054121
580.489080	2641.241982
580.842866	2637.839203
581.196597	2639.817856
581.550273	2638.156795
581.903895	2633.408028
582.257463	2634.998513
582.610975	2629.435599
582.964434	2629.513737
583.317837	2626.272275
583.671186	2623.018210
584.024481	2624.676750
584.377721	2620.616101
584.730906	2620.658950
585.084037	2619.217180
585.437113	2617.223404
585.790135	2614.919597
586.143103	2611.509256
586.496016	2611.330295
586.848874	2607.831734
587.201679	2611.103443
587.554428	2606.319388
587.907124	2604.592793
588.259765	2600.338059
588.612352	2605.283431
588.964884	2601.868049
589.317362	2603.680344
589.669786	2601.744541
590.022155	2602.606578
590.374470	2599.632298
590.726731	2597.426793
591.078937	2595.690115
591.431090	2595.201123
591.783188	2595.304467
592.135232	2592.831781
592.487222	2589.449167
592.839157	2589.217274
593.191038	2589.408838
593.542866	2587.828436
593.894639	2585.406162
594.246358	2587.941862
594.598022	2584.559248
594.949633	2586.260637
595.301190	2583.480441
595.652692	2579.434915
596.004141	2581.022878
596.355535	2580.392734
596.706876	2579.686972
597.058162	2580.092785
597.409395	2577.678073
597.760573	2580.065059
598.111698	2576.992476
598.462768	2579.954154
598.813785	2574.139183
599.164748	2572.828483
599.515657	2572.011816
599.866511	2574.638257
600.217312	2574.940726
600.568060	2572.382341
600.918753	2573.433421
601.269392	2570.592731
601.619978	2573.761096
601.970510	2571.845458
602.320988	2572.442834
602.671412	2572.377299
603.021783	2573.463668
603.372100	2570.698595
603.722363	2568.588872
604.072572	2574.706312
604.422728	2570.993503
604.772830	2568.606516
605.122878	2565.309602
605.472872	2567.086608
605.822813	2565.513768
606.172701	2569.362689
606.522534	2566.005281
606.872314	2569.027453
607.222041	2565.667524
607.571714	2570.302865
607.921333	2568.982082
608.270899	2570.204562
608.620411	2568.094839
608.969870	2566.821948
609.319276	2566.585014
609.668627	2568.049469
610.017926	2569.566856
610.367171	2567.421845
610.716362	2570.670869
611.065500	2568.412432
611.414585	2566.842112
611.763616	2570.189439
612.112594	2569.765982
612.461518	2569.060220
612.810389	2569.627350
613.159207	2568.724983
613.507971	2567.759602
613.856682	2570.373441
614.205340	2566.595096
614.553945	2574.023236
614.902496	2569.511403
615.250994	2570.058369
615.599439	2568.341856
615.947830	2568.699778
616.296169	2570.716239
616.644454	2569.271949
616.992686	2570.353276
617.340864	2570.217165
617.688990	2569.140879
618.037063	2570.625498
618.385082	2568.790518
618.733048	2573.791343
619.080961	2571.784964
619.428821	2570.693554
619.776628	2573.284707
620.124382	2571.699264
620.472083	2570.774212
620.819731	2569.105591
621.167326	2570.106260
621.514868	2568.583831
621.862357	2567.542833
622.209793	2564.129972
622.557176	2561.339693
622.904506	2563.315825
623.251783	2557.528581
623.599007	2558.899775
623.946179	2554.012376
624.293297	2553.195709
624.640363	2555.234856
624.987376	2556.112017
625.334336	2554.609753
625.681243	2554.166131
626.028097	2552.240410
626.374899	2553.230997
626.721647	2553.707386
627.068343	2551.915256
627.414987	2548.709082
627.761577	2549.210677
628.108115	2550.884340
628.454600	2546.135573
628.801032	2548.817467
629.147412	2546.601880
629.493739	2547.728578
629.840014	2546.133053
630.186236	2546.528783
630.532405	2542.841179
630.878521	2543.657846
631.224585	2543.468803
631.570597	2542.049718
631.916556	2543.073072
632.262462	2542.909235
632.608316	2545.114739
632.954117	2541.888401
633.299866	2540.912938
633.645562	2540.459234
633.991206	2539.579553
634.336797	2536.154088
634.682336	2537.593338
635.027823	2534.303985
635.373257	2535.024870
635.718639	2534.876156
636.063968	2534.745086
636.409245	2530.513037
636.754470	2527.561442
637.099642	2527.170752
637.444762	2528.927594
637.789829	2526.311236
638.134845	2528.468849
638.479808	2524.700587
638.824719	2524.836698
639.169577	2524.831657
639.514383	2524.241842
639.859137	2522.442150
640.203839	2524.720752
640.548489	2521.711183
640.893086	2521.312932
641.237632	2514.257837
641.582125	2518.318486
641.926566	2514.023423
642.270955	2522.510206
642.615292	2521.315452
642.959576	2521.665812
643.303809	2518.767149
643.647990	2520.987777
643.992118	2519.336799
644.336195	2519.997190
644.680219	2515.034174
645.024192	2519.465349
645.368112	2517.229597
645.711981	2518.941069
646.055797	2526.598581
646.399562	2524.133457
646.743274	2522.016173
647.086935	2523.011800
647.430544	2523.344517
647.774101	2525.607995
648.117606	2525.245032
648.461059	2525.159332
648.804460	2529.295599
649.147810	2524.115813
649.491108	2521.544825
649.834354	2521.519619
650.177548	2519.863600
650.520690	2515.853362
650.863781	2515.492919
651.206820	2520.471059
651.549807	2512.969822
651.892742	2515.898732
652.235626	2510.030829
652.578458	2513.683145
652.921238	2509.718278
653.263967	2513.151303
653.606644	2508.236178
653.949269	2510.729029
654.291843	2510.338340
654.634365	2509.675428
654.976836	2509.589728
655.319255	2507.739625
655.661622	2506.612927
656.003938	2506.975890
656.346203	2508.641991
656.688416	2508.205932
657.030577	2506.955725
657.372687	2504.367093
657.714746	2506.469254
658.056753	2506.164264
658.398708	2496.442399
658.740612	2500.631598
659.082465	2500.145127
659.424266	2501.796104
659.766016	2500.392143
660.107715	2504.755262
660.449362	2501.783502
660.790958	2503.628564
661.132503	2504.301558
661.473996	2504.740138
661.815438	2501.869201
662.156829	2501.196207
662.498168	2502.574963
662.839456	2500.883656
663.180693	2501.216372
663.521879	2502.027998
663.863013	2503.159737
664.204097	2505.004799
664.545129	2506.043277
664.886110	2505.468585
665.227040	2505.587052
665.567918	2505.987824
665.908746	2506.209635
666.249522	2505.423215
666.590248	2505.887001
666.930922	2504.944305
667.271545	2504.558657
667.612118	2505.919768
667.952639	2504.800632
668.293109	2506.975890
668.633528	2502.620333
668.973896	2503.273163
669.314213	2502.065806
669.654480	2501.985148
669.994695	2504.094871
670.334859	2499.840137
670.674973	2499.993892
671.015035	2501.271824
671.355047	2502.204438
671.695008	2502.330467
672.034918	2501.801146
672.374777	2501.420538
672.714585	2500.727380
673.054342	2502.438852
673.394049	2501.743172
673.733705	2502.758965
674.073310	2502.469098
674.412864	2500.533295
674.752368	2500.712256
675.091820	2497.677482
675.431223	2500.440034
675.770574	2497.097749
676.109875	2495.282934
676.449125	2494.483911
676.788324	2493.193375
677.127473	2494.125989
677.466571	2490.299753
677.805619	2494.945176
678.144616	2492.961482
678.483562	2492.452326
678.822458	2490.224136
679.161303	2492.268324
679.500098	2493.969713
679.838842	2490.256903
680.177535	2493.934425
680.516179	2492.590957
680.854771	2492.719507
681.193314	2496.409632
681.531805	2499.736793
681.870247	2502.227123
682.208638	2502.610251
682.546978	2502.355673
682.885268	2501.735611
683.223508	2497.780825
683.561697	2499.998933
683.899836	2499.240239
684.237925	2497.057420
684.575963	2498.116062
684.913951	2501.072699
685.251889	2498.574807
685.589776	2495.028355
685.927614	2496.076915
686.265401	2495.630773
686.603137	2498.564725
686.940824	2498.153871
687.278460	2499.976248
687.616046	2500.601351
687.953582	2501.271824
688.291068	2499.613285
688.628504	2502.196876
688.965889	2501.241577
689.303224	2500.266114
689.640510	2502.307782
689.977745	2498.786536
690.314930	2496.210506
690.652065	2496.994405
690.989150	2492.943838
691.326185	2493.011894
691.663170	2488.341265
692.000105	2488.885709
692.336990	2485.271202
692.673825	2485.687097
693.010610	2481.051756
693.347345	2480.424133
693.684030	2475.493884
694.020665	2474.447845
694.357251	2469.731845
694.693786	2478.044708
695.030272	2475.932465
695.366707	2473.918524
695.703093	2474.646970
696.039429	2472.748976
696.375716	2474.843575
696.711952	2475.234265
697.048139	2471.370220
697.384276	2470.251084
697.720363	2473.157309
698.056400	2469.263018
698.392388	2471.249233
698.728326	2470.601444
699.064214	2468.917699
699.400053	2467.377627
699.735842	2469.774695
700.071581	2466.780250
700.407270	2468.597586
700.742910	2468.499283
701.078501	2466.525672
701.414042	2464.257152
701.749533	2465.940898
702.084974	2462.901082
702.420366	2461.976030
702.755709	2464.980558
703.091002	2462.563325
703.426246	2459.475618
703.761440	2460.609877
704.096584	2461.018211
704.431679	2459.984774
704.766725	2461.368571
705.101721	2460.718262
705.436668	2460.022583
705.771565	2458.389249
706.106413	2460.844291
706.441212	2461.048458
706.775961	2463.299333
707.110661	2463.213633
707.445311	2461.166925
707.779913	2465.744293
708.114465	2462.785135
708.448967	2463.206072
708.783421	2463.521144
709.117825	2464.123562
709.452180	2469.686475
709.786485	2465.172122
710.120742	2469.341156
710.454949	2469.600775
710.789107	2469.731845
711.123216	2472.650673
711.457275	2473.358956
711.791286	2471.208903
712.125247	2472.481795
712.459159	2475.486322
712.793023	2476.454224
713.126837	2473.724439
713.460602	2474.591518
713.794318	2474.941878
714.127985	2471.138327
714.461602	2469.625981
714.795171	2471.337453
715.128691	2467.700260
715.462162	2467.644808
715.795584	2465.343521
716.128957	2466.147585
716.462281	2462.923767
716.795556	2463.437965
717.128782	2461.608026
717.461960	2460.007460
717.795088	2460.158694
718.128167	2457.232304
718.461198	2456.461008
718.794180	2455.109979
719.127113	2452.864145
719.459997	2455.498148
719.792833	2454.290791
720.125619	2452.216356
720.458357	2451.692076
720.791046	2453.476645
721.123686	2451.215687
721.456278	2454.099227
721.788821	2450.610749
722.121315	2450.968671
722.453761	2448.453135
722.786158	2451.639144
723.118506	2451.150152
723.450805	2452.193671
723.783056	2452.453291
724.115259	2452.057560
724.447412	2451.555965
724.779518	2450.033537
725.111574	2452.977571
725.443582	2453.771552
725.775542	2451.571089
726.107453	2452.866665
726.439315	2453.990843
726.771129	2459.710032
727.102895	2455.518312
727.434612	2457.338169
727.766281	2458.666513
728.097901	2457.539815
728.429473	2453.290122
728.760996	2454.943621
729.092471	2454.192489
729.423897	2458.762295
729.755276	2456.266923
730.086606	2457.300360
730.417887	2459.493262
730.749120	2459.644497
731.080305	2462.853191
731.411442	2463.405197
731.742530	2463.281689
732.073570	2464.746144
732.404562	2463.160701
732.735506	2465.298151
733.066401	2461.786987
733.397249	2463.117852
733.728048	2460.488890
734.058798	2456.788683
734.389501	2457.320525
734.720156	2451.377004
735.050762	2453.504371
735.381320	2452.354988
735.711831	2450.136880
736.042293	2451.989504
736.372707	2448.795933
736.703073	2448.748043
737.033391	2450.270471
737.363661	2448.904318
737.693883	2450.459514
738.024056	2452.904474
738.354182	2450.945986
738.684260	2455.324228
739.014290	2454.278188
739.344272	2453.199381
739.674207	2452.423044
740.004093	2456.191306
740.333931	2456.266923
740.663722	2455.528394
740.993464	2456.055195
741.323159	2453.834567
741.652806	2453.574947
741.982405	2449.922631
742.311956	2452.095369
742.641460	2450.318362
742.970915	2452.213836
743.300323	2450.371294
743.629683	2449.325255
743.958996	2450.310800
744.288260	2447.782662
744.617477	2442.295366
744.946647	2441.866867
745.275768	2443.888370
745.604842	2439.832762
745.933869	2442.701178
746.262847	2442.144131
746.591778	2442.227310
746.920662	2443.666559
747.249498	2443.253185
747.578286	2444.911724
747.907027	2441.899635
748.235720	2447.323917
748.564365	2444.170675
748.892963	2443.853082
749.221514	2446.514811
749.550017	2447.268464
749.878473	2444.208483
750.206881	2443.046497
750.535242	2444.037084
750.863555	2444.122784
751.191821	2441.135900
751.520039	2442.819646
751.848210	2444.100099
752.176334	2442.726384
752.504411	2443.142279
752.832440	2441.181271
753.160421	2444.402568
753.488356	2443.376693
753.816243	2441.516507
754.144082	2442.512135
754.471875	2440.417536
754.799620	2442.577670
755.127318	2444.553803
755.454969	2441.912238
755.782572	2443.543051
756.110129	2442.693617
756.437638	2439.860488
756.765100	2443.474996
757.092515	2441.171188
757.419882	2443.810232
757.747203	2442.711261
758.074477	2442.912907
758.401703	2439.863009
758.728882	2442.945674
759.056014	2441.700509
759.383099	2444.130346
759.710138	2444.757969
760.037129	2444.253854
760.364073	2442.890222
760.690970	2445.622527
761.017820	2446.726540
761.344623	2444.147990
761.671379	2446.431632
761.998088	2442.880139
762.324751	2453.993363
762.651366	2465.651031
762.977935	2478.581591
763.304456	2484.149545
763.630931	2491.035762
763.957359	2484.121819
764.283740	2481.462610
764.610074	2472.723770
764.936362	2465.963583
765.262602	2457.146605
765.588796	2453.121243
765.914943	2448.788372
766.241044	2444.911724
766.567097	2441.559357
766.893104	2441.085489
767.219064	2437.859150
767.544978	2435.567946
767.870845	2435.172215
768.196665	2434.466454
768.522438	2436.780343
768.848165	2435.031063
769.173846	2430.471339
769.499479	2433.647266
769.825066	2434.970569
770.150607	2430.768767
770.476101	2428.535536
770.801548	2430.483942
771.126949	2431.469488
771.452303	2430.617533
771.777611	2430.927564
772.102872	2427.759198
772.428087	2429.258942
772.753256	2431.487132
773.078378	2427.421441
773.403453	2427.703746
773.728482	2428.200299
774.053465	2428.298602
774.378401	2425.203333
774.703291	2425.901533
775.028135	2425.410021
775.352932	2424.381625
775.677683	2423.829619
776.002388	2424.381625
776.327046	2427.474373
776.651658	2423.592685
776.976224	2423.474218
777.300743	2429.533685
777.625216	2420.751995
777.949643	2425.924218
778.274024	2424.235432
778.598359	2422.213929
778.922647	2418.412899
779.246889	2421.760225
779.571086	2418.884247
779.895236	2422.350040
780.219339	2423.484300
780.543397	2422.604619
780.867409	2423.363312
781.191374	2427.124013
781.515294	2425.878848
781.839167	2426.246852
782.162995	2424.679053
782.486776	2423.171748
782.810511	2422.027407
783.134201	2424.210226
783.457844	2422.246697
783.781441	2423.418765
784.104993	2420.600760
784.428498	2424.948755
784.751958	2419.942889
785.075372	2425.909095
785.398739	2423.570000
785.722061	2421.946748
786.045337	2420.116809
786.368568	2421.578744
786.691752	2424.535381
787.014891	2423.892633
787.337983	2425.410021
787.661030	2429.483273
787.984031	2430.809097
788.306987	2430.375557
788.629897	2430.065526
788.952760	2431.308171
789.275579	2431.545105
789.598351	2433.042328
789.921078	2429.241298
790.243759	2424.860535
790.566395	2426.309867
790.888984	2424.225350
791.211529	2425.379774
791.534027	2423.151584
791.856480	2423.985895
792.178888	2424.971440
792.501249	2420.996491
792.823566	2423.355751
793.145836	2421.356933
793.468062	2422.032448
793.790241	2420.951120
794.112375	2424.290885
794.434464	2420.832653
794.756507	2423.184351
795.078505	2422.884403
795.400457	2422.425658
795.722364	2423.804413
796.044226	2424.260638
796.366042	2422.748292
796.687812	2427.161822
797.009538	2424.144691
797.331218	2427.421441
797.652852	2425.200813
797.974442	2426.080494
798.295986	2424.603436
798.617484	2426.032603
798.938938	2423.834660
799.260346	2424.099321
799.581709	2423.078487
799.903026	2424.905905
800.224299	2421.407345
800.545526	2422.488672
800.866708	2420.545307
801.187845	2420.923394
801.508936	2419.219484
801.829983	2421.729978
802.150984	2423.207037
802.471940	2419.940369
802.792851	2419.153949
803.113717	2418.549010
803.434538	2419.673188
803.755314	2419.824422
804.076045	2419.174113
804.396731	2419.794175
804.717372	2418.528846
805.037967	2419.184196
805.358518	2421.714855
805.679024	2419.148908
805.999485	2421.495565
806.319901	2421.518250
806.640272	2421.987077
806.960598	2420.517581
807.280879	2422.773497
807.601115	2418.856521
807.921306	2417.162693
808.241453	2424.038827
808.561554	2419.801737
808.881611	2423.605288
809.201623	2421.941707
809.521590	2421.019176
809.841513	2420.489855
810.161390	2421.200657
810.481223	2419.285019
810.801011	2422.284505
811.120755	2419.642941
811.440453	2420.888106
811.760107	2419.824422
812.079716	2415.907446
812.399281	2417.097158
812.718801	2419.113620
813.038276	2415.395769
813.357707	2420.056315
813.677093	2421.074628
813.996434	2418.075142
814.315731	2417.873496
814.634983	2418.589340
814.954191	2419.680749
815.273354	2418.785945
815.592473	2418.773342
815.911547	2422.193765
816.230577	2417.944072
816.549562	2421.818199
816.868502	2419.653023
817.187399	2421.775349
817.506250	2424.432037
817.825058	2425.470515
818.143821	2423.413724
818.462539	2425.314239
818.781213	2428.515372
819.099843	2429.412697
819.418429	2434.161464
819.736970	2438.733790
820.055466	2444.059769
820.373919	2449.365584
820.692327	2463.521144
821.010691	2477.795171
821.329011	2522.285874
821.647286	2583.208218
821.965517	2649.673311
822.283704	2688.583457
822.601847	2701.496373
822.919945	2676.401509
823.237999	2639.780047
823.556010	2609.134873
823.873976	2577.446180
824.191897	2548.641027
824.509775	2526.341483
824.827609	2509.168792
825.145398	2500.316526
825.463144	2489.518374
825.780845	2492.931235
826.098502	2501.254180
826.416116	2518.353774
826.733685	2531.244005
827.051210	2535.854140
827.368692	2527.684950
827.686129	2509.541837
828.003522	2492.749754
828.320872	2474.228555
828.638177	2464.559622
828.955439	2454.421861
829.272656	2449.683177
829.589830	2440.006682
829.906960	2439.253029
830.224046	2433.415373
830.541088	2431.824889
830.858086	2428.538057
831.175041	2426.272058
831.491952	2428.749785
831.808819	2429.216092
832.125642	2429.755495
832.442421	2434.955446
832.759157	2442.504573
833.075849	2456.987808
833.392497	2468.395940
833.709101	2475.327526
834.025662	2476.292907
834.342179	2467.735548
834.658653	2457.335648
834.975083	2450.184771
835.291469	2447.949020
835.607811	2438.874943
835.924110	2436.172884
836.240366	2431.000660
836.556578	2427.630649
836.872746	2424.986564
837.188871	2426.267017
837.504952	2420.479772
837.820990	2419.463980
838.136984	2419.557241
838.452935	2419.784093
838.768842	2418.586819
839.084706	2421.477921
839.400526	2425.092428
839.716303	2437.120621
840.032037	2439.011054
840.347727	2437.889397
840.663373	2432.397060
840.978977	2429.016966
841.294537	2423.680905
841.610054	2423.811975
841.925527	2421.987077
842.240957	2418.271747
842.556344	2416.184709
842.871687	2414.069945
843.186987	2413.482651
843.502244	2409.396796
843.817458	2412.978535
844.132629	2410.649522
844.447756	2410.248751
844.762840	2405.928482
845.077881	2408.910324
845.392879	2405.487381
845.707833	2404.428738
846.022745	2403.178532
846.337613	2408.214645
846.652438	2408.358318
846.967221	2411.834193
847.281960	2405.752041
847.596656	2410.382341
847.911309	2406.674572
848.225919	2407.733215
848.540485	2410.614234
848.855009	2408.741446
849.169490	2406.077196
849.483928	2407.554254
849.798323	2408.832186
850.112675	2408.229768
850.426984	2409.174985
850.741251	2407.546692
851.055474	2407.765982
851.369654	2407.503842
851.683792	2408.328071
851.997887	2408.285221
852.311938	2409.608524
852.625947	2408.378482
852.939914	2408.305386
853.253837	2406.999727
853.567718	2405.510066
853.881555	2406.914027
854.195350	2405.222720
854.509103	2408.222207
854.822812	2405.605848
855.136479	2410.523493
855.450103	2407.619789
855.763685	2406.218348
856.077224	2407.657597
856.390720	2407.367731
856.704173	2406.183060
857.017584	2407.776065
857.330953	2407.723133
857.644278	2409.394275
857.957561	2410.876374
858.270802	2408.227248
858.584000	2404.862278
858.897155	2405.673903
859.210268	2408.287742
859.523339	2409.963925
859.836367	2408.083575
860.149352	2407.768503
860.462295	2409.071641
860.775195	2404.322874
861.088054	2403.740621
861.400869	2405.683986
861.713642	2403.453275
862.026373	2409.154820
862.339062	2406.185581
862.651708	2406.533420
862.964312	2405.636095
863.276873	2407.307237
863.589392	2405.527710
863.901869	2408.741446
864.214303	2407.551733
864.526696	2409.535427
864.839045	2405.850344
865.151353	2409.348905
865.463619	2407.529048
865.775842	2410.463000
866.088023	2408.678431
866.400162	2407.735735
866.712258	2409.863102
867.024313	2411.995510
867.336325	2408.617937
867.648296	2410.856210
867.960224	2407.619789
868.272110	2409.742115
868.583954	2409.502660
868.895755	2410.735222
869.207515	2410.480644
869.519233	2411.688000
869.830909	2409.333781
870.142542	2412.008113
870.454134	2411.246899
870.765684	2411.365366
871.077191	2410.762948
871.388657	2409.837897
871.700081	2410.964594
872.011463	2412.880233
872.322803	2409.585839
872.634101	2410.503329
872.945357	2410.916703
873.256571	2413.936355
873.567744	2410.094995
873.878874	2412.343350
874.189963	2411.047773
874.501010	2414.264030
874.812015	2411.254461
875.122979	2413.220511
875.433900	2410.596590
875.744780	2412.176992
876.055618	2414.478279
876.366415	2413.061714
876.677169	2414.339647
876.987882	2412.096333
877.298554	2411.151117
877.609183	2411.209090
877.919771	2412.645819
878.230317	2413.384348
878.540822	2417.724782
878.851285	2420.656213
879.161707	2422.718045
879.472087	2428.971596
879.782425	2437.712957
880.092722	2448.906839
880.402977	2471.526496
880.713191	2500.961793
881.023363	2527.664785
881.333494	2543.443597
881.643583	2548.625903
881.953631	2544.013247
882.263637	2537.527803
882.573602	2527.251411
882.883526	2513.617610
883.193408	2503.648728
883.503248	2495.487100
883.813048	2482.881695
884.122806	2476.401292
884.432522	2465.961062
884.742197	2457.370936
885.051831	2449.496654
885.361424	2444.246292
885.670975	2436.858481
885.980485	2435.888059
886.289954	2430.874632
886.599382	2426.647624
886.908768	2426.130906
887.218113	2422.397931
887.527417	2422.140833
887.836680	2419.940369
888.145901	2418.241500
888.455082	2417.772673
888.764221	2415.428536
889.073319	2417.160173
889.382376	2416.386355
889.691392	2415.662950
890.000366	2414.427867
890.309300	2416.865265
890.618193	2413.326375
890.927044	2414.783268
891.235855	2413.467527
891.544625	2414.594225
891.853353	2413.563309
892.162041	2417.714699
892.470687	2415.967940
892.779293	2418.425502
893.087858	2418.717889
893.396381	2421.097314
893.704864	2427.892789
894.013306	2434.254725
894.321707	2442.101281
894.630068	2452.682663
894.938387	2452.176027
895.246665	2448.657302
895.554903	2446.537497
895.863100	2439.996599
896.171256	2438.869902
896.479371	2435.520055
896.787446	2435.169695
897.095480	2432.089550
897.403473	2428.981678
897.711425	2424.116965
898.019336	2424.275761
898.327207	2422.024886
898.635038	2419.053126
898.942827	2417.598753
899.250576	2417.387024
899.558284	2416.252765
899.865952	2414.485840
900.173579	2412.366035
900.481165	2413.633885
900.788711	2412.353432
901.096216	2411.287228
901.403681	2412.003072
901.711105	2411.864440
902.018489	2413.429719
902.325832	2414.213618
902.633135	2413.286046
902.940397	2417.497930
903.247619	2422.100503
903.554800	2434.920157
903.861941	2446.940789
904.169041	2458.313632
904.476101	2460.090639
904.783121	2459.523509
905.090100	2452.551593
905.397039	2445.683021
905.703938	2441.413164
906.010796	2436.742535
906.317614	2432.449992
906.624391	2430.206679
906.931129	2422.097983
907.237826	2426.340114
907.544483	2418.352405
907.851099	2416.744277
908.157675	2415.330234
908.464211	2408.446538
908.770707	2406.127607
909.077163	2409.008627
909.383578	2406.656928
909.689954	2403.985117
909.996289	2402.601320
910.302584	2405.540313
910.608839	2407.133317
910.915054	2405.157185
911.221229	2405.931002
911.527363	2405.260529
911.833458	2407.065262
912.139513	2404.191804
912.445527	2406.856054
912.751502	2408.592732
913.057436	2410.725140
913.363331	2407.251785
913.669186	2410.392423
913.975000	2414.319482
914.280775	2417.664288
914.586510	2423.368353
914.892205	2428.858170
915.197859	2437.675148
915.503475	2444.435335
915.809050	2454.714248
916.114585	2456.377829
916.420081	2459.594085
916.725536	2457.456636
917.030952	2452.493620
917.336328	2449.468928
917.641665	2450.383897
917.946961	2444.200922
918.252218	2445.108329
918.557435	2437.239088
918.862612	2433.354879
919.167750	2432.807914
919.472848	2429.826072
919.777906	2424.719383
920.082925	2422.423137
920.387904	2418.690163
920.692843	2417.117323
920.997743	2416.978691
921.302603	2413.064235
921.607423	2413.633885
921.912204	2413.132291
922.216946	2411.597259
922.521647	2411.335119
922.826310	2408.007958
923.130932	2411.219173
923.435516	2408.154151
923.740059	2405.368914
924.044564	2407.087947
924.349028	2407.045097
924.653454	2403.894376
924.957840	2402.180384
925.262186	2401.129303
925.566493	2401.144427
925.870761	2400.320198
926.174989	2403.352452
926.479178	2403.289438
926.783328	2401.908162
927.087438	2403.980076
927.391509	2406.898904
927.695541	2404.201887
927.999533	2403.239026
928.303486	2402.689540
928.607400	2401.162071
928.911275	2401.575445
929.215110	2399.463202
929.518906	2401.073851
929.822663	2402.230795
930.126381	2399.538819
930.430060	2400.015208
930.733699	2399.022101
931.037299	2399.861453
931.340861	2401.593089
931.644383	2402.354304
931.947866	2403.851526
932.251309	2400.529406
932.554714	2401.595610
932.858080	2401.817421
933.161407	2400.438665
933.464694	2398.485218
933.767943	2404.038049
934.071153	2401.328429
934.374323	2401.555281
934.677455	2402.311454
934.980548	2402.019067
935.283602	2401.530075
935.586617	2400.083264
935.889593	2401.802297
936.192530	2398.331463
936.495428	2403.097874
936.798287	2402.482853
937.101108	2403.112997
937.403890	2402.424880
937.706632	2403.118038
938.009336	2402.457647
938.312002	2405.038718
938.614628	2403.649880
938.917216	2407.690365
939.219765	2403.029818
939.522275	2403.569222
939.824747	2406.006620
940.127179	2401.388923
940.429573	2399.919426
940.731929	2402.394633
941.034246	2401.585528
941.336524	2406.246074
941.638763	2402.346742
941.940964	2402.598800
942.243126	2402.321536
942.545250	2402.150137
942.847335	2403.261711
943.149381	2405.497463
943.451389	2401.701474
943.753359	2407.138359
944.055290	2405.530231
944.357182	2402.618964
944.659036	2404.126269
944.960851	2402.656773
945.262628	2403.972514
945.564367	2401.938408
945.866067	2401.119221
946.167729	2402.588717
946.469352	2401.887997
946.770937	2400.655435
947.072484	2402.119890
947.373992	2402.722308
947.675462	2401.081412
947.976893	2401.177194
948.278286	2401.265414
948.579641	2404.267422
948.880958	2401.744324
949.182236	2400.799108
949.483476	2398.931360
949.784678	2399.992523
950.085841	2401.580487
950.386967	2404.579973
950.688054	2402.994530
950.989103	2402.014026
951.290114	2405.056362
951.591087	2403.002092
951.892021	2401.850188
952.192917	2403.173491
952.493776	2403.102915
952.794596	2404.002761
953.095378	2401.212482
953.396122	2402.402195
953.696828	2401.872873
953.997496	2402.248439
954.298126	2401.940929
954.598718	2404.393450
954.899272	2403.964952
955.199788	2405.840262
955.500266	2402.349263
955.800706	2400.655435
956.101108	2394.969013
956.401472	2399.531258
956.701798	2396.110835
957.002087	2400.287431
957.302337	2399.334653
957.602550	2397.910527
957.902724	2398.618809
958.202861	2401.593089
958.502960	2397.666031
958.803022	2399.198541
959.103045	2398.283572
959.403031	2399.180897
959.702979	2398.752399
960.002889	2397.527399
960.302762	2400.478994
960.602596	2397.514796
960.902393	2397.655948
961.202153	2397.119065
961.501875	2397.973541
961.801559	2396.345248
962.101205	2397.711401
962.400814	2395.004301
962.700385	2395.936915
962.999918	2397.209806
963.299414	2398.165105
963.598873	2397.724004
963.898293	2398.328942
964.197677	2395.626884
964.497022	2397.356000
964.796331	2397.507234
965.095601	2396.148643
965.394835	2397.643345
965.694030	2397.671072
965.993189	2397.766854
966.292309	2396.052861
966.591393	2396.867008
966.890439	2395.644528
967.189447	2395.458005
967.488419	2397.192162
967.787353	2397.872718
968.086249	2395.077398
968.385108	2399.977400
968.683930	2395.589075
968.982714	2396.650238
969.281462	2395.198386
969.580172	2398.906154
969.878844	2398.848181
970.177480	2392.811399
970.476078	2397.678633
970.774639	2397.091339
971.073162	2397.401370
971.371649	2394.457336
971.670098	2393.617984
971.968510	2394.134702
972.266885	2392.957593
972.565223	2398.792728
972.863524	2396.814076
973.161788	2398.235681
973.460014	2398.409601
973.758204	2396.403222
974.056356	2398.759961
974.354471	2396.856925
974.652550	2401.451937
974.950591	2400.237019
975.248595	2396.483880
975.546563	2399.201062
975.844493	2398.777605
976.142386	2398.147461
976.440243	2396.781308
976.738062	2397.761813
977.035845	2396.788870
977.333590	2398.064282
977.631299	2399.884138
977.928971	2398.943963
978.226606	2398.444889
978.524204	2397.597975
978.821765	2395.684857
979.119290	2397.529919
979.416777	2396.572100
979.714228	2396.836761
980.011642	2396.125958
980.309020	2397.650907
980.606360	2397.058572
980.903664	2399.911865
981.200931	2398.381874
981.498162	2398.243243
981.795356	2399.770712
982.092513	2401.925806
982.389633	2400.605023
982.686717	2402.316495
982.983764	2401.212482
983.280775	2403.488563
983.577749	2402.203069
983.874686	2405.273132
984.171587	2401.832544
984.468451	2403.947308
984.765279	2403.065106
985.062070	2403.170971
985.358824	2403.246588
985.655543	2399.954714
985.952224	2401.164591
986.248869	2396.567059
986.545478	2395.291647
986.842050	2398.439848
987.138586	2392.859290
987.435086	2397.976062
987.731549	2392.758467
988.027975	2397.451782
988.324366	2396.287275
988.620719	2395.137892
988.917037	2395.458005
989.213318	2395.480690
989.509563	2397.020763
989.805772	2397.703839
990.101944	2395.221071
990.398080	2394.076729
990.694180	2393.592778
990.990244	2397.345917
991.286271	2392.002294
991.582262	2396.677964
991.878217	2395.989847
992.174136	2394.689229
992.470019	2396.771226
992.765865	2396.403222
993.061676	2396.569580
993.357450	2399.410270
993.653188	2393.950700
993.948890	2397.998747
994.244556	2395.808365
994.540186	2398.081926
994.835780	2398.021432
995.131337	2397.522358
995.426859	2399.248953
995.722345	2400.123593
996.017795	2397.993706
996.313208	2402.802966
996.608586	2399.339694
996.903928	2400.380692
997.199234	2399.284241
997.494504	2400.116031
997.789738	2397.368602
998.084936	2400.259704
998.380099	2398.001267
998.675225	2399.488408
998.970316	2399.405229
999.265371	2398.777605
999.560390	2397.829868
999.855373	2399.279200
1000.150320	2397.655948
1000.445232	2397.247615
1000.740108	2394.389281
1001.034948	2396.617471
1001.329752	2393.219733
1001.624521	2396.004970
1001.919254	2388.808723
1002.213951	2393.786863
1002.508613	2393.532284
1002.803239	2390.379043
1003.097829	2391.541029
1003.392384	2393.688560
1003.686903	2396.650238
1003.981386	2393.857439
1004.275834	2394.328787
1004.570246	2395.382388
1004.864623	2396.803993
1005.158964	2395.705022
1005.453270	2395.775598
1005.747540	2396.725855
1006.041775	2394.759805
1006.335974	2394.734600
1006.630138	2396.315001
1006.924266	2394.480021
1007.218359	2395.823489
1007.512416	2395.102604
1007.806438	2394.190155
1008.100425	2395.478170
1008.394376	2393.373488
1008.688292	2392.589589
1008.982172	2395.856256
1009.276017	2393.018087
1009.569827	2394.197717
1009.863602	2395.142933
1010.157341	2392.844167
1010.451045	2392.266955
1010.744714	2393.383570
1011.038347	2396.708211
1011.331945	2393.895247
1011.625508	2393.948180
1011.919036	2396.272152
1012.212528	2394.192676
1012.505986	2395.145454
1012.799408	2397.126627
1013.092795	2395.100083
1013.386147	2394.999260
1013.679464	2394.558159
1013.972745	2396.461195
1014.265992	2395.004301
1014.559204	2395.382388
1014.852380	2396.650238
1015.145521	2395.417676
1015.438628	2393.630587
1015.731699	2394.142264
1016.024736	2391.719990
1016.317737	2396.098232
1016.610703	2395.699981
1016.903635	2389.970709
1017.196531	2389.592623
1017.489393	2391.510782
1017.782219	2390.096738
1018.075011	2396.105793
1018.367768	2393.617984
1018.660490	2394.971534
1018.953177	2394.971534
1019.245829	2394.971534
