Dividing Wavelength (nm)	Counts (n)	Blue Motor Position (mm): 0.000000	Red Motor Position (mm): 30.000000	
326.493990	1987.694194
326.888308	1987.694194
327.282561	1987.694194
327.676750	1964.262911
328.070874	1966.047479
328.464933	1970.425722
328.858929	1980.502988
329.252859	1993.920019
329.646726	2008.103305
330.040528	2023.864473
330.434265	2041.937009
330.827938	2064.150854
331.221547	2079.191136
331.615091	2102.849271
332.008571	2122.388784
332.401986	2143.624644
332.795338	2166.597182
333.188625	2185.491427
333.581847	2203.221165
333.975006	2222.170862
334.368100	2237.609396
334.761129	2255.034144
335.154095	2270.447472
335.546996	2293.782973
335.939833	2321.544608
336.332606	2334.744869
336.725315	2344.312979
337.117960	2353.664319
337.510540	2359.963241
337.903056	2368.954139
338.295508	2375.346322
338.687896	2384.735471
339.080220	2393.171842
339.472480	2397.522358
339.864676	2405.008471
340.256807	2402.079561
340.648875	2403.932185
341.040879	2408.207083
341.432818	2407.334964
341.824694	2411.503998
342.216506	2406.888822
342.608253	2409.641292
342.999937	2411.544327
343.391557	2409.243040
343.783113	2405.323543
344.174605	2404.887483
344.566033	2402.182904
344.957397	2402.213151
345.348697	2398.402039
345.739934	2398.840619
346.131106	2396.340207
346.522215	2396.231822
346.913260	2391.069681
347.304241	2389.748898
347.695159	2390.096738
348.086012	2389.617828
348.476802	2386.782179
348.867528	2385.337889
349.258191	2386.157076
349.648789	2383.530635
350.039324	2381.776314
350.429796	2384.748074
350.820203	2385.103475
351.210548	2382.401417
351.600828	2381.032743
351.991045	2382.353526
352.381198	2380.616848
352.771288	2382.310676
353.161314	2378.398741
353.551276	2380.649616
353.941175	2383.424771
354.331010	2384.581716
354.720782	2381.914945
355.110490	2382.703886
355.500135	2380.929400
355.889717	2383.954092
356.279235	2382.550131
356.668689	2383.664226
357.058080	2385.179093
357.447408	2381.531818
357.836672	2384.579195
358.225873	2384.057436
358.615010	2383.656664
359.004084	2387.634134
359.393095	2389.839639
359.782043	2392.289640
360.170927	2389.063302
360.559748	2390.966337
360.948505	2393.842315
361.337199	2391.354506
361.725830	2395.150495
362.114398	2397.429096
362.502903	2395.127810
362.891344	2398.250804
363.279722	2397.048489
363.668037	2396.221740
364.056289	2393.249980
364.444478	2399.374982
364.832603	2401.441855
365.220665	2401.522513
365.608665	2402.437483
365.996601	2400.824313
366.384474	2401.593089
366.772284	2402.964283
367.160031	2406.099881
367.547715	2402.397153
367.935336	2406.263718
368.322893	2408.131466
368.710388	2409.159861
369.097820	2414.614390
369.485189	2410.115160
369.872495	2412.219842
370.259738	2413.729667
370.646918	2420.724268
371.034035	2416.671181
371.421090	2419.940369
371.808081	2423.572520
372.195010	2430.899837
372.581875	2436.540888
372.968678	2441.312341
373.355418	2451.273661
373.742096	2458.737089
374.128710	2471.377782
374.515262	2483.572333
374.901751	2498.607575
375.288177	2512.851355
375.674540	2533.938501
376.060841	2555.146636
376.447079	2580.629668
376.833254	2605.459872
377.219367	2632.447689
377.605417	2666.389777
377.991404	2692.785259
378.377329	2733.893348
378.763191	2766.703698
379.148991	2816.938796
379.534727	2865.956455
379.920402	2912.017478
380.306013	2962.660910
380.691563	3027.205323
381.077049	3086.058273
381.462474	3140.643887
381.847835	3213.793550
382.233134	3288.425312
382.618371	3348.193232
383.003545	3435.309412
383.388657	3518.947195
383.773706	3610.232409
384.158693	3681.781506
384.543618	3779.784057
384.928480	3858.766335
385.313280	3964.764156
385.698017	4071.412287
386.082692	4193.236810
386.467305	4257.277108
386.851856	4383.492477
387.236344	4545.507600
387.620770	4604.569758
388.005133	4729.585333
388.389435	4878.679978
388.773674	4961.944716
389.157851	5097.556796
389.541965	5234.174586
389.926018	5253.562863
390.310008	5437.191933
390.693936	5562.736829
391.077802	5677.130692
391.461606	5811.303522
391.845348	5930.015133
392.229027	6052.863012
392.612645	6277.063288
392.996200	6395.911010
393.379694	6570.070273
393.763125	6797.660725
394.146494	6896.840386
394.529801	7029.626898
394.913047	7275.746112
395.296230	7275.597397
395.679351	7333.396747
396.062410	7598.488343
396.445408	7493.939853
396.828343	7652.025396
397.211217	7788.721324
397.594028	7663.877149
397.976778	7875.822380
398.359466	8041.686424
398.742092	8018.371087
399.124656	8169.018408
399.507158	8351.513219
399.889598	8372.310499
400.271977	8584.485103
400.654294	8617.721430
401.036549	8813.658477
401.418742	8849.677521
401.800874	9151.579622
402.182944	9227.874965
402.564952	9601.023693
402.946898	9424.356457
403.328783	9476.262698
403.710606	9677.266104
404.092367	9937.051885
404.474067	10309.499893
404.855705	10091.220452
405.237282	10043.936950
405.618797	10476.762857
406.000250	10728.492875
406.381642	11094.304203
406.762972	11037.394618
407.144240	10838.011942
407.525447	11098.304359
407.906593	11035.047961
408.287677	11293.913731
408.668700	11448.319232
409.049661	11424.373752
409.430560	11591.306520
409.811399	11561.510780
410.192176	11723.994730
410.572891	11803.589508
410.953545	12286.065740
411.334138	11753.591345
411.714669	12362.774458
412.095139	11665.875268
412.475547	12178.711848
412.855894	12008.083914
413.236180	12342.463649
413.616405	12029.047553
413.996568	12302.550313
414.376670	12284.616408
414.756711	12153.624546
415.136691	12441.678598
415.516609	12617.317439
415.896466	12689.226978
416.276262	12987.617915
416.655997	13426.836006
417.035670	13463.366727
417.415283	14108.926806
417.794834	14202.508266
418.174324	13954.551552
418.553753	13850.287888
418.933121	14351.907901
419.312428	14153.170493
419.691674	14073.071600
420.070859	14524.481721
420.449983	14173.302341
420.829045	14733.341766
421.208047	14466.957114
421.586988	14935.189566
421.965867	15194.700604
422.344686	15184.804819
422.723444	15751.574184
423.102141	14436.296817
423.480777	15628.441481
423.859352	15120.285612
424.237866	16254.202428
424.616319	15943.175839
424.994712	16607.632683
425.373044	16402.553504
425.751314	17080.502997
426.129524	16199.450457
426.507673	17304.209240
426.885762	16991.483781
427.263789	17188.923092
427.641756	17366.873302
428.019662	17426.300945
428.397508	17468.303838
428.775292	17767.403058
429.153016	17741.337772
429.530679	17813.965675
429.908282	17835.655240
430.285824	17548.052372
430.663305	18265.131301
431.040726	17852.606120
431.418086	17687.652004
431.795385	18341.209874
432.172624	18753.248583
432.549802	18309.919432
432.926920	18507.572992
433.303977	18389.524292
433.680974	18643.905957
434.057910	18930.266180
434.434786	18952.837947
434.811601	18859.480818
435.188355	19914.889226
435.565050	19556.460667
435.941683	19508.194139
436.318257	20393.304808
436.694770	20213.917869
437.071222	20794.265582
437.447614	19862.453664
437.823946	19887.719927
438.200218	20049.702283
438.576429	19817.947838
438.952580	20092.902451
439.328670	20061.974972
439.704700	20484.945423
440.080670	20045.354287
440.456580	20635.020573
440.832429	20813.893315
441.208218	19805.418050
441.583947	20248.550596
441.959616	20346.843014
442.335224	20586.582647
442.710773	20715.295907
443.086261	21258.928897
443.461689	20623.007504
443.837057	20747.755897
444.212365	21398.556256
444.587612	21382.079244
444.962800	20953.092175
445.337927	21395.622304
445.712995	20113.389700
446.088002	21973.698977
446.462949	22161.245024
446.837837	22333.342454
447.212664	22286.923510
447.587431	25132.659897
447.962139	28074.364730
448.336786	30477.928911
448.711374	28917.643904
449.085901	25230.649846
449.460369	25173.342009
449.834776	25078.691825
450.209124	27557.505309
450.583412	27108.766999
450.957640	27627.095917
451.331808	26280.724712
451.705917	24896.749021
452.079965	24937.458858
452.453954	25304.815301
452.827883	25178.123543
453.201752	24984.432330
453.575562	25137.174250
453.949311	26274.486284
454.323001	26322.838512
454.696632	26082.715751
455.070202	27637.823492
455.443713	27763.985929
455.817164	28356.059366
456.190556	28898.076666
456.563888	28343.506893
456.937160	28788.209759
457.310373	27107.151309
457.683526	27565.424961
458.056619	27537.668368
458.429653	27462.073746
458.802628	28033.261682
459.175542	28159.870261
459.548398	29451.093763
459.921194	31020.987209
460.293930	31686.021265
460.666607	33714.478229
461.039224	35478.821582
461.411782	35870.103340
461.784280	34682.465468
462.156719	34198.302970
462.529099	33642.099863
462.901419	32335.188290
463.273680	31283.154935
463.645882	31352.470801
464.018024	31337.717864
464.390106	32147.564106
464.762130	34855.535841
465.134094	38881.791992
465.505999	44198.356675
465.877845	48768.011402
466.249631	49947.502771
466.621358	48246.120909
466.993026	46139.818448
467.364634	44062.616046
467.736184	42059.311919
468.107674	40823.248723
468.479105	40024.669460
468.850477	39321.539403
469.221790	37877.498364
469.593043	36138.605277
469.964238	35244.324749
470.335373	35159.164537
470.706449	36852.397373
471.077467	39396.052698
471.448425	43920.871403
471.819324	46743.022752
472.190164	44910.543164
472.560945	41353.888138
472.931667	38241.202490
473.302330	37128.992882
473.672934	36302.140307
474.043479	36776.548172
474.413965	35956.811187
474.784393	35564.160755
475.154761	36439.660464
475.525070	36444.820085
475.895321	35950.396318
476.265513	36527.885697
476.635645	37448.692776
477.005719	37240.064624
477.375734	37678.135852
477.745691	38308.096081
478.115588	39603.198751
478.485427	41493.588594
478.855207	44744.076703
479.224928	47267.582536
479.594591	48874.485613
479.964194	47830.238320
480.333739	47947.772822
480.703226	47888.987927
481.072653	48451.008525
481.442022	48840.472948
481.811333	49042.252692
482.180584	47693.164306
482.549777	47098.782020
482.918912	46478.677247
483.287988	46110.594879
483.657005	45203.895468
484.025964	44500.561246
484.394864	44422.314976
484.763706	43885.389242
485.132489	42954.053713
485.501213	42695.240874
485.869879	42708.647823
486.238487	42203.751059
486.607036	42260.784153
486.975527	41639.134267
487.343959	41676.655575
487.712333	41628.671352
488.080648	41404.340006
488.448905	41687.436082
488.817104	41358.515918
489.185244	42102.630554
489.553326	43457.228922
489.921350	45832.749164
490.289315	48472.264550
490.657222	48902.990817
491.025070	49036.657011
491.392861	47905.832942
491.760593	46482.032135
492.128267	44687.310790
492.495883	43059.446596
492.863440	41590.993768
493.230939	40155.268112
493.598380	38949.653484
493.965763	38453.946744
494.333088	37517.867489
494.700354	36885.815182
495.067563	36402.577736
495.434713	36081.194096
495.801805	35913.878200
496.168839	35351.582859
496.535815	34849.816652
496.902733	34638.594826
497.269593	34054.627565
497.636395	33756.675208
498.003139	33829.003163
498.369825	33154.912673
498.736453	33152.860923
499.103023	32529.655841
499.469535	32160.512309
499.835989	31980.248210
500.202385	31459.204630
500.568723	31216.909132
500.935003	31092.546388
501.301226	30665.989155
501.667390	30871.161596
502.033497	30782.739758
502.399546	30082.687326
502.765537	29311.179059
503.131470	29307.809048
503.497345	29269.060218
503.863163	28039.585810
504.228923	28180.387757
504.594625	28168.712445
504.960269	27380.359163
505.325856	27553.502632
505.691385	26844.938212
506.056856	26642.409857
506.422270	26607.880473
506.787625	26050.631327
507.152924	25867.667690
507.518164	25628.044003
507.883347	24835.677962
508.248472	24702.891449
508.613540	24663.109184
508.978550	24545.105855
509.343503	24097.688327
509.708398	23891.515217
510.073236	23881.188414
510.438016	23565.745773
510.802738	22945.716618
511.167403	22982.443944
511.532010	22775.272686
511.896561	22638.009628
512.261053	22769.881172
512.625488	22205.677754
512.989866	21824.450577
513.354186	21432.856266
513.718449	21109.138572
514.082655	21130.273610
514.446803	20664.448309
514.810894	20595.565983
515.174927	20257.506206
515.538904	19898.323994
515.902822	19892.801410
516.266684	19346.095838
516.630488	19224.437672
516.994235	18864.799236
517.357925	18801.056366
517.721558	18570.007682
518.085133	18395.535868
518.448651	18146.954052
518.812112	17756.307478
519.175516	17503.841452
519.538863	17344.059561
519.902152	17042.457408
520.265385	16918.840754
520.628560	16663.685273
520.991678	16313.045297
521.354739	16119.603621
521.717743	15950.314113
522.080690	15653.871582
522.443580	15557.167127
522.806413	15320.484954
523.169189	15049.515373
523.531908	14851.405589
523.894569	14557.881886
524.257174	14367.061610
524.619722	14196.842009
524.982213	13958.869300
525.344647	13693.109752
525.707025	13472.929796
526.069345	13341.769055
526.431608	13095.175974
526.793815	12950.247842
527.155964	12597.848503
527.518057	12411.960996
527.880093	12153.629588
528.242072	12062.649363
528.603995	11797.479630
528.965860	11601.759352
529.327669	11421.850654
529.689421	11207.399969
530.051117	11011.152891
530.412755	10847.877480
530.774337	10685.963180
531.135862	10466.804058
531.497331	10326.173510
531.858743	10140.137289
532.220098	10031.303818
532.581396	9809.208224
532.942638	9595.667467
533.303824	9489.402465
533.664953	9333.371192
534.026025	9130.903330
534.387040	9058.265344
534.747999	8901.049400
535.108902	8788.659395
535.469748	8580.484947
535.830537	8453.465514
536.191270	8348.443156
536.551947	8172.809356
536.912567	8084.609328
537.273131	7971.574056
537.633638	7786.911550
537.994089	7710.364149
538.354483	7539.975670
538.714821	7485.291753
539.075103	7417.125271
539.435328	7279.118643
539.795497	7160.364182
540.155609	7052.831330
540.515665	6990.885631
540.875665	6839.434246
541.235609	6769.394975
541.595496	6673.577764
541.955328	6638.554348
542.315102	6486.031717
542.674821	6373.861003
543.034483	6284.589730
543.394090	6192.402150
543.753640	6110.004490
544.113134	6103.574499
544.472571	5939.510147
544.831953	5949.922650
545.191278	5816.400129
545.550548	5715.077977
545.909761	5673.526267
546.268918	5609.216267
546.628019	5557.441097
546.987064	5460.053566
547.346053	5333.281150
547.704986	5319.833872
548.063863	5231.255758
548.422684	5175.026728
548.781449	5100.241210
549.140158	5061.532711
549.498811	4992.438656
549.857408	4901.155963
550.215949	4883.108632
550.574434	4821.127645
550.932864	4757.936782
551.291237	4735.733020
551.649555	4668.448739
552.007817	4623.093478
552.366022	4557.412285
552.724173	4516.339484
553.082267	4483.844206
553.440305	4452.538641
553.798288	4374.990571
554.156215	4337.315508
554.514086	4310.236950
554.871902	4252.767796
555.229661	4210.964028
555.587365	4160.804547
555.945014	4124.021768
556.302606	4083.367383
556.660143	4054.963002
557.017625	4018.422198
557.375050	3975.637925
557.732421	3955.596818
558.089735	3915.481836
558.446994	3883.611662
558.804197	3868.268910
559.161345	3833.426975
559.518437	3777.142493
559.875474	3756.942589
560.232455	3729.924525
560.589381	3707.998026
560.946251	3673.244312
561.303065	3662.405831
561.659825	3628.456180
562.016528	3600.293774
562.373177	3566.863363
562.729770	3556.060170
563.086307	3523.327958
563.442789	3510.445289
563.799216	3490.454594
564.155587	3466.882158
564.511904	3449.694344
564.868164	3432.166253
565.224370	3418.965991
565.580520	3395.564955
565.936615	3383.259498
566.292654	3363.699822
566.648638	3351.379242
567.004567	3337.873990
567.360441	3324.318328
567.716260	3301.701191
568.072023	3295.833288
568.427732	3277.309568
568.783385	3259.206785
569.138982	3257.843152
569.494525	3244.715988
569.850013	3227.094635
570.205445	3219.585836
570.560823	3211.386399
570.916145	3197.520706
571.271412	3189.515353
571.626625	3176.884742
571.981782	3166.671365
572.336884	3156.034530
572.691931	3151.036226
573.046923	3139.328146
573.401860	3126.808441
573.756743	3118.480454
574.111570	3112.075668
574.466342	3105.572580
574.821059	3099.371961
575.175722	3088.699838
575.530330	3081.886719
575.884882	3069.838361
576.239380	3065.248390
576.593823	3057.301011
576.948211	3050.210628
577.302544	3040.413146
577.656823	3034.446940
578.011047	3034.235212
578.365216	3021.735671
578.719330	3013.911800
579.073389	3007.063393
579.427394	3005.127590
579.781344	2999.473936
580.135239	2991.256855
580.489080	2986.739981
580.842866	2977.295379
581.196597	2978.522900
581.550273	2973.806901
581.903895	2967.500417
582.257463	2969.811786
582.610975	2954.910136
582.964434	2954.736216
583.317837	2947.156841
583.671186	2939.897579
584.024481	2939.920265
584.377721	2931.597320
584.730906	2930.158070
585.084037	2926.967020
585.437113	2919.632141
585.790135	2914.321285
586.143103	2910.369021
586.496016	2906.217631
586.848874	2895.769839
587.201679	2900.304357
587.554428	2886.201729
587.907124	2887.343551
588.259765	2880.482540
588.612352	2885.322048
588.964884	2873.775285
589.317362	2871.539533
589.669786	2871.451313
590.022155	2864.751620
590.374470	2865.994264
590.726731	2855.924559
591.078937	2847.833507
591.431090	2846.411902
591.783188	2839.767661
592.135232	2835.293637
592.487222	2834.721466
592.839157	2834.844974
593.191038	2827.555466
593.542866	2823.275526
593.894639	2817.155566
594.246358	2813.306645
594.598022	2809.646767
594.949633	2806.170891
595.301190	2803.620067
595.652692	2797.984057
596.004141	2799.110755
596.355535	2788.148766
596.706876	2783.152983
597.058162	2778.452107
597.409395	2782.825308
597.760573	2781.159207
598.111698	2772.110335
598.462768	2773.305089
598.813785	2771.581014
599.164748	2761.894437
599.515657	2765.274531
599.866511	2756.918818
600.217312	2758.645413
600.568060	2750.451018
600.918753	2755.096441
601.269392	2751.302973
601.619978	2745.644278
601.970510	2745.974473
602.320988	2744.462127
602.671412	2746.012282
603.021783	2740.530027
603.372100	2735.700602
603.722363	2736.915520
604.072572	2733.076681
604.422728	2732.794377
604.772830	2728.579972
605.122878	2721.512274
605.472872	2723.027141
605.822813	2722.732233
606.172701	2722.104610
606.522534	2718.709393
606.872314	2721.983622
607.222041	2717.544886
607.571714	2718.293497
607.921333	2710.409133
608.270899	2716.352653
608.620411	2714.089175
608.969870	2714.058928
609.319276	2709.058104
609.668627	2709.269832
610.017926	2707.397043
610.367171	2711.056921
610.716362	2705.960315
611.065500	2707.528113
611.414585	2703.669110
611.763616	2705.327650
612.112594	2705.912424
612.461518	2702.610468
612.810389	2703.147351
613.159207	2699.474870
613.507971	2697.995292
613.856682	2700.921681
614.205340	2698.597709
614.553945	2700.372196
614.902496	2695.804910
615.250994	2697.735672
615.599439	2695.520085
615.947830	2697.130734
616.296169	2695.777184
616.644454	2694.925229
616.992686	2695.550332
617.340864	2697.042513
617.688990	2694.101000
618.037063	2696.122503
618.385082	2694.937832
618.733048	2695.918336
619.080961	2690.199147
619.428821	2693.128057
619.776628	2692.341637
620.124382	2690.267203
620.472083	2691.202337
620.819731	2691.109075
621.167326	2685.410051
621.514868	2686.549352
621.862357	2683.310410
622.209793	2679.184226
622.557176	2680.285718
622.904506	2677.225738
623.251783	2670.306754
623.599007	2672.290448
623.946179	2667.040086
624.293297	2664.380878
624.640363	2665.028666
624.987376	2660.811741
625.334336	2661.207471
625.681243	2656.710762
626.028097	2655.193375
626.374899	2655.304280
626.721647	2655.538694
627.068343	2653.653302
627.414987	2648.856644
627.761577	2650.958806
628.108115	2649.141470
628.454600	2647.182981
628.801032	2645.836993
629.147412	2647.019144
629.493739	2644.367497
629.840014	2644.009575
630.186236	2639.349028
630.532405	2644.523773
630.878521	2641.252064
631.224585	2641.317599
631.570597	2636.828451
631.916556	2638.426497
632.262462	2639.863226
632.608316	2638.280304
632.954117	2637.342649
633.299866	2637.481281
633.645562	2636.042031
633.991206	2632.782925
634.336797	2627.562811
634.682336	2629.720424
635.027823	2624.122223
635.373257	2626.347892
635.718639	2623.824795
636.063968	2623.361009
636.409245	2618.697942
636.754470	2620.669033
637.099642	2615.665687
637.444762	2615.151490
637.789829	2616.114350
638.134845	2614.231479
638.479808	2610.536313
638.824719	2609.833072
639.169577	2607.907352
639.514383	2608.103957
639.859137	2605.180087
640.203839	2607.844337
640.548489	2605.842999
640.893086	2602.256218
641.237632	2598.583738
641.582125	2600.774119
641.926566	2597.714139
642.270955	2602.127669
642.615292	2600.615323
642.959576	2602.193204
643.303809	2599.433172
643.647990	2600.726228
643.992118	2600.280086
644.336195	2602.727566
644.680219	2599.927205
645.024192	2601.792432
645.368112	2604.287803
645.711981	2601.847885
646.055797	2604.554984
646.399562	2606.342073
646.743274	2612.353649
647.086935	2613.790378
647.430544	2612.265429
647.774101	2610.024636
648.117606	2614.561675
648.461059	2615.653085
648.804460	2611.433639
649.147810	2609.434821
649.491108	2606.619337
649.834354	2606.579008
650.177548	2601.983996
650.520690	2599.418049
650.863781	2596.710949
651.206820	2601.361413
651.549807	2595.158274
651.892742	2593.731627
652.235626	2593.272882
652.578458	2590.835484
652.921238	2587.077304
653.263967	2587.936821
653.606644	2586.963878
653.949269	2587.510843
654.291843	2586.374063
654.634365	2586.545462
654.976836	2582.562951
655.319255	2584.443301
655.661622	2582.532704
656.003938	2584.579412
656.346203	2579.964236
656.688416	2580.571695
657.030577	2580.959864
657.372687	2580.879205
657.714746	2581.307703
658.056753	2582.086562
658.398708	2573.360324
658.740612	2577.262177
659.082465	2574.144224
659.424266	2574.466858
659.766016	2573.430901
660.107715	2579.026581
660.449362	2577.405850
660.790958	2579.213104
661.132503	2578.892991
661.473996	2578.474575
661.815438	2577.632702
662.156829	2579.523135
662.498168	2578.411561
662.839456	2577.264698
663.180693	2579.109760
663.521879	2579.669328
663.863013	2578.149421
664.204097	2578.212435
664.545129	2582.119329
664.886110	2580.014647
665.227040	2578.630851
665.567918	2579.676890
665.908746	2581.481623
666.249522	2583.619072
666.590248	2579.026581
666.930922	2584.027406
667.271545	2581.035481
667.612118	2584.183682
667.952639	2581.821901
668.293109	2580.869123
668.633528	2581.390883
668.973896	2575.913669
669.314213	2580.780903
669.654480	2577.577250
669.994695	2579.767631
670.334859	2577.612538
670.674973	2574.713874
671.015035	2576.485840
671.355047	2575.840572
671.695008	2576.281673
672.034918	2578.298135
672.374777	2576.473237
672.714585	2577.264698
673.054342	2577.665470
673.394049	2575.843093
673.733705	2576.964749
674.073310	2578.051118
674.412864	2578.358628
674.752368	2573.390571
675.091820	2574.638257
675.431223	2571.737073
675.770574	2573.554409
676.109875	2567.318502
676.449125	2567.101732
676.788324	2566.706001
677.127473	2567.956207
677.466571	2562.511761
677.805619	2566.937894
678.144616	2566.385888
678.483562	2565.433110
678.822458	2563.106618
679.161303	2565.176011
679.500098	2562.037893
679.838842	2562.204251
680.177535	2560.891030
680.516179	2564.195507
680.854771	2567.026115
681.193314	2569.534089
681.531805	2575.412074
681.870247	2578.358628
682.208638	2578.600604
682.546978	2583.041860
682.885268	2582.908270
683.223508	2581.471541
683.561697	2578.514904
683.899836	2581.169072
684.237925	2574.403843
684.575963	2574.882753
684.913951	2573.143555
685.251889	2574.240006
685.589776	2572.493246
685.927614	2571.878225
686.265401	2573.614903
686.603137	2575.076837
686.940824	2574.560119
687.278460	2580.299473
687.616046	2578.540110
687.953582	2580.249061
688.291068	2579.621437
688.628504	2584.153435
688.965889	2582.920873
689.303224	2582.436922
689.640510	2580.034812
689.977745	2575.003741
690.314930	2571.928637
690.652065	2571.313616
690.989150	2568.346897
691.326185	2562.403377
691.663170	2560.896072
692.000105	2556.568241
692.336990	2551.716130
692.673825	2549.727395
693.010610	2548.666232
693.347345	2542.974770
693.684030	2538.094933
694.020665	2539.498894
694.357251	2532.907585
694.693786	2537.878163
695.030272	2538.115097
695.366707	2537.346321
695.703093	2530.087060
696.039429	2532.063192
696.375716	2530.810465
696.711952	2532.224509
697.048139	2530.639066
697.384276	2529.482121
697.720363	2531.180990
698.056400	2531.959848
698.392388	2530.742410
698.728326	2529.164529
699.064214	2529.497245
699.400053	2527.808458
699.735842	2527.916843
700.071581	2522.585823
700.407270	2522.863086
700.742910	2522.795031
701.078501	2520.967613
701.414042	2522.651358
701.749533	2518.474762
702.084974	2517.325379
702.420366	2516.107940
702.755709	2516.813702
703.091002	2516.354957
703.426246	2514.807322
703.761440	2513.143742
704.096584	2513.322703
704.431679	2513.385717
704.766725	2514.066273
705.101721	2512.803464
705.436668	2514.179699
705.771565	2510.892867
706.106413	2514.920748
706.441212	2514.686335
706.775961	2513.937723
707.110661	2516.148269
707.445311	2515.434946
707.779913	2514.532580
708.114465	2516.780934
708.448967	2516.332272
708.783421	2520.929804
709.117825	2521.469207
709.452180	2523.987264
709.786485	2528.239477
710.120742	2531.377595
710.454949	2529.119158
710.789107	2527.599250
711.123216	2532.529499
711.457275	2533.540250
711.791286	2536.703574
712.125247	2539.082999
712.459159	2535.024870
712.793023	2545.523073
713.126837	2534.956814
713.460602	2538.336908
713.794318	2538.127700
714.127985	2534.087215
714.461602	2533.867925
714.795171	2531.594365
715.128691	2526.449867
715.462162	2522.550535
715.795584	2520.219001
716.128957	2521.010462
716.462281	2516.906963
716.795556	2518.694052
717.128782	2515.626510
717.461960	2512.458145
717.795088	2512.909328
718.128167	2508.205932
718.461198	2505.093019
718.794180	2506.688544
719.127113	2503.593276
719.459997	2508.009327
719.792833	2502.562360
720.125619	2500.540857
720.458357	2497.501041
720.791046	2501.516320
721.123686	2498.305105
721.456278	2496.361741
721.788821	2495.625732
722.121315	2494.609940
722.453761	2496.475167
722.786158	2498.330311
723.118506	2496.886021
723.450805	2496.702018
723.783056	2494.093221
724.115259	2498.640342
724.447412	2496.591113
724.779518	2497.924498
725.111574	2497.274189
725.443582	2502.741321
725.775542	2498.552122
726.107453	2502.005312
726.439315	2499.918275
726.771129	2509.004954
727.102895	2506.454131
727.434612	2507.376662
727.766281	2508.712567
728.097901	2507.880777
728.429473	2506.358349
728.760996	2509.128463
729.092471	2503.222751
729.423897	2513.574760
729.755276	2510.149296
730.086606	2507.946312
730.417887	2510.018226
730.749120	2514.119205
731.080305	2514.242713
731.411442	2521.494413
731.742530	2520.844104
732.073570	2521.595236
732.404562	2522.704290
732.735506	2519.775380
733.066401	2520.695390
733.397249	2518.915863
733.728048	2513.937723
734.058798	2509.947650
734.389501	2506.000427
734.720156	2505.486229
735.050762	2499.288130
735.381320	2498.516834
735.711831	2497.921978
736.042293	2497.289313
736.372707	2494.902327
736.703073	2495.025835
737.033391	2495.015753
737.363661	2496.026504
737.693883	2495.776967
738.024056	2498.322749
738.354182	2497.438027
738.684260	2500.908861
739.014290	2501.521362
739.344272	2506.020591
739.674207	2504.178050
740.004093	2505.468585
740.333931	2509.327588
740.663722	2504.387257
740.993464	2507.520335
741.323159	2507.651405
741.652806	2503.779798
741.982405	2503.832731
742.311956	2499.951042
742.641460	2500.802997
742.970915	2496.104642
743.300323	2497.511124
743.629683	2495.174549
743.958996	2494.113386
744.288260	2490.975268
744.617477	2491.146667
744.946647	2483.998311
745.275768	2489.175576
745.604842	2484.396562
745.933869	2483.242138
746.262847	2481.137456
746.591778	2485.513177
746.920662	2484.015955
747.249498	2486.372694
747.578286	2487.138950
747.907027	2490.025010
748.235720	2491.998622
748.564365	2488.376553
748.892963	2488.174907
749.221514	2489.505771
749.550017	2490.226656
749.878473	2487.912767
750.206881	2486.649958
750.535242	2485.823208
750.863555	2487.207005
751.191821	2486.060143
751.520039	2486.944865
751.848210	2485.157776
752.176334	2483.874802
752.504411	2485.303970
752.832440	2482.813640
753.160421	2484.467138
753.488356	2483.234576
753.816243	2484.903198
754.144082	2480.804740
754.471875	2484.177272
754.799620	2484.469659
755.127318	2480.842548
755.454969	2481.664257
755.782572	2485.750112
756.110129	2483.635348
756.437638	2483.915132
756.765100	2480.610655
757.092515	2481.936479
757.419882	2478.632003
757.747203	2482.352374
758.074477	2483.645430
758.401703	2481.129894
758.728882	2483.219452
759.056014	2483.017806
759.383099	2484.394041
759.710138	2488.517705
760.037129	2480.968577
760.364073	2487.897643
760.690970	2483.214411
761.017820	2484.792293
761.344623	2488.432006
761.671379	2492.502737
761.998088	2492.689260
762.324751	2505.365241
762.651366	2523.125226
762.977935	2550.622200
763.304456	2562.806669
763.630931	2571.162381
763.957359	2563.252811
764.283740	2551.620348
764.610074	2537.681558
764.936362	2523.820906
765.262602	2513.630213
765.588796	2507.311127
765.914943	2493.984837
766.241044	2489.904023
766.567097	2484.636017
766.893104	2482.233907
767.219064	2477.769965
767.544978	2475.629995
767.870845	2472.499439
768.196665	2470.878708
768.522438	2472.711167
768.848165	2468.015333
769.173846	2465.923254
769.499479	2468.632874
769.825066	2464.249591
770.150607	2464.826803
770.476101	2464.017697
770.801548	2462.250773
771.126949	2459.883951
771.452303	2464.176494
771.777611	2457.630556
772.102872	2461.519806
772.428087	2460.506534
772.753256	2459.092490
773.078378	2456.234156
773.403453	2458.255659
773.728482	2454.830195
774.053465	2454.865483
774.378401	2455.883796
774.703291	2455.730041
775.028135	2455.299022
775.352932	2454.079063
775.677683	2454.200050
776.002388	2452.206274
776.327046	2452.506223
776.651658	2453.469083
776.976224	2451.497992
777.300743	2450.739298
777.625216	2449.695779
777.949643	2453.501851
778.274024	2448.506067
778.598359	2445.430963
778.922647	2446.061107
779.246889	2447.875923
779.571086	2443.507763
779.895236	2451.054370
780.219339	2450.315841
780.543397	2448.717796
780.867409	2450.986315
781.191374	2449.408434
781.515294	2449.211829
781.839167	2451.056891
782.162995	2450.358691
782.486776	2451.714762
782.810511	2447.472631
783.134201	2450.835080
783.457844	2449.723506
783.781441	2448.296859
784.104993	2447.482713
784.428498	2450.774586
784.751958	2448.374997
785.075372	2448.279215
785.398739	2449.632765
785.722061	2447.303752
786.045337	2447.822991
786.368568	2449.279884
786.691752	2447.235696
787.014891	2450.431788
787.337983	2454.184927
787.661030	2458.411934
787.984031	2465.101546
788.306987	2464.484004
788.629897	2464.312605
788.952760	2463.974848
789.275579	2465.328397
789.598351	2459.929322
789.921078	2460.748509
790.243759	2453.769032
790.566395	2454.714248
790.888984	2451.616459
791.211529	2452.576799
791.534027	2448.284256
791.856480	2446.736622
792.178888	2447.344081
792.501249	2445.395675
792.823566	2449.947837
793.145836	2445.219235
793.468062	2449.395831
793.790241	2448.395162
794.112375	2448.526232
794.434464	2448.412806
794.756507	2448.206118
795.078505	2449.415995
795.400457	2448.120419
795.722364	2448.203598
796.044226	2454.888168
796.366042	2451.218208
796.687812	2456.370267
797.009538	2457.113837
797.331218	2458.026286
797.652852	2453.995884
797.974442	2453.834567
798.295986	2454.031172
798.617484	2452.281891
798.938938	2452.269288
799.260346	2454.431943
799.581709	2451.175358
799.903026	2450.973712
800.224299	2447.744853
800.545526	2447.084462
800.866708	2447.757456
801.187845	2445.947682
801.508936	2445.544389
801.829983	2444.982301
802.150984	2445.486416
802.471940	2445.519183
802.792851	2444.458021
803.113717	2447.301231
803.434538	2441.876950
803.755314	2443.301076
804.076045	2446.353494
804.396731	2444.992383
804.717372	2444.742846
805.037967	2440.299069
805.358518	2441.261929
805.679024	2442.711261
805.999485	2441.680345
806.319901	2445.587239
806.640272	2445.022630
806.960598	2442.746549
807.280879	2441.564398
807.601115	2451.182920
807.921306	2446.900460
808.241453	2447.931376
808.561554	2445.924996
808.881611	2445.304934
809.201623	2446.746704
809.521590	2446.779472
809.841513	2443.966508
810.161390	2445.962805
810.481223	2443.328802
810.801011	2444.185798
811.120755	2441.123297
811.440453	2442.529779
811.760107	2440.331836
812.079716	2442.948195
812.399281	2437.992741
812.718801	2441.355190
813.038276	2438.567432
813.357707	2442.791919
813.677093	2443.938782
813.996434	2440.828390
814.315731	2440.765375
814.634983	2444.722681
814.954191	2440.694799
815.273354	2444.077413
815.592473	2443.759821
815.911547	2444.170675
816.230577	2446.759307
816.549562	2447.376849
816.868502	2448.722837
817.187399	2448.395162
817.506250	2449.942796
817.825058	2449.710903
818.143821	2451.538321
818.462539	2455.861111
818.781213	2453.622838
819.099843	2463.082563
819.418429	2467.412915
819.736970	2479.012610
820.055466	2486.579382
820.373919	2499.257883
820.692327	2517.937879
821.010691	2550.226469
821.329011	2626.471401
821.647286	2735.428379
821.965517	2854.404651
822.283704	2925.648758
822.601847	2947.754218
822.919945	2899.139851
823.237999	2842.832683
823.556010	2780.753394
823.873976	2726.850856
824.191897	2681.548527
824.509775	2642.774492
824.827609	2607.395675
825.145398	2585.615369
825.463144	2576.695048
825.780845	2578.318299
826.098502	2590.916143
826.416116	2620.323714
826.733685	2647.500574
827.051210	2654.429640
827.368692	2637.607310
827.686129	2610.402723
828.003522	2580.256623
828.320872	2546.463248
828.638177	2529.943387
828.955439	2508.987310
829.272656	2495.350989
829.589830	2484.580564
829.906960	2477.661580
830.224046	2469.323512
830.541088	2467.465847
830.858086	2461.562656
831.175041	2457.973354
831.491952	2456.763477
831.808819	2459.412603
832.125642	2462.039045
832.442421	2470.598924
832.759157	2483.670636
833.075849	2508.994872
833.392497	2531.004550
833.709101	2548.789741
834.025662	2543.438556
834.342179	2530.974303
834.658653	2515.681963
834.975083	2499.951042
835.291469	2492.129692
835.607811	2477.457414
835.924110	2469.900724
836.240366	2466.329067
836.556578	2459.878910
836.872746	2451.649227
837.188871	2448.165789
837.504952	2444.274018
837.820990	2444.795778
838.136984	2443.192691
838.452935	2437.745724
838.768842	2439.673966
839.084706	2446.751746
839.400526	2454.197530
839.716303	2466.873511
840.032037	2475.153606
840.347727	2475.723257
840.663373	2464.350414
840.978977	2457.257510
841.294537	2453.373301
841.610054	2447.013886
841.925527	2442.834769
842.240957	2437.556681
842.556344	2436.160281
842.871687	2433.435538
843.186987	2431.630805
843.502244	2430.461257
843.817458	2428.608633
844.132629	2427.996133
844.447756	2427.131575
844.762840	2419.448856
845.077881	2423.396080
845.392879	2421.190575
845.707833	2425.117634
846.022745	2418.554052
846.337613	2422.680236
846.652438	2422.972623
846.967221	2425.692325
847.281960	2422.576892
847.596656	2421.243507
847.911309	2419.113620
848.225919	2421.843404
848.540485	2423.075967
848.855009	2420.560431
849.169490	2423.355751
849.483928	2421.513209
849.798323	2420.472211
850.112675	2420.688980
850.426984	2420.472211
850.741251	2421.127561
851.055474	2420.504978
851.369654	2423.043199
851.683792	2420.545307
851.997887	2421.188054
852.311938	2421.435071
852.625947	2421.248548
852.939914	2421.334248
853.253837	2421.490524
853.567718	2421.147725
853.881555	2421.482962
854.195350	2419.161511
854.509103	2421.074628
854.822812	2420.091603
855.136479	2421.919022
855.450103	2418.606984
855.763685	2422.203847
856.077224	2420.716707
856.390720	2417.898702
856.704173	2419.660585
857.017584	2421.251069
857.330953	2422.408014
857.644278	2419.854669
857.957561	2422.861717
858.270802	2420.746953
858.584000	2420.179824
858.897155	2420.522622
859.210268	2422.728127
859.523339	2424.328693
859.836367	2421.573703
860.149352	2420.021027
860.462295	2422.476069
860.775195	2419.423651
861.088054	2416.305697
861.400869	2417.991963
861.713642	2416.260327
862.026373	2422.491193
862.339062	2421.435071
862.651708	2421.961872
862.964312	2420.290729
863.276873	2421.424989
863.589392	2422.781059
863.901869	2424.361461
864.214303	2421.803075
864.526696	2425.462953
864.839045	2423.184351
865.151353	2425.120154
865.463619	2422.690318
865.775842	2422.501275
866.088023	2423.857345
866.400162	2423.050761
866.712258	2424.076636
867.024313	2426.398087
867.336325	2423.930442
867.648296	2426.365319
867.960224	2424.154773
868.272110	2427.192069
868.583954	2423.819537
868.895755	2426.156112
869.207515	2426.004877
869.519233	2425.213416
869.830909	2426.158632
870.142542	2427.975968
870.454134	2425.397418
870.765684	2427.171904
871.077191	2425.349527
871.388657	2428.873293
871.700081	2427.328180
872.011463	2427.391194
872.322803	2426.151070
872.634101	2427.721390
872.945357	2426.879517
873.256571	2430.428489
873.567744	2429.324477
873.878874	2430.425969
874.189963	2431.139292
874.501010	2433.627102
874.812015	2426.635021
875.122979	2432.351690
875.433900	2432.719694
875.744780	2432.245825
876.055618	2430.988058
876.366415	2435.570466
876.677169	2430.902358
876.987882	2431.308171
877.298554	2428.487645
877.609183	2434.136258
877.919771	2432.109714
878.230317	2436.830755
878.540822	2441.551795
878.851285	2445.539348
879.161707	2451.361881
879.472087	2458.868159
879.782425	2477.820377
880.092722	2500.404746
880.402977	2542.637012
880.713191	2588.322469
881.023363	2636.442803
881.333494	2663.884324
881.643583	2671.483863
881.953631	2668.839778
882.263637	2658.644045
882.573602	2636.921713
882.883526	2618.327417
883.193408	2603.461054
883.503248	2582.263002
883.813048	2560.404559
884.122806	2544.129194
884.432522	2525.671009
884.742197	2509.955212
885.051831	2499.399036
885.361424	2487.128867
885.670975	2480.272898
885.980485	2470.031794
886.289954	2467.382668
886.599382	2456.834053
886.908768	2452.604525
887.218113	2450.968671
887.527417	2447.475151
887.836680	2444.286621
888.145901	2443.227979
888.455082	2440.883843
888.764221	2439.769748
889.073319	2436.503080
889.382376	2437.982658
889.691392	2432.760023
890.000366	2435.429314
890.309300	2433.801021
890.618193	2434.378233
890.927044	2434.481577
891.235855	2434.595003
891.544625	2434.456371
891.853353	2435.633481
892.162041	2437.113059
892.470687	2441.803853
892.779293	2441.312341
893.087858	2445.277208
893.396381	2447.820470
893.704864	2460.471246
894.013306	2471.455920
894.321707	2490.594661
894.630068	2497.317039
894.938387	2504.135200
895.246665	2496.018942
895.554903	2492.880824
895.863100	2483.141315
896.171256	2477.044039
896.479371	2473.122021
896.787446	2468.103553
897.095480	2460.468725
897.403473	2456.942438
897.711425	2450.635955
898.019336	2453.481686
898.327207	2445.970367
898.635038	2445.703186
898.942827	2441.750921
899.250576	2438.948039
899.558284	2436.608944
899.865952	2438.822011
900.173579	2434.859664
900.481165	2433.836309
900.788711	2431.454364
901.096216	2430.536874
901.403681	2428.646442
901.711105	2433.317071
902.018489	2427.320618
902.325832	2430.748603
902.633135	2428.694332
902.940397	2438.118770
903.247619	2447.165120
903.554800	2469.978862
903.861941	2490.748416
904.169041	2513.678104
904.476101	2518.056346
904.783121	2515.061901
905.090100	2504.840961
905.397039	2497.032214
905.703938	2484.184833
906.010796	2474.026908
906.317614	2468.017853
906.624391	2462.346555
906.931129	2453.000256
907.237826	2451.094700
907.544483	2444.311827
907.851099	2441.377876
908.157675	2434.385795
908.464211	2430.947728
908.770707	2421.961872
909.077163	2424.371543
909.383578	2421.301480
909.689954	2421.850966
909.996289	2415.592374
910.302584	2421.167890
910.608839	2420.913312
910.915054	2421.629155
911.221229	2422.813827
911.527363	2419.713517
911.833458	2419.456418
912.139513	2424.787438
912.445527	2422.758374
912.751502	2421.480441
913.057436	2424.006059
913.363331	2429.679878
913.669186	2429.831113
913.975000	2434.347987
914.280775	2437.869232
914.586510	2445.370469
914.892205	2457.469239
915.197859	2470.992134
915.503475	2490.791266
915.809050	2508.147958
916.114585	2513.915038
916.420081	2516.261695
916.725536	2513.491581
917.030952	2509.927486
917.336328	2502.978255
917.641665	2497.727893
917.946961	2487.615339
918.252218	2484.431850
918.557435	2475.836683
918.862612	2471.826445
919.167750	2465.073819
919.472848	2457.801955
919.777906	2455.258693
920.082925	2449.869699
920.387904	2444.221086
920.692843	2442.844851
920.997743	2439.129521
921.302603	2437.657504
921.607423	2433.039807
921.912204	2431.426638
922.216946	2425.364650
922.521647	2428.429672
922.826310	2427.081163
923.130932	2422.720565
923.435516	2424.537901
923.740059	2423.791810
924.044564	2422.854156
924.349028	2422.128230
924.653454	2414.843762
924.957840	2416.038516
925.262186	2415.904925
925.566493	2416.325862
925.870761	2409.127094
926.174989	2417.013979
926.479178	2417.145049
926.783328	2413.260840
927.087438	2412.061045
927.391509	2414.392579
927.695541	2410.258833
927.999533	2412.867630
928.303486	2411.113308
928.607400	2413.311252
928.911275	2412.930644
929.215110	2411.246899
929.518906	2409.515263
929.822663	2412.451735
930.126381	2410.447876
930.430060	2413.495254
930.733699	2408.847310
931.037299	2412.660943
931.340861	2413.805285
931.644383	2409.999213
931.947866	2411.393093
932.251309	2413.018865
932.554714	2411.602300
932.858080	2412.973494
933.161407	2409.185067
933.464694	2411.153638
933.767943	2410.087434
934.071153	2413.477610
934.374323	2414.180851
934.677455	2413.401992
934.980548	2412.224883
935.283602	2411.529204
935.586617	2409.537948
935.889593	2411.987949
936.192530	2411.793864
936.495428	2413.200346
936.798287	2411.559451
937.101108	2413.041550
937.403890	2414.349729
937.706632	2415.231931
938.009336	2414.347209
938.312002	2418.465831
938.614628	2419.060687
938.917216	2418.039854
939.219765	2418.891809
939.522275	2417.568506
939.824747	2419.302663
940.127179	2414.904256
940.429573	2415.103382
940.731929	2414.100192
941.034246	2414.276632
941.336524	2417.291242
941.638763	2416.524987
941.940964	2417.389545
942.243126	2417.210584
942.545250	2415.907446
942.847335	2416.151942
943.149381	2415.531880
943.451389	2414.379976
943.753359	2414.337126
944.055290	2416.971129
944.357182	2415.103382
944.659036	2416.441808
944.960851	2412.688669
945.262628	2409.880746
945.564367	2415.133629
945.866067	2412.633216
946.167729	2413.185223
946.469352	2412.784451
946.770937	2414.047260
947.072484	2414.062383
947.373992	2413.195305
947.675462	2412.149266
947.976893	2411.481313
948.278286	2410.982238
948.579641	2412.073648
948.880958	2412.267733
949.182236	2411.221693
949.483476	2412.360994
949.784678	2413.230593
950.085841	2413.124729
950.386967	2411.778741
950.688054	2413.525501
950.989103	2412.401323
951.290114	2413.434760
951.591087	2411.559451
951.892021	2412.484502
952.192917	2414.649678
952.493776	2414.783268
952.794596	2419.126223
953.095378	2416.426685
953.396122	2417.528177
953.696828	2415.937693
953.997496	2411.554409
954.298126	2413.984246
954.598718	2414.758063
954.899272	2411.627506
955.199788	2413.951478
955.500266	2411.456107
955.800706	2411.105747
956.101108	2408.254974
956.401472	2408.436456
956.701798	2407.632392
957.002087	2406.578791
957.302337	2408.358318
957.602550	2407.395458
957.902724	2407.435787
958.202861	2407.755900
958.502960	2406.906466
958.803022	2406.178019
959.103045	2407.718091
959.403031	2407.914696
959.702979	2407.823956
960.002889	2406.044428
960.302762	2406.427556
960.602596	2404.385889
960.902393	2405.331105
961.202153	2406.944274
961.501875	2404.446383
961.801559	2403.861609
962.101205	2403.601989
962.400814	2405.963770
962.700385	2403.526372
962.999918	2406.581311
963.299414	2404.201887
963.598873	2404.658111
963.898293	2402.868501
964.197677	2404.968142
964.497022	2404.574932
964.796331	2405.862947
965.095601	2404.464027
965.394835	2402.873543
965.694030	2405.948646
965.993189	2403.491084
966.292309	2402.525703
966.591393	2402.331618
966.890439	2403.309602
967.189447	2403.793553
967.488419	2405.595766
967.787353	2403.402864
968.086249	2402.175343
968.385108	2403.841444
968.683930	2404.539644
968.982714	2405.699109
969.281462	2407.072824
969.580172	2404.826990
969.878844	2404.189284
970.177480	2402.006464
970.476078	2405.031156
970.774639	2406.419994
971.073162	2405.731877
971.371649	2403.309602
971.670098	2400.022770
971.968510	2406.765313
972.266885	2400.269787
972.565223	2403.889335
972.863524	2405.109294
973.161788	2406.190622
973.460014	2405.179870
973.758204	2402.797925
974.056356	2403.095353
974.354471	2405.489901
974.652550	2403.929664
974.950591	2405.875550
975.248595	2403.866650
975.546563	2405.855385
975.844493	2404.660632
976.142386	2405.920920
976.440243	2403.357493
976.738062	2403.838923
977.035845	2403.947308
977.333590	2405.484860
977.631299	2404.257339
977.928971	2404.622823
978.226606	2403.072668
978.524204	2403.365055
978.821765	2403.566701
979.119290	2402.392112
979.416777	2406.049469
979.714228	2406.654408
980.011642	2402.830693
980.309020	2405.076527
980.606360	2404.509397
980.903664	2406.437638
981.200931	2406.457803
981.498162	2407.592062
981.795356	2407.861764
982.092513	2408.315468
982.389633	2411.108267
982.686717	2414.649678
982.983764	2415.647826
983.280775	2416.961047
983.577749	2415.310069
983.874686	2414.067425
984.171587	2417.535738
984.468451	2412.842424
984.765279	2413.787641
985.062070	2414.642116
985.358824	2411.866961
985.655543	2412.035840
985.952224	2411.100706
986.248869	2406.593914
986.545478	2404.383368
986.842050	2403.843965
987.138586	2400.358007
987.435086	2402.258522
987.731549	2398.142420
988.027975	2403.680127
988.324366	2403.675086
988.620719	2401.033521
988.917037	2401.739283
989.213318	2400.312636
989.509563	2403.372617
989.805772	2399.483367
990.101944	2404.484191
990.398080	2401.981258
990.694180	2401.393964
990.990244	2401.376320
991.286271	2402.732390
991.582262	2399.160733
991.878217	2403.206259
992.174136	2402.767678
992.470019	2403.362534
992.765865	2402.250960
993.061676	2402.019067
993.357450	2403.846485
993.653188	2402.432442
993.948890	2403.639798
994.244556	2402.659293
994.540186	2404.726167
994.835780	2403.133162
995.131337	2404.763975
995.426859	2404.025446
995.722345	2406.435118
996.017795	2408.260015
996.313208	2408.000396
996.608586	2409.215314
996.903928	2409.530386
997.199234	2409.782444
997.494504	2408.953174
997.789738	2407.100550
998.084936	2408.345715
998.380099	2408.123904
998.675225	2407.866805
998.970316	2404.930333
999.265371	2406.190622
999.560390	2403.942267
999.855373	2405.129459
1000.150320	2402.477812
1000.445232	2402.192987
1000.740108	2401.648542
1001.034948	2404.126269
1001.329752	2402.016546
1001.624521	2402.056876
1001.919254	2400.088305
1002.213951	2399.508572
1002.508613	2395.342059
1002.803239	2398.744837
1003.097829	2398.674261
1003.392384	2402.205590
1003.686903	2398.094529
1003.981386	2399.937070
1004.275834	2400.521844
1004.570246	2400.436145
1004.864623	2403.589386
1005.158964	2399.281720
1005.453270	2401.552760
1005.747540	2398.351628
1006.041775	2398.396998
1006.335974	2397.469426
1006.630138	2401.401526
1006.924266	2399.201062
1007.218359	2400.373130
1007.512416	2401.388923
1007.806438	2399.064951
1008.100425	2400.002605
1008.394376	2399.614437
1008.688292	2399.122924
1008.982172	2400.002605
1009.276017	2399.475805
1009.569827	2399.087636
1009.863602	2397.061092
1010.157341	2399.937070
1010.451045	2400.771381
1010.744714	2401.535116
1011.038347	2401.658624
1011.331945	2398.220557
1011.625508	2401.131824
1011.919036	2399.158212
1012.212528	2402.780281
1012.505986	2400.514282
1012.799408	2399.332132
1013.092795	2398.006308
1013.386147	2398.593603
1013.679464	2400.491597
1013.972745	2399.127965
1014.265992	2397.356000
1014.559204	2400.408418
1014.852380	2398.979251
1015.145521	2399.763151
1015.438628	2399.059910
1015.731699	2399.974879
1016.024736	2399.231309
1016.317737	2400.549571
1016.610703	2401.371279
1016.903635	2395.233674
1017.196531	2395.125289
1017.489393	2399.122924
1017.782219	2396.388098
1018.075011	2402.871022
1018.367768	2400.572256
1018.660490	2402.324057
1018.953177	2402.324057
1019.245829	2402.324057
