Dividing Wavelength (nm)	Counts (n)	Blue Motor Position (mm): 0.000000	Red Motor Position (mm): 42.200000	
326.493990	1995.971769
326.888308	1995.971769
327.282561	1995.971769
327.676750	1971.771710
328.070874	1974.105764
328.464933	1981.430560
328.858929	1988.818371
329.252859	2004.027532
329.646726	2016.229645
330.040528	2031.436286
330.434265	2049.289532
330.827938	2068.922306
331.221547	2088.827302
331.615091	2108.359253
332.008571	2129.632922
332.401986	2151.198978
332.795338	2172.369303
333.188625	2192.566686
333.581847	2208.882381
333.975006	2229.135216
334.368100	2244.833369
334.761129	2263.304157
335.154095	2277.406785
335.546996	2309.055149
335.939833	2368.049252
336.332606	2383.444936
336.725315	2392.392984
337.117960	2401.192318
337.510540	2406.609038
337.903056	2419.690832
338.295508	2423.983374
338.687896	2432.477718
339.080220	2439.300920
339.472480	2444.926848
339.864676	2447.482713
340.256807	2451.757611
340.648875	2451.755091
341.040879	2453.970678
341.432818	2456.939918
341.824694	2459.286575
342.216506	2457.126440
342.608253	2457.514609
342.999937	2454.694083
343.391557	2455.699794
343.783113	2452.397838
344.174605	2452.654937
344.566033	2450.419185
344.957397	2449.408434
345.348697	2448.904318
345.739934	2446.540017
346.131106	2446.653443
346.522215	2441.995417
346.913260	2441.506425
347.304241	2438.701023
347.695159	2439.585745
348.086012	2439.784871
348.476802	2436.613985
348.867528	2435.356217
349.258191	2436.533327
349.648789	2429.962183
350.039324	2432.971752
350.429796	2433.047369
350.820203	2431.802204
351.210548	2431.267842
351.600828	2430.607450
351.991045	2430.380598
352.381198	2428.923705
352.771288	2428.109559
353.161314	2427.837336
353.551276	2429.659713
353.941175	2432.064344
354.331010	2430.388160
354.720782	2431.028387
355.110490	2431.058634
355.500135	2429.037131
355.889717	2431.492173
356.279235	2429.165680
356.668689	2431.058634
357.058080	2433.485949
357.447408	2431.262800
357.836672	2430.425969
358.225873	2433.186001
358.615010	2432.563418
359.004084	2434.975610
359.393095	2437.271856
359.782043	2437.831424
360.170927	2439.807556
360.559748	2439.610951
360.948505	2440.115067
361.337199	2441.972732
361.725830	2440.561209
362.114398	2443.986673
362.502903	2444.246292
362.891344	2446.829883
363.279722	2443.848041
363.668037	2445.219235
364.056289	2447.954061
364.444478	2448.806016
364.832603	2447.281067
365.220665	2449.980605
365.608665	2450.179730
365.996601	2450.827518
366.384474	2451.787858
366.772284	2456.425720
367.160031	2455.304063
367.547715	2456.234156
367.935336	2456.622325
368.322893	2458.757253
368.710388	2457.282716
369.097820	2463.995012
369.485189	2462.588530
369.872495	2463.619446
370.259738	2461.663479
370.646918	2471.566825
371.034035	2470.125055
371.421090	2469.709160
371.808081	2476.242496
372.195010	2481.911273
372.581875	2488.056440
372.968678	2493.957110
373.355418	2502.580004
373.742096	2512.253978
374.128710	2523.735206
374.515262	2537.043852
374.901751	2550.039947
375.288177	2571.114490
375.674540	2588.904722
376.060841	2611.463886
376.447079	2634.895169
376.833254	2662.455157
377.219367	2685.321831
377.605417	2723.475804
377.991404	2749.021851
378.377329	2788.403345
378.763191	2826.814416
379.148991	2874.546582
379.534727	2926.755291
379.920402	2976.947540
380.306013	3025.314890
380.691563	3091.785024
381.077049	3150.769045
381.462474	3205.886500
381.847835	3283.616052
382.233134	3356.637165
382.618371	3419.278543
383.003545	3507.798684
383.388657	3591.859924
383.773706	3683.034232
384.158693	3758.248248
384.543618	3857.019575
384.928480	3938.063685
385.313280	4042.002195
385.698017	4155.171058
386.082692	4277.713946
386.467305	4342.071837
386.851856	4477.134430
387.236344	4636.702073
387.620770	4699.267833
388.005133	4822.884487
388.389435	4973.851922
388.773674	5061.759563
389.157851	5196.222259
389.541965	5334.052446
389.926018	5360.432804
390.310008	5549.544129
390.693936	5666.461090
391.077802	5792.971366
391.461606	5932.523108
391.845348	6048.696498
392.229027	6170.788203
392.612645	6394.184415
392.996200	6518.731162
393.379694	6699.690941
393.763125	6927.989675
394.146494	7022.597009
394.529801	7167.772158
394.913047	7421.944614
395.296230	7423.613236
395.679351	7477.979560
396.062410	7751.378977
396.445408	7640.834035
396.828343	7806.602297
397.211217	7947.003472
397.594028	7825.322622
397.976778	8033.219806
398.359466	8201.291875
398.742092	8179.556941
399.124656	8331.237698
399.507158	8524.795321
399.889598	8547.036891
400.271977	8757.885672
400.654294	8792.717524
401.036549	8996.617074
401.418742	9025.628914
401.800874	9332.637704
402.182944	9410.556298
402.564952	9797.953848
402.946898	9609.462585
403.328783	9676.341053
403.710606	9879.786898
404.092367	10135.683429
404.474067	10504.660603
404.855705	10298.147215
405.237282	10245.484801
405.618797	10683.608961
406.000250	10944.458426
406.381642	11313.460805
406.762972	11266.754515
407.144240	11056.432535
407.525447	11321.423308
407.906593	11259.601117
408.287677	11528.776048
408.668700	11680.081239
409.049661	11654.628453
409.430560	11828.008858
409.811399	11785.887497
410.192176	11955.895369
410.572891	12046.885675
410.953545	12545.138198
411.334138	12001.051505
411.714669	12630.021147
412.095139	11903.515260
412.475547	12430.083944
412.855894	12261.913572
413.236180	12607.910646
413.616405	12277.654575
413.996568	12566.560581
414.376670	12538.141077
414.756711	12402.103019
415.136691	12711.818909
415.516609	12896.703226
415.896466	12961.066158
416.276262	13258.920212
416.655997	13694.301985
417.035670	13732.516452
417.415283	14399.725766
417.794834	14495.827802
418.174324	14237.027567
418.553753	14143.640192
418.933121	14645.519825
419.312428	14446.205204
419.691674	14358.065671
420.070859	14823.497761
420.449983	14474.115553
420.829045	15040.075813
421.208047	14777.293066
421.586988	15242.916720
421.965867	15503.166287
422.344686	15510.576783
422.723444	16088.035915
423.102141	14731.811776
423.480777	15966.465970
423.859352	15453.047136
424.237866	16594.913852
424.616319	16285.603776
424.994712	16968.722972
425.373044	16755.446876
425.751314	17450.556456
426.129524	16543.572221
426.507673	17673.491403
426.885762	17357.746293
427.263789	17570.341833
427.641756	17739.134788
428.019662	17794.290052
428.397508	17849.934308
428.775292	18172.106889
429.153016	18119.567983
429.530679	18205.116364
429.908282	18231.055621
430.285824	17934.282894
430.663305	18667.173402
431.040726	18251.285772
431.418086	18072.221466
431.795385	18736.942971
432.172624	19163.961470
432.549802	18704.931644
432.926920	18899.701664
433.303977	18791.871384
433.680974	19050.638852
434.057910	19337.878757
434.434786	19359.759885
434.811601	19263.020143
435.188355	20344.612303
435.565050	19972.605396
435.941683	19919.597664
436.318257	20834.236891
436.694770	20646.106071
437.071222	21249.912793
437.447614	20304.212496
437.823946	20334.877835
438.200218	20494.495889
438.576429	20251.623179
438.952580	20528.490910
439.328670	20491.483800
439.704700	20932.350348
440.080670	20474.817745
440.456580	21092.197775
440.832429	21267.332500
441.208218	20222.447502
441.583947	20681.371462
441.959616	20789.355498
442.335224	21040.107532
442.710773	21173.327584
443.086261	21724.285370
443.461689	21080.058676
443.837057	21194.777694
444.212365	21865.074715
444.587612	21867.050847
444.962800	21412.001013
445.337927	21859.597501
445.712995	20563.902496
446.088002	22458.675621
446.462949	22656.326661
446.837837	22848.238347
447.212664	22790.544861
447.587431	25696.860794
447.962139	28677.390074
448.336786	31121.951438
448.711374	29536.599294
449.085901	25770.920386
449.460369	25710.686159
449.834776	25622.140812
450.209124	28169.766046
450.583412	27673.010746
450.957640	28236.158042
451.331808	26863.106531
451.705917	25454.535050
452.079965	25496.376627
452.453954	25859.501020
452.827883	25746.969864
453.201752	25542.548555
453.575562	25710.759256
453.949311	26859.287857
454.323001	26920.895798
454.696632	26669.281727
455.070202	28257.701413
455.443713	28393.068997
455.817164	29003.923253
456.190556	29546.132116
456.563888	28968.907398
456.937160	29415.523382
457.310373	27726.363798
457.683526	28205.477580
458.056619	28172.984823
458.429653	28115.495504
458.802628	28693.083186
459.175542	28812.243460
459.548398	30110.844691
459.921194	31723.618191
460.293930	32389.746178
460.666607	34443.550063
461.039224	36246.160814
461.411782	36647.686198
461.784280	35449.688754
462.156719	34977.856918
462.529099	34410.316257
462.901419	33106.444499
463.273680	32028.776877
463.645882	32101.145161
464.018024	32081.290577
464.390106	32935.715742
464.762130	35663.106002
465.134094	39745.107232
465.505999	45104.168843
465.877845	49713.956195
466.249631	50911.484812
466.621358	49265.795098
466.993026	47169.017896
467.364634	45091.185351
467.736184	43091.183180
468.107674	41817.505413
468.479105	41010.262928
468.850477	40316.214510
469.221790	38854.600008
469.593043	37090.990143
469.964238	36186.682761
470.335373	36095.931909
470.706449	37843.226079
471.077467	40459.428650
471.448425	45054.329475
471.819324	47903.876975
472.190164	46060.816005
472.560945	42452.569810
472.931667	39312.674534
473.302330	38188.703914
473.672934	37352.137036
474.043479	37875.217242
474.413965	37050.328197
474.784393	36658.416294
475.154761	37586.356606
475.525070	37599.390509
475.895321	37144.103740
476.265513	37752.666792
476.635645	38741.516845
477.005719	38552.692866
477.375734	39032.956031
477.745691	39735.264379
478.115588	41095.405495
478.485427	43083.094648
478.855207	46457.413660
479.224928	49090.509137
479.594591	50741.189594
479.964194	49759.646693
480.333739	49939.313416
480.703226	49964.549432
481.072653	50608.181270
481.442022	51067.939542
481.811333	51321.249961
482.180584	50053.130067
482.549777	49537.273835
482.918912	49006.485706
483.287988	48715.369153
483.657005	47866.945482
484.025964	47240.720748
484.394864	47268.018596
484.763706	46829.901997
485.132489	45955.244161
485.501213	45784.154961
485.869879	45933.773887
486.238487	45534.317897
486.607036	45723.406537
486.975527	45167.551270
487.343959	45376.963321
487.712333	45465.468339
488.080648	45375.158588
488.448905	45833.197827
488.817104	45630.150232
489.185244	46611.942670
489.553326	48291.650090
489.921350	51007.125583
490.289315	53834.103837
490.657222	54422.794659
491.025070	54693.885228
491.392861	53830.711140
491.760593	52631.765959
492.128267	50986.663539
492.495883	49475.265122
492.863440	48082.023790
493.230939	46709.453709
493.598380	45602.151663
493.965763	45260.994098
494.333088	44443.709633
494.700354	43954.301815
495.067563	43646.438549
495.434713	43528.599058
495.801805	43593.612298
496.168839	43189.044579
496.535815	42841.625900
496.902733	42883.817837
497.269593	42470.004641
497.636395	42385.035993
498.003139	42821.758712
498.369825	42255.443051
498.736453	42573.590270
499.103023	42086.145981
499.469535	41946.911833
499.835989	42068.199474
500.202385	41719.452451
500.568723	41722.313305
500.935003	41921.559870
501.301226	41714.794424
501.667390	42340.787265
502.033497	42624.987354
502.399546	42045.796586
502.765537	41329.589777
503.131470	41735.581622
503.497345	42085.422576
503.863163	40729.785730
504.228923	41352.726152
504.594625	41776.591409
504.960269	41052.641387
505.325856	41751.385640
505.691385	41102.576537
506.056856	41250.942736
506.422270	41689.762575
506.787625	41267.712134
507.152924	41454.897738
507.518164	41559.748697
507.883347	40750.283062
508.248472	41013.214523
508.613540	41500.789882
508.978550	41809.779845
509.343503	41550.188148
509.708398	41747.090577
510.073236	42299.848055
510.438016	42295.749597
510.802738	41731.505849
511.167403	42359.086653
511.532010	42599.083385
511.896561	42900.488933
512.261053	43766.677630
512.625488	43296.116166
512.989866	43175.430943
513.354186	43003.608255
513.718449	42998.846885
514.082655	43688.128892
514.446803	43359.947256
514.810894	43879.445721
515.174927	43790.618070
515.538904	43682.916339
515.902822	44379.833173
516.266684	43794.955983
516.630488	44246.683697
516.994235	44101.044762
517.357925	44675.219582
517.721558	44847.395151
518.085133	45146.227189
518.448651	45277.697961
518.812112	45059.347944
519.175516	45152.183312
519.538863	45484.775958
519.902152	45459.335775
520.265385	45922.501867
520.628560	45958.730119
520.991678	45737.993116
521.354739	45976.422048
521.717743	46303.328273
522.080690	46189.171344
522.443580	46752.941222
522.806413	46770.428985
523.169189	46724.758652
523.531908	46901.355312
523.894569	46773.304963
524.257174	46956.833210
524.619722	47245.900533
524.982213	47213.236377
525.344647	47112.488917
525.707025	47166.923297
526.069345	47563.392403
526.431608	47471.905543
526.793815	47812.690063
527.155964	47349.705453
527.518057	47499.815891
527.880093	47278.403373
528.242072	47798.330337
528.603995	47493.743821
528.965860	47504.030296
529.327669	47593.236033
529.689421	47474.279926
530.051117	47430.880633
530.412755	47577.023683
530.774337	47644.018097
531.135862	47423.268490
531.497331	47632.821694
531.858743	47528.510139
532.220098	47885.058347
532.581396	47572.247189
532.942638	47241.141684
533.303824	47543.978919
533.664953	47510.296450
534.026025	47202.281950
534.387040	47700.801654
534.747999	47639.271850
535.108902	47788.668965
535.469748	47315.773446
535.830537	47413.665092
536.191270	47612.132799
536.551947	47265.649254
536.912567	47581.596009
537.273131	47707.211481
537.633638	47175.788166
537.994089	47520.529992
538.354483	47099.782689
538.714821	47676.513374
539.075103	48018.583389
539.435328	47789.127710
539.795497	47663.877722
540.155609	47640.007859
540.515665	48094.966952
540.875665	47584.058613
541.235609	47879.235815
541.595496	47865.332312
541.955328	48530.167243
542.315102	47902.644413
542.674821	47685.466464
543.034483	47729.795850
543.394090	47699.024647
543.753640	47656.426897
544.113134	48663.609106
544.472571	47661.901590
544.831953	48926.258263
545.191278	48130.534813
545.550548	47840.229887
545.909761	48314.189089
546.268918	48516.417496
546.628019	48818.823712
546.987064	48382.491682
547.346053	47642.117582
547.704986	48532.677738
548.063863	48085.141743
548.422684	48269.645454
548.781449	48119.892938
549.140158	48526.096512
549.498811	48372.991628
549.857408	47795.361097
550.215949	48637.392586
550.574434	48562.138241
550.932864	48327.386830
551.291237	49062.361855
551.649555	48651.744751
552.007817	48889.120082
552.366022	48518.554945
552.724173	48705.117967
553.082267	49126.692019
553.440305	49435.634091
553.798288	48717.577179
554.156215	49027.744251
554.514086	49251.735320
554.871902	48990.210340
555.229661	49007.372949
555.587365	48831.746710
555.945014	48917.050595
556.302606	48840.604018
556.660143	49069.406867
557.017625	49163.132000
557.375050	48945.326427
557.732421	49290.716042
558.089735	49272.940933
558.446994	49197.439572
558.804197	49676.823056
559.161345	49614.360639
559.518437	48845.766159
559.875474	49161.788532
560.232455	49318.880968
560.589381	49492.805817
560.946251	49181.736378
561.303065	49897.822199
561.659825	49701.413804
562.016528	49361.456033
562.373177	49077.031612
562.729770	49555.487524
563.086307	49063.715405
563.442789	49524.038286
563.799216	49575.021995
564.155587	49351.925732
564.511904	49386.268592
564.868164	49473.785544
565.224370	49713.331092
565.580520	49452.683274
565.936615	49660.580458
566.292654	49378.827849
566.648638	49629.070726
567.004567	49558.108924
567.360441	49611.121698
567.716260	49472.870574
568.072023	49740.029043
568.427732	49715.307224
568.783385	49268.441703
569.138982	49657.028965
569.494525	49610.312593
569.850013	49391.332431
570.205445	49348.041523
570.560823	49291.202513
570.916145	49184.158652
571.271412	49189.197286
571.626625	48964.984407
571.981782	49004.106281
572.336884	48689.686995
572.691931	49010.450573
573.046923	48576.709696
573.401860	48425.785112
573.756743	48426.700081
574.111570	48528.473416
574.466342	48364.378817
574.821059	48469.328078
575.175722	47976.204929
575.530330	48000.369700
575.884882	47700.763845
576.239380	47650.352307
576.593823	47631.387486
576.948211	47545.524033
577.302544	47050.200421
577.656823	47059.743325
578.011047	47276.722148
578.365216	46973.718555
578.719330	46774.630787
579.073389	46608.862525
579.427394	46674.289140
579.781344	46645.002557
580.135239	46284.928061
580.489080	46352.441714
580.842866	45822.820611
581.196597	46254.524862
581.550273	46172.870773
581.903895	46023.014913
582.257463	46411.725683
582.610975	45778.380320
582.964434	46044.124745
583.317837	45684.854313
583.671186	45494.669222
584.024481	45712.767182
584.377721	45226.711731
584.730906	45505.399318
585.084037	45513.419794
585.437113	45197.546135
585.790135	45208.288834
586.143103	44787.155883
586.496016	44923.647644
586.848874	44919.042550
587.201679	44917.774700
587.554428	44362.975554
587.907124	44516.892063
588.259765	44258.260707
588.612352	44497.836502
588.964884	43856.657185
589.317362	44121.005211
589.669786	44017.812792
590.022155	43772.366573
590.374470	44173.806256
590.726731	43668.866643
591.078937	43167.901979
591.431090	43249.435081
591.783188	42898.840475
592.135232	42532.651060
592.487222	42744.147628
592.839157	42816.198320
593.191038	42472.459683
593.542866	42198.450286
593.894639	41559.741135
594.246358	41816.736638
594.598022	41773.299535
594.949633	41344.486386
595.301190	41282.114710
595.652692	41089.071286
596.004141	41369.866075
596.355535	40380.418645
596.706876	40302.729423
597.058162	40119.977514
597.409395	40548.641949
597.760573	40595.900246
598.111698	40145.112707
598.462768	40131.594853
598.813785	40140.555504
599.164748	39550.851410
599.515657	39909.126213
599.866511	39366.365343
600.217312	39915.263818
600.568060	38855.880461
600.918753	39558.952544
601.269392	39481.119649
601.619978	39095.710835
601.970510	39279.113053
602.320988	39413.081716
602.671412	39660.337709
603.021783	39397.859952
603.372100	39013.124132
603.722363	39089.109444
604.072572	39125.292325
604.422728	39095.431051
604.772830	38865.884631
605.122878	38911.774254
605.472872	38791.136922
605.822813	39041.236126
606.172701	38819.977363
606.522534	39012.252012
606.872314	39224.411492
607.222041	38936.523799
607.571714	39256.952140
607.921333	38664.140174
608.270899	38909.296527
608.620411	39197.234632
608.969870	38948.252043
609.319276	38884.660408
609.668627	38874.736897
610.017926	39300.071650
610.367171	39404.862115
610.716362	39431.444119
611.065500	39305.500972
611.414585	39437.304460
611.763616	39659.001804
612.112594	39524.728150
612.461518	39677.482674
612.810389	39895.938555
613.159207	39684.608345
613.507971	39705.433351
613.856682	40092.137742
614.205340	39915.614178
614.553945	40520.174553
614.902496	39930.404924
615.250994	40305.514661
615.599439	40301.597684
615.947830	40423.903638
616.296169	40381.114325
616.644454	40416.137741
616.992686	40497.146563
617.340864	40901.905846
617.688990	40565.441594
618.037063	41044.570500
618.385082	40921.654566
618.733048	41119.446758
619.080961	41066.128994
619.428821	40986.839206
619.776628	41044.164687
620.124382	40807.119551
620.472083	40866.267409
620.819731	40927.237644
621.167326	40567.059805
621.514868	40497.885092
621.862357	40045.716277
622.209793	40030.139112
622.557176	39683.532058
622.904506	39403.561497
623.251783	39040.643791
623.599007	38786.849421
623.946179	38519.620376
624.293297	38432.133672
624.640363	37831.974224
624.987376	37769.897455
625.334336	37477.182857
625.681243	37089.235822
626.028097	36987.870821
626.374899	36781.128061
626.721647	36687.357558
627.068343	36499.861923
627.414987	36223.198359
627.761577	35954.512420
628.108115	36171.047622
628.454600	35606.387980
628.801032	35699.843410
629.147412	35591.080516
629.493739	35513.053537
629.840014	35126.455010
630.186236	35320.002550
630.532405	34907.613481
630.878521	35009.545611
631.224585	34816.247608
631.570597	34493.263402
631.916556	34561.371911
632.262462	34423.917290
632.608316	34362.014441
632.954117	34208.765885
633.299866	34122.032833
633.645562	33992.659181
633.991206	33518.846172
634.336797	33102.512399
634.682336	33035.376833
635.027823	32765.579320
635.373257	32557.477969
635.718639	32310.514363
636.063968	32129.783956
636.409245	31614.507457
636.754470	31577.512949
637.099642	31311.768524
637.444762	30844.428357
637.789829	30909.381104
638.134845	30546.536494
638.479808	30446.482193
638.824719	30285.651741
639.169577	29910.252138
639.514383	29892.610620
639.859137	29572.479707
640.203839	29708.631190
640.548489	29336.019344
640.893086	29326.867130
641.237632	29057.246057
641.582125	29068.586133
641.926566	28943.746999
642.270955	28846.039355
642.615292	28779.904458
642.959576	28698.552838
643.303809	28633.930287
643.647990	28657.043977
643.992118	28568.619618
644.336195	28484.381937
644.680219	28464.973495
645.024192	28620.901424
645.368112	28943.273131
645.711981	28853.280973
646.055797	29435.793861
646.399562	29277.360478
646.743274	29897.984490
647.086935	30143.448353
647.430544	29974.604987
647.774101	29977.690173
648.117606	30100.434708
648.461059	30266.283628
648.804460	29924.352245
649.147810	29410.192362
649.491108	29153.529575
649.834354	28809.405290
650.177548	28116.501215
650.520690	27715.540441
650.863781	27674.707094
651.206820	27480.542013
651.549807	27084.912259
651.892742	26663.713773
652.235626	26446.389631
652.578458	26277.947037
652.921238	25756.999239
653.263967	25913.857262
653.606644	25604.101043
653.949269	25503.676217
654.291843	25146.041640
654.634365	25350.926735
654.976836	24995.187632
655.319255	24903.103395
655.661622	24852.951476
656.003938	24615.866011
656.346203	24446.987357
656.688416	24543.848087
657.030577	24321.913809
657.372687	24153.120855
657.714746	24283.434682
658.056753	24291.314005
658.398708	23843.346992
658.740612	23806.095386
659.082465	23927.267080
659.424266	23727.793664
659.766016	23729.865578
660.107715	23588.010029
660.449362	23600.708696
660.790958	23523.662221
661.132503	23465.502429
661.473996	23404.282657
661.815438	23426.264608
662.156829	23486.239216
662.498168	23260.103136
662.839456	23198.497716
663.180693	23220.653587
663.521879	23251.697012
663.863013	23150.422752
664.204097	23082.052103
664.545129	23311.220436
664.886110	23215.614954
665.227040	23164.447242
665.567918	23167.958406
665.908746	23132.171255
666.249522	23165.692407
666.590248	23088.716508
666.930922	23108.694601
667.271545	23019.937526
667.612118	23000.841635
667.952639	22777.412656
668.293109	22744.935022
668.633528	22606.033589
668.973896	22501.414524
669.314213	22462.002783
669.654480	22225.149211
669.994695	22170.538391
670.334859	22031.074870
670.674973	21905.721538
671.015035	21930.811361
671.355047	21823.374290
671.695008	21723.647664
672.034918	21592.499526
672.374777	21561.695556
672.714585	21392.038044
673.054342	21449.401333
673.394049	21225.619473
673.733705	21341.008964
674.073310	21075.007440
674.412864	21060.756098
674.752368	20751.955178
675.091820	20865.751664
675.431223	20553.220291
675.770574	20331.429686
676.109875	20178.004689
676.449125	19953.582602
676.788324	19835.783440
677.127473	19477.243975
677.466571	19357.904740
677.805619	19100.563919
678.144616	19042.570485
678.483562	18917.025590
678.822458	18682.319549
679.161303	18571.946006
679.500098	18453.678016
679.838842	18326.840065
680.177535	18341.832456
680.516179	18418.833561
680.854771	18491.126227
681.193314	18881.114930
681.531805	19411.096475
681.870247	19747.492671
682.208638	20089.890361
682.546978	20147.120060
682.885268	20146.978908
683.223508	19800.384458
683.561697	19571.218645
683.899836	19409.377442
684.237925	19058.334173
684.575963	18913.274971
684.913951	18597.149255
685.251889	18613.807748
685.589776	18536.559627
685.927614	18469.280387
686.265401	18472.577302
686.603137	18452.631977
686.940824	18637.186098
687.278460	18772.820863
687.616046	18773.604763
687.953582	19025.460809
688.291068	18901.357683
688.628504	19001.762345
688.965889	18909.748684
689.303224	18665.799688
689.640510	18456.271690
689.977745	18032.822328
690.314930	17566.550886
690.652065	17250.039521
690.989150	16831.429667
691.326185	16336.983216
691.663170	15929.242090
692.000105	15516.684141
692.336990	15135.431758
692.673825	14858.213667
693.010610	14559.124530
693.347345	14238.673503
693.684030	13872.053069
694.020665	13688.524823
694.357251	13338.086492
694.693786	13262.627981
695.030272	13092.564656
695.366707	12790.833954
695.703093	12609.425512
696.039429	12557.942729
696.375716	12392.514745
696.711952	12331.105929
697.048139	12223.641132
697.384276	12091.492325
697.720363	12118.122220
698.056400	11992.148827
698.392388	11860.297448
698.728326	11800.479117
699.064214	11681.906137
699.400053	11612.491969
699.735842	11419.793863
700.071581	11257.738411
700.407270	11101.056829
700.742910	10982.171298
701.078501	10821.542492
701.414042	10667.542804
701.749533	10509.520275
702.084974	10317.906017
702.420366	10364.052740
702.755709	10156.836111
703.091002	9991.541717
703.426246	9959.971491
703.761440	9890.247293
704.096584	9741.513089
704.431679	9691.822436
704.766725	9617.241085
705.101721	9553.072238
705.436668	9560.959123
705.771565	9395.392508
706.106413	9499.484773
706.441212	9457.996077
706.775961	9478.072472
707.110661	9476.413932
707.445311	9576.049817
707.779913	9485.263678
708.114465	9544.351042
708.448967	9621.536148
708.783421	9850.364204
709.117825	9933.686915
709.452180	9991.662705
709.786485	10112.703329
710.120742	10387.216842
710.454949	10383.819104
710.789107	10537.148319
711.123216	10786.428335
711.457275	10822.205404
711.791286	11002.489668
712.125247	11018.195383
712.459159	10892.610159
712.793023	11109.145360
713.126837	10670.950624
713.460602	10726.451207
713.794318	10556.188757
714.127985	10367.299243
714.461602	10015.177167
714.795171	9950.824318
715.128691	9546.143172
715.462162	9304.228281
715.795584	9114.885063
716.128957	8986.370928
716.462281	8801.005181
716.795556	8686.160135
717.128782	8474.741704
717.461960	8264.767564
717.795088	8198.478912
718.128167	8032.100670
718.461198	7847.995211
718.794180	7774.752287
719.127113	7624.142774
719.459997	7534.896707
719.792833	7397.600882
720.125619	7361.118052
720.458357	7235.346305
720.791046	7155.688512
721.123686	7081.326452
721.456278	6986.174673
721.788821	6949.167562
722.121315	6847.865576
722.453761	6848.757860
722.786158	6804.272198
723.118506	6792.244005
723.450805	6728.642288
723.783056	6755.191524
724.115259	6709.816098
724.447412	6669.479306
724.779518	6729.400981
725.111574	6724.047276
725.443582	6765.634274
725.775542	6747.942345
726.107453	6872.930193
726.439315	6828.961249
726.771129	6936.191633
727.102895	7032.507918
727.434612	7087.985816
727.766281	7109.352747
728.097901	7168.775347
728.429473	7167.641088
728.760996	7142.788199
729.092471	7150.019735
729.423897	7099.739266
729.755276	7031.149327
730.086606	7041.491254
730.417887	7163.416601
730.749120	7287.950745
731.080305	7317.703635
731.411442	7391.445633
731.742530	7386.505303
732.073570	7400.892756
732.404562	7469.205432
732.735506	7403.811584
733.066401	7301.692930
733.397249	7127.145499
733.728048	6914.592809
734.058798	6663.853378
734.389501	6443.239883
734.720156	6291.354959
735.050762	6127.449403
735.381320	6003.666391
735.711831	5918.188587
736.042293	5809.040044
736.372707	5791.809380
736.703073	5723.345470
737.033391	5759.223362
737.363661	5739.653603
737.693883	5757.635398
738.024056	5797.694927
738.354182	5838.369477
738.684260	5908.441516
739.014290	5963.896728
739.344272	6008.253841
739.674207	6081.224543
740.004093	6100.950578
740.333931	6100.885043
740.663722	6096.204332
740.993464	6082.384008
741.323159	6017.950501
741.652806	5927.708806
741.982405	5858.370255
742.311956	5751.517958
742.641460	5698.928641
742.970915	5604.497747
743.300323	5498.547817
743.629683	5425.055356
743.958996	5338.241645
744.288260	5257.570581
744.617477	5166.587836
744.946647	5126.994614
745.275768	5051.949477
745.604842	4993.116691
745.933869	4941.928815
746.262847	4915.906379
746.591778	4892.275970
746.920662	4857.365980
747.249498	4848.743086
747.578286	4866.805540
747.907027	4896.318976
748.235720	4934.982105
748.564365	4938.941931
748.892963	4902.869955
749.221514	4910.023352
749.550017	4867.292012
749.878473	4847.621429
750.206881	4787.568684
750.535242	4754.463427
750.863555	4724.481164
751.191821	4695.111402
751.520039	4689.709806
751.848210	4663.518491
752.176334	4659.238551
752.504411	4632.323831
752.832440	4593.222121
753.160421	4599.916773
753.488356	4565.750353
753.816243	4538.729769
754.144082	4502.141074
754.471875	4483.330008
754.799620	4465.224704
755.127318	4451.459834
755.454969	4435.343265
755.782572	4418.669649
756.110129	4417.535389
756.437638	4389.650247
756.765100	4384.432652
757.092515	4372.406980
757.419882	4381.317219
757.747203	4376.273545
758.074477	4391.812902
758.401703	4378.073237
758.728882	4408.020211
759.056014	4413.031118
759.383099	4434.113223
759.710138	4449.642498
760.037129	4461.963078
760.364073	4458.071307
760.690970	4451.968990
761.017820	4440.714614
761.344623	4470.386846
761.671379	4520.400133
761.998088	4626.781082
762.324751	4941.638949
762.651366	5526.122928
762.977935	6256.928919
763.304456	6690.274066
763.630931	6768.137207
763.957359	6516.036665
764.283740	6126.625175
764.610074	5738.673098
764.936362	5310.979085
765.262602	4998.906456
765.588796	4699.300601
765.914943	4488.771934
766.241044	4313.952280
766.567097	4184.785316
766.893104	4072.796083
767.219064	3991.714165
767.544978	3908.756937
767.870845	3841.664221
768.196665	3802.844815
768.522438	3755.649533
768.848165	3721.871282
769.173846	3681.849561
769.499479	3655.391065
769.825066	3617.645426
770.150607	3578.321905
770.476101	3560.203998
770.801548	3536.762633
771.126949	3506.548478
771.452303	3486.283039
771.777611	3450.503450
772.102872	3438.061882
772.428087	3414.925506
772.753256	3392.946076
773.078378	3370.137375
773.403453	3341.813652
773.728482	3316.439004
774.053465	3303.755461
774.378401	3282.333078
774.703291	3265.407404
775.028135	3243.080133
775.352932	3238.333887
775.677683	3219.636247
776.002388	3197.039275
776.327046	3197.868545
776.651658	3180.015299
776.976224	3162.940911
777.300743	3163.019049
777.625216	3142.907365
777.949643	3136.331180
778.274024	3135.272538
778.598359	3119.493726
778.922647	3115.513735
779.246889	3106.512755
779.571086	3108.531737
779.895236	3112.758745
780.219339	3111.687500
780.543397	3103.782970
780.867409	3113.872840
781.191374	3111.672376
781.515294	3106.323712
781.839167	3108.829165
782.162995	3100.445727
782.486776	3088.110023
782.810511	3083.857810
783.134201	3067.789132
783.457844	3061.890982
783.781441	3052.421174
784.104993	3044.499001
784.428498	3037.098587
784.751958	3032.097763
785.075372	3024.780528
785.398739	3015.608148
785.722061	3018.842049
786.045337	3014.335257
786.368568	3029.642721
786.691752	3033.597506
787.014891	3074.990420
787.337983	3122.427678
787.661030	3196.883000
787.984031	3266.743310
788.306987	3306.235709
788.629897	3310.974393
788.952760	3289.511681
789.275579	3251.317379
789.598351	3202.987837
789.921078	3153.042605
790.243759	3105.834720
790.566395	3074.519072
790.888984	3041.318033
791.211529	3016.056811
791.534027	2993.154849
791.856480	2968.551498
792.178888	2955.217646
792.501249	2949.604321
792.823566	2929.774943
793.145836	2929.197730
793.468062	2922.049374
793.790241	2917.598035
794.112375	2923.133222
794.434464	2935.839451
794.756507	2940.220213
795.078505	2961.070426
795.400457	2991.760970
795.722364	3027.480066
796.044226	3061.727144
796.366042	3081.707758
796.687812	3076.167530
797.009538	3074.493867
797.331218	3057.726989
797.652852	3045.214845
797.974442	3021.458408
798.295986	3010.919875
798.617484	2987.871720
798.938938	2971.258598
799.260346	2961.524129
799.581709	2941.543516
799.903026	2933.104625
800.224299	2918.573499
800.545526	2902.519944
800.866708	2892.813202
801.187845	2883.010679
801.508936	2873.651777
801.829983	2869.356714
802.150984	2852.594877
802.471940	2849.532376
802.792851	2848.940041
803.113717	2843.513238
803.434538	2840.208762
803.755314	2838.537620
804.076045	2832.561332
804.396731	2826.620332
804.717372	2830.738955
805.037967	2832.344562
805.358518	2834.434120
805.679024	2846.190091
805.999485	2843.674555
806.319901	2847.231089
806.640272	2845.817046
806.960598	2852.362984
807.280879	2854.316431
807.601115	2855.697707
807.921306	2851.137984
808.241453	2846.777386
808.561554	2849.681090
808.881611	2845.449042
809.201623	2841.458968
809.521590	2836.427897
809.841513	2831.238029
810.161390	2829.027483
810.481223	2819.161945
810.801011	2815.547437
811.120755	2811.136428
811.440453	2801.840540
811.760107	2795.012297
812.079716	2790.308901
812.399281	2779.571243
812.718801	2780.972684
813.038276	2772.919441
813.357707	2770.696292
813.677093	2774.903135
813.996434	2763.981475
814.315731	2766.955756
814.634983	2764.457864
814.954191	2762.083480
815.273354	2771.296189
815.592473	2774.920779
815.911547	2787.604322
816.230577	2792.224539
816.549562	2805.583597
816.868502	2809.354380
817.187399	2813.442756
817.506250	2822.773932
817.825058	2823.643531
818.143821	2839.797908
818.462539	2860.123840
818.781213	2885.795916
819.099843	2933.349121
819.418429	3008.805111
819.736970	3087.837801
820.055466	3169.915347
820.373919	3274.831841
820.692327	3444.186884
821.010691	3798.816933
821.329011	4738.377105
821.647286	6343.419996
821.965517	8116.769369
822.283704	9027.153863
822.601847	9063.457733
822.919945	8118.841284
823.237999	7202.309103
823.556010	6388.364403
823.873976	5706.467687
824.191897	5126.455210
824.509775	4688.928427
824.827609	4303.166732
825.145398	4069.733582
825.463144	3957.850214
825.780845	3978.811332
826.098502	4139.364520
826.416116	4444.908854
826.733685	4712.331984
827.051210	4754.902007
827.368692	4559.189292
827.686129	4247.524996
828.003522	3945.955611
828.320872	3684.450797
828.638177	3485.473934
828.955439	3330.823937
829.272656	3201.954400
829.589830	3097.534460
829.906960	3010.934999
830.224046	2944.989145
830.541088	2893.632390
830.858086	2859.811289
831.175041	2833.972855
831.491952	2823.048674
831.808819	2823.489775
832.125642	2847.268898
832.442421	2911.130235
832.759157	3035.664379
833.075849	3243.546440
833.392497	3458.743216
833.709101	3589.324224
834.025662	3553.017834
834.342179	3425.753905
834.658653	3277.831328
834.975083	3153.924807
835.291469	3055.249262
835.607811	2967.883545
835.924110	2910.711819
836.240366	2855.049919
836.556578	2800.706281
836.872746	2759.489807
837.188871	2727.160887
837.504952	2701.466126
837.820990	2683.602797
838.136984	2669.674089
838.452935	2661.479694
838.768842	2666.215858
839.084706	2699.132072
839.400526	2782.719444
839.716303	2887.686349
840.032037	2951.885443
840.347727	2933.429779
840.663373	2864.988554
840.978977	2799.292237
841.294537	2753.049733
841.610054	2713.738815
841.925527	2687.403827
842.240957	2661.487255
842.556344	2640.599234
842.871687	2622.556945
843.186987	2605.046497
843.502244	2590.399424
843.817458	2579.087075
844.132629	2569.471074
844.447756	2565.070147
844.762840	2555.161759
845.077881	2551.295194
845.392879	2548.046170
845.707833	2544.512322
846.022745	2538.561239
846.337613	2543.443597
846.652438	2538.047042
846.967221	2535.060158
847.281960	2533.956145
847.596656	2535.682741
847.911309	2532.542102
848.225919	2533.988913
848.540485	2530.155115
848.855009	2530.311391
849.169490	2525.295443
849.483928	2528.993129
849.798323	2524.546832
850.112675	2521.726306
850.426984	2522.749660
850.741251	2522.497603
851.055474	2521.534742
851.369654	2524.289733
851.683792	2523.561286
851.997887	2522.404341
852.311938	2520.087931
852.625947	2521.451563
852.939914	2523.531039
853.253837	2526.107069
853.567718	2522.817716
853.881555	2521.320493
854.195350	2524.992974
854.509103	2523.601615
854.822812	2522.994156
855.136479	2521.355781
855.450103	2520.448374
855.763685	2521.799403
856.077224	2518.537776
856.390720	2521.108765
856.704173	2522.464835
857.017584	2525.149250
857.330953	2520.917201
857.644278	2522.207736
857.957561	2530.175280
858.270802	2524.516585
858.584000	2524.201513
858.897155	2524.072963
859.210268	2526.517923
859.523339	2520.942407
859.836367	2519.349402
860.149352	2520.682787
860.462295	2522.144722
860.775195	2514.308248
861.088054	2516.438136
861.400869	2517.569875
861.713642	2514.220028
862.026373	2518.129443
862.339062	2519.298991
862.651708	2521.444002
862.964312	2523.561286
863.276873	2521.388549
863.589392	2526.026410
863.901869	2528.070598
864.214303	2532.080836
864.526696	2534.455220
864.839045	2536.839685
865.151353	2537.610982
865.463619	2537.477391
865.775842	2538.430169
866.088023	2536.053265
866.400162	2536.827083
866.712258	2536.723739
867.024313	2534.432534
867.336325	2539.060314
867.648296	2536.300282
867.960224	2535.347504
868.272110	2537.820190
868.583954	2536.287679
868.895755	2535.108049
869.207515	2538.689789
869.519233	2539.808925
869.830909	2540.295396
870.142542	2543.183977
870.454134	2541.291024
870.765684	2542.982331
871.077191	2547.758825
871.388657	2547.063145
871.700081	2548.381407
872.011463	2551.796789
872.322803	2556.361554
872.634101	2554.899619
872.945357	2557.952038
873.256571	2564.198027
873.567744	2562.612584
873.878874	2565.672565
874.189963	2564.576114
874.501010	2568.785477
874.812015	2565.405384
875.122979	2566.859757
875.433900	2567.568039
875.744780	2574.161868
876.055618	2568.828327
876.366415	2569.760941
876.677169	2572.672207
876.987882	2572.946950
877.298554	2573.367886
877.609183	2580.460790
877.919771	2583.493044
878.230317	2592.201637
878.540822	2604.814604
878.851285	2623.265227
879.161707	2649.688435
879.472087	2687.781914
879.782425	2750.241810
880.092722	2886.103427
880.402977	3121.769807
880.713191	3457.377063
881.023363	3794.179072
881.333494	3984.515397
881.643583	4013.065972
881.953631	3916.517793
882.263637	3790.113381
882.573602	3657.382321
882.883526	3540.198179
883.193408	3423.089655
883.503248	3316.219714
883.813048	3219.220352
884.122806	3130.916981
884.432522	3038.157230
884.742197	2957.952472
885.051831	2887.320865
885.361424	2829.292143
885.670975	2779.059566
885.980485	2741.452558
886.289954	2708.768237
886.599382	2685.286543
886.908768	2660.801658
887.218113	2646.515028
887.527417	2628.112296
887.836680	2613.911366
888.145901	2603.072885
888.455082	2593.595516
888.764221	2586.858014
889.073319	2580.400296
889.382376	2575.893504
889.691392	2570.749007
890.000366	2570.063410
890.309300	2570.098698
890.618193	2569.130796
890.927044	2567.129458
891.235855	2568.334294
891.544625	2570.701116
891.853353	2570.809501
892.162041	2582.688980
892.470687	2593.842532
892.779293	2605.134717
893.087858	2621.460494
893.396381	2649.310348
893.704864	2695.119313
894.013306	2753.155597
894.321707	2813.858651
894.630068	2852.922552
894.938387	2857.625949
895.246665	2837.917558
895.554903	2807.017805
895.863100	2773.116046
896.171256	2746.831469
896.479371	2718.026316
896.787446	2698.799356
897.095480	2679.159020
897.403473	2662.500527
897.711425	2644.957312
898.019336	2632.162863
898.327207	2618.211470
898.635038	2607.289810
898.942827	2593.958479
899.250576	2583.770307
899.558284	2572.964594
899.865952	2567.822617
900.173579	2558.496482
900.481165	2555.522202
900.788711	2550.758311
901.096216	2549.064483
901.403681	2545.480223
901.711105	2541.167516
902.018489	2541.757331
902.325832	2549.830739
902.633135	2553.551110
902.940397	2577.761252
903.247619	2622.670371
903.554800	2707.714636
903.861941	2807.595017
904.169041	2885.710217
904.476101	2908.118146
904.783121	2883.436656
905.090100	2839.991992
905.397039	2798.455405
905.703938	2759.525095
906.010796	2724.456308
906.317614	2694.053109
906.624391	2668.416321
906.931129	2645.700882
907.237826	2623.088787
907.544483	2605.001127
907.851099	2584.236614
908.157675	2564.888665
908.464211	2547.368135
908.770707	2533.101670
909.077163	2523.294105
909.383578	2516.218846
909.689954	2511.477640
909.996289	2507.384223
910.302584	2506.108812
910.608839	2503.318533
910.915054	2505.390447
911.221229	2502.723677
911.527363	2505.955056
911.833458	2507.318688
912.139513	2506.786847
912.445527	2507.928668
912.751502	2512.080058
913.057436	2514.577950
913.363331	2523.924249
913.669186	2533.141999
913.975000	2550.133208
914.280775	2567.905796
914.586510	2603.561877
914.892205	2641.851961
915.197859	2697.095446
915.503475	2758.244642
915.809050	2811.360759
916.114585	2842.454596
916.420081	2850.528004
916.725536	2845.786799
917.030952	2821.223777
917.336328	2799.682926
917.641665	2780.138373
917.946961	2755.477048
918.252218	2733.096846
918.557435	2707.182794
918.862612	2687.605473
919.167750	2667.120745
919.472848	2642.656025
919.777906	2625.153139
920.082925	2608.111518
920.387904	2589.791965
920.692843	2575.268401
920.997743	2566.847154
921.302603	2553.273847
921.607423	2545.308824
921.912204	2535.624767
922.216946	2529.353572
922.521647	2527.105217
922.826310	2516.717920
923.130932	2516.332272
923.435516	2511.286077
923.740059	2507.860612
924.044564	2502.897597
924.349028	2501.760816
924.653454	2491.857470
924.957840	2491.229846
925.262186	2488.888230
925.566493	2487.403610
925.870761	2479.645274
926.174989	2484.663743
926.479178	2482.790954
926.783328	2476.701241
927.087438	2477.401961
927.391509	2477.956488
927.695541	2474.770479
927.999533	2472.464151
928.303486	2472.086064
928.607400	2472.799388
928.911275	2471.637402
929.215110	2470.422483
929.518906	2467.158336
929.822663	2467.463326
930.126381	2470.724953
930.430060	2471.017340
930.733699	2469.373923
931.037299	2471.947433
931.340861	2468.968111
931.644383	2471.070272
931.947866	2471.846609
932.251309	2469.200004
932.554714	2468.965590
932.858080	2468.184211
933.161407	2469.106742
933.464694	2467.695219
933.767943	2465.141875
934.071153	2468.889973
934.374323	2466.959211
934.677455	2466.397122
934.980548	2465.615743
935.283602	2466.934005
935.586617	2465.154478
935.889593	2466.011474
936.192530	2466.651700
936.495428	2467.302009
936.798287	2467.443162
937.101108	2468.630353
937.403890	2471.753348
937.706632	2473.847947
938.009336	2478.939513
938.312002	2483.209370
938.614628	2484.078969
938.917216	2491.020638
939.219765	2485.054432
939.522275	2492.192706
939.824747	2490.725731
940.127179	2486.675163
940.429573	2484.620893
940.731929	2486.639875
941.034246	2482.934627
941.336524	2487.290184
941.638763	2486.390338
941.940964	2485.480410
942.243126	2484.005872
942.545250	2484.046202
942.847335	2484.164669
943.149381	2481.981849
943.451389	2478.674852
943.753359	2475.168730
944.055290	2472.570015
944.357182	2472.496918
944.659036	2472.756538
944.960851	2472.895169
945.262628	2472.910293
945.564367	2474.553709
945.866067	2473.462299
946.167729	2470.309057
946.469352	2472.138996
946.770937	2471.523976
947.072484	2471.022381
947.373992	2468.448872
947.675462	2468.713532
947.976893	2467.612040
948.278286	2468.695888
948.579641	2469.343677
948.880958	2466.750003
949.182236	2469.721763
949.483476	2466.092132
949.784678	2467.904427
950.085841	2465.298151
950.386967	2468.902576
950.688054	2468.461475
950.989103	2466.881073
951.290114	2469.920889
951.591087	2471.529017
951.892021	2470.956846
952.192917	2473.686631
952.493776	2472.693523
952.794596	2471.743266
953.095378	2475.589666
953.396122	2473.797536
953.696828	2473.016157
953.997496	2475.090592
954.298126	2470.480457
954.598718	2474.321816
954.899272	2464.388222
955.199788	2470.740076
955.500266	2467.791001
955.800706	2466.301340
956.101108	2458.459825
956.401472	2460.047789
956.701798	2457.161728
957.002087	2455.619135
957.302337	2460.176338
957.602550	2455.122582
957.902724	2452.092848
958.202861	2453.698456
958.502960	2451.379525
958.803022	2450.756942
959.103045	2450.025975
959.403031	2448.574123
959.702979	2450.830039
960.002889	2449.975563
960.302762	2447.729729
960.602596	2445.246961
960.902393	2447.475151
961.202153	2445.690583
961.501875	2442.877619
961.801559	2446.293001
962.101205	2445.355346
962.400814	2446.166972
962.700385	2441.919800
962.999918	2442.469285
963.299414	2442.474327
963.598873	2441.806374
963.898293	2442.360901
964.197677	2442.612958
964.497022	2442.915427
964.796331	2440.634305
965.095601	2441.881991
965.394835	2442.670932
965.694030	2440.777978
965.993189	2442.723864
966.292309	2441.922320
966.591393	2443.154882
966.890439	2441.665221
967.189447	2440.591456
967.488419	2441.703030
967.787353	2440.727567
968.086249	2441.007351
968.385108	2439.956270
968.683930	2440.258739
968.982714	2438.973245
969.281462	2442.265119
969.580172	2440.188163
969.878844	2440.157916
970.177480	2442.224789
970.476078	2439.936106
970.774639	2439.401743
971.073162	2441.703030
971.371649	2440.092381
971.670098	2435.789757
971.968510	2440.233534
972.266885	2437.995261
972.565223	2439.923503
972.863524	2444.463062
973.161788	2443.555654
973.460014	2443.371652
973.758204	2443.270829
974.056356	2447.550768
974.354471	2442.146652
974.652550	2442.648246
974.950591	2441.821497
975.248595	2440.931733
975.546563	2441.498863
975.844493	2442.605397
976.142386	2441.889553
976.440243	2440.835952
976.738062	2440.387289
977.035845	2443.265788
977.333590	2440.251178
977.631299	2438.564912
977.928971	2440.725046
978.226606	2439.336208
978.524204	2439.593307
978.821765	2437.448296
979.119290	2440.437700
979.416777	2438.874943
979.714228	2440.427618
980.011642	2438.224634
980.309020	2442.975921
980.606360	2439.537854
980.903664	2443.643874
981.200931	2443.117074
981.498162	2445.960284
981.795356	2451.104782
982.092513	2455.172993
982.389633	2460.932511
982.686717	2465.794704
982.983764	2466.966772
983.280775	2471.077833
983.577749	2476.391210
983.874686	2472.575056
984.171587	2466.145064
984.468451	2464.080712
984.765279	2463.412759
985.062070	2461.232460
985.358824	2458.399332
985.655543	2457.413786
985.952224	2452.372632
986.248869	2447.263423
986.545478	2442.363421
986.842050	2441.362752
987.138586	2436.871084
987.435086	2434.322781
987.731549	2432.397060
988.027975	2433.319591
988.324366	2433.561567
988.620719	2433.992585
988.917037	2432.760023
989.213318	2433.697678
989.509563	2432.414704
989.805772	2433.700198
990.101944	2432.190373
990.398080	2431.300609
990.694180	2432.429828
990.990244	2432.134920
991.286271	2432.555856
991.582262	2428.890937
991.878217	2432.316402
992.174136	2433.516196
992.470019	2432.555856
992.765865	2433.889242
993.061676	2430.519230
993.357450	2433.979982
993.653188	2433.579211
993.948890	2434.337904
994.244556	2434.789087
994.540186	2436.538368
994.835780	2437.307144
995.131337	2439.643719
995.426859	2440.820828
995.722345	2445.892229
996.017795	2444.818463
996.313208	2449.579833
996.608586	2447.172682
996.903928	2451.805502
997.199234	2447.001283
997.494504	2451.906325
997.789738	2448.271653
998.084936	2446.235027
998.380099	2444.949533
998.675225	2442.774275
998.970316	2440.185643
999.265371	2439.671445
999.560390	2438.877463
999.855373	2438.978286
1000.150320	2435.958635
1000.445232	2434.350507
1000.740108	2433.700198
1001.034948	2433.042328
1001.329752	2429.306833
1001.624521	2428.424631
1001.919254	2425.115113
1002.213951	2427.905392
1002.508613	2423.431368
1002.803239	2428.901020
1003.097829	2424.023703
1003.392384	2427.441606
1003.686903	2427.847419
1003.981386	2426.680392
1004.275834	2427.623087
1004.570246	2427.673499
1004.864623	2425.677202
1005.158964	2427.242480
1005.453270	2426.120823
1005.747540	2425.289033
1006.041775	2427.350865
1006.335974	2425.583941
1006.630138	2422.760894
1006.924266	2424.910947
1007.218359	2426.408169
1007.512416	2424.242994
1007.806438	2424.842891
1008.100425	2424.530339
1008.394376	2425.362130
1008.688292	2426.393046
1008.982172	2422.251738
1009.276017	2424.593354
1009.569827	2421.210740
1009.863602	2424.777356
1010.157341	2423.575041
1010.451045	2422.728127
1010.744714	2424.966399
1011.038347	2424.192582
1011.331945	2423.050761
1011.625508	2424.525298
1011.919036	2422.324835
1012.212528	2424.971440
1012.505986	2423.083528
1012.799408	2423.476738
1013.092795	2420.739392
1013.386147	2419.960533
1013.679464	2422.503796
1013.972745	2424.462284
1014.265992	2425.120154
1014.559204	2425.835998
1014.852380	2419.300142
1015.145521	2424.505134
1015.438628	2422.158477
1015.731699	2420.401634
1016.024736	2420.278126
1016.317737	2422.758374
1016.610703	2424.875658
1016.903635	2421.286357
1017.196531	2418.919535
1017.489393	2420.447005
1017.782219	2417.888619
1018.075011	2419.766449
1018.367768	2421.561100
1018.660490	2419.012797
1018.953177	2419.012797
1019.245829	2419.012797
