Dividing Wavelength (nm)	Counts (n)	Blue Motor Position (mm): 0.000000	Red Motor Position (mm): 27.800000	
326.493990	1987.212764
326.888308	1987.212764
327.282561	1987.212764
327.676750	1965.014043
328.070874	1966.218879
328.464933	1973.069807
328.858929	1982.295118
329.252859	1994.388846
329.646726	2007.848727
330.040528	2022.072343
330.434265	2041.856351
330.827938	2059.714638
331.221547	2081.187433
331.615091	2103.214755
332.008571	2123.334000
332.401986	2142.979377
332.795338	2163.547284
333.188625	2181.730726
333.581847	2203.130424
333.975006	2220.330841
334.368100	2236.782647
334.761129	2253.894843
335.154095	2267.218613
335.546996	2290.549073
335.939833	2315.535552
336.332606	2329.716318
336.725315	2340.209480
337.117960	2349.223063
337.510540	2356.436954
337.903056	2364.603623
338.295508	2374.378420
338.687896	2377.733308
339.080220	2387.903836
339.472480	2392.342572
339.864676	2396.526730
340.256807	2397.968500
340.648875	2400.743655
341.040879	2403.317164
341.432818	2404.741290
341.824694	2406.147772
342.216506	2405.114335
342.608253	2404.811866
342.999937	2400.680641
343.391557	2401.908162
343.783113	2400.859602
344.174605	2402.162740
344.566033	2400.181566
344.957397	2396.899775
345.348697	2394.225443
345.739934	2395.594116
346.131106	2390.638662
346.522215	2390.217726
346.913260	2389.007849
347.304241	2386.514998
347.695159	2386.215050
348.086012	2384.367467
348.476802	2384.143135
348.867528	2381.625079
349.258191	2378.686086
349.648789	2380.044677
350.039324	2376.362114
350.429796	2380.921838
350.820203	2377.536703
351.210548	2377.917310
351.600828	2376.780530
351.991045	2378.950747
352.381198	2376.571322
352.771288	2377.892105
353.161314	2375.837834
353.551276	2376.352032
353.941175	2379.774976
354.331010	2378.013092
354.720782	2379.046529
355.110490	2375.432022
355.500135	2377.370345
355.889717	2376.369676
356.279235	2378.618031
356.668689	2381.156252
357.058080	2380.450490
357.447408	2378.822197
357.836672	2379.101982
358.225873	2376.571322
358.615010	2376.228524
359.004084	2382.920656
359.393095	2382.910573
359.782043	2385.224463
360.170927	2383.833104
360.559748	2385.930224
360.948505	2386.804865
361.337199	2387.931563
361.725830	2387.160266
362.114398	2388.813764
362.502903	2390.527757
362.891344	2389.640514
363.279722	2390.578168
363.668037	2392.821482
364.056289	2394.167470
364.444478	2395.374826
364.832603	2395.032028
365.220665	2393.807027
365.608665	2396.501524
365.996601	2399.929509
366.384474	2397.610578
366.772284	2402.258522
367.160031	2401.114180
367.547715	2401.154509
367.935336	2400.272307
368.322893	2406.629202
368.710388	2404.993348
369.097820	2408.340674
369.485189	2403.720456
369.872495	2408.335633
370.259738	2408.527197
370.646918	2412.618093
371.034035	2414.198495
371.421090	2416.053639
371.808081	2419.048085
372.195010	2425.853642
372.581875	2433.425455
372.968678	2439.789912
373.355418	2443.288473
373.742096	2456.708024
374.128710	2464.541978
374.515262	2476.918010
374.901751	2490.665237
375.288177	2505.876918
375.674540	2529.046062
376.060841	2549.225800
376.447079	2575.414595
376.833254	2603.256887
377.219367	2623.645834
377.605417	2661.000784
377.991404	2685.231090
378.377329	2728.176680
378.763191	2761.392842
379.148991	2812.026192
379.534727	2858.435054
379.920402	2907.742580
380.306013	2957.859211
380.691563	3017.241482
381.077049	3074.972776
381.462474	3131.864718
381.847835	3208.848178
382.233134	3278.577418
382.618371	3339.482118
383.003545	3425.458997
383.388657	3506.878673
383.773706	3601.065071
384.158693	3671.550484
384.543618	3767.529012
384.928480	3847.716126
385.313280	3954.447435
385.698017	4058.887540
386.082692	4179.739121
386.467305	4239.227257
386.851856	4373.284141
387.236344	4528.032440
387.620770	4593.564920
388.005133	4713.882138
388.389435	4861.179613
388.773674	4945.838230
389.157851	5083.333180
389.541965	5215.481987
389.926018	5237.673147
390.310008	5417.896917
390.693936	5547.373912
391.077802	5657.916334
391.461606	5793.175533
391.845348	5911.980406
392.229027	6033.542789
392.612645	6260.419918
392.996200	6377.470469
393.379694	6549.056223
393.763125	6776.397138
394.146494	6872.358022
394.529801	7014.294229
394.913047	7255.042093
395.296230	7251.488079
395.679351	7310.993859
396.062410	7573.758962
396.445408	7464.504556
396.828343	7626.229812
397.211217	7757.924915
397.594028	7646.018862
397.976778	7847.216353
398.359466	8012.840942
398.742092	7989.565934
399.124656	8134.277297
399.507158	8326.536822
399.889598	8347.903753
400.271977	8558.029127
400.654294	8586.481400
401.036549	8790.597719
401.418742	8812.763672
401.800874	9120.410168
402.182944	9202.167601
402.564952	9565.733096
402.946898	9384.309531
403.328783	9448.475858
403.710606	9641.776381
404.092367	9904.493593
404.474067	10262.150856
404.855705	10057.946316
405.237282	10010.186425
405.618797	10441.084091
406.000250	10688.892091
406.381642	11055.913296
406.762972	11002.424133
407.144240	10803.180089
407.525447	11052.308871
407.906593	10992.457772
408.287677	11252.205745
408.668700	11417.248081
409.049661	11382.701053
409.430560	11550.251363
409.811399	11511.449602
410.192176	11678.125272
410.572891	11757.402457
410.953545	12243.044533
411.334138	11715.974255
411.714669	12316.020276
412.095139	11623.380861
412.475547	12127.536575
412.855894	11970.630662
413.236180	12301.834469
413.616405	11985.711273
413.996568	12258.273859
414.376670	12237.708472
414.756711	12111.437650
415.136691	12392.156823
415.516609	12572.446128
415.896466	12640.194195
416.276262	12937.279473
416.655997	13379.590312
417.035670	13412.861927
417.415283	14070.624119
417.794834	14157.543694
418.174324	13905.783430
418.553753	13799.682265
418.933121	14300.331856
419.312428	14099.429272
419.691674	14011.418288
420.070859	14465.170025
420.449983	14129.935815
420.829045	14669.412373
421.208047	14419.736626
421.586988	14881.854158
421.965867	15129.679802
422.344686	15127.958248
422.723444	15691.713003
423.102141	14383.536100
423.480777	15569.845629
423.859352	15066.728393
424.237866	16178.070923
424.616319	15877.701333
424.994712	16544.275462
425.373044	16337.189903
425.751314	17011.996236
426.129524	16135.329500
426.507673	17226.396509
426.885762	16924.191939
427.263789	17120.335674
427.641756	17291.409750
428.019662	17348.720107
428.397508	17382.092546
428.775292	17691.947067
429.153016	17650.463412
429.530679	17738.890292
429.908282	17755.246315
430.285824	17476.157956
430.663305	18197.078244
431.040726	17781.568700
431.418086	17607.719469
431.795385	18268.219007
432.172624	18677.326286
432.549802	18230.506135
432.926920	18420.227440
433.303977	18309.869020
433.680974	18567.769410
434.057910	18850.875569
434.434786	18874.843735
434.811601	18785.640518
435.188355	19830.117183
435.565050	19486.595316
435.941683	19432.012223
436.318257	20301.757454
436.694770	20126.877307
437.071222	20709.536389
437.447614	19773.386558
437.823946	19807.167330
438.200218	19959.886565
438.576429	19734.990610
438.952580	20004.757876
439.328670	19966.550971
439.704700	20380.616224
440.080670	19962.419745
440.456580	20546.271060
440.832429	20726.630942
441.208218	19710.581343
441.583947	20156.168931
441.959616	20250.637634
442.335224	20504.074082
442.710773	20635.733897
443.086261	21159.308135
443.461689	20530.903103
443.837057	20645.554064
444.212365	21294.247221
444.587612	21286.856889
444.962800	20857.138853
445.337927	21295.109258
445.712995	20014.905718
446.088002	21882.827138
446.462949	22051.161347
446.837837	22233.729254
447.212664	22198.330272
447.587431	25041.961978
447.962139	27967.746847
448.336786	30347.491576
448.711374	28767.548590
449.085901	25094.153043
449.460369	25031.262129
449.834776	24955.075171
450.209124	27434.183562
450.583412	26974.760527
450.957640	27494.649682
451.331808	26138.929658
451.705917	24766.765389
452.079965	24807.003879
452.453954	25164.429249
452.827883	25047.882813
453.201752	24838.473282
453.575562	25008.483675
453.949311	26131.372968
454.323001	26179.775607
454.696632	25940.512363
455.070202	27487.113157
455.443713	27610.145037
455.817164	28199.871817
456.190556	28728.162055
456.563888	28153.644436
456.937160	28594.470655
457.310373	26927.076253
457.683526	27356.022992
458.056619	27332.682450
458.429653	27255.777128
458.802628	27832.419592
459.175542	27937.028576
459.548398	29204.951865
459.921194	30763.419535
460.293930	31423.422520
460.666607	33405.513472
461.039224	35138.891537
461.411782	35486.453889
461.784280	34294.674708
462.156719	33787.209477
462.529099	33200.945969
462.901419	31883.669784
463.273680	30822.700984
463.645882	30878.496475
464.018024	30824.815748
464.390106	31621.870062
464.762130	34255.520066
465.134094	38183.229221
465.505999	43347.629196
465.877845	47803.547931
466.249631	48909.453576
466.621358	47149.138106
466.993026	44992.159445
467.364634	42884.362281
467.736184	40885.655687
468.107674	39606.573804
468.479105	38759.861604
468.850477	38015.759570
469.221790	36545.413789
469.593043	34802.480217
469.964238	33863.167062
470.335373	33708.494380
470.706449	35270.105210
471.077467	37606.410316
471.448425	41874.009186
471.819324	44511.437535
472.190164	42623.994247
472.560945	39121.793765
472.931667	36086.918326
473.302330	34932.168941
473.672934	34044.383940
474.043479	34404.163528
474.413965	33539.477094
474.784393	33094.060905
475.154761	33813.229392
475.525070	33705.275603
475.895321	33163.326359
476.265513	33574.316508
476.635645	34336.276830
477.005719	34040.650966
477.375734	34319.187318
477.745691	34792.143331
478.115588	35852.976020
478.485427	37443.749925
478.855207	40279.789653
479.224928	42461.714463
479.594591	43781.816215
479.964194	42663.224506
480.333739	42605.263840
480.703226	42415.212340
481.072653	42758.230092
481.442022	42968.736073
481.811333	42986.685102
482.180584	41589.834303
482.549777	40905.346434
482.918912	40198.987518
483.287988	39693.253923
483.657005	38737.516689
484.025964	37955.346382
484.394864	37736.406550
484.763706	37121.968034
485.132489	36167.281880
485.501213	35781.373992
485.869879	35649.416748
486.238487	35054.157302
486.607036	34966.945341
486.975527	34273.194351
487.343959	34174.816234
487.712333	33964.199347
488.080648	33619.422232
488.448905	33692.639951
488.817104	33277.924389
489.185244	33698.233111
489.553326	34670.873334
489.921350	36418.270848
490.289315	38416.669932
490.657222	38587.365922
491.025070	38478.265270
491.392861	37373.529173
491.760593	36021.965579
492.128267	34401.257303
492.495883	32960.815647
492.863440	31639.531745
493.230939	30396.557126
493.598380	29340.198461
493.965763	28784.565005
494.333088	27919.903776
494.700354	27301.160115
495.067563	26808.485629
495.434713	26433.262466
495.801805	26152.003890
496.168839	25607.554233
496.535815	25099.506749
496.902733	24811.588809
497.269593	24261.185549
497.636395	23927.168778
498.003139	23838.840201
498.369825	23217.641497
498.736453	23086.286672
499.103023	22518.302389
499.469535	22140.248618
499.835989	21885.698075
500.202385	21407.869787
500.568723	21117.136363
500.935003	20914.156824
501.301226	20506.040132
501.667390	20509.097592
502.033497	20330.620581
502.399546	19754.699001
502.765537	19137.926431
503.131470	19013.833388
503.497345	18878.460763
503.863163	18004.894336
504.228923	17964.764231
504.594625	17838.180858
504.960269	17235.863796
505.325856	17237.169455
505.691385	16704.354782
506.056856	16477.986809
506.422270	16365.748040
506.787625	15915.983855
507.152924	15709.215889
507.518164	15476.309540
507.883347	14934.083033
508.248472	14755.842956
508.613540	14646.371780
508.978550	14487.116688
509.343503	14138.311692
509.708398	13945.797588
510.073236	13845.365201
510.438016	13587.641252
510.802738	13186.743492
511.167403	13096.456427
511.532010	12906.967015
511.896561	12739.764545
512.261053	12718.085063
512.625488	12343.655882
512.989866	12071.438615
513.354186	11800.040536
513.718449	11557.903835
514.082655	11491.869760
514.446803	11193.037722
514.810894	11086.853378
515.174927	10850.549292
515.538904	10619.883736
515.902822	10534.781497
516.266684	10217.793743
516.630488	10099.676988
516.994235	9866.407676
517.357925	9770.900496
517.721558	9609.437379
518.085133	9464.809196
518.448651	9295.005490
518.812112	9067.505779
519.175516	8899.063185
519.538863	8774.206407
519.902152	8587.655988
520.265385	8480.896953
520.628560	8315.849576
520.991678	8118.576623
521.354739	7987.073084
521.717743	7863.385854
522.080690	7693.251952
522.443580	7601.790298
522.806413	7450.447298
523.169189	7296.803011
523.531908	7175.835483
523.894569	7016.242635
524.257174	6895.028091
524.619722	6790.535054
524.982213	6658.857595
525.344647	6518.408528
525.707025	6400.478296
526.069345	6310.304656
526.431608	6183.827147
526.793815	6095.135607
527.155964	5941.929901
527.518057	5840.985836
527.880093	5721.218103
528.242072	5649.633718
528.603995	5533.770359
528.965860	5435.412406
529.327669	5343.882696
529.689421	5247.836113
530.051117	5154.657946
530.412755	5077.437551
530.774337	5000.978371
531.135862	4910.197272
531.497331	4840.886448
531.858743	4758.445938
532.220098	4704.893761
532.581396	4616.870174
532.942638	4534.772463
533.303824	4486.208507
533.664953	4425.818005
534.026025	4350.694730
534.387040	4314.814318
534.747999	4255.137138
535.108902	4207.384809
535.469748	4138.547853
535.830537	4093.668981
536.191270	4054.726067
536.551947	4001.841843
536.912567	3965.676605
537.273131	3929.473559
537.633638	3871.394425
537.994089	3840.776977
538.354483	3797.329793
538.714821	3778.695168
539.075103	3756.642640
539.435328	3718.395406
539.795497	3682.711599
540.155609	3656.502640
540.515665	3636.464053
540.875665	3598.373095
541.235609	3580.776947
541.595496	3551.268553
541.955328	3546.113973
542.315102	3509.616020
542.674821	3486.741784
543.034483	3463.812096
543.394090	3441.194959
543.753640	3426.492434
544.113134	3424.629728
544.472571	3387.514232
544.831953	3397.765419
545.191278	3364.965151
545.550548	3339.817355
545.909761	3340.329032
546.268918	3329.263700
546.628019	3318.997390
546.987064	3300.703043
547.346053	3274.088271
547.704986	3277.601955
548.063863	3259.032865
548.422684	3248.582553
548.781449	3239.117787
549.140158	3234.905902
549.498811	3219.870661
549.857408	3202.395501
550.215949	3205.039587
550.574434	3194.503575
550.932864	3180.957995
551.291237	3184.201977
551.649555	3173.126562
552.007817	3169.769154
552.366022	3155.164931
552.724173	3152.644354
553.082267	3148.934065
553.440305	3144.533137
553.798288	3127.297432
554.156215	3125.933800
554.514086	3122.384828
554.871902	3113.555247
555.229661	3106.641305
555.587365	3095.029007
555.945014	3095.076898
556.302606	3088.445260
556.660143	3083.875454
557.017625	3081.122984
557.375050	3069.440110
557.732421	3069.097311
558.089735	3060.199675
558.446994	3057.893347
558.804197	3057.956361
559.161345	3053.600804
559.518437	3033.370654
559.875474	3034.973741
560.232455	3033.726055
560.589381	3029.617515
560.946251	3028.130375
561.303065	3027.535518
561.659825	3022.731299
562.016528	3012.439783
562.373177	3003.753875
562.729770	3004.497445
563.086307	2995.680467
563.442789	2997.523009
563.799216	2991.851711
564.155587	2985.706544
564.511904	2984.975577
564.868164	2979.730257
565.224370	2981.318220
565.580520	2974.106849
565.936615	2970.452013
566.292654	2964.795838
566.648638	2969.481591
567.004567	2961.566979
567.360441	2956.518264
567.716260	2952.719754
568.072023	2954.844601
568.427732	2946.763631
568.783385	2940.885646
569.138982	2939.426232
569.494525	2938.997733
569.850013	2930.168153
570.205445	2932.567742
570.560823	2928.123965
570.916145	2918.739857
571.271412	2920.118612
571.626625	2917.267840
571.981782	2914.550658
572.336884	2905.756365
572.691931	2909.131418
573.046923	2903.258473
573.401860	2897.831671
573.756743	2893.287071
574.111570	2894.164232
574.466342	2890.322873
574.821059	2889.133160
575.175722	2883.051008
575.530330	2880.812736
575.884882	2873.727394
576.239380	2874.123125
576.593823	2871.171529
576.948211	2869.941487
577.302544	2860.912781
577.656823	2857.487317
578.011047	2858.770291
578.365216	2854.689477
578.719330	2846.704289
579.073389	2846.636233
579.427394	2846.706809
579.781344	2843.019205
580.135239	2837.221878
580.489080	2835.200376
580.842866	2829.508913
581.196597	2830.910354
581.550273	2825.753253
581.903895	2825.400373
582.257463	2827.555466
582.610975	2818.645227
582.964434	2817.125319
583.317837	2813.843527
583.671186	2811.627940
584.024481	2810.528969
584.377721	2803.887249
584.730906	2805.316416
585.084037	2803.736014
585.437113	2799.108235
585.790135	2797.084212
586.143103	2790.165228
586.496016	2789.895526
586.848874	2784.456121
587.201679	2782.427057
587.554428	2777.998403
587.907124	2777.859771
588.259765	2773.665531
588.612352	2774.943464
588.964884	2766.091198
589.317362	2768.803338
589.669786	2765.929881
590.022155	2762.454005
590.374470	2764.548605
590.726731	2758.642893
591.078937	2752.374218
591.431090	2753.281626
591.783188	2746.559247
592.135232	2742.387692
592.487222	2744.126890
592.839157	2742.546489
593.191038	2735.642628
593.542866	2731.266907
593.894639	2727.082749
594.246358	2724.806668
594.598022	2724.042933
594.949633	2720.483879
595.301190	2718.921121
595.652692	2715.288970
596.004141	2713.834597
596.355535	2710.890563
596.706876	2705.413349
597.058162	2703.180118
597.409395	2703.137268
597.760573	2703.059131
598.111698	2699.008563
598.462768	2696.440096
598.813785	2698.960672
599.164748	2689.914322
599.515657	2690.483972
599.866511	2687.272757
600.217312	2687.464321
600.568060	2679.337981
600.918753	2686.526667
601.269392	2683.653209
601.619978	2679.506860
601.970510	2678.382682
602.320988	2678.370080
602.671412	2680.043743
603.021783	2674.954698
603.372100	2672.277845
603.722363	2669.537978
604.072572	2671.735921
604.422728	2674.926972
604.772830	2665.951197
605.122878	2662.934067
605.472872	2663.952380
605.822813	2663.148316
606.172701	2667.670231
606.522534	2663.493635
606.872314	2664.879952
607.222041	2663.239056
607.571714	2662.568583
607.921333	2658.896102
608.270899	2660.050527
608.620411	2660.705877
608.969870	2661.996412
609.319276	2656.403252
609.668627	2657.431647
610.017926	2658.170176
610.367171	2658.293684
610.716362	2658.144970
611.065500	2655.712614
611.414585	2654.938797
611.763616	2654.482572
612.112594	2656.645227
612.461518	2657.078766
612.810389	2654.565751
613.159207	2652.317397
613.507971	2651.667088
613.856682	2653.141625
614.205340	2653.895278
614.553945	2656.771256
614.902496	2652.836635
615.250994	2655.274033
615.599439	2652.947541
615.947830	2653.106337
616.296169	2654.109527
616.644454	2652.710607
616.992686	2654.769918
617.340864	2654.023827
617.688990	2650.114412
618.037063	2653.779331
618.385082	2650.500061
618.733048	2652.713127
619.080961	2653.494506
619.428821	2652.355205
619.776628	2653.764208
620.124382	2653.287819
620.472083	2649.658188
620.819731	2651.674649
621.167326	2649.753970
621.514868	2650.248003
621.862357	2642.940850
622.209793	2647.495533
622.557176	2642.449338
622.904506	2638.890283
623.251783	2632.296454
623.599007	2632.790487
623.946179	2632.631691
624.293297	2630.978192
624.640363	2631.981382
624.987376	2630.811834
625.334336	2625.876545
625.681243	2626.877214
626.028097	2626.007615
626.374899	2626.141205
626.721647	2623.726492
627.068343	2623.713890
627.414987	2619.738940
627.761577	2621.319342
628.108115	2622.272120
628.454600	2616.497478
628.801032	2620.119547
629.147412	2617.200719
629.493739	2618.251799
629.840014	2615.935389
630.186236	2616.081583
630.532405	2614.329782
630.878521	2615.128805
631.224585	2613.591253
631.570597	2610.473299
631.916556	2612.661160
632.262462	2612.126797
632.608316	2611.841972
632.954117	2609.946498
633.299866	2608.945829
633.645562	2607.864502
633.991206	2608.174533
634.336797	2603.302258
634.682336	2604.653287
635.027823	2596.773963
635.373257	2599.629777
635.718639	2600.267483
636.063968	2594.823037
636.409245	2594.727255
636.754470	2595.070053
637.099642	2594.162646
637.444762	2590.704414
637.789829	2590.769949
638.134845	2588.204002
638.479808	2590.079311
638.824719	2590.422110
639.169577	2585.048240
639.514383	2586.169896
639.859137	2585.176789
640.203839	2585.811974
640.548489	2583.094792
640.893086	2584.276943
641.237632	2577.718402
641.582125	2580.821232
641.926566	2576.042218
642.270955	2582.265523
642.615292	2581.980697
642.959576	2581.279977
643.303809	2580.375090
643.647990	2580.697724
643.992118	2579.177816
644.336195	2579.886098
644.680219	2581.191757
645.024192	2579.997003
645.368112	2579.760069
645.711981	2582.366346
646.055797	2587.044537
646.399562	2585.723754
646.743274	2586.984043
647.086935	2591.498396
647.430544	2590.606112
647.774101	2587.914136
648.117606	2588.219125
648.461059	2591.200968
648.804460	2591.397573
649.147810	2586.051429
649.491108	2584.057653
649.834354	2584.191243
650.177548	2579.225707
650.520690	2576.533731
650.863781	2577.249575
651.206820	2580.362487
651.549807	2577.325192
651.892742	2574.638257
652.235626	2570.050807
652.578458	2572.861250
652.921238	2569.208934
653.263967	2571.860581
653.606644	2567.580642
653.949269	2567.958728
654.291843	2564.434962
654.634365	2564.845816
654.976836	2564.220712
655.319255	2563.852708
655.661622	2563.746844
656.003938	2563.129303
656.346203	2562.040413
656.688416	2563.330949
657.030577	2560.805331
657.372687	2564.140054
657.714746	2561.395146
658.056753	2563.237688
658.398708	2557.130330
658.740612	2558.584702
659.082465	2556.842984
659.424266	2558.204095
659.766016	2558.892213
660.107715	2560.465053
660.449362	2562.191648
660.790958	2560.860783
661.132503	2558.630073
661.473996	2560.558314
661.815438	2560.739796
662.156829	2562.289951
662.498168	2561.332131
662.839456	2559.562686
663.180693	2559.988664
663.521879	2561.034703
663.863013	2562.753737
664.204097	2561.357337
664.545129	2563.330949
664.886110	2561.614436
665.227040	2562.625187
665.567918	2558.342727
665.908746	2563.837585
666.249522	2563.046124
666.590248	2564.674416
666.930922	2561.475804
667.271545	2566.335477
667.612118	2563.560321
667.952639	2562.352965
668.293109	2563.585527
668.633528	2561.339693
668.973896	2565.977555
669.314213	2562.514282
669.654480	2562.317677
669.994695	2562.617626
670.334859	2558.110834
670.674973	2558.151163
671.015035	2562.282389
671.355047	2561.369940
671.695008	2560.021431
672.034918	2559.794579
672.374777	2560.114693
672.714585	2558.186451
673.054342	2560.828016
673.394049	2558.622511
673.733705	2556.457336
674.073310	2561.047306
674.412864	2557.934394
674.752368	2558.574620
675.091820	2556.202757
675.431223	2553.535987
675.770574	2555.827191
676.109875	2549.964329
676.449125	2553.611604
676.788324	2550.216387
677.127473	2547.088351
677.466571	2548.220090
677.805619	2546.506098
678.144616	2547.786551
678.483562	2547.232024
678.822458	2548.361243
679.161303	2548.202446
679.500098	2546.435522
679.838842	2546.569112
680.177535	2544.648433
680.516179	2544.895449
680.854771	2548.333516
681.193314	2551.413661
681.531805	2557.717624
681.870247	2562.083263
682.208638	2561.576627
682.546978	2563.008315
682.885268	2560.787687
683.223508	2560.865825
683.561697	2559.850032
683.899836	2560.003787
684.237925	2558.451112
684.575963	2557.329455
684.913951	2556.134702
685.251889	2553.873744
685.589776	2556.522871
685.927614	2555.970864
686.265401	2557.659651
686.603137	2557.546225
686.940824	2556.565720
687.278460	2560.157543
687.616046	2559.560166
687.953582	2560.187789
688.291068	2563.315825
688.628504	2566.315312
688.965889	2565.405384
689.303224	2563.721638
689.640510	2562.897410
689.977745	2557.551266
690.314930	2555.174362
690.652065	2553.440205
690.989150	2550.836449
691.326185	2548.411654
691.663170	2543.463762
692.000105	2544.966025
692.336990	2537.331198
692.673825	2535.160981
693.010610	2534.253573
693.347345	2528.110927
693.684030	2525.250073
694.020665	2526.217974
694.357251	2519.044412
694.693786	2524.501461
695.030272	2522.807634
695.366707	2519.888806
695.703093	2520.231604
696.039429	2521.247397
696.375716	2520.581964
696.711952	2519.198168
697.048139	2518.489885
697.384276	2517.174144
697.720363	2517.569875
698.056400	2515.611387
698.392388	2516.251613
698.728326	2514.101561
699.064214	2513.237003
699.400053	2516.622138
699.735842	2514.189781
700.071581	2512.803464
700.407270	2514.003258
700.742910	2512.425377
701.078501	2510.066117
701.414042	2508.125273
701.749533	2505.758451
702.084974	2508.768020
702.420366	2504.911538
702.755709	2502.834582
703.091002	2502.237205
703.426246	2501.876763
703.761440	2503.661331
704.096584	2500.336690
704.431679	2501.798625
704.766725	2502.786691
705.101721	2501.909530
705.436668	2501.395333
705.771565	2502.317864
706.106413	2502.277535
706.441212	2501.218892
706.775961	2504.094871
707.110661	2502.259891
707.445311	2507.469923
707.779913	2505.193842
708.114465	2504.909017
708.448967	2504.878770
708.783421	2509.093175
709.117825	2510.744153
709.452180	2512.155676
709.786485	2512.276663
710.120742	2513.715913
710.454949	2515.765142
710.789107	2515.485358
711.123216	2519.664474
711.457275	2521.887623
711.791286	2522.621111
712.125247	2524.541791
712.459159	2524.055319
712.793023	2528.189065
713.126837	2522.870648
713.460602	2523.969620
713.794318	2524.055319
714.127985	2517.448887
714.461602	2517.282529
714.795171	2516.493588
715.128691	2511.835562
715.462162	2514.368742
715.795584	2508.452948
716.128957	2507.134686
716.462281	2503.540344
716.795556	2503.741990
717.128782	2501.826351
717.461960	2500.566063
717.795088	2498.289982
718.128167	2498.710918
718.461198	2498.668068
718.794180	2493.165649
719.127113	2492.696822
719.459997	2492.414517
719.792833	2490.244300
720.125619	2491.920484
720.458357	2490.095586
720.791046	2487.375884
721.123686	2489.508292
721.456278	2487.459063
721.788821	2488.386635
722.121315	2486.942345
722.453761	2486.415544
722.786158	2486.281953
723.118506	2486.347488
723.450805	2486.904536
723.783056	2487.345637
724.115259	2489.727582
724.447412	2485.692138
724.779518	2485.828250
725.111574	2487.373363
725.443582	2489.558703
725.775542	2488.149701
726.107453	2494.078098
726.439315	2488.222798
726.771129	2494.551966
727.102895	2490.307315
727.434612	2497.740496
727.766281	2494.322594
728.097901	2498.693274
728.429473	2491.678509
728.760996	2496.399549
729.092471	2493.337048
729.423897	2499.328460
729.755276	2493.919302
730.086606	2498.216885
730.417887	2502.065806
730.749120	2503.265601
731.080305	2504.651918
731.411442	2503.051352
731.742530	2504.634274
732.073570	2507.485047
732.404562	2508.604183
732.735506	2506.033194
733.066401	2505.183760
733.397249	2504.450272
733.728048	2500.634118
734.058798	2497.785867
734.389501	2495.658500
734.720156	2491.781852
735.050762	2487.645586
735.381320	2488.673981
735.711831	2488.754639
736.042293	2485.198105
736.372707	2484.071407
736.703073	2484.963692
737.033391	2485.011583
737.363661	2484.603249
737.693883	2484.472179
738.024056	2486.171048
738.354182	2483.930255
738.684260	2485.669453
739.014290	2489.480566
739.344272	2491.529795
739.674207	2493.962151
740.004093	2493.478201
740.333931	2494.138592
740.663722	2494.347800
740.993464	2492.719507
741.323159	2493.039620
741.652806	2493.279075
741.982405	2490.193889
742.311956	2489.641882
742.641460	2490.186327
742.970915	2487.690956
743.300323	2486.057622
743.629683	2483.716006
743.958996	2483.680718
744.288260	2480.111581
744.617477	2477.845582
744.946647	2476.111426
745.275768	2478.079996
745.604842	2475.869450
745.933869	2471.342494
746.262847	2472.501959
746.591778	2477.573360
746.920662	2476.547485
747.249498	2477.752321
747.578286	2475.335088
747.907027	2476.827269
748.235720	2478.132928
748.564365	2477.560757
748.892963	2477.792650
749.221514	2479.037815
749.550017	2478.442959
749.878473	2477.961529
750.206881	2476.101343
750.535242	2474.525983
750.863555	2476.242496
751.191821	2475.451034
751.520039	2475.496405
751.848210	2476.691158
752.176334	2475.229224
752.504411	2476.355922
752.832440	2472.131435
753.160421	2474.657053
753.488356	2473.122021
753.816243	2474.717547
754.144082	2473.167392
754.471875	2469.694037
754.799620	2473.089254
755.127318	2473.958853
755.454969	2470.304016
755.782572	2471.846609
756.110129	2474.125211
756.437638	2469.709160
756.765100	2469.288224
757.092515	2471.765951
757.419882	2472.315437
757.747203	2471.193780
758.074477	2472.449027
758.401703	2472.433904
758.728882	2472.290231
759.056014	2473.855509
759.383099	2473.956332
759.710138	2476.252578
760.037129	2477.875829
760.364073	2477.044039
760.690970	2476.393730
761.017820	2476.996148
761.344623	2476.388689
761.671379	2480.862713
761.998088	2479.748618
762.324751	2492.346462
762.651366	2506.728873
762.977935	2532.012781
763.304456	2540.323123
763.630931	2548.494833
763.957359	2542.372352
764.283740	2533.835158
764.610074	2521.691018
764.936362	2509.884636
765.262602	2500.011536
765.588796	2492.893427
765.914943	2483.214411
766.241044	2477.530510
766.567097	2473.265694
766.893104	2467.700260
767.219064	2468.650518
767.544978	2468.690847
767.870845	2464.846967
768.196665	2464.627677
768.522438	2461.509723
768.848165	2459.878910
769.173846	2458.238015
769.499479	2457.181893
769.825066	2457.915381
770.150607	2453.955554
770.476101	2452.632252
770.801548	2455.455298
771.126949	2453.917746
771.452303	2454.618466
771.777611	2452.596963
772.102872	2451.898764
772.428087	2450.860286
772.753256	2449.584874
773.078378	2451.455142
773.403453	2451.117385
773.728482	2447.825511
774.053465	2447.497836
774.378401	2445.365428
774.703291	2447.941458
775.028135	2446.048505
775.352932	2445.357867
775.677683	2443.172526
776.002388	2443.787547
776.327046	2447.250820
776.651658	2446.711416
776.976224	2444.992383
777.300743	2444.069852
777.625216	2445.607404
777.949643	2443.260747
778.274024	2441.554316
778.598359	2440.266301
778.922647	2438.869902
779.246889	2440.914089
779.571086	2438.942998
779.895236	2443.394337
780.219339	2443.890891
780.543397	2441.178750
780.867409	2444.576488
781.191374	2445.206632
781.515294	2444.989862
781.839167	2447.581015
782.162995	2442.577670
782.486776	2444.644543
782.810511	2444.515994
783.134201	2444.538679
783.457844	2443.142279
783.781441	2442.751590
784.104993	2439.444593
784.428498	2440.377207
784.751958	2440.800663
785.075372	2441.135900
785.398739	2443.764862
785.722061	2443.711930
786.045337	2438.965683
786.368568	2446.240068
786.691752	2443.374172
787.014891	2446.625717
787.337983	2445.733432
787.661030	2451.198043
787.984031	2451.732406
788.306987	2454.310956
788.629897	2456.992850
788.952760	2456.297170
789.275579	2455.210802
789.598351	2453.108641
789.921078	2450.283074
790.243759	2444.319389
790.566395	2445.947682
790.888984	2445.957764
791.211529	2444.316868
791.534027	2443.278391
791.856480	2443.785027
792.178888	2442.290324
792.501249	2442.388627
792.823566	2441.725715
793.145836	2440.747731
793.468062	2436.903852
793.790241	2439.973914
794.112375	2440.737649
794.434464	2441.151024
794.756507	2441.778647
795.078505	2442.045828
795.400457	2440.969542
795.722364	2443.696806
796.044226	2444.957095
796.366042	2445.350305
796.687812	2445.783844
797.009538	2447.177723
797.331218	2448.722837
797.652852	2449.645368
797.974442	2448.503547
798.295986	2447.598659
798.617484	2446.187136
798.938938	2444.889039
799.260346	2443.578339
799.581709	2443.802671
799.903026	2443.096909
800.224299	2441.813935
800.545526	2440.019285
800.866708	2443.666559
801.187845	2441.173709
801.508936	2438.040632
801.829983	2439.726898
802.150984	2437.445776
802.471940	2438.673297
802.792851	2437.748245
803.113717	2441.272011
803.434538	2437.327308
803.755314	2437.029880
804.076045	2434.390836
804.396731	2435.361258
804.717372	2438.547268
805.037967	2438.254881
805.358518	2437.503749
805.679024	2440.896445
805.999485	2439.636157
806.319901	2438.196907
806.640272	2436.011567
806.960598	2435.736824
807.280879	2438.048193
807.601115	2438.645570
807.921306	2435.562905
808.241453	2438.930395
808.561554	2440.541044
808.881611	2442.431477
809.201623	2441.216559
809.521590	2439.603389
809.841513	2440.329316
810.161390	2441.587083
810.481223	2437.443255
810.801011	2438.262443
811.120755	2436.026691
811.440453	2438.774120
811.760107	2436.878646
812.079716	2435.439396
812.399281	2433.627102
812.718801	2434.922678
813.038276	2430.945208
813.357707	2435.313368
813.677093	2436.394695
813.996434	2435.066351
814.315731	2437.193718
814.634983	2434.925199
814.954191	2434.794129
815.273354	2436.147678
815.592473	2439.439552
815.911547	2437.798656
816.230577	2440.420056
816.549562	2439.258070
816.868502	2439.802515
817.187399	2442.134049
817.506250	2444.931889
817.825058	2442.983483
818.143821	2445.322578
818.462539	2446.431632
818.781213	2450.930862
819.099843	2454.631069
819.418429	2460.839250
819.736970	2468.693368
820.055466	2475.289718
820.373919	2485.044350
820.692327	2502.005312
821.010691	2531.765764
821.329011	2596.557194
821.647286	2694.307687
821.965517	2798.883903
822.283704	2864.678523
822.601847	2883.870196
822.919945	2838.487208
823.237999	2787.246400
823.556010	2736.993658
823.873976	2689.957172
824.191897	2643.676859
824.509775	2610.644698
824.827609	2581.665625
825.145398	2561.185938
825.463144	2553.977088
825.780845	2554.340051
826.098502	2568.520817
826.416116	2590.618715
826.733685	2617.535956
827.051210	2623.678602
827.368692	2610.906838
827.686129	2581.842066
828.003522	2556.878272
828.320872	2528.201668
828.638177	2512.861437
828.955439	2491.986019
829.272656	2483.431181
829.589830	2471.481126
829.906960	2468.416104
830.224046	2460.325052
830.541088	2454.631069
830.858086	2453.668209
831.175041	2449.151335
831.491952	2452.049998
831.808819	2449.509257
832.125642	2452.488579
832.442421	2461.257666
832.759157	2471.261836
833.075849	2493.006853
833.392497	2511.954029
833.709101	2528.632687
834.025662	2525.055988
834.342179	2514.126767
834.658653	2500.324088
834.975083	2486.700369
835.291469	2484.048722
835.607811	2466.744962
835.924110	2461.391256
836.240366	2454.825153
836.556578	2448.863989
836.872746	2444.508432
837.188871	2439.855447
837.504952	2440.052052
837.820990	2435.479726
838.136984	2438.948039
838.452935	2434.403439
838.768842	2433.596855
839.084706	2437.387802
839.400526	2448.032199
839.716303	2455.460339
840.032037	2464.647842
840.347727	2461.361009
840.663373	2459.193313
840.978977	2449.700821
841.294537	2445.579677
841.610054	2439.608431
841.925527	2436.684561
842.240957	2434.920158
842.556344	2431.081319
842.871687	2428.452357
843.186987	2427.618046
843.502244	2425.460432
843.817458	2424.527819
844.132629	2424.414393
844.447756	2423.161666
844.762840	2416.446849
845.077881	2414.556417
845.392879	2418.788465
845.707833	2418.944741
846.022745	2414.775707
846.337613	2417.749987
846.652438	2420.399114
846.967221	2418.884247
847.281960	2418.957344
847.596656	2420.991449
847.911309	2420.520102
848.225919	2418.783424
848.540485	2418.876685
848.855009	2419.879875
849.169490	2419.393404
849.483928	2417.331572
849.798323	2417.505492
850.112675	2417.865934
850.426984	2415.660429
850.741251	2416.731674
851.055474	2414.130439
851.369654	2418.796027
851.683792	2415.005079
851.997887	2416.459452
852.311938	2417.250913
852.625947	2417.921387
852.939914	2420.346182
853.253837	2418.039854
853.567718	2417.059349
853.881555	2417.258475
854.195350	2418.702766
854.509103	2417.709658
854.822812	2416.046078
855.136479	2417.538259
855.450103	2418.198650
855.763685	2416.099010
856.077224	2416.945923
856.390720	2418.102868
856.704173	2416.446849
857.017584	2415.373083
857.330953	2418.914494
857.644278	2420.578075
857.957561	2426.690474
858.270802	2418.574216
858.584000	2418.420461
858.897155	2418.801068
859.210268	2419.317786
859.523339	2417.079514
859.836367	2415.383166
860.149352	2414.301838
860.462295	2417.813002
860.775195	2415.284863
861.088054	2413.651529
861.400869	2415.887281
861.713642	2412.446694
862.026373	2416.270409
862.339062	2417.424833
862.651708	2415.431057
862.964312	2416.005748
863.276873	2420.419278
863.589392	2416.623290
863.901869	2419.799217
864.214303	2421.064546
864.526696	2417.840728
864.839045	2420.237797
865.151353	2418.889288
865.463619	2418.417940
865.775842	2418.836356
866.088023	2419.771490
866.400162	2419.007755
866.712258	2422.460946
867.024313	2424.064033
867.336325	2418.314597
867.648296	2422.241656
867.960224	2421.150246
868.272110	2421.039340
868.583954	2421.775349
868.895755	2420.169741
869.207515	2419.753846
869.519233	2424.361461
869.830909	2419.705955
870.142542	2418.997673
870.454134	2422.508837
870.765684	2422.337437
871.077191	2421.724937
871.388657	2421.843404
871.700081	2423.459094
872.011463	2422.599577
872.322803	2421.243507
872.634101	2422.682757
872.945357	2424.401790
873.256571	2425.692325
873.567744	2424.830288
873.878874	2426.365319
874.189963	2424.888261
874.501010	2427.025711
874.812015	2426.695515
875.122979	2427.217274
875.433900	2426.864394
875.744780	2425.160484
876.055618	2426.614857
876.366415	2425.883889
876.677169	2427.028231
876.987882	2427.068560
877.298554	2426.350196
877.609183	2428.641400
877.919771	2426.876997
878.230317	2429.553849
878.540822	2434.673141
878.851285	2438.731270
879.161707	2443.714450
879.472087	2450.736778
879.782425	2466.387040
880.092722	2484.716675
880.402977	2521.822088
880.713191	2564.775239
881.023363	2607.947681
881.333494	2631.661269
881.643583	2642.373721
881.953631	2638.000520
882.263637	2624.207923
882.573602	2607.544389
882.883526	2591.609301
883.193408	2572.800756
883.503248	2555.938097
883.813048	2536.542257
884.122806	2524.577079
884.432522	2508.664677
884.742197	2496.278562
885.051831	2487.277581
885.361424	2474.180664
885.670975	2467.843933
885.980485	2461.328242
886.289954	2456.718107
886.599382	2448.700152
886.908768	2448.430450
887.218113	2441.682865
887.527417	2441.647577
887.836680	2436.072061
888.145901	2436.785384
888.455082	2432.145002
888.764221	2432.419745
889.073319	2429.516041
889.382376	2429.750454
889.691392	2427.529826
890.000366	2427.423962
890.309300	2426.801379
890.618193	2427.696184
890.927044	2429.997471
891.235855	2430.524271
891.544625	2429.150557
891.853353	2428.419590
892.162041	2430.579724
892.470687	2434.395878
892.779293	2437.627257
893.087858	2438.774120
893.396381	2442.249995
893.704864	2450.935903
894.013306	2460.514096
894.321707	2479.113433
894.630068	2486.264309
894.938387	2489.026862
895.246665	2485.601398
895.554903	2480.361118
895.863100	2473.805098
896.171256	2468.385857
896.479371	2463.500979
896.787446	2458.374126
897.095480	2451.951696
897.403473	2450.560337
897.711425	2445.461210
898.019336	2445.143617
898.327207	2437.798656
898.635038	2439.540375
898.942827	2434.887390
899.250576	2435.026022
899.558284	2431.865218
899.865952	2425.498241
900.173579	2429.377409
900.481165	2428.853129
900.788711	2426.390525
901.096216	2425.387336
901.403681	2426.423293
901.711105	2425.767943
902.018489	2424.936152
902.325832	2428.298602
902.633135	2425.715011
902.940397	2434.993254
903.247619	2443.222938
903.554800	2460.138530
903.861941	2481.795327
904.169041	2499.802328
904.476101	2502.461537
904.783121	2497.380054
905.090100	2490.206492
905.397039	2479.816674
905.703938	2471.110601
906.010796	2465.189766
906.317614	2456.914712
906.624391	2453.254834
906.931129	2445.476334
907.237826	2444.861313
907.544483	2438.285128
907.851099	2433.569128
908.157675	2432.886052
908.464211	2426.577048
908.770707	2419.216963
909.077163	2421.432550
909.383578	2415.199164
909.689954	2415.322672
909.996289	2413.596077
910.302584	2418.632189
910.608839	2415.756211
910.915054	2415.683114
911.221229	2417.850811
911.527363	2417.266037
911.833458	2416.277971
912.139513	2417.646644
912.445527	2417.979360
912.751502	2418.208733
913.057436	2418.428023
913.363331	2421.024217
913.669186	2422.574372
913.975000	2429.074940
914.280775	2431.870259
914.586510	2438.980807
914.892205	2449.428598
915.197859	2459.899075
915.503475	2476.522280
915.809050	2486.130719
916.114585	2496.873418
916.420081	2500.828203
916.725536	2497.536329
917.030952	2492.860659
917.336328	2487.920328
917.641665	2481.306335
917.946961	2475.745942
918.252218	2472.854840
918.557435	2464.529375
918.862612	2460.625001
919.167750	2454.036213
919.472848	2451.316510
919.777906	2444.858792
920.082925	2444.586570
920.387904	2436.803028
920.692843	2438.627926
920.997743	2433.569128
921.302603	2429.516041
921.607423	2428.689291
921.912204	2426.413210
922.216946	2425.233580
922.521647	2423.506985
922.826310	2419.171593
923.130932	2420.825091
923.435516	2419.206881
923.740059	2418.296953
924.044564	2414.816036
924.349028	2415.607497
924.653454	2411.980387
924.957840	2412.668504
925.262186	2413.724626
925.566493	2412.275294
925.870761	2408.320509
926.174989	2410.221024
926.479178	2414.548855
926.783328	2412.275294
927.087438	2409.726991
927.391509	2411.849317
927.695541	2411.695562
927.999533	2411.836714
928.303486	2409.880746
928.607400	2408.570046
928.911275	2407.647515
929.215110	2409.111970
929.518906	2407.299676
929.822663	2409.386713
930.126381	2410.054666
930.430060	2409.966446
930.733699	2409.661456
931.037299	2409.358987
931.340861	2410.331930
931.644383	2408.189439
931.947866	2409.452248
932.251309	2408.938051
932.554714	2410.571384
932.858080	2410.825963
933.161407	2404.595097
933.464694	2407.934861
933.767943	2407.992834
934.071153	2410.828483
934.374323	2407.085427
934.677455	2409.931158
934.980548	2409.144738
935.283602	2408.416291
935.586617	2409.086765
935.889593	2406.876219
936.192530	2411.647671
936.495428	2411.002403
936.798287	2408.290262
937.101108	2409.681621
937.403890	2409.537948
937.706632	2412.862589
938.009336	2412.431570
938.312002	2412.519790
938.614628	2412.295459
938.917216	2413.792682
939.219765	2414.674884
939.522275	2416.348547
939.824747	2416.378794
940.127179	2412.887795
940.429573	2409.686662
940.731929	2414.004410
941.034246	2407.496281
941.336524	2414.997518
941.638763	2414.929462
941.940964	2415.131108
942.243126	2415.415933
942.545250	2414.667322
942.847335	2412.323185
943.149381	2411.884605
943.451389	2411.715726
943.753359	2411.168761
944.055290	2412.174471
944.357182	2409.928637
944.659036	2413.081879
944.960851	2412.910480
945.262628	2410.636919
945.564367	2410.034502
945.866067	2410.430232
946.167729	2408.905283
946.469352	2412.454255
946.770937	2411.085582
947.072484	2406.790519
947.373992	2411.461148
947.675462	2411.866961
947.976893	2408.484347
948.278286	2411.730850
948.579641	2412.008113
948.880958	2407.927299
949.182236	2409.963925
949.483476	2409.001065
949.784678	2408.721281
950.085841	2409.366549
950.386967	2411.219173
950.688054	2410.899059
950.989103	2410.339491
951.290114	2408.534758
951.591087	2410.483164
951.892021	2407.531569
952.192917	2410.354615
952.493776	2411.637588
952.794596	2413.520459
953.095378	2413.427198
953.396122	2413.664132
953.696828	2410.606673
953.997496	2412.040881
954.298126	2409.157341
954.598718	2411.894687
954.899272	2409.048956
955.199788	2409.842938
955.500266	2408.988462
955.800706	2405.348749
956.101108	2403.891856
956.401472	2406.785478
956.701798	2402.828172
957.002087	2404.509397
957.302337	2407.619789
957.602550	2405.905797
957.902724	2404.995868
958.202861	2403.685168
958.502960	2403.264232
958.803022	2407.418143
959.103045	2401.585528
959.403031	2406.062072
959.702979	2405.237844
960.002889	2404.393450
960.302762	2404.791702
960.602596	2403.864129
960.902393	2403.854047
961.202153	2403.397823
961.501875	2400.922616
961.801559	2405.457134
962.101205	2404.012843
962.400814	2402.019067
962.700385	2403.957391
962.999918	2403.012174
963.299414	2399.901782
963.598873	2402.354304
963.898293	2401.799777
964.197677	2402.303892
964.497022	2402.364386
964.796331	2402.913872
965.095601	2403.274314
965.394835	2401.240209
965.694030	2401.951011
965.993189	2403.682648
966.292309	2400.267266
966.591393	2402.296330
966.890439	2402.992010
967.189447	2401.305744
967.488419	2403.516290
967.787353	2402.576114
968.086249	2405.963770
968.385108	2402.760117
968.683930	2401.822462
968.982714	2404.789181
969.281462	2402.046793
969.580172	2400.156361
969.878844	2405.300858
970.177480	2401.948491
970.476078	2404.642987
970.774639	2403.433111
971.073162	2403.798594
971.371649	2399.654766
971.670098	2400.872204
971.968510	2400.269787
972.266885	2399.362379
972.565223	2402.271125
972.863524	2402.024108
973.161788	2403.488563
973.460014	2401.484705
973.758204	2405.542833
974.056356	2401.948491
974.354471	2401.174674
974.652550	2405.462175
974.950591	2403.072668
975.248595	2403.140724
975.546563	2404.232133
975.844493	2404.900086
976.142386	2402.893707
976.440243	2403.745662
976.738062	2402.268604
977.035845	2403.728018
977.333590	2400.841957
977.631299	2400.985630
977.928971	2405.706671
978.226606	2402.724828
978.524204	2403.112997
978.821765	2401.172153
979.119290	2402.646691
979.416777	2405.205076
979.714228	2400.277348
980.011642	2400.799108
980.309020	2403.738100
980.606360	2402.334139
980.903664	2404.522000
981.200931	2404.544685
981.498162	2405.416805
981.795356	2405.855385
982.092513	2408.552402
982.389633	2408.519635
982.686717	2409.364028
982.983764	2411.186405
983.280775	2413.830490
983.577749	2410.863771
983.874686	2411.083062
984.171587	2409.769841
984.468451	2415.637744
984.765279	2410.989800
985.062070	2406.409912
985.358824	2409.366549
985.655543	2405.595766
985.952224	2407.080385
986.248869	2405.812535
986.545478	2399.208624
986.842050	2403.460837
987.138586	2398.122255
987.435086	2401.255332
987.731549	2393.948180
988.027975	2398.941443
988.324366	2400.680641
988.620719	2401.111659
988.917037	2400.121072
989.213318	2397.572769
989.509563	2401.300702
989.805772	2403.196176
990.101944	2400.317678
990.398080	2400.393295
990.694180	2400.705846
990.990244	2401.227606
991.286271	2402.450086
991.582262	2401.456978
991.878217	2401.116700
992.174136	2400.889848
992.470019	2400.899931
992.765865	2401.913203
993.061676	2399.372461
993.357450	2402.593758
993.653188	2401.613254
993.948890	2402.175343
994.244556	2403.596948
994.540186	2403.216341
994.835780	2401.943450
995.131337	2405.810015
995.426859	2402.845816
995.722345	2406.513256
996.017795	2405.061403
996.313208	2405.109294
996.608586	2406.926630
996.903928	2409.560633
997.199234	2406.540982
997.494504	2406.901424
997.789738	2404.579973
998.084936	2405.200035
998.380099	2404.282545
998.675225	2405.499984
998.970316	2405.726836
999.265371	2404.262380
999.560390	2403.385220
999.855373	2402.704664
1000.150320	2399.264076
1000.445232	2402.528223
1000.740108	2401.036042
1001.034948	2398.540671
1001.329752	2399.412790
1001.624521	2400.673079
1001.919254	2396.733417
1002.213951	2399.445558
1002.508613	2395.916750
1002.803239	2399.276679
1003.097829	2398.202913
1003.392384	2400.579817
1003.686903	2400.960425
1003.981386	2396.136040
1004.275834	2400.612585
1004.570246	2401.227606
1004.864623	2397.741648
1005.158964	2400.322719
1005.453270	2398.528068
1005.747540	2399.584190
1006.041775	2400.751217
1006.335974	2399.531258
1006.630138	2398.936401
1006.924266	2398.051679
1007.218359	2397.940773
1007.512416	2399.334652
1007.806438	2399.357338
1008.100425	2399.891700
1008.394376	2396.531771
1008.688292	2401.104098
1008.982172	2398.951525
1009.276017	2398.296175
1009.569827	2396.995557
1009.863602	2396.282234
1010.157341	2395.828530
1010.451045	2398.097049
1010.744714	2398.749879
1011.038347	2399.982441
1011.331945	2400.242060
1011.625508	2397.555125
1011.919036	2399.435476
1012.212528	2400.332801
1012.505986	2396.060423
1012.799408	2398.197872
1013.092795	2397.620660
1013.386147	2397.660989
1013.679464	2399.526216
1013.972745	2398.797770
1014.265992	2400.940260
1014.559204	2399.392626
1014.852380	2398.570918
1015.145521	2397.706360
1015.438628	2399.692574
1015.731699	2399.049827
1016.024736	2399.044786
1016.317737	2396.325084
1016.610703	2401.104098
1016.903635	2393.980947
1017.196531	2397.378685
1017.489393	2398.828017
1017.782219	2392.831564
1018.075011	2397.678633
1018.367768	2399.385064
1018.660490	2399.881618
1018.953177	2399.881618
1019.245829	2399.881618
