Dividing Wavelength (nm)	Counts (n)	Blue Motor Position (mm): 0.000000	Red Motor Position (mm): 49.400000	
326.493990	1998.641060
326.888308	1998.641060
327.282561	1998.641060
327.676750	1974.632564
328.070874	1975.476958
328.464933	1982.713534
328.858929	1991.984216
329.252859	2002.802532
329.646726	2019.115706
330.040528	2034.317305
330.434265	2052.679708
330.827938	2068.887018
331.221547	2090.879052
331.615091	2112.399737
332.008571	2134.895886
332.401986	2151.239307
332.795338	2174.378203
333.188625	2197.592717
333.581847	2214.140304
333.975006	2231.164281
334.368100	2248.442836
334.761129	2266.265835
335.154095	2282.127826
335.546996	2324.977633
335.939833	2416.068763
336.332606	2429.077460
336.725315	2440.089861
337.117960	2447.250820
337.510540	2451.760132
337.903056	2470.107411
338.295508	2469.590693
338.687896	2479.620069
339.080220	2484.497385
339.472480	2493.621873
339.864676	2497.191010
340.256807	2497.228819
340.648875	2499.489777
341.040879	2501.937257
341.432818	2503.419356
341.824694	2502.615292
342.216506	2505.082937
342.608253	2503.242916
342.999937	2503.366424
343.391557	2501.788543
343.783113	2499.457009
344.174605	2499.484735
344.566033	2496.782677
344.957397	2495.895434
345.348697	2494.234374
345.739934	2491.733961
346.131106	2494.783859
346.522215	2488.502582
346.913260	2488.810092
347.304241	2487.640544
347.695159	2485.558548
348.086012	2484.905718
348.476802	2483.375728
348.867528	2483.078300
349.258191	2477.747280
349.648789	2481.046715
350.039324	2477.056642
350.429796	2477.969091
350.820203	2476.895325
351.210548	2478.926910
351.600828	2476.063535
351.991045	2477.613689
352.381198	2474.006744
352.771288	2474.430201
353.161314	2475.236785
353.551276	2476.187043
353.941175	2473.732001
354.331010	2477.336426
354.720782	2477.966570
355.110490	2479.834318
355.500135	2477.066724
355.889717	2476.360963
356.279235	2476.950778
356.668689	2476.973463
357.058080	2478.120325
357.447408	2475.781230
357.836672	2475.861888
358.225873	2477.979173
358.615010	2477.870788
359.004084	2481.719709
359.393095	2482.836325
359.782043	2482.501088
360.170927	2485.959320
360.559748	2484.439412
360.948505	2485.404793
361.337199	2490.168683
361.725830	2489.001656
362.114398	2488.825216
362.502903	2492.333859
362.891344	2491.739003
363.279722	2491.539877
363.668037	2493.745382
364.056289	2490.045175
364.444478	2494.279744
364.832603	2495.008191
365.220665	2495.661020
365.608665	2496.011380
365.996601	2497.296875
366.384474	2500.026659
366.772284	2501.349962
367.160031	2501.327277
367.547715	2501.607061
367.935336	2503.353821
368.322893	2502.723677
368.710388	2503.613440
369.097820	2507.636281
369.485189	2506.638133
369.872495	2512.017044
370.259738	2509.758607
370.646918	2516.738084
371.034035	2515.180368
371.421090	2520.939886
371.808081	2520.075328
372.195010	2529.731658
372.581875	2535.513862
372.968678	2542.679862
373.355418	2546.259081
373.742096	2559.303067
374.128710	2571.500139
374.515262	2577.552044
374.901751	2597.358737
375.288177	2616.842797
375.674540	2634.025570
376.060841	2656.811585
376.447079	2680.348732
376.833254	2704.568956
377.219367	2730.707339
377.605417	2765.786208
377.991404	2791.581792
378.377329	2832.447906
378.763191	2871.335367
379.148991	2919.778334
379.534727	2971.067034
379.920402	3016.994466
380.306013	3067.884914
380.691563	3133.976961
381.077049	3189.578368
381.462474	3247.929723
381.847835	3326.049964
382.233134	3398.972775
382.618371	3458.972588
383.003545	3551.157648
383.388657	3630.644041
383.773706	3723.802044
384.158693	3802.101245
384.543618	3897.656316
384.928480	3977.644304
385.313280	4085.227569
385.698017	4192.407541
386.082692	4316.709792
386.467305	4381.223958
386.851856	4511.661293
387.236344	4672.295140
387.620770	4736.184203
388.005133	4863.193554
388.389435	5010.039845
388.773674	5098.222228
389.157851	5234.643413
389.541965	5369.257344
389.926018	5394.473196
390.310008	5583.597123
390.693936	5708.597574
391.077802	5825.602755
391.461606	5963.932017
391.845348	6078.860242
392.229027	6207.487803
392.612645	6433.273522
392.996200	6552.297685
393.379694	6732.884418
393.763125	6967.550130
394.146494	7064.849440
394.529801	7203.332457
394.913047	7454.323945
395.296230	7451.760519
395.679351	7514.149839
396.062410	7782.923997
396.445408	7682.327772
396.828343	7838.023809
397.211217	7979.281981
397.594028	7857.260852
397.976778	8074.774037
398.359466	8243.014985
398.742092	8210.582722
399.124656	8366.324129
399.507158	8557.081390
399.889598	8577.951767
400.271977	8790.396073
400.654294	8829.442330
401.036549	9029.624028
401.418742	9062.318432
401.800874	9367.081388
402.182944	9447.712123
402.564952	9834.794600
402.946898	9650.565633
403.328783	9703.006236
403.710606	9910.154809
404.092367	10176.194142
404.474067	10546.751717
404.855705	10327.690897
405.237282	10285.919896
405.618797	10723.456762
406.000250	10976.189969
406.381642	11344.645383
406.762972	11306.188941
407.144240	11096.585326
407.525447	11356.787002
407.906593	11291.617486
408.287677	11558.009699
408.668700	11719.845861
409.049661	11694.173785
409.430560	11851.732528
409.811399	11826.030205
410.192176	11991.367448
410.572891	12064.196998
410.953545	12571.664750
411.334138	12024.639063
411.714669	12659.784119
412.095139	11933.066504
412.475547	12466.050056
412.855894	12301.335395
413.236180	12644.653096
413.616405	12313.855101
413.996568	12605.437960
414.376670	12565.181826
414.756711	12431.649222
415.136691	12742.690935
415.516609	12930.279831
415.896466	12991.121517
416.276262	13287.783339
416.655997	13731.228437
417.035670	13768.974076
417.415283	14436.080047
417.794834	14529.038924
418.174324	14268.837247
418.553753	14167.873018
418.933121	14673.755327
419.312428	14474.949864
419.691674	14392.116144
420.070859	14855.549417
420.449983	14502.855171
420.829045	15071.025977
421.208047	14802.342559
421.586988	15274.663386
421.965867	15542.086516
422.344686	15540.783377
422.723444	16110.496776
423.102141	14767.044400
423.480777	15980.374513
423.859352	15481.945550
424.237866	16627.520035
424.616319	16312.047148
424.994712	16997.994432
425.373044	16785.845034
425.751314	17477.335066
426.129524	16578.789722
426.507673	17708.139253
426.885762	17375.992750
427.263789	17601.788551
427.641756	17766.659488
428.019662	17826.112336
428.397508	17874.081435
428.775292	18190.759158
429.153016	18143.286612
429.530679	18240.414523
429.908282	18265.731198
430.285824	17965.366649
430.663305	18680.814764
431.040726	18279.112941
431.418086	18096.875229
431.795385	18758.922402
432.172624	19183.329583
432.549802	18732.204287
432.926920	18924.854502
433.303977	18811.773859
433.680974	19076.439477
434.057910	19352.540953
434.434786	19393.517972
434.811601	19296.296799
435.188355	20364.562670
435.565050	20005.640078
435.941683	19954.588312
436.318257	20856.201198
436.694770	20665.832106
437.071222	21258.926376
437.447614	20318.491565
437.823946	20346.043991
438.200218	20500.583083
438.576429	20275.548496
438.952580	20547.813653
439.328670	20516.480361
439.704700	20945.495157
440.080670	20491.030096
440.456580	21103.807552
440.832429	21287.292949
441.208218	20248.497664
441.583947	20715.711802
441.959616	20814.788120
442.335224	21067.460833
442.710773	21190.132270
443.086261	21739.242474
443.461689	21096.402097
443.837057	21213.079603
444.212365	21884.583980
444.587612	21878.143906
444.962800	21442.994027
445.337927	21872.679295
445.712995	20582.421174
446.088002	22470.870173
446.462949	22673.665709
446.837837	22856.382331
447.212664	22817.439417
447.587431	25736.842186
447.962139	28728.404030
448.336786	31121.412035
448.711374	29513.659524
449.085901	25764.966783
449.460369	25714.086417
449.834776	25652.826316
450.209124	28187.901597
450.583412	27699.832205
450.957640	28222.625065
451.331808	26847.242020
451.705917	25467.339580
452.079965	25517.983012
452.453954	25884.696707
452.827883	25753.687201
453.201752	25545.232969
453.575562	25735.481074
453.949311	26881.973049
454.323001	26932.480370
454.696632	26689.055653
455.070202	28281.677141
455.443713	28422.645447
455.817164	29043.392967
456.190556	29563.196422
456.563888	28992.656274
456.937160	29430.750187
457.310373	27739.498524
457.683526	28206.710142
458.056619	28203.521612
458.429653	28116.531462
458.802628	28715.400374
459.175542	28842.991978
459.548398	30148.887758
459.921194	31748.498806
460.293930	32419.259613
460.666607	34480.642873
461.039224	36250.649962
461.411782	36674.275764
461.784280	35448.967869
462.156719	34973.256865
462.529099	34427.105819
462.901419	33121.666263
463.273680	32049.218756
463.645882	32120.039406
464.018024	32111.260236
464.390106	32964.026862
464.762130	35704.902208
465.134094	39810.899331
465.505999	45164.468604
465.877845	49756.107803
466.249631	50915.583270
466.621358	49234.610520
466.993026	47139.252403
467.364634	45086.648312
467.736184	43096.617543
468.107674	41828.175016
468.479105	41017.557477
468.850477	40324.590387
469.221790	38860.634269
469.593043	37083.786335
469.964238	36196.941509
470.335373	36104.552282
470.706449	37887.189982
471.077467	40533.727696
471.448425	45107.974914
471.819324	47920.227957
472.190164	46032.991356
472.560945	42431.548199
472.931667	39310.562291
473.302330	38202.637663
473.672934	37369.087916
474.043479	37891.961434
474.413965	37067.705054
474.784393	36682.828081
475.154761	37604.671117
475.525070	37620.170145
475.895321	37156.192427
476.265513	37752.223170
476.635645	38747.389789
477.005719	38570.193231
477.375734	39045.959687
477.745691	39744.277962
478.115588	41115.875101
478.485427	43124.860608
478.855207	46501.916967
479.224928	49113.312797
479.594591	50747.115470
479.964194	49767.195821
480.333739	49938.148910
480.703226	49979.579633
481.072653	50617.575460
481.442022	51075.246695
481.811333	51344.482119
482.180584	50056.147198
482.549777	49554.746474
482.918912	48998.061937
483.287988	48714.640707
483.657005	47878.635917
484.025964	47244.201665
484.394864	47267.549769
484.763706	46849.990996
485.132489	45971.060781
485.501213	45789.385158
485.869879	45940.534074
486.238487	45534.776642
486.607036	45738.552684
486.975527	45173.525037
487.343959	45392.192647
487.712333	45476.919320
488.080648	45388.777265
488.448905	45841.462798
488.817104	45670.877714
489.185244	46639.442164
489.553326	48347.911888
489.921350	51045.972714
490.289315	53886.909923
490.657222	54442.024141
491.025070	54726.756072
491.392861	53832.369680
491.760593	52642.125530
492.128267	51012.063393
492.495883	49496.500983
492.863440	48092.156509
493.230939	46730.319044
493.598380	45633.782383
493.965763	45317.298745
494.333088	44488.482641
494.700354	43993.970654
495.067563	43681.056153
495.434713	43568.151951
495.801805	43632.892969
496.168839	43248.124381
496.535815	42901.754262
496.902733	42954.648569
497.269593	42535.910166
497.636395	42449.401445
498.003139	42868.969118
498.369825	42311.314159
498.736453	42634.537820
499.103023	42140.633293
499.469535	42017.785415
499.835989	42124.284831
500.202385	41783.807821
500.568723	41813.706904
500.935003	42001.295800
501.301226	41794.235447
501.667390	42422.872373
502.033497	42688.339535
502.399546	42101.952519
502.765537	41412.327714
503.131470	41807.307159
503.497345	42175.041688
503.863163	40811.306229
504.228923	41444.845677
504.594625	41844.896523
504.960269	41154.258446
505.325856	41858.928575
505.691385	41199.268388
506.056856	41348.466377
506.422270	41777.178703
506.787625	41352.146420
507.152924	41556.207286
507.518164	41663.016733
507.883347	40856.986645
508.248472	41129.239199
508.613540	41594.608276
508.978550	41923.667072
509.343503	41657.360559
509.708398	41861.295396
510.073236	42399.703230
510.438016	42402.102819
510.802738	41842.897705
511.167403	42477.004283
511.532010	42710.321486
511.896561	43018.434288
512.261053	43882.803130
512.625488	43414.129577
512.989866	43305.026405
513.354186	43132.603820
513.718449	43124.411945
514.082655	43806.091892
514.446803	43468.657218
514.810894	44012.489333
515.174927	43925.816775
515.538904	43818.546062
515.902822	44517.973391
516.266684	43940.494094
516.630488	44377.922575
516.994235	44236.248508
517.357925	44823.242983
517.721558	45001.609088
518.085133	45288.798582
518.448651	45434.848370
518.812112	45201.342124
519.175516	45306.210727
519.538863	45645.462737
519.902152	45600.780470
520.265385	46077.721514
520.628560	46125.909904
520.991678	45907.083498
521.354739	46153.411919
521.717743	46482.606827
522.080690	46355.254678
522.443580	46905.728513
522.806413	46948.006150
523.169189	46877.525778
523.531908	47092.712471
523.894569	46929.111905
524.257174	47104.342413
524.619722	47418.101308
524.982213	47405.291736
525.344647	47314.326635
525.707025	47362.860344
526.069345	47745.057943
526.431608	47677.551852
526.793815	47998.083537
527.155964	47542.214515
527.518057	47687.253553
527.880093	47473.753126
528.242072	47990.783946
528.603995	47687.021660
528.965860	47698.008854
529.327669	47791.572670
529.689421	47685.413532
530.051117	47639.344947
530.412755	47794.312537
530.774337	47865.624699
531.135862	47646.442892
531.497331	47850.513841
531.858743	47749.819313
532.220098	48103.320144
532.581396	47805.314855
532.942638	47466.710634
533.303824	47784.104200
533.664953	47724.124552
534.026025	47426.835107
534.387040	47916.696629
534.747999	47872.200884
535.108902	48017.436527
535.469748	47542.645534
535.830537	47654.450765
536.191270	47835.400461
536.551947	47488.894231
536.912567	47807.530442
537.273131	47922.801466
537.633638	47393.868481
537.994089	47756.085467
538.354483	47343.923249
538.714821	47907.103313
539.075103	48256.490563
539.435328	48025.457003
539.795497	47903.216583
540.155609	47872.745329
540.515665	48351.637300
540.875665	47814.525043
541.235609	48127.976428
541.595496	48094.969473
541.955328	48781.748547
542.315102	48143.598963
542.674821	47930.385882
543.034483	47968.025657
543.394090	47958.308833
543.753640	47910.276719
544.113134	48904.339326
544.472571	47905.417047
544.831953	49173.526859
545.191278	48372.999190
545.550548	48080.035055
545.909761	48539.198470
546.268918	48757.644269
546.628019	49058.230629
546.987064	48638.645312
547.346053	47886.132113
547.704986	48794.109456
548.063863	48320.515737
548.422684	48537.386176
548.781449	48369.616576
549.140158	48775.963822
549.498811	48617.021283
549.857408	48053.042196
550.215949	48898.315147
550.574434	48815.887240
550.932864	48582.517105
551.291237	49317.015741
551.649555	48909.834183
552.007817	49163.933543
552.366022	48797.567687
552.724173	48977.322631
553.082267	49368.012054
553.440305	49676.505463
553.798288	48974.970932
554.156215	49315.137912
554.514086	49516.980670
554.871902	49251.720196
555.229661	49271.857085
555.587365	49106.872723
555.945014	49188.325166
556.302606	49104.339543
556.660143	49344.197643
557.017625	49425.952555
557.375050	49232.205890
557.732421	49580.690773
558.089735	49566.144523
558.446994	49485.183593
558.804197	49963.276541
559.161345	49900.252036
559.518437	49137.437238
559.875474	49442.321182
560.232455	49602.728177
560.589381	49790.400252
560.946251	49495.764974
561.303065	50182.551610
561.659825	49988.018524
562.016528	49661.366878
562.373177	49372.276870
562.729770	49853.800323
563.086307	49382.419671
563.442789	49821.768832
563.799216	49888.173431
564.155587	49648.827008
564.511904	49686.134067
564.868164	49789.744902
565.224370	50029.401356
565.580520	49759.916395
565.936615	49988.421816
566.292654	49701.978414
566.648638	49963.306788
567.004567	49914.304252
567.360441	49946.534869
567.716260	49800.895934
568.072023	50086.404203
568.427732	50063.529967
568.783385	49619.968923
569.138982	50013.665394
569.494525	49975.645012
569.850013	49749.750908
570.205445	49720.436598
570.560823	49686.930569
570.916145	49572.040153
571.271412	49595.196693
571.626625	49345.210915
571.981782	49400.582949
572.336884	49099.459706
572.691931	49437.552250
573.046923	49018.448364
573.401860	48874.828411
573.756743	48855.611533
574.111570	48969.909614
574.466342	48821.276234
574.821059	48934.714798
575.175722	48466.051328
575.530330	48479.410386
575.884882	48194.237354
576.239380	48162.614196
576.593823	48129.760996
576.948211	48050.443482
577.302544	47573.537725
577.656823	47585.933922
578.011047	47818.525199
578.365216	47534.982980
578.719330	47336.691714
579.073389	47191.156123
579.427394	47260.393851
579.781344	47237.499451
580.135239	46894.466575
580.489080	46978.071591
580.842866	46451.394523
581.196597	46916.584638
581.550273	46851.500821
581.903895	46718.230357
582.257463	47142.491345
582.610975	46508.291506
582.964434	46790.185267
583.317837	46440.666947
583.671186	46267.485669
584.024481	46498.151225
584.377721	46049.407874
584.730906	46331.122674
585.084037	46369.992491
585.437113	46079.506083
585.790135	46104.870648
586.143103	45718.274642
586.496016	45833.165059
586.848874	45883.062400
587.201679	45889.131949
587.554428	45356.337440
587.907124	45533.327311
588.259765	45283.457479
588.612352	45553.486885
588.964884	44924.330720
589.317362	45232.642648
589.669786	45172.632753
590.022155	44943.250171
590.374470	45372.711108
590.726731	44878.007557
591.078937	44408.189663
591.431090	44499.389177
591.783188	44164.701932
592.135232	43824.837422
592.487222	44086.581692
592.839157	44179.031412
593.191038	43840.240668
593.542866	43588.664406
593.894639	42979.957682
594.246358	43259.603088
594.598022	43244.799740
594.949633	42856.615771
595.301190	42792.711584
595.652692	42616.069553
596.004141	42954.033548
596.355535	41940.736419
596.706876	41897.080027
597.058162	41735.465676
597.409395	42212.187430
597.760573	42299.898466
598.111698	41858.404295
598.462768	41881.180228
598.813785	41931.548916
599.164748	41350.303878
599.515657	41762.206476
599.866511	41221.802346
600.217312	41827.207114
600.568060	40784.928392
600.918753	41546.157746
601.269392	41497.908863
601.619978	41146.946252
601.970510	41363.335261
602.320988	41534.865561
602.671412	41850.308202
603.021783	41593.703388
603.372100	41257.823911
603.722363	41358.057172
604.072572	41442.614967
604.422728	41455.474950
604.772830	41254.600093
605.122878	41341.922960
605.472872	41291.244240
605.822813	41557.391957
606.172701	41399.407237
606.522534	41647.641214
606.872314	41930.122270
607.222041	41645.594506
607.571714	42040.941955
607.921333	41463.414767
608.270899	41772.170317
608.620411	42116.045065
608.969870	41925.572628
609.319276	41907.033785
609.668627	41952.477267
610.017926	42474.241731
610.367171	42627.452478
610.716362	42722.052251
611.065500	42647.233966
611.414585	42831.783047
611.763616	43131.598110
612.112594	43051.290009
612.461518	43283.122592
612.810389	43560.333121
613.159207	43430.135241
613.507971	43511.086089
613.856682	43992.808668
614.205340	43861.741189
614.553945	44597.346358
614.902496	44014.135270
615.250994	44483.423843
615.599439	44565.067850
615.947830	44762.701246
616.296169	44810.851827
616.644454	44928.708962
616.992686	45108.690757
617.340864	45629.825077
617.688990	45316.434187
618.037063	45958.770448
618.385082	45895.246869
618.733048	46202.386728
619.080961	46217.981538
619.428821	46225.689462
619.776628	46346.384768
620.124382	46178.244643
620.472083	46301.934393
620.819731	46460.138404
621.167326	46119.855478
621.514868	46103.973323
621.862357	45650.115722
622.209793	45692.552155
622.557176	45374.646911
622.904506	45120.799609
623.251783	44781.552640
623.599007	44540.041042
623.946179	44315.412268
624.293297	44275.509014
624.640363	43673.194473
624.987376	43654.554807
625.334336	43384.366605
625.681243	43015.777600
626.028097	42978.074811
626.374899	42807.124243
626.721647	42770.107050
627.068343	42650.319152
627.414987	42407.030547
627.761577	42177.093438
628.108115	42518.233360
628.454600	41937.086624
628.801032	42122.437248
629.147412	42083.557349
629.493739	42088.558173
629.840014	41698.393030
630.186236	42038.864999
630.532405	41658.744355
630.878521	41853.113604
631.224585	41716.594116
631.570597	41437.041971
631.916556	41614.213323
632.262462	41539.994935
632.608316	41548.748899
632.954117	41446.368106
633.299866	41445.816099
633.645562	41347.112828
633.991206	40874.124047
634.336797	40432.307242
634.682336	40431.364546
635.027823	40176.491369
635.373257	39998.820943
635.718639	39738.047096
636.063968	39600.085839
636.409245	39023.450935
636.754470	39085.953681
637.099642	38812.332453
637.444762	38309.081627
637.789829	38449.301321
638.134845	38107.740463
638.479808	38040.604896
638.824719	37938.266953
639.169577	37524.037862
639.514383	37587.775690
639.859137	37280.661036
640.203839	37525.149436
640.548489	37139.279356
640.893086	37204.980714
641.237632	36941.918183
641.582125	37052.997487
641.926566	36973.198543
642.270955	36938.563295
642.615292	36955.839329
642.959576	36921.630059
643.303809	36915.338699
643.647990	37060.027377
643.992118	37022.064968
644.336195	37016.028186
644.680219	37081.369101
645.024192	37393.033397
645.368112	37905.267560
645.711981	37905.101202
646.055797	38791.850245
646.399562	38698.667037
646.743274	39686.173623
647.086935	40131.972940
647.430544	40014.075475
647.774101	40148.956587
648.117606	40398.833980
648.461059	40723.456562
648.804460	40359.200429
649.147810	39713.884846
649.491108	39479.640070
649.834354	39114.879822
650.177548	38247.198943
650.520690	37785.174672
650.863781	37805.740059
651.206820	37660.441402
651.549807	37204.532052
651.892742	36688.738834
652.235626	36484.274675
652.578458	36348.372729
652.921238	35725.593624
653.263967	36053.049334
653.606644	35722.878963
653.949269	35657.207852
654.291843	35246.263073
654.634365	35655.957646
654.976836	35234.565075
655.319255	35216.830296
655.661622	35222.010081
656.003938	34995.463148
656.346203	34836.719734
656.688416	35063.979991
657.030577	34866.013879
657.372687	34699.761666
657.714746	34998.707131
658.056753	35089.952015
658.398708	34540.909868
658.740612	34574.252059
659.082465	34861.068507
659.424266	34652.384902
659.766016	34794.356398
660.107715	34671.442985
660.449362	34798.890916
660.790958	34766.418323
661.132503	34789.448834
661.473996	34825.856048
661.815438	34944.194613
662.156829	35139.665354
662.498168	34904.548459
662.839456	34916.087660
663.180693	35078.369964
663.521879	35233.496350
663.863013	35184.196386
664.204097	35185.660842
664.545129	35649.570504
664.886110	35603.149038
665.227040	35648.000184
665.567918	35769.799502
665.908746	35841.761973
666.249522	36013.292274
666.590248	36010.035689
666.930922	36126.869470
667.271545	36083.845743
667.612118	36186.886928
667.952639	35953.594930
668.293109	36007.605853
668.633528	35914.866266
668.973896	35831.372155
669.314213	35875.991408
669.654480	35614.453826
669.994695	35644.904916
670.334859	35511.205954
670.674973	35422.176657
671.015035	35582.482828
671.355047	35529.069283
671.695008	35476.364019
672.034918	35365.471237
672.374777	35411.471766
672.714585	35250.918578
673.054342	35479.119010
673.394049	35219.986058
673.733705	35529.875867
674.073310	35191.730391
674.412864	35262.518273
674.752368	34846.948235
675.091820	35182.971386
675.431223	34738.344137
675.770574	34456.652022
676.109875	34315.940815
676.449125	34036.676016
676.788324	33940.712611
677.127473	33386.044536
677.466571	33318.452745
677.805619	32948.696713
678.144616	32948.671508
678.483562	32847.026722
678.822458	32511.396782
679.161303	32430.725717
679.500098	32328.511282
679.838842	32211.271687
680.177535	32364.978989
680.516179	32631.837509
680.854771	32860.209340
681.193314	33737.039913
681.531805	34862.641347
681.870247	35628.934540
682.208638	36362.908896
682.546978	36604.475948
682.885268	36723.515234
683.223508	36197.783382
683.561697	35853.333942
683.899836	35669.692269
684.237925	35146.785984
684.575963	34998.951627
684.913951	34509.526164
685.251889	34663.646840
685.589776	34637.337058
685.927614	34622.203514
686.265401	34753.064307
686.603137	34821.913865
686.940824	35325.958674
687.278460	35685.934867
687.616046	35834.764852
687.953582	36448.217822
688.291068	36290.863246
688.628504	36619.249049
688.965889	36569.117294
689.303224	36192.114604
689.640510	35883.051544
689.977745	35154.335112
690.314930	34366.312025
690.652065	33834.059440
690.989150	33090.375822
691.326185	32165.853412
691.663170	31457.604064
692.000105	30685.737875
692.336990	29981.657562
692.673825	29504.618214
693.010610	28968.347830
693.347345	28357.672535
693.684030	27665.295260
694.020665	27364.718983
694.357251	26679.726998
694.693786	26602.446110
695.030272	26344.059249
695.366707	25777.186540
695.703093	25482.120243
696.039429	25474.432484
696.375716	25184.951786
696.711952	25131.041687
697.048139	24967.199146
697.384276	24769.964001
697.720363	24906.110443
698.056400	24684.574417
698.392388	24475.729495
698.728326	24419.742441
699.064214	24228.410488
699.400053	24179.488610
699.735842	23815.383712
700.071581	23512.422969
700.407270	23217.276014
700.742910	23026.627137
701.078501	22747.488366
701.414042	22435.561931
701.749533	22136.611426
702.084974	21784.587652
702.420366	21995.691011
702.755709	21517.492198
703.091002	21227.930842
703.426246	21243.565981
703.761440	21120.831528
704.096584	20844.009168
704.431679	20795.336827
704.766725	20687.035199
705.101721	20619.377873
705.436668	20723.278574
705.771565	20374.239164
706.106413	20729.338041
706.441212	20706.368024
706.775961	20833.044658
707.110661	20894.019935
707.445311	21247.321640
707.779913	21062.205430
708.114465	21305.123510
708.448967	21581.502249
708.783421	22301.769708
709.117825	22570.238877
709.452180	22791.600983
709.786485	23182.673534
710.120742	23999.653008
710.454949	24007.670964
710.789107	24480.190917
711.123216	25193.768764
711.457275	25321.093187
711.791286	25894.632822
712.125247	25979.339330
712.459159	25691.875093
712.793023	26406.899752
713.126837	25280.174141
713.460602	25572.213224
713.794318	25206.245620
714.127985	24833.243085
714.461602	23930.964767
714.795171	23907.059615
715.128691	22843.313139
715.462162	22296.718472
715.795584	21863.900126
716.128957	21602.423038
716.462281	21186.525325
716.795556	20928.138464
717.128782	20396.490818
717.461960	19836.138841
717.795088	19745.985366
718.128167	19319.728082
718.461198	18850.252986
718.794180	18695.668524
719.127113	18322.169436
719.459997	18116.573538
719.792833	17747.805572
720.125619	17707.370477
720.458357	17360.002210
720.791046	17180.090991
721.123686	17010.771236
721.456278	16758.587515
721.788821	16703.510388
722.121315	16433.440653
722.453761	16499.162176
722.786158	16422.087975
723.118506	16427.905467
723.450805	16285.422294
723.783056	16448.579238
724.115259	16341.280799
724.447412	16255.561019
724.779518	16513.637849
725.111574	16522.364087
725.443582	16731.556848
725.775542	16704.435440
726.107453	17177.487235
726.439315	17050.795477
726.771129	17456.487374
727.102895	17852.076798
727.434612	18065.272236
727.766281	18180.276078
728.097901	18465.539851
728.429473	18507.585595
728.760996	18502.395727
729.092471	18601.136807
729.423897	18487.834354
729.755276	18350.462912
730.086606	18471.962281
730.417887	18999.876953
730.749120	19503.347070
731.080305	19683.099493
731.411442	20042.727846
731.742530	20129.455857
732.073570	20236.887887
732.404562	20558.006866
732.735506	20384.913808
733.066401	20098.001578
733.397249	19566.931143
733.728048	18924.080684
734.058798	18074.600891
734.389501	17348.357144
734.720156	16870.493568
735.050762	16306.338042
735.381320	15937.738955
735.711831	15672.823799
736.042293	15297.764474
736.372707	15293.267765
736.703073	15064.338886
737.033391	15261.818526
737.363661	15193.740264
737.693883	15293.482014
738.024056	15450.045129
738.354182	15643.017977
738.684260	15916.125008
739.014290	16130.006042
739.344272	16324.181206
739.674207	16610.342304
740.004093	16742.234012
740.333931	16741.180411
740.663722	16799.282229
740.993464	16794.636806
741.323159	16635.996736
741.652806	16367.610746
741.982405	16150.347098
742.311956	15815.185984
742.641460	15706.246649
742.970915	15391.431633
743.300323	15046.442790
743.629683	14838.162478
743.958996	14546.705648
744.288260	14269.134676
744.617477	13961.672182
744.946647	13884.030851
745.275768	13604.229168
745.604842	13406.898242
745.933869	13224.000140
746.262847	13171.904856
746.591778	13098.669493
746.920662	12991.204696
747.249498	12985.508192
747.578286	13100.285183
747.907027	13229.351324
748.235720	13450.448770
748.564365	13478.795178
748.892963	13380.560734
749.221514	13433.258436
749.550017	13286.147484
749.878473	13249.145415
750.206881	13021.542360
750.535242	12925.147937
750.863555	12834.724760
751.191821	12724.326012
751.520039	12748.299219
751.848210	12646.460349
752.176334	12684.556349
752.504411	12578.054412
752.832440	12408.583423
753.160421	12472.724544
753.488356	12334.987618
753.816243	12240.569327
754.144082	12090.189187
754.471875	12036.158100
754.799620	11974.098976
755.127318	11944.522526
755.454969	11902.305383
755.782572	11851.142713
756.110129	11866.780372
756.437638	11780.485900
756.765100	11772.198243
757.092515	11763.449321
757.419882	11785.522013
757.747203	11775.810230
758.074477	11854.270749
758.401703	11798.548355
758.728882	11965.985238
759.056014	12009.129954
759.383099	12123.622119
759.710138	12231.729663
760.037129	12320.040597
760.364073	12338.050119
760.690970	12315.702684
761.017820	12313.419041
761.344623	12518.412521
761.671379	12869.415460
761.998088	13525.647662
762.324751	15146.270239
762.651366	18120.104866
762.977935	21824.029640
763.304456	24112.456387
763.630931	24639.314938
763.957359	23480.827537
764.283740	21557.564330
764.610074	19635.107708
764.936362	17444.189479
765.262602	15863.633993
765.588796	14326.767667
765.914943	13280.997946
766.241044	12361.660363
766.567097	11693.979700
766.893104	11111.277768
767.219064	10736.994781
767.544978	10326.312141
767.870845	9996.051029
768.196665	9800.635742
768.522438	9592.267209
768.848165	9413.293645
769.173846	9249.385569
769.499479	9117.531669
769.825066	8959.491496
770.150607	8767.688195
770.476101	8694.926701
770.801548	8579.816994
771.126949	8436.378523
771.452303	8345.998197
771.777611	8176.438987
772.102872	8154.870410
772.428087	8025.020369
772.753256	7906.545692
773.078378	7805.793192
773.403453	7657.426993
773.728482	7542.710496
774.053465	7470.967315
774.378401	7386.275930
774.703291	7283.784231
775.028135	7184.508789
775.352932	7146.344733
775.677683	7058.767288
776.002388	6962.065355
776.327046	6962.080478
776.651658	6872.524380
776.976224	6785.446009
777.300743	6769.493278
777.625216	6700.903338
777.949643	6656.616802
778.274024	6656.334497
778.598359	6588.087357
778.922647	6584.195586
779.246889	6538.361415
779.571086	6545.487086
779.895236	6555.602161
780.219339	6543.359719
780.543397	6544.327621
780.867409	6593.728408
781.191374	6595.339056
781.515294	6565.888636
781.839167	6614.697087
782.162995	6584.523261
782.486776	6535.833276
782.810511	6500.598132
783.134201	6422.825731
783.457844	6410.437095
783.781441	6361.258119
784.104993	6316.195244
784.428498	6291.808663
784.751958	6269.143635
785.075372	6249.430203
785.398739	6207.374377
785.722061	6227.438169
786.045337	6226.278704
786.368568	6345.018042
786.691752	6365.951433
787.014891	6618.586337
787.337983	6898.720736
787.661030	7346.176072
787.984031	7786.354502
788.306987	8049.018782
788.629897	8146.363463
788.952760	8066.327584
789.275579	7893.249649
789.598351	7584.234480
789.921078	7317.136505
790.243759	7031.192177
790.566395	6820.769374
790.888984	6620.776719
791.211529	6480.206664
791.534027	6303.912473
791.856480	6157.625750
792.178888	6094.986893
792.501249	6019.258680
792.823566	5908.358337
793.145836	5898.374331
793.468062	5886.268000
793.790241	5840.491803
794.112375	5882.391353
794.434464	5978.795859
794.756507	6003.381566
795.078505	6125.914372
795.400457	6345.882599
795.722364	6586.186842
796.044226	6783.086749
796.366042	6954.939684
796.687812	6898.193935
797.009538	6941.225225
797.331218	6846.441450
797.652852	6781.776049
797.974442	6659.691906
798.295986	6590.988541
798.617484	6458.708664
798.938938	6347.578948
799.260346	6271.412154
799.581709	6126.403364
799.903026	6073.811526
800.224299	5997.871585
800.545526	5876.936825
800.866708	5811.031300
801.187845	5758.260501
801.508936	5678.070867
801.829983	5644.852184
802.150984	5531.910173
802.471940	5501.849773
802.792851	5486.345704
803.113717	5462.889215
803.434538	5432.574237
803.755314	5400.673815
804.076045	5386.707298
804.396731	5342.385474
804.717372	5359.389286
805.037967	5355.973904
805.358518	5380.728490
805.679024	5435.387200
805.999485	5448.151402
806.319901	5463.171520
806.640272	5480.896217
806.960598	5527.496643
807.280879	5518.069685
807.601115	5555.573349
807.921306	5519.967680
808.241453	5519.831568
808.561554	5535.239855
808.881611	5502.638713
809.201623	5499.286346
809.521590	5454.692299
809.841513	5435.782931
810.161390	5461.089523
810.481223	5367.462693
810.801011	5356.833421
811.120755	5337.114947
811.440453	5276.452222
811.760107	5252.209314
812.079716	5223.353749
812.399281	5172.032282
812.718801	5168.369884
813.038276	5130.624245
813.357707	5093.188636
813.677093	5123.543944
813.996434	5057.061207
814.315731	5078.927212
814.634983	5076.232715
814.954191	5079.937963
815.273354	5144.641173
815.592473	5191.246640
815.911547	5268.038537
816.230577	5323.627340
816.549562	5414.491618
816.868502	5471.870031
817.187399	5529.903794
817.506250	5622.522393
817.825058	5654.425335
818.143821	5818.961035
818.462539	6000.296380
818.781213	6232.459158
819.099843	6612.494103
819.418429	7273.122191
819.736970	7911.843945
820.055466	8662.585179
820.373919	9640.868973
820.692327	11201.085924
821.010691	14099.328449
821.329011	20669.189514
821.647286	30563.487374
821.965517	41163.430825
822.283704	46698.519446
822.601847	48237.193026
822.919945	43675.513404
823.237999	38553.040705
823.556010	33256.726337
823.873976	28388.635302
824.191897	23975.266427
824.509775	20741.497304
824.827609	17822.828024
825.145398	16154.127963
825.463144	15338.839795
825.780845	15654.083310
826.098502	16967.999566
826.416116	19468.870619
826.733685	21727.942727
827.051210	22178.999968
827.368692	20669.474339
827.686129	18070.746929
828.003522	15506.014539
828.320872	13242.148293
828.638177	11487.549492
828.955439	10182.639257
829.272656	9063.261127
829.589830	8190.145884
829.906960	7418.163749
830.224046	6854.288006
830.541088	6423.390340
830.858086	6147.941694
831.175041	5929.347181
831.491952	5866.572212
831.808819	5901.676287
832.125642	6161.061297
832.442421	6746.271203
832.759157	7918.951972
833.075849	9738.553932
833.392497	11621.699637
833.709101	12777.747119
834.025662	12490.844971
834.342179	11412.000239
834.658653	10083.855327
834.975083	8942.729660
835.291469	8000.848037
835.607811	7221.392391
835.924110	6680.302663
836.240366	6160.181615
836.556578	5685.559501
836.872746	5306.381553
837.188871	5027.991393
837.504952	4788.720588
837.820990	4607.884317
838.136984	4487.967870
838.452935	4436.248152
838.768842	4471.987412
839.084706	4775.210296
839.400526	5545.019694
839.716303	6481.282951
840.032037	7062.044038
840.347727	6903.837507
840.663373	6287.609382
840.978977	5686.061096
841.294537	5234.943362
841.610054	4879.337849
841.925527	4626.150938
842.240957	4404.410745
842.556344	4209.484449
842.871687	4041.117472
843.186987	3876.501114
843.502244	3755.442846
843.817458	3661.909277
844.132629	3584.908173
844.447756	3535.676264
844.762840	3483.422184
845.077881	3441.479784
845.392879	3406.993251
845.707833	3376.673231
846.022745	3353.806557
846.337613	3335.958352
846.652438	3311.107984
846.967221	3298.265645
847.281960	3276.901235
847.596656	3268.903444
847.911309	3253.303593
848.225919	3239.954618
848.540485	3229.388360
848.855009	3222.076166
849.169490	3208.434804
849.483928	3200.099256
849.798323	3193.427289
850.112675	3185.600897
850.426984	3185.822708
850.741251	3176.756193
851.055474	3172.143537
851.369654	3177.325843
851.683792	3173.008095
851.997887	3173.555060
852.311938	3172.284689
852.625947	3174.643949
852.939914	3165.358144
853.253837	3173.703774
853.567718	3172.539268
853.881555	3164.980057
854.195350	3170.724452
854.509103	3166.479801
854.822812	3165.935356
855.136479	3162.114162
855.450103	3162.182217
855.763685	3155.280877
856.077224	3160.624501
856.390720	3168.329904
856.704173	3177.474557
857.017584	3182.835824
857.330953	3187.995445
857.644278	3194.523740
857.957561	3195.579861
858.270802	3196.376364
858.584000	3195.015252
858.897155	3190.032072
859.210268	3179.390196
859.523339	3164.178514
859.836367	3165.179183
860.149352	3162.378822
860.462295	3157.554438
860.775195	3145.992552
861.088054	3142.766213
861.400869	3143.759320
861.713642	3138.347642
862.026373	3149.652429
862.339062	3151.343736
862.651708	3159.873369
862.964312	3178.041687
863.276873	3185.295907
863.589392	3217.377811
863.901869	3243.543920
864.214303	3266.022425
864.526696	3283.530352
864.839045	3301.512148
865.151353	3317.313644
865.463619	3319.466217
865.775842	3318.336999
866.088023	3326.428051
866.400162	3320.270281
866.712258	3322.528718
867.024313	3322.420333
867.336325	3322.291784
867.648296	3323.340344
867.960224	3319.924962
868.272110	3325.283709
868.583954	3324.179696
868.895755	3333.316787
869.207515	3328.177331
869.519233	3350.749097
869.830909	3354.900488
870.142542	3367.904144
870.454134	3375.707850
870.765684	3390.153276
871.077191	3409.370155
871.388657	3419.432298
871.700081	3442.175463
872.011463	3461.490644
872.322803	3480.652070
872.634101	3498.422138
872.945357	3522.657485
873.256571	3549.186557
873.567744	3565.424113
873.878874	3571.360072
874.189963	3589.195674
874.501010	3592.714400
874.812015	3589.563678
875.122979	3608.858695
875.433900	3602.562294
875.744780	3609.503962
876.055618	3619.750108
876.366415	3621.275057
876.677169	3623.266312
876.987882	3645.684324
877.298554	3670.655679
877.609183	3712.371227
877.919771	3765.215123
878.230317	3841.029035
878.540822	3951.944502
878.851285	4121.425574
879.161707	4359.277295
879.472087	4765.319552
879.782425	5446.712153
880.092722	6713.808692
880.402977	8760.854911
880.713191	11237.094886
881.023363	13701.268859
881.333494	15067.698815
881.643583	15559.733075
881.953631	15167.054916
882.263637	14320.408251
882.573602	13280.387966
882.883526	12270.503698
883.193408	11276.935125
883.503248	10306.205499
883.813048	9423.154142
884.122806	8612.274463
884.432522	7797.724825
884.742197	7091.673420
885.051831	6484.912581
885.361424	5949.718483
885.670975	5529.855903
885.980485	5178.638714
886.289954	4882.100401
886.599382	4651.515504
886.908768	4457.050473
887.218113	4277.759316
887.527417	4136.748161
887.836680	4001.383098
888.145901	3898.442736
888.455082	3815.281342
888.764221	3737.637490
889.073319	3675.177594
889.382376	3639.014877
889.691392	3612.445476
890.000366	3601.201182
890.309300	3594.612394
890.618193	3600.623970
890.927044	3591.567537
891.235855	3599.436778
891.544625	3620.902011
891.853353	3649.034170
892.162041	3712.860219
892.470687	3812.354952
892.779293	3939.762554
893.087858	4127.553096
893.396381	4431.219601
893.704864	4868.864852
894.013306	5460.882836
894.321707	6052.545419
894.630068	6415.642086
894.938387	6451.749351
895.246665	6270.320744
895.554903	5939.510147
895.863100	5592.250264
896.171256	5313.550074
896.479371	5058.258481
896.787446	4823.045804
897.095480	4612.625522
897.403473	4453.909835
897.711425	4298.561638
898.019336	4168.590609
898.327207	4041.334242
898.635038	3927.943569
898.942827	3821.872651
899.250576	3727.776993
899.558284	3636.607726
899.865952	3584.882967
900.173579	3513.878315
900.481165	3461.959472
900.788711	3418.159407
901.096216	3385.366701
901.403681	3354.782020
901.711105	3341.536389
902.018489	3339.898014
902.325832	3375.617109
902.633135	3438.528189
902.940397	3625.895274
903.247619	4059.200091
903.554800	4855.442780
903.861941	5874.575044
904.169041	6610.081911
904.476101	6839.426684
904.783121	6554.800618
905.090100	6139.971629
905.397039	5709.749478
905.703938	5334.254093
906.010796	4984.836596
906.317614	4710.456674
906.624391	4454.151810
906.931129	4240.943770
907.237826	4048.744738
907.544483	3861.007128
907.851099	3678.209848
908.157675	3506.382119
908.464211	3357.789069
908.770707	3245.794795
909.077163	3158.907988
909.383578	3095.732248
909.689954	3045.393806
909.996289	3013.327026
910.302584	2992.088645
910.608839	2972.498721
910.915054	2964.563945
911.221229	2957.773511
911.527363	2963.354068
911.833458	2971.056951
912.139513	2984.983139
912.445527	2998.914368
912.751502	3035.384595
913.057436	3084.132553
913.363331	3147.300731
913.669186	3242.313878
913.975000	3375.163405
914.280775	3575.662697
914.586510	3866.665823
914.892205	4271.445271
915.197859	4793.340805
915.503475	5408.815278
915.809050	5912.524850
916.114585	6207.936466
916.420081	6271.427278
916.725536	6208.818668
917.030952	5960.420853
917.336328	5752.208596
917.641665	5530.896901
917.946961	5292.162978
918.252218	5083.005505
918.557435	4842.945759
918.862612	4636.250890
919.167750	4451.338846
919.472848	4245.354779
919.777906	4071.417328
920.082925	3903.879621
920.387904	3737.768560
920.692843	3620.642392
920.997743	3512.827235
921.302603	3412.478026
921.607423	3341.922037
921.912204	3269.105090
922.216946	3218.862430
922.521647	3164.969975
922.826310	3120.093624
923.130932	3078.360432
923.435516	3036.165974
923.740059	3007.895183
924.044564	2972.521407
924.349028	2946.108281
924.653454	2912.135945
924.957840	2885.722820
925.262186	2867.670448
925.566493	2842.416787
925.870761	2812.636171
926.174989	2801.220478
926.479178	2785.729012
926.783328	2764.714963
927.087438	2754.463776
927.391509	2740.008268
927.695541	2727.057543
927.999533	2716.864330
928.303486	2705.557022
928.607400	2701.047710
928.911275	2697.037472
929.215110	2684.321162
929.518906	2683.552386
929.822663	2682.120698
930.126381	2683.111285
930.430060	2687.204702
930.733699	2686.163703
931.037299	2691.540094
931.340861	2690.471369
931.644383	2692.681915
931.947866	2691.761905
932.251309	2687.660926
932.554714	2687.605473
932.858080	2688.041533
933.161407	2685.876358
933.464694	2676.852692
933.767943	2677.482837
934.071153	2672.237516
934.374323	2666.059582
934.677455	2664.322904
934.980548	2658.422234
935.283602	2655.873931
935.586617	2652.120792
935.889593	2662.084632
936.192530	2662.044303
936.495428	2666.714932
936.798287	2672.996210
937.101108	2688.737212
937.403890	2712.387786
937.706632	2738.727815
938.009336	2773.637805
938.312002	2802.377423
938.614628	2825.425578
938.917216	2847.397447
939.219765	2858.677029
939.522275	2873.361910
939.824747	2871.395860
940.127179	2865.401928
940.429573	2860.655682
940.731929	2862.208358
941.034246	2848.302335
941.336524	2851.264012
941.638763	2843.344360
941.940964	2831.936229
942.243126	2817.387459
942.545250	2811.222127
942.847335	2793.323511
943.149381	2777.211983
943.451389	2766.446599
943.753359	2753.836153
944.055290	2744.832652
944.357182	2734.644480
944.659036	2727.912019
944.960851	2723.987481
945.262628	2715.956923
945.564367	2715.903991
945.866067	2713.133877
946.167729	2714.263095
946.469352	2712.062631
946.770937	2712.730584
947.072484	2705.947712
947.373992	2705.962835
947.675462	2700.515868
947.976893	2693.130578
948.278286	2692.818027
948.579641	2689.246369
948.880958	2685.326872
949.182236	2685.866275
949.483476	2681.316634
949.784678	2680.822601
950.085841	2680.709175
950.386967	2685.341995
950.688054	2691.477080
950.989103	2698.501927
951.290114	2710.298227
951.591087	2717.307952
951.892021	2731.700446
952.192917	2741.339132
952.493776	2756.160125
952.794596	2758.171545
953.095378	2759.235228
953.396122	2761.639859
953.696828	2756.228180
953.997496	2751.386152
954.298126	2741.661766
954.598718	2733.462329
954.899272	2719.210987
955.199788	2712.486088
955.500266	2697.264324
955.800706	2681.238496
956.101108	2666.160405
956.401472	2652.486275
956.701798	2637.662762
957.002087	2625.011987
957.302337	2612.646036
957.602550	2601.409304
957.902724	2590.157449
958.202861	2581.902560
958.502960	2570.975859
958.803022	2561.740465
959.103045	2556.777449
959.403031	2543.851930
959.702979	2540.060983
960.002889	2539.254398
960.302762	2532.199303
960.602596	2524.519105
960.902393	2521.544825
961.202153	2518.615914
961.501875	2513.809174
961.801559	2515.568537
962.101205	2511.323885
962.400814	2506.116373
962.700385	2507.936230
962.999918	2505.798781
963.299414	2503.421877
963.598873	2501.488594
963.898293	2498.073212
964.197677	2499.215034
964.497022	2496.207985
964.796331	2497.178408
965.095601	2493.944507
965.394835	2493.420227
965.694030	2492.321256
965.993189	2493.805876
966.292309	2492.671616
966.591393	2492.830412
966.890439	2490.120792
967.189447	2490.319918
967.488419	2492.553149
967.787353	2492.288488
968.086249	2489.208343
968.385108	2495.802172
968.683930	2493.079949
968.982714	2495.436689
969.281462	2497.896772
969.580172	2498.022801
969.878844	2499.315857
970.177480	2503.205107
970.476078	2505.153513
970.774639	2510.532424
971.073162	2512.679956
971.371649	2511.207939
971.670098	2511.802795
971.968510	2516.675070
972.266885	2514.711541
972.565223	2519.344361
972.863524	2520.332427
973.161788	2523.596574
973.460014	2522.608508
973.758204	2525.817202
974.056356	2524.398118
974.354471	2527.448016
974.652550	2526.538088
974.950591	2528.257121
975.248595	2523.586492
975.546563	2525.363499
975.844493	2520.675226
976.142386	2520.962571
976.440243	2518.381501
976.738062	2514.542662
977.035845	2513.975532
977.333590	2512.682476
977.631299	2507.467403
977.928971	2507.288442
978.226606	2504.525889
978.524204	2504.750221
978.821765	2500.573625
979.119290	2503.487412
979.416777	2501.362565
979.714228	2503.474809
980.011642	2501.670076
980.309020	2509.249450
980.606360	2511.598628
980.903664	2522.240504
981.200931	2538.800694
981.498162	2558.831719
981.795356	2589.575196
982.092513	2629.420476
982.389633	2675.617610
982.686717	2724.146277
982.983764	2753.916811
983.280775	2774.245264
983.577749	2772.977414
983.874686	2763.426948
984.171587	2748.847931
984.468451	2731.924777
984.765279	2713.602704
985.062070	2693.236442
985.358824	2670.480674
985.655543	2651.047026
985.952224	2626.511730
986.248869	2597.300764
986.545478	2570.033163
986.842050	2546.208670
987.138586	2525.872655
987.435086	2512.392610
987.731549	2498.758809
988.027975	2494.894765
988.324366	2486.362612
988.620719	2482.228866
988.917037	2475.698051
989.213318	2476.665953
989.509563	2472.126393
989.805772	2471.342494
990.101944	2467.677575
990.398080	2470.177988
990.694180	2464.826803
990.990244	2467.687657
991.286271	2466.150106
991.582262	2466.911320
991.878217	2466.245888
992.174136	2470.180508
992.470019	2471.375262
992.765865	2472.088585
993.061676	2473.278297
993.357450	2477.462455
993.653188	2478.876498
993.948890	2485.576192
994.244556	2495.595485
994.540186	2505.251815
994.835780	2516.854031
995.131337	2531.743079
995.426859	2551.050698
995.722345	2570.108780
996.017795	2590.759867
996.313208	2604.930550
996.608586	2613.082096
996.903928	2619.315483
997.199234	2618.251799
997.494504	2612.709051
997.789738	2609.064297
998.084936	2597.119283
998.380099	2583.571182
998.675225	2567.129458
998.970316	2558.423386
999.265371	2540.111394
999.560390	2527.536236
999.855373	2518.018538
1000.150320	2505.511435
1000.445232	2495.655979
1000.740108	2485.792962
1001.034948	2482.485965
1001.329752	2478.808443
1001.624521	2472.517083
1001.919254	2463.011987
1002.213951	2464.453757
1002.508613	2457.950669
1002.803239	2459.553756
1003.097829	2452.750719
1003.392384	2457.686008
1003.686903	2453.708538
1003.981386	2457.083590
1004.275834	2451.949175
1004.570246	2453.111161
1004.864623	2449.723506
1005.158964	2450.920780
1005.453270	2448.962292
1005.747540	2450.005810
1006.041775	2446.557661
1006.335974	2447.702003
1006.630138	2446.661005
1006.924266	2446.850048
1007.218359	2448.581684
1007.512416	2446.792075
1007.806438	2445.257043
1008.100425	2446.257712
1008.394376	2446.219904
1008.688292	2446.787034
1008.982172	2444.059769
1009.276017	2445.720830
1009.569827	2441.614810
1009.863602	2445.027671
1010.157341	2440.677155
1010.451045	2443.278391
1010.744714	2442.781837
1011.038347	2442.940633
1011.331945	2440.810746
1011.625508	2440.432659
1011.919036	2441.960129
1012.212528	2440.694799
1012.505986	2441.513987
1012.799408	2437.660025
1013.092795	2440.515838
1013.386147	2440.326795
1013.679464	2440.087340
1013.972745	2440.397371
1014.265992	2438.194387
1014.559204	2440.422577
1014.852380	2438.393513
1015.145521	2439.497525
1015.438628	2439.510128
1015.731699	2437.483584
1016.024736	2440.578853
1016.317737	2440.664552
1016.610703	2438.665735
1016.903635	2440.150355
1017.196531	2432.989396
1017.489393	2437.155909
1017.782219	2434.405960
1018.075011	2442.807043
1018.367768	2442.068514
1018.660490	2440.835952
1018.953177	2440.835952
1019.245829	2440.835952
