Dividing Wavelength (nm)	Counts (n)	Blue Motor Position (mm): 0.000000	Red Motor Position (mm): 31.400000	
326.493990	1988.851139
326.888308	1988.851139
327.282561	1988.851139
327.676750	1962.715277
328.070874	1967.295165
328.464933	1971.393623
328.858929	1981.478451
329.252859	1994.285503
329.646726	2010.049191
330.040528	2023.546880
330.434265	2040.815353
330.827938	2062.583055
331.221547	2080.625345
331.615091	2099.469178
332.008571	2123.207971
332.401986	2144.446352
332.795338	2163.650628
333.188625	2185.120902
333.581847	2201.275280
333.975006	2220.381253
334.368100	2238.516804
334.761129	2255.744947
335.154095	2270.235744
335.546996	2292.590740
335.939833	2325.166677
336.332606	2337.368789
336.725315	2349.505367
337.117960	2356.562983
337.510540	2365.954652
337.903056	2374.791795
338.295508	2380.654657
338.687896	2389.068343
339.080220	2394.104455
339.472480	2400.133675
339.864676	2405.505025
340.256807	2408.658267
340.648875	2410.518452
341.040879	2414.324523
341.432818	2412.900398
341.824694	2412.991138
342.216506	2416.149421
342.608253	2416.681263
342.999937	2412.313103
343.391557	2412.388720
343.783113	2409.205232
344.174605	2408.277659
344.566033	2404.700961
344.957397	2406.228430
345.348697	2404.146434
345.739934	2402.271125
346.131106	2401.703995
346.522215	2401.076371
346.913260	2395.949518
347.304241	2395.994888
347.695159	2393.716287
348.086012	2394.507748
348.476802	2391.546070
348.867528	2388.816285
349.258191	2387.727396
349.648789	2390.084135
350.039324	2386.293187
350.429796	2390.265617
350.820203	2387.530791
351.210548	2387.283774
351.600828	2385.859648
351.991045	2384.047353
352.381198	2385.226983
352.771288	2383.384442
353.161314	2386.623383
353.551276	2386.590616
353.941175	2385.879813
354.331010	2384.566592
354.720782	2386.121788
355.110490	2386.774618
355.500135	2385.726058
355.889717	2385.184134
356.279235	2386.406613
356.668689	2388.165976
357.058080	2386.918291
357.447408	2389.476676
357.836672	2385.564741
358.225873	2387.969371
358.615010	2386.726727
359.004084	2394.419528
359.393095	2391.687222
359.782043	2396.536812
360.170927	2392.052706
360.559748	2392.939949
360.948505	2396.413304
361.337199	2395.389950
361.725830	2399.246432
362.114398	2400.478994
362.502903	2399.685013
362.891344	2399.538819
363.279722	2404.176681
363.668037	2402.475291
364.056289	2404.534603
364.444478	2405.936043
364.832603	2402.427400
365.220665	2405.084088
365.608665	2404.746331
365.996601	2405.699109
366.384474	2408.406209
366.772284	2411.060376
367.160031	2409.734553
367.547715	2412.023237
367.935336	2410.233627
368.322893	2413.371745
368.710388	2412.880233
369.097820	2418.848959
369.485189	2415.088258
369.872495	2416.320820
370.259738	2419.214443
370.646918	2424.832809
371.034035	2425.036975
371.421090	2427.804569
371.808081	2429.727769
372.195010	2436.916454
372.581875	2442.000458
372.968678	2448.579164
373.355418	2456.425720
373.742096	2466.641618
374.128710	2477.832980
374.515262	2490.385453
374.901751	2503.381547
375.288177	2519.132632
375.674540	2539.856816
376.060841	2560.021431
376.447079	2585.537232
376.833254	2613.039246
377.219367	2640.637043
377.605417	2673.873370
377.991404	2698.234746
378.377329	2740.756879
378.763191	2776.755759
379.148991	2824.326607
379.534727	2874.460882
379.920402	2919.160793
380.306013	2969.663072
380.691563	3036.909544
381.077049	3090.484407
381.462474	3148.440032
381.847835	3225.138667
382.233134	3295.064512
382.618371	3355.901157
383.003545	3445.555557
383.388657	3523.958102
383.773706	3620.755818
384.158693	3693.862631
384.543618	3790.925007
384.928480	3867.994167
385.313280	3973.402173
385.698017	4078.674069
386.082692	4201.539591
386.467305	4263.938993
386.851856	4394.446904
387.236344	4551.317530
387.620770	4615.864464
388.005133	4736.297629
388.389435	4886.226586
388.773674	4972.266479
389.157851	5108.929639
389.541965	5244.907202
389.926018	5263.451087
390.310008	5444.499086
390.693936	5573.519857
391.077802	5689.292476
391.461606	5824.970090
391.845348	5942.577689
392.229027	6060.568415
392.612645	6289.464526
392.996200	6407.304018
393.379694	6586.252377
393.763125	6813.792417
394.146494	6911.598363
394.529801	7048.518623
394.913047	7292.845705
395.296230	7291.792104
395.679351	7349.248655
396.062410	7623.144626
396.445408	7508.985177
396.828343	7672.994076
397.211217	7805.548696
397.594028	7683.504882
397.976778	7894.792242
398.359466	8060.888179
398.742092	8034.863222
399.124656	8184.953496
399.507158	8372.217238
399.889598	8388.187613
400.271977	8607.245912
400.654294	8640.220100
401.036549	8837.392229
401.418742	8869.005305
401.800874	9173.732973
402.182944	9258.131971
402.564952	9625.748032
402.946898	9448.788409
403.328783	9504.644394
403.710606	9703.495228
404.092367	9959.479979
404.474067	10327.753911
404.855705	10119.123239
405.237282	10070.216485
405.618797	10499.947124
406.000250	10759.768193
406.381642	11131.238217
406.762972	11070.600698
407.144240	10871.868331
407.525447	11126.328133
407.906593	11065.925028
408.287677	11324.760552
408.668700	11486.112763
409.049661	11454.519852
409.430560	11618.022115
409.811399	11587.351735
410.192176	11753.709812
410.572891	11824.696820
410.953545	12318.084629
411.334138	11794.878395
411.714669	12401.167885
412.095139	11700.248375
412.475547	12215.650903
412.855894	12052.325080
413.236180	12385.933518
413.616405	12068.161865
413.996568	12343.570182
414.376670	12312.675471
414.756711	12191.239116
415.136691	12487.699291
415.516609	12666.186384
415.896466	12734.035274
416.276262	13030.548381
416.655997	13464.342190
417.035670	13499.365607
417.415283	14154.826512
417.794834	14253.663374
418.174324	13996.327594
418.553753	13894.662644
418.933121	14396.237288
419.312428	14200.771588
419.691674	14116.997694
420.070859	14571.147682
420.449983	14227.232605
420.829045	14786.483089
421.208047	14514.777500
421.586988	14985.694366
421.965867	15235.360030
422.344686	15237.610906
422.723444	15811.387475
423.102141	14486.484024
423.480777	15674.764644
423.859352	15184.565364
424.237866	16302.955427
424.616319	15999.041906
424.994712	16672.436716
425.373044	16450.240299
425.751314	17129.865975
426.129524	16258.394148
426.507673	17352.664810
426.885762	17050.432514
427.263789	17251.256960
427.641756	17408.304025
428.019662	17480.014439
428.397508	17524.026233
428.775292	17833.439653
429.153016	17797.854148
429.530679	17872.493472
429.908282	17891.352428
430.285824	17613.390767
430.663305	18329.204366
431.040726	17925.523889
431.418086	17743.800376
431.795385	18399.576353
432.172624	18816.504982
432.549802	18372.573412
432.926920	18553.351710
433.303977	18446.091080
433.680974	18707.709320
434.057910	18991.611981
434.434786	19011.383387
434.811601	18923.974820
435.188355	19976.242589
435.565050	19615.752198
435.941683	19573.671166
436.318257	20455.363933
436.694770	20271.349214
437.071222	20864.836695
437.447614	19933.594427
437.823946	19958.913623
438.200218	20117.107551
438.576429	19901.499921
438.952580	20169.538071
439.328670	20121.158118
439.704700	20548.121163
440.080670	20105.752352
440.456580	20705.014474
440.832429	20883.181454
441.208218	19863.562718
441.583947	20318.698252
441.959616	20415.064949
442.335224	20660.228863
442.710773	20786.519849
443.086261	21335.413283
443.461689	20691.549552
443.837057	20817.959005
444.212365	21470.417904
444.587612	21460.252417
444.962800	21033.770802
445.337927	21467.526802
445.712995	20186.786379
446.088002	22052.164537
446.462949	22242.881469
446.837837	22421.976021
447.212664	22373.759905
447.587431	25221.520316
447.962139	28166.254883
448.336786	30565.236654
448.711374	29024.367652
449.085901	25322.386243
449.460369	25256.581541
449.834776	25170.897049
450.209124	27668.816506
450.583412	27199.038941
450.957640	27720.702582
451.331808	26364.402825
451.705917	24984.865869
452.079965	25029.835482
452.453954	25397.602779
452.827883	25283.138339
453.201752	25075.440280
453.575562	25236.855506
453.949311	26366.066406
454.323001	26416.099858
454.696632	26194.672216
455.070202	27735.941990
455.443713	27870.472742
455.817164	28475.121337
456.190556	29005.780918
456.563888	28452.262225
456.937160	28887.144924
457.310373	27223.186068
457.683526	27679.783536
458.056619	27638.320046
458.429653	27573.483246
458.802628	28154.410692
459.175542	28263.304656
459.548398	29558.649301
459.921194	31138.655301
460.293930	31802.446713
460.666607	33851.839589
461.039224	35603.413699
461.411782	36004.407241
461.784280	34813.769881
462.156719	34336.249104
462.529099	33778.463075
462.901419	32471.143168
463.273680	31416.180903
463.645882	31491.841060
464.018024	31473.786168
464.390106	32302.007416
464.762130	35003.231566
465.134094	39045.828617
465.505999	44340.444117
465.877845	48945.351633
466.249631	50128.724690
466.621358	48428.714022
466.993026	46329.421285
467.364634	44255.702321
467.736184	42279.728810
468.107674	41025.945957
468.479105	40240.430844
468.850477	39528.405672
469.221790	38097.955583
469.593043	36341.478951
469.964238	35464.086289
470.335373	35363.492585
470.706449	37083.592250
471.077467	39646.827417
471.448425	44213.964088
471.819324	47034.570323
472.190164	45211.794957
472.560945	41653.108345
472.931667	38522.909729
473.302330	37416.852849
473.672934	36588.286282
474.043479	37080.875068
474.413965	36279.954189
474.784393	35910.341830
475.154761	36807.218552
475.525070	36815.291960
475.895321	36359.259101
476.265513	36947.594522
476.635645	37914.702079
477.005719	37732.615602
477.375734	38201.044659
477.745691	38888.451356
478.115588	40206.902130
478.485427	42149.974551
478.855207	45497.698956
479.224928	48096.252447
479.594591	49730.806252
479.964194	48730.785002
480.333739	48898.403367
480.703226	48902.247247
481.072653	49517.782214
481.442022	49975.879426
481.811333	50249.964440
482.180584	48933.600703
482.549777	48387.502589
482.918912	47835.917180
483.287988	47527.910241
483.657005	46682.004626
484.025964	46028.030861
484.394864	46015.697678
484.763706	45574.294247
485.132489	44685.075038
485.501213	44488.316283
485.869879	44600.459271
486.238487	44160.943752
486.607036	44316.856558
486.975527	43754.490641
487.343959	43915.482410
487.712333	43950.296618
488.080648	43840.306203
488.448905	44245.831742
488.817104	44000.778733
489.185244	44913.925779
489.553326	46487.620254
489.921350	49096.407287
490.289315	51927.970471
490.657222	52485.842199
491.025070	52719.797108
491.392861	51757.072835
491.760593	50450.935079
492.128267	48695.738900
492.495883	47124.708674
492.863440	45676.874166
493.230939	44252.859110
493.598380	43124.139723
493.965763	42720.582755
494.333088	41831.083761
494.700354	41275.702363
495.067563	40903.128326
495.434713	40684.780829
495.801805	40651.499132
496.168839	40181.056134
496.535815	39764.548442
496.902733	39681.341677
497.269593	39163.761370
497.636395	38988.387190
498.003139	39239.555118
498.369825	38595.789690
498.736453	38771.468860
499.103023	38211.169816
499.469535	37952.223387
499.835989	37913.439270
500.202385	37448.007179
500.568723	37351.196861
500.935003	37380.591829
501.301226	37043.154635
501.667390	37449.879968
502.033497	37548.008548
502.399546	36871.059725
502.765537	36115.211802
503.131470	36295.513711
503.497345	36460.251057
503.863163	35109.360457
504.228923	35479.381150
504.594625	35675.343403
504.960269	34873.842791
505.325856	35308.231456
505.691385	34580.737503
506.056856	34514.950446
506.422270	34713.516455
506.787625	34163.332486
507.152924	34151.750435
507.518164	34041.442427
507.883347	33186.823177
508.248472	33209.657083
508.613540	33408.084460
508.978550	33466.050168
509.343503	33050.603638
509.708398	33008.545292
510.073236	33231.311360
510.438016	33012.686600
510.802738	32353.558255
511.167403	32643.850578
511.532010	32603.234002
511.896561	32627.734010
512.261053	33070.881680
512.625488	32471.841368
512.989866	32147.922028
513.354186	31811.850986
513.718449	31564.715980
514.082655	31848.197705
514.446803	31367.576618
514.810894	31526.652748
515.174927	31222.789638
515.538904	30909.474365
515.902822	31154.802117
516.266684	30508.581647
516.630488	30559.230119
516.994235	30200.935151
517.357925	30359.804594
517.721558	30230.486395
518.085133	30184.601813
518.448651	30017.548056
518.812112	29617.303126
519.175516	29431.501319
519.538863	29387.093795
519.902152	29094.406923
520.265385	29139.759663
520.628560	28910.135106
520.991678	28502.164607
521.354739	28393.847855
521.717743	28309.179156
522.080690	27981.335277
522.443580	28049.204331
522.806413	27819.040370
523.169189	27516.177929
523.531908	27358.223456
523.894569	27009.332760
524.257174	26836.600144
524.619722	26737.700267
524.982213	26465.271272
525.344647	26137.639122
525.707025	25888.921194
526.069345	25849.816964
526.431608	25530.527923
526.793815	25430.823982
527.155964	24910.874334
527.518057	24719.426434
527.880093	24346.809547
528.242072	24359.596434
528.603995	23941.271406
528.965860	23672.777031
529.327669	23464.194250
529.689421	23140.620228
530.051117	22853.276980
530.412755	22663.167507
530.774337	22430.475407
531.135862	22082.850040
531.497331	21925.762645
531.858743	21620.901387
532.220098	21524.123836
532.581396	21131.521295
532.942638	20730.787373
533.303824	20604.461099
533.664953	20342.880667
534.026025	19979.625203
534.387040	19940.480643
534.747999	19669.334622
535.108902	19491.528085
535.469748	19070.246420
535.830537	18875.420947
536.191270	18709.100679
536.551947	18342.487806
536.912567	18227.128562
537.273131	18027.788736
537.633638	17603.678984
537.994089	17496.161255
538.354483	17135.232283
538.714821	17111.866535
539.075103	17000.265471
539.435328	16703.117178
539.795497	16459.790765
540.155609	16232.570837
540.515665	16172.387022
540.875665	15780.220541
541.235609	15672.155847
541.595496	15457.637106
541.955328	15454.009996
542.315102	15058.087855
542.674821	14797.961796
543.034483	14611.363487
543.394090	14406.528803
543.753640	14196.658007
544.113134	14281.477941
544.472571	13828.588241
544.831953	13961.954487
545.191278	13581.619593
545.550548	13321.861539
545.909761	13251.958379
546.268918	13113.891257
546.628019	13011.049198
546.987064	12710.722458
547.346053	12359.480064
547.704986	12392.202193
548.063863	12116.098197
548.422684	11991.758137
548.781449	11801.197481
549.140158	11719.966848
549.498811	11529.123887
549.857408	11248.631567
550.215949	11259.769996
550.574434	11093.033833
550.932864	10889.177133
551.291237	10878.079033
551.649555	10658.587194
552.007817	10548.576614
552.366022	10345.881901
552.724173	10228.544004
553.082267	10159.049177
553.440305	10061.901102
553.798288	9806.969952
554.156215	9720.458710
554.514086	9624.107137
554.871902	9451.535838
555.229661	9326.142177
555.587365	9165.588989
555.945014	9050.822080
556.302606	8908.883353
556.660143	8815.793406
557.017625	8718.068118
557.375050	8558.873521
557.732421	8479.639185
558.089735	8360.229374
558.446994	8234.654232
558.804197	8186.385183
559.161345	8051.872075
559.518437	7850.997218
559.875474	7771.563757
560.232455	7680.190323
560.589381	7594.198321
560.946251	7449.628111
561.303065	7416.885816
561.659825	7297.239071
562.016528	7157.808317
562.373177	7030.972887
562.729770	6979.671584
563.086307	6843.197467
563.442789	6787.631349
563.799216	6699.993410
564.155587	6588.215906
564.511904	6505.901425
564.868164	6421.404125
565.224370	6360.713674
565.580520	6251.776860
565.936615	6188.769999
566.292654	6087.730152
566.648638	6020.080388
567.004567	5939.174910
567.360441	5867.923242
567.716260	5781.638852
568.072023	5726.128187
568.427732	5658.017157
568.783385	5556.881529
569.138982	5512.259755
569.494525	5444.017656
569.850013	5361.985480
570.205445	5298.068690
570.560823	5236.301953
570.916145	5170.557745
571.271412	5113.408704
571.626625	5039.938928
571.981782	4989.184591
572.336884	4918.426956
572.691931	4878.400194
573.046923	4802.818175
573.401860	4748.318260
573.756743	4696.837997
574.111570	4653.594980
574.466342	4597.749077
574.821059	4556.575453
575.175722	4490.052387
575.530330	4444.190490
575.884882	4389.325092
576.239380	4347.659956
576.593823	4307.149243
576.948211	4258.784413
577.302544	4204.546639
577.656823	4161.880833
578.011047	4139.591372
578.365216	4092.479268
578.719330	4052.608783
579.073389	4014.757279
579.427394	3986.247033
579.781344	3954.591108
580.135239	3911.073347
580.489080	3885.988566
580.842866	3837.356555
581.196597	3824.683094
581.550273	3798.927839
581.903895	3765.540277
582.257463	3753.139038
582.610975	3712.766958
582.964434	3697.557797
583.317837	3665.448167
583.671186	3637.288282
584.024481	3617.204325
584.377721	3585.442535
584.730906	3571.627253
585.084037	3550.988769
585.437113	3524.343751
585.790135	3504.262314
586.143103	3474.814414
586.496016	3459.995942
586.848874	3442.896348
587.201679	3424.143256
587.554428	3393.929101
587.907124	3383.710682
588.259765	3360.574306
588.612352	3359.266127
588.964884	3328.754543
589.317362	3321.349088
589.669786	3307.329639
590.022155	3288.798358
590.374470	3284.707461
590.726731	3264.598299
591.078937	3239.415215
591.431090	3229.698391
591.783188	3210.547047
592.135232	3194.848894
592.487222	3184.562420
592.839157	3180.615196
593.191038	3163.873524
593.542866	3147.792243
593.894639	3130.342289
594.246358	3127.010087
594.598022	3115.342336
594.949633	3102.777260
595.301190	3092.407607
595.652692	3083.807398
596.004141	3080.326482
596.355535	3057.485013
596.706876	3044.950184
597.058162	3034.451982
597.409395	3034.736807
597.760573	3033.257228
598.111698	3017.435567
598.462768	3011.592869
598.813785	3005.137672
599.164748	2994.838595
599.515657	2989.605877
599.866511	2976.395533
600.217312	2979.727736
600.568060	2961.534212
600.918753	2966.388843
601.269392	2957.650003
601.619978	2947.887808
601.970510	2945.841100
602.320988	2943.212138
602.671412	2942.657611
603.021783	2932.207299
603.372100	2924.617842
603.722363	2921.492327
604.072572	2916.637696
604.422728	2913.121491
604.772830	2903.422311
605.122878	2897.168759
605.472872	2894.769170
605.822813	2892.772873
606.172701	2886.615104
606.522534	2885.490927
606.872314	2884.102089
607.222041	2877.190667
607.571714	2878.415667
607.921333	2867.763709
608.270899	2865.802700
608.620411	2865.568287
608.969870	2862.248687
609.319276	2855.450691
609.668627	2851.876513
610.017926	2852.546986
610.367171	2851.813498
610.716362	2846.505163
611.065500	2844.352591
611.414585	2840.062569
611.763616	2838.862774
612.112594	2835.994357
612.461518	2830.922957
612.810389	2830.280210
613.159207	2827.842812
613.507971	2822.383242
613.856682	2824.334169
614.205340	2818.642706
614.553945	2822.552121
614.902496	2813.157931
615.250994	2814.761017
615.599439	2811.280101
615.947830	2812.051397
616.296169	2808.378917
616.644454	2805.966725
616.992686	2802.974800
617.340864	2804.797177
617.688990	2797.777370
618.037063	2799.385498
618.385082	2794.672019
618.733048	2793.744447
619.080961	2792.295115
619.428821	2792.854683
619.776628	2786.165072
620.124382	2784.108282
620.472083	2781.055863
620.819731	2780.060235
621.167326	2773.824328
621.514868	2774.598145
621.862357	2763.817637
622.209793	2764.687236
622.557176	2761.418048
622.904506	2753.906729
623.251783	2743.285018
623.599007	2742.864081
623.946179	2738.833679
624.293297	2737.401991
624.640363	2732.751527
624.987376	2732.050806
625.334336	2728.138871
625.681243	2723.417830
626.028097	2720.204095
626.374899	2717.776779
626.721647	2716.342571
627.068343	2714.074052
627.414987	2711.029195
627.761577	2708.778320
628.108115	2706.850078
628.454600	2703.928730
628.801032	2700.117617
629.147412	2699.986547
629.493739	2697.728110
629.840014	2695.633511
630.186236	2693.460774
630.532405	2688.946420
630.878521	2691.963551
631.224585	2685.939372
631.570597	2686.561955
631.916556	2685.951975
632.262462	2686.108251
632.608316	2684.230421
632.954117	2681.805626
633.299866	2681.896367
633.645562	2681.460307
633.991206	2673.553257
634.336797	2668.658297
634.682336	2670.208452
635.027823	2666.934222
635.373257	2665.547905
635.718639	2661.421720
636.063968	2662.301402
636.409245	2654.923673
636.754470	2657.703869
637.099642	2653.250010
637.444762	2650.222797
637.789829	2649.658188
638.134845	2644.624596
638.479808	2646.116777
638.824719	2642.618217
639.169577	2641.635192
639.514383	2639.948926
639.859137	2636.757875
640.203839	2639.979172
640.548489	2633.692854
640.893086	2634.116311
641.237632	2630.022894
641.582125	2629.238994
641.926566	2623.981071
642.270955	2629.228912
642.615292	2633.806280
642.959576	2630.126237
643.303809	2628.220681
643.647990	2627.323356
643.992118	2625.400156
644.336195	2628.762605
644.680219	2621.997377
645.024192	2627.214971
645.368112	2628.034158
645.711981	2628.679426
646.055797	2634.756537
646.399562	2629.296967
646.743274	2638.459265
647.086935	2636.944398
647.430544	2636.510859
647.774101	2640.120325
648.117606	2638.131590
648.461059	2642.295583
648.804460	2635.953811
649.147810	2634.665796
649.491108	2632.639252
649.834354	2627.280506
650.177548	2625.523664
650.520690	2620.064094
650.863781	2620.326234
651.206820	2623.033334
651.549807	2616.235338
651.892742	2614.223917
652.235626	2612.913217
652.578458	2614.654936
652.921238	2609.046652
653.263967	2610.206118
653.606644	2609.644029
653.949269	2608.124121
654.291843	2608.111518
654.634365	2605.187649
654.976836	2603.700509
655.319255	2604.791919
655.661622	2605.311157
656.003938	2601.469798
656.346203	2601.182453
656.688416	2601.958790
657.030577	2601.908379
657.372687	2600.945518
657.714746	2604.302927
658.056753	2602.830910
658.398708	2593.595516
658.740612	2594.984354
659.082465	2595.309508
659.424266	2595.279261
659.766016	2594.860846
660.107715	2597.663727
660.449362	2597.298243
660.790958	2599.506269
661.132503	2598.876125
661.473996	2600.741352
661.815438	2599.599530
662.156829	2600.917792
662.498168	2595.944694
662.839456	2596.257245
663.180693	2595.949735
663.521879	2595.838829
663.863013	2597.777153
664.204097	2597.278079
664.545129	2599.309664
664.886110	2601.255549
665.227040	2597.066350
665.567918	2600.217072
665.908746	2597.267997
666.249522	2596.383274
666.590248	2598.109869
666.930922	2599.672627
667.271545	2598.908892
667.612118	2598.911413
667.952639	2600.582555
668.293109	2599.624736
668.633528	2599.075250
668.973896	2597.787235
669.314213	2595.001998
669.654480	2597.363778
669.994695	2596.504262
670.334859	2595.039807
670.674973	2594.170208
671.015035	2593.945876
671.355047	2594.901175
671.695008	2596.327821
672.034918	2594.064343
672.374777	2593.144333
672.714585	2593.502255
673.054342	2595.619539
673.394049	2595.155753
673.733705	2597.280599
674.073310	2595.533840
674.412864	2591.253900
674.752368	2590.250710
675.091820	2591.314394
675.431223	2591.760536
675.770574	2589.862542
676.109875	2585.141501
676.449125	2584.521439
676.788324	2583.803075
677.127473	2581.587487
677.466571	2579.797878
677.805619	2581.819381
678.144616	2581.763928
678.483562	2579.792837
678.822458	2578.915676
679.161303	2579.129925
679.500098	2577.393247
679.838842	2577.312589
680.177535	2577.448700
680.516179	2579.591191
680.854771	2582.280646
681.193314	2584.743250
681.531805	2588.904722
681.870247	2591.662233
682.208638	2601.202617
682.546978	2597.706577
682.885268	2599.196238
683.223508	2596.879828
683.561697	2596.226998
683.899836	2590.991760
684.237925	2593.643407
684.575963	2590.210381
684.913951	2590.144846
685.251889	2592.032758
685.589776	2590.911102
685.927614	2587.921697
686.265401	2589.928077
686.603137	2589.779362
686.940824	2592.761205
687.278460	2594.470156
687.616046	2592.622573
687.953582	2598.104828
688.291068	2600.078440
688.628504	2598.200610
688.965889	2597.910744
689.303224	2596.582400
689.640510	2596.476535
689.977745	2590.961513
690.314930	2588.750967
690.652065	2585.030596
690.989150	2583.367015
691.326185	2579.066911
691.663170	2574.295458
692.000105	2570.562484
692.336990	2564.313974
692.673825	2563.086453
693.010610	2565.428069
693.347345	2557.639486
693.684030	2553.558672
694.020665	2555.035730
694.357251	2548.162117
694.693786	2553.319217
695.030272	2549.694628
695.366707	2551.116233
695.703093	2546.818649
696.039429	2544.847558
696.375716	2544.126673
696.711952	2542.246323
697.048139	2544.492157
697.384276	2543.693134
697.720363	2540.592824
698.056400	2540.270191
698.392388	2541.384286
698.728326	2541.613658
699.064214	2537.371527
699.400053	2541.038967
699.735842	2537.064017
700.071581	2536.075951
700.407270	2536.822041
700.742910	2532.736186
701.078501	2531.727955
701.414042	2528.650331
701.749533	2528.965403
702.084974	2529.149405
702.420366	2527.248890
702.755709	2528.708304
703.091002	2524.521626
703.426246	2525.711338
703.761440	2523.195802
704.096584	2521.247397
704.431679	2523.614218
704.766725	2522.618590
705.101721	2518.444515
705.436668	2523.367202
705.771565	2520.798734
706.106413	2524.143539
706.441212	2522.548014
706.775961	2521.128929
707.110661	2522.036337
707.445311	2527.483304
707.779913	2527.858870
708.114465	2524.667819
708.448967	2528.267203
708.783421	2529.015815
709.117825	2532.196783
709.452180	2534.926567
709.786485	2533.799870
710.120742	2541.946374
710.454949	2542.021992
710.789107	2541.422094
711.123216	2541.384286
711.457275	2547.055584
711.791286	2549.543393
712.125247	2547.080789
712.459159	2550.687735
712.793023	2553.636810
713.126837	2546.856458
713.460602	2551.128836
713.794318	2548.371325
714.127985	2547.912580
714.461602	2542.042156
714.795171	2544.895449
715.128691	2538.427649
715.462162	2534.621578
715.795584	2530.424817
716.128957	2531.417924
716.462281	2528.357944
716.795556	2525.113962
717.128782	2522.306039
717.461960	2521.635565
717.795088	2521.809485
718.128167	2519.432581
718.461198	2516.107940
718.794180	2516.758249
719.127113	2510.398833
719.459997	2517.012827
719.792833	2510.134173
720.125619	2512.929493
720.458357	2509.231806
720.791046	2509.257012
721.123686	2505.561846
721.456278	2505.627381
721.788821	2508.435304
722.121315	2503.928512
722.453761	2506.731394
722.786158	2505.881960
723.118506	2503.883142
723.450805	2506.852382
723.783056	2505.128307
724.115259	2505.188801
724.447412	2504.296517
724.779518	2506.610406
725.111574	2507.210304
725.443582	2509.577125
725.775542	2504.780468
726.107453	2512.344719
726.439315	2508.926817
726.771129	2516.738084
727.102895	2511.654081
727.434612	2518.792355
727.766281	2515.477796
728.097901	2516.675070
728.429473	2513.436129
728.760996	2519.200688
729.092471	2513.549555
729.423897	2520.526512
729.755276	2516.654905
730.086606	2519.828312
730.417887	2523.193282
730.749120	2524.619928
731.080305	2526.185207
731.411442	2530.487832
731.742530	2528.541946
732.073570	2530.830630
732.404562	2531.556556
732.735506	2528.589837
733.066401	2529.565300
733.397249	2527.818541
733.728048	2523.188241
734.058798	2520.768487
734.389501	2515.006448
734.720156	2512.279184
735.050762	2510.650891
735.381320	2505.030005
735.711831	2503.782319
736.042293	2504.810714
736.372707	2501.450785
736.703073	2502.179232
737.033391	2503.200066
737.363661	2500.112359
737.693883	2504.107473
738.024056	2506.547392
738.354182	2506.844820
738.684260	2506.502022
739.014290	2512.122908
739.344272	2509.836745
739.674207	2513.589884
740.004093	2515.709689
740.333931	2513.564678
740.663722	2513.975532
740.993464	2517.070801
741.323159	2514.043588
741.652806	2512.185922
741.982405	2507.772392
742.311956	2507.232989
742.641460	2510.469410
742.970915	2507.805160
743.300323	2505.829028
743.629683	2502.040600
743.958996	2501.516320
744.288260	2500.324088
744.617477	2496.155053
744.946647	2492.716986
745.275768	2497.372492
745.604842	2488.951244
745.933869	2489.069712
746.262847	2488.449650
746.591778	2493.145484
746.920662	2491.040803
747.249498	2490.398056
747.578286	2494.254538
747.907027	2493.674806
748.235720	2495.839981
748.564365	2496.313850
748.892963	2493.969713
749.221514	2494.718324
749.550017	2493.082470
749.878473	2495.600526
750.206881	2494.456184
750.535242	2493.644559
750.863555	2493.999960
751.191821	2492.520381
751.520039	2490.793786
751.848210	2490.589619
752.176334	2492.868221
752.504411	2491.113899
752.832440	2490.007366
753.160421	2488.764722
753.488356	2489.357057
753.816243	2491.560042
754.144082	2488.374032
754.471875	2489.904022
754.799620	2489.346975
755.127318	2492.434682
755.454969	2488.023672
755.782572	2489.636841
756.110129	2487.695997
756.437638	2485.911429
756.765100	2487.683394
757.092515	2490.221615
757.419882	2486.080307
757.747203	2487.212046
758.074477	2489.465442
758.401703	2489.130205
758.728882	2490.347644
759.056014	2489.853611
759.383099	2492.099445
759.710138	2494.133551
760.037129	2493.831081
760.364073	2493.727738
760.690970	2493.125320
761.017820	2493.969713
761.344623	2493.836122
761.671379	2496.911226
761.998088	2496.777636
762.324751	2514.585512
762.651366	2530.371885
762.977935	2559.814744
763.304456	2571.830334
763.630931	2583.041860
763.957359	2572.972156
764.283740	2563.451937
764.610074	2549.823177
764.936362	2533.489839
765.262602	2521.227232
765.588796	2512.632065
765.914943	2501.798625
766.241044	2495.361072
766.567097	2491.650782
766.893104	2488.187510
767.219064	2483.610142
767.544978	2479.299955
767.870845	2479.138638
768.196665	2478.339616
768.522438	2475.022536
768.848165	2474.450365
769.173846	2473.593369
769.499479	2468.199335
769.825066	2469.396609
770.150607	2471.014819
770.476101	2471.891980
770.801548	2469.333594
771.126949	2467.387709
771.452303	2465.920733
771.777611	2463.538788
772.102872	2467.049952
772.428087	2462.875876
772.753256	2465.162039
773.078378	2461.814713
773.403453	2463.813531
773.728482	2462.079374
774.053465	2461.333283
774.378401	2461.030814
774.703291	2457.718776
775.028135	2458.051492
775.352932	2459.425206
775.677683	2457.050823
776.002388	2457.527212
776.327046	2457.897737
776.651658	2457.116358
776.976224	2457.403704
777.300743	2454.706686
777.625216	2456.239197
777.949643	2455.558641
778.274024	2455.730041
778.598359	2451.999587
778.922647	2449.761314
779.246889	2452.647375
779.571086	2447.691921
779.895236	2454.865483
780.219339	2454.711728
780.543397	2453.897581
780.867409	2452.730554
781.191374	2454.983950
781.515294	2454.048816
781.839167	2456.912191
782.162995	2453.947993
782.486776	2453.481686
782.810511	2456.299691
783.134201	2455.586368
783.457844	2455.278857
783.781441	2455.288940
784.104993	2451.934052
784.428498	2453.227108
784.751958	2453.201902
785.075372	2454.472273
785.398739	2453.569906
785.722061	2450.308280
786.045337	2449.960440
786.368568	2453.340534
786.691752	2451.530759
787.014891	2456.657613
787.337983	2459.430247
787.661030	2465.658593
787.984031	2465.998871
788.306987	2466.833182
788.629897	2469.116825
788.952760	2468.559777
789.275579	2468.171608
789.598351	2465.081381
789.921078	2465.373768
790.243759	2460.763633
790.566395	2459.273972
790.888984	2454.782304
791.211529	2456.143415
791.534027	2454.537808
791.856480	2453.504371
792.178888	2453.789196
792.501249	2453.201902
792.823566	2450.701490
793.145836	2448.100254
793.468062	2452.317179
793.790241	2450.709051
794.112375	2451.051850
794.434464	2453.312807
794.756507	2452.120574
795.078505	2452.632252
795.400457	2456.299691
795.722364	2453.227108
796.044226	2458.142233
796.366042	2457.892696
796.687812	2459.233643
797.009538	2462.094497
797.331218	2460.614919
797.652852	2460.924950
797.974442	2459.014352
798.295986	2458.089301
798.617484	2456.793724
798.938938	2453.335492
799.260346	2456.297170
799.581709	2455.717438
799.903026	2457.784311
800.224299	2454.021089
800.545526	2449.599998
800.866708	2451.167796
801.187845	2450.683846
801.508936	2450.557817
801.829983	2451.971860
802.150984	2446.918104
802.471940	2450.220059
802.792851	2449.221911
803.113717	2446.960953
803.434538	2448.402723
803.755314	2446.298042
804.076045	2447.046653
804.396731	2448.896757
804.717372	2449.741150
805.037967	2448.795933
805.358518	2446.718978
805.679024	2448.455656
805.999485	2445.037753
806.319901	2449.398351
806.640272	2449.247117
806.960598	2448.682508
807.280879	2449.443722
807.601115	2448.642178
807.921306	2447.961622
808.241453	2450.837601
808.561554	2450.202415
808.881611	2448.803495
809.201623	2449.456325
809.521590	2450.535132
809.841513	2448.904318
810.161390	2451.661829
810.481223	2445.683021
810.801011	2447.964143
811.120755	2446.134204
811.440453	2446.119081
811.760107	2446.144287
812.079716	2445.463731
812.399281	2443.532969
812.718801	2443.709409
813.038276	2440.031888
813.357707	2447.528083
813.677093	2447.434822
813.996434	2446.477003
814.315731	2446.416509
814.634983	2448.185954
814.954191	2448.916921
815.273354	2447.523042
815.592473	2450.593105
815.911547	2448.619493
816.230577	2451.840790
816.549562	2452.097889
816.868502	2449.330296
817.187399	2452.039916
817.506250	2454.252982
817.825058	2455.326748
818.143821	2455.457818
818.462539	2459.359671
818.781213	2461.620629
819.099843	2468.572380
819.418429	2476.607979
819.736970	2484.189875
820.055466	2493.261431
820.373919	2506.842299
820.692327	2526.591020
821.010691	2563.671227
821.329011	2639.500263
821.647286	2756.719693
821.965517	2884.533107
822.283704	2960.631845
822.601847	2983.947182
822.919945	2933.523040
823.237999	2870.027187
823.556010	2806.160809
823.873976	2751.396234
824.191897	2699.742051
824.509775	2657.572799
824.827609	2621.931842
825.145398	2599.511310
825.463144	2589.388673
825.780845	2591.014445
826.098502	2608.860130
826.416116	2637.861888
826.733685	2664.874911
827.051210	2667.105621
827.368692	2654.805206
827.686129	2626.143726
828.003522	2591.561410
828.320872	2557.911708
828.638177	2537.898328
828.955439	2518.764628
829.272656	2503.663852
829.589830	2489.404948
829.906960	2486.060143
830.224046	2477.167547
830.541088	2471.072792
830.858086	2467.735548
831.175041	2464.423510
831.491952	2466.944087
831.808819	2461.628191
832.125642	2469.235292
832.442421	2476.272742
832.759157	2491.610453
833.075849	2518.789834
833.392497	2542.513504
833.709101	2556.240566
834.025662	2553.828374
834.342179	2542.924358
834.658653	2524.413241
834.975083	2509.897239
835.291469	2498.302585
835.607811	2484.315903
835.924110	2478.324492
836.240366	2470.220837
836.556578	2462.117183
836.872746	2459.152984
837.188871	2452.571758
837.504952	2447.487754
837.820990	2447.424740
838.136984	2449.415995
838.452935	2445.257043
838.768842	2443.878288
839.084706	2448.990018
839.400526	2457.438992
839.716303	2476.187043
840.032037	2480.202322
840.347727	2480.106540
840.663373	2473.626137
840.978977	2460.236832
841.294537	2456.622325
841.610054	2451.414813
841.925527	2447.054215
842.240957	2444.684872
842.556344	2437.181115
842.871687	2438.043152
843.186987	2434.930240
843.502244	2433.236412
843.817458	2428.207861
844.132629	2428.096956
844.447756	2432.281113
844.762840	2423.577561
845.077881	2424.754671
845.392879	2422.584454
845.707833	2424.832809
846.022745	2424.479928
846.337613	2426.042686
846.652438	2422.208888
846.967221	2424.747109
847.281960	2425.236101
847.596656	2425.006728
847.911309	2424.202664
848.225919	2424.298446
848.540485	2425.117634
848.855009	2424.754671
849.169490	2425.757860
849.483928	2423.602767
849.798323	2423.496903
850.112675	2424.457243
850.426984	2424.777356
850.741251	2421.740061
851.055474	2422.160997
851.369654	2422.770977
851.683792	2423.265010
851.997887	2421.140163
852.311938	2423.355751
852.625947	2425.778025
852.939914	2425.599064
853.253837	2422.899526
853.567718	2423.869948
853.881555	2424.573189
854.195350	2423.121337
854.509103	2423.408683
854.822812	2422.047571
855.136479	2425.747778
855.450103	2424.124527
855.763685	2423.854825
856.077224	2422.836512
856.390720	2423.340627
856.704173	2424.091759
857.017584	2425.682243
857.330953	2423.070925
857.644278	2423.854825
857.957561	2425.024372
858.270802	2426.065371
858.584000	2425.195772
858.897155	2424.691656
859.210268	2421.820719
859.523339	2423.819537
859.836367	2418.828794
860.149352	2424.298446
860.462295	2425.841039
860.775195	2418.712848
861.088054	2420.288208
861.400869	2423.199475
861.713642	2415.710841
862.026373	2423.509506
862.339062	2424.573189
862.651708	2422.080339
862.964312	2426.380443
863.276873	2423.869948
863.589392	2426.418252
863.901869	2427.408838
864.214303	2426.072932
864.526696	2424.784918
864.839045	2429.395053
865.151353	2424.527819
865.463619	2427.330700
865.775842	2427.728952
866.088023	2425.737696
866.400162	2427.441606
866.712258	2426.952614
867.024313	2429.510999
867.336325	2428.525454
867.648296	2426.196441
867.960224	2425.059661
868.272110	2429.417738
868.583954	2426.556883
868.895755	2429.337080
869.207515	2425.805751
869.519233	2427.308015
869.830909	2429.808427
870.142542	2427.207192
870.454134	2432.868408
870.765684	2430.920002
871.077191	2429.795825
871.388657	2432.024015
871.700081	2429.427820
872.011463	2430.211720
872.322803	2431.161977
872.634101	2432.913778
872.945357	2434.353028
873.256571	2435.426793
873.567744	2434.257246
873.878874	2431.093922
874.189963	2433.818665
874.501010	2435.401588
874.812015	2433.309509
875.122979	2434.877308
875.433900	2432.071906
875.744780	2435.232709
876.055618	2433.160795
876.366415	2436.203131
876.677169	2437.965014
876.987882	2437.584407
877.298554	2431.706422
877.609183	2434.809252
877.919771	2438.237237
878.230317	2440.077258
878.540822	2443.411981
878.851285	2446.333330
879.161707	2454.925977
879.472087	2467.314612
879.782425	2480.280460
880.092722	2511.437311
880.402977	2553.563713
880.713191	2602.760334
881.023363	2653.260092
881.333494	2682.377797
881.643583	2693.546473
881.953631	2690.322655
882.263637	2676.618279
882.573602	2656.952737
882.883526	2638.003040
883.193408	2616.326079
883.503248	2597.721700
883.813048	2577.741087
884.122806	2559.439178
884.432522	2539.909748
884.742197	2522.933663
885.051831	2508.576456
885.361424	2497.576659
885.670975	2485.818167
885.980485	2476.408854
886.289954	2471.110601
886.599382	2465.235136
886.908768	2460.637604
887.218113	2455.253652
887.527417	2451.407251
887.836680	2449.199226
888.145901	2446.983639
888.455082	2443.976590
888.764221	2443.830397
889.073319	2440.541044
889.382376	2442.675973
889.691392	2437.723039
890.000366	2439.701692
890.309300	2438.086002
890.618193	2438.819490
890.927044	2436.331681
891.235855	2436.687082
891.544625	2439.247988
891.853353	2439.547937
892.162041	2443.737136
892.470687	2443.177568
892.779293	2445.690583
893.087858	2450.101592
893.396381	2455.414968
893.704864	2468.826958
894.013306	2480.149390
894.321707	2498.824344
894.630068	2510.822290
894.938387	2512.911849
895.246665	2506.134017
895.554903	2501.365086
895.863100	2494.705722
896.171256	2484.860348
896.479371	2479.085706
896.787446	2477.507825
897.095480	2464.229426
897.403473	2463.170784
897.711425	2456.748354
898.019336	2455.634259
898.327207	2452.455811
898.635038	2449.335337
898.942827	2447.598659
899.250576	2441.539193
899.558284	2442.683534
899.865952	2436.664397
900.173579	2436.492998
900.481165	2433.357400
900.788711	2435.721701
901.096216	2433.717842
901.403681	2432.520568
901.711105	2432.770105
902.018489	2433.758172
902.325832	2435.457040
902.633135	2437.017277
902.940397	2441.995417
903.247619	2455.528394
903.554800	2473.883236
903.861941	2502.088491
904.169041	2522.164887
904.476101	2530.835671
904.783121	2523.969620
905.090100	2512.866478
905.397039	2499.265445
905.703938	2491.106338
906.010796	2483.048053
906.317614	2475.163689
906.624391	2467.503655
906.931129	2462.119703
907.237826	2456.488734
907.544483	2449.814247
907.851099	2443.898452
908.157675	2438.602720
908.464211	2435.595672
908.770707	2429.548808
909.077163	2426.340114
909.383578	2422.029927
909.689954	2425.021852
909.996289	2420.164700
910.302584	2424.951276
910.608839	2422.186203
910.915054	2425.588982
911.221229	2423.229722
911.527363	2421.646799
911.833458	2425.311718
912.139513	2424.202664
912.445527	2424.905905
912.751502	2426.342634
913.057436	2429.594178
913.363331	2429.604261
913.669186	2432.616350
913.975000	2438.756476
914.280775	2443.170006
914.586510	2448.223762
914.892205	2461.948304
915.197859	2480.915645
915.503475	2496.064312
915.809050	2514.661129
916.114585	2521.882582
916.420081	2526.399456
916.725536	2523.848632
917.030952	2518.159690
917.336328	2510.386231
917.641665	2504.682165
917.946961	2499.089005
918.252218	2493.793273
918.557435	2485.051912
918.862612	2477.873309
919.167750	2472.128914
919.472848	2464.713377
919.777906	2459.934363
920.082925	2455.828343
920.387904	2448.546396
920.692843	2445.587239
920.997743	2443.154882
921.302603	2438.678338
921.607423	2435.444437
921.912204	2434.214396
922.216946	2432.145002
922.521647	2431.502255
922.826310	2427.645773
923.130932	2427.050916
923.435516	2426.042686
923.740059	2427.963365
924.044564	2425.654517
924.349028	2422.208888
924.653454	2419.406007
924.957840	2418.763259
925.262186	2415.710841
925.566493	2419.630338
925.870761	2415.239493
926.174989	2417.543300
926.479178	2416.530028
926.783328	2415.491551
927.087438	2413.291087
927.391509	2415.978022
927.695541	2413.492733
927.999533	2415.063053
928.303486	2414.516087
928.607400	2413.545665
928.911275	2417.384504
929.215110	2412.852507
929.518906	2414.813515
929.822663	2412.285377
930.126381	2414.223700
930.430060	2413.260840
930.733699	2414.828639
931.037299	2415.178999
931.340861	2416.212436
931.644383	2415.917528
931.947866	2412.066087
932.251309	2412.728998
932.554714	2414.203536
932.858080	2414.725295
933.161407	2414.500964
933.464694	2413.654050
933.767943	2411.982907
934.071153	2411.776220
934.374323	2411.831673
934.677455	2413.349060
934.980548	2412.091292
935.283602	2411.045253
935.586617	2411.433422
935.889593	2411.662794
936.192530	2415.219328
936.495428	2413.409554
936.798287	2413.931313
937.101108	2412.252609
937.403890	2413.510377
937.706632	2415.259657
938.009336	2419.463980
938.312002	2419.285019
938.614628	2420.613363
938.917216	2420.625966
939.219765	2420.136974
939.522275	2423.733837
939.824747	2423.270051
940.127179	2419.269895
940.429573	2416.593043
940.731929	2420.961203
941.034246	2415.531880
941.336524	2422.753333
941.638763	2417.513053
941.940964	2420.449525
942.243126	2419.955492
942.545250	2421.109917
942.847335	2418.049936
943.149381	2419.375760
943.451389	2418.049936
943.753359	2418.148239
944.055290	2415.932652
944.357182	2417.084555
944.659036	2415.718402
944.960851	2415.521797
945.262628	2415.105902
945.564367	2413.177661
945.866067	2415.100861
946.167729	2417.419792
946.469352	2413.686817
946.770937	2418.019689
947.072484	2412.189595
947.373992	2415.110943
947.675462	2415.063052
947.976893	2412.968453
948.278286	2413.109605
948.579641	2416.877868
948.880958	2413.427198
949.182236	2414.851324
949.483476	2415.332754
949.784678	2411.940058
950.085841	2413.013823
950.386967	2417.976839
950.688054	2415.413413
950.989103	2415.562127
951.290114	2415.922569
951.591087	2414.281674
951.892021	2416.807292
952.192917	2418.412899
952.493776	2416.303176
952.794596	2418.135636
953.095378	2417.273598
953.396122	2419.552200
953.696828	2415.602456
953.997496	2415.244534
954.298126	2416.807292
954.598718	2415.239493
954.899272	2414.516087
955.199788	2417.752508
955.500266	2415.912487
955.800706	2411.055335
956.101108	2407.385375
956.401472	2409.056518
956.701798	2405.454613
957.002087	2408.806981
957.302337	2410.493247
957.602550	2406.140210
957.902724	2408.479306
958.202861	2411.574574
958.502960	2408.501991
958.803022	2409.308575
959.103045	2407.483678
959.403031	2408.312948
959.702979	2407.438307
960.002889	2407.738256
960.302762	2407.052659
960.602596	2404.673234
960.902393	2404.602658
961.202153	2405.910838
961.501875	2406.699778
961.801559	2405.484860
962.101205	2409.215314
962.400814	2405.857906
962.700385	2405.258008
962.999918	2405.094171
963.299414	2405.174829
963.598873	2406.137690
963.898293	2404.358162
964.197677	2406.223389
964.497022	2403.743142
964.796331	2404.819428
965.095601	2403.125600
965.394835	2403.286917
965.694030	2407.057700
965.993189	2405.666342
966.292309	2403.380178
966.591393	2405.419325
966.890439	2407.554254
967.189447	2404.249777
967.488419	2401.560322
967.787353	2407.788667
968.086249	2405.487381
968.385108	2406.127607
968.683930	2405.560478
968.982714	2408.189439
969.281462	2405.472257
969.580172	2402.797925
969.878844	2404.174160
970.177480	2408.650705
970.476078	2406.082237
970.774639	2404.942936
971.073162	2406.571229
971.371649	2404.476629
971.670098	2402.626526
971.968510	2403.286917
972.266885	2400.668038
972.565223	2404.353121
972.863524	2405.429407
973.161788	2408.537279
973.460014	2408.489388
973.758204	2407.319840
974.056356	2405.757083
974.354471	2406.704819
974.652550	2404.960580
974.950591	2405.971332
975.248595	2406.092319
975.546563	2406.969480
975.844493	2407.428225
976.142386	2410.044584
976.440243	2405.666342
976.738062	2406.861095
977.035845	2407.687844
977.333590	2405.978893
977.631299	2404.375806
977.928971	2405.636095
978.226606	2404.375806
978.524204	2404.930333
978.821765	2406.472926
979.119290	2403.256670
979.416777	2404.317833
979.714228	2405.154665
980.011642	2404.330436
980.309020	2408.063410
980.606360	2408.363359
980.903664	2407.145920
981.200931	2407.670200
981.498162	2409.467372
981.795356	2410.218504
982.092513	2411.060376
982.389633	2411.657753
982.686717	2417.092117
982.983764	2415.163876
983.280775	2419.952972
983.577749	2420.598239
983.874686	2416.774524
984.171587	2415.589853
984.468451	2417.646644
984.765279	2415.478948
985.062070	2414.158165
985.358824	2416.633372
985.655543	2413.976684
985.952224	2412.406364
986.248869	2408.287742
986.545478	2406.712381
986.842050	2408.456620
987.138586	2402.601320
987.435086	2403.070148
987.731549	2401.429252
988.027975	2407.413102
988.324366	2407.778585
988.620719	2402.984448
988.917037	2401.935888
989.213318	2403.957391
989.509563	2401.928326
989.805772	2406.820766
990.101944	2403.377658
990.398080	2403.932185
990.694180	2402.848337
990.990244	2403.876732
991.286271	2402.230795
991.582262	2401.872873
991.878217	2403.692730
992.174136	2402.992010
992.470019	2399.445558
992.765865	2404.809346
993.061676	2402.629047
993.357450	2402.122411
993.653188	2400.834396
993.948890	2404.617782
994.244556	2406.057031
994.540186	2403.528892
994.835780	2407.352608
995.131337	2404.562329
995.426859	2406.054511
995.722345	2411.319996
996.017795	2409.351425
996.313208	2413.371745
996.608586	2410.916703
996.903928	2410.324368
997.199234	2412.368556
997.494504	2409.469892
997.789738	2408.423853
998.084936	2408.665828
998.380099	2408.015519
998.675225	2407.957546
998.970316	2408.277659
999.265371	2407.813873
999.560390	2406.732546
999.855373	2406.974521
1000.150320	2404.532082
1000.445232	2407.571898
1000.740108	2406.669531
1001.034948	2404.642988
1001.329752	2405.031156
1001.624521	2405.994017
1001.919254	2396.821637
1002.213951	2400.723490
1002.508613	2397.270300
1002.803239	2400.468912
1003.097829	2396.776267
1003.392384	2400.254663
1003.686903	2400.098387
1003.981386	2400.269787
1004.275834	2402.271125
1004.570246	2400.912534
1004.864623	2402.192987
1005.158964	2401.860271
1005.453270	2401.852709
1005.747540	2401.872873
1006.041775	2401.908162
1006.335974	2401.154509
1006.630138	2400.844478
1006.924266	2401.996382
1007.218359	2401.572925
1007.512416	2399.589231
1007.806438	2401.056207
1008.100425	2401.419170
1008.394376	2400.605023
1008.688292	2402.833213
1008.982172	2399.253994
1009.276017	2401.462019
1009.569827	2397.643345
1009.863602	2400.990672
1010.157341	2401.774571
1010.451045	2404.257339
1010.744714	2401.847668
1011.038347	2401.083933
1011.331945	2399.954714
1011.625508	2398.926319
1011.919036	2401.678789
1012.212528	2401.416649
1012.505986	2397.681154
1012.799408	2400.110990
1013.092795	2400.602503
1013.386147	2401.845147
1013.679464	2398.858263
1013.972745	2401.812380
1014.265992	2401.588048
1014.559204	2400.695764
1014.852380	2398.034035
1015.145521	2400.846999
1015.438628	2401.628378
1015.731699	2399.937070
1016.024736	2399.243912
1016.317737	2403.055024
1016.610703	2400.587379
1016.903635	2396.927502
1017.196531	2395.334497
1017.489393	2395.999929
1017.782219	2395.710063
1018.075011	2399.858933
1018.367768	2400.143758
1018.660490	2400.652914
1018.953177	2400.652914
1019.245829	2400.652914
