Dividing Wavelength (nm)	Counts (n)	Blue Motor Position (mm): 0.000000	Red Motor Position (mm): 18.800000	
326.493990	1984.750160
326.888308	1984.750160
327.282561	1984.750160
327.676750	1957.734617
328.070874	1960.419031
328.464933	1966.367593
328.858929	1975.139200
329.252859	1988.145377
329.646726	2001.280104
330.040528	2018.412465
330.434265	2037.382327
330.827938	2056.790769
331.221547	2074.185271
331.615091	2093.608836
332.008571	2117.090531
332.401986	2139.075003
332.795338	2156.880358
333.188625	2176.286280
333.581847	2197.945598
333.975006	2213.598380
334.368100	2231.870042
334.761129	2248.992321
335.154095	2264.672830
335.546996	2281.938782
335.939833	2299.093829
336.332606	2310.401137
336.725315	2321.411017
337.117960	2332.128510
337.510540	2337.071361
337.903056	2347.115860
338.295508	2353.490399
338.687896	2360.288395
339.080220	2369.927082
339.472480	2371.618389
339.864676	2375.384131
340.256807	2378.993597
340.648875	2383.031561
341.040879	2385.176572
341.432818	2384.511140
341.824694	2386.625904
342.216506	2384.092724
342.608253	2383.512991
342.999937	2384.758156
343.391557	2381.632641
343.783113	2383.954092
344.174605	2381.183978
344.566033	2378.428987
344.957397	2379.429657
345.348697	2375.336240
345.739934	2374.358256
346.131106	2369.990096
346.522215	2369.856505
346.913260	2369.949767
347.304241	2369.112935
347.695159	2366.030270
348.086012	2364.452388
348.476802	2360.825278
348.867528	2363.562625
349.258191	2361.473067
349.648789	2359.181862
350.039324	2359.151615
350.429796	2357.591378
350.820203	2359.053313
351.210548	2354.561645
351.600828	2354.806141
351.991045	2358.544156
352.381198	2355.058198
352.771288	2355.847139
353.161314	2357.992150
353.551276	2357.861080
353.941175	2353.301356
354.331010	2354.901923
354.720782	2354.528877
355.110490	2358.639938
355.500135	2359.121368
355.889717	2358.609691
356.279235	2355.539628
356.668689	2358.425689
357.058080	2356.694053
357.447408	2359.504496
357.836672	2357.419979
358.225873	2359.159177
358.615010	2355.443847
359.004084	2362.062882
359.393095	2361.783098
359.782043	2363.764271
360.170927	2364.792666
360.559748	2366.660414
360.948505	2364.918695
361.337199	2364.515403
361.725830	2366.743593
362.114398	2366.509179
362.502903	2369.841382
362.891344	2369.649818
363.279722	2369.730477
363.668037	2373.738194
364.056289	2370.920189
364.444478	2373.090406
364.832603	2370.743748
365.220665	2369.962370
365.608665	2373.244161
365.996601	2373.402957
366.384474	2374.980838
366.772284	2377.438401
367.160031	2378.660881
367.547715	2376.188195
367.935336	2378.287835
368.322893	2379.850593
368.710388	2380.682383
369.097820	2383.535676
369.485189	2381.395707
369.872495	2384.485934
370.259738	2383.021479
370.646918	2388.385266
371.034035	2389.418703
371.421090	2392.513971
371.808081	2397.345917
372.195010	2399.039745
372.581875	2405.139541
372.968678	2412.587846
373.355418	2417.923907
373.742096	2429.079981
374.128710	2439.779830
374.515262	2451.611418
374.901751	2463.846298
375.288177	2480.610655
375.674540	2499.651093
376.060841	2521.547345
376.447079	2544.318237
376.833254	2569.672720
377.219367	2595.032245
377.605417	2627.106586
377.991404	2653.509629
378.377329	2696.838347
378.763191	2729.910837
379.148991	2771.820469
379.534727	2824.722337
379.920402	2868.497197
380.306013	2918.986873
380.691563	2977.912921
381.077049	3032.317053
381.462474	3085.360074
381.847835	3157.103255
382.233134	3228.823750
382.618371	3290.063687
383.003545	3373.779609
383.388657	3454.296918
383.773706	3543.963921
384.158693	3614.121659
384.543618	3706.160526
384.928480	3781.382103
385.313280	3883.473030
385.698017	3985.405161
386.082692	4105.992081
386.467305	4169.918953
386.851856	4289.401861
387.236344	4441.165798
387.620770	4505.289275
388.005133	4628.086741
388.389435	4772.102424
388.773674	4851.924054
389.157851	4980.276872
389.541965	5112.544146
389.926018	5134.495851
390.310008	5311.382378
390.693936	5434.739412
391.077802	5545.019694
391.461606	5680.445251
391.845348	5789.218227
392.229027	5909.908491
392.612645	6131.847810
392.996200	6242.982567
393.379694	6414.964051
393.763125	6632.547813
394.146494	6723.729683
394.529801	6861.065837
394.913047	7097.352280
395.296230	7091.048317
395.679351	7149.523181
396.062410	7400.154227
396.445408	7303.064124
396.828343	7445.396062
397.211217	7577.191988
397.594028	7466.936912
397.976778	7665.918816
398.359466	7831.533323
398.742092	7804.515259
399.124656	7948.704862
399.507158	8131.151781
399.889598	8151.434864
400.271977	8360.345320
400.654294	8390.496462
401.036549	8582.118281
401.418742	8607.366900
401.800874	8905.392354
402.182944	8976.376841
402.564952	9342.183129
402.946898	9163.955655
403.328783	9219.418430
403.710606	9411.899766
404.092367	9661.832612
404.474067	10014.857054
404.855705	9810.503800
405.237282	9772.758161
405.618797	10185.250574
406.000250	10429.789386
406.381642	10786.685434
406.762972	10742.950904
407.144240	10538.131344
407.525447	10782.269383
407.906593	10722.783768
408.287677	10973.137550
408.668700	11117.014602
409.049661	11098.243865
409.430560	11257.241857
409.811399	11230.995090
410.192176	11380.614016
410.572891	11450.219747
410.953545	11919.830954
411.334138	11405.139229
411.714669	11979.306487
412.095139	11318.461630
412.475547	11796.695731
412.855894	11646.557566
413.236180	11946.123092
413.616405	11639.298305
413.996568	11907.974161
414.376670	11868.080990
414.756711	11746.538770
415.136691	12006.291784
415.516609	12167.427226
415.896466	12213.425234
416.276262	12484.132675
416.655997	12905.237900
417.035670	12919.083429
417.415283	13531.722253
417.794834	13577.238831
418.174324	13318.743585
418.553753	13179.169158
418.933121	13623.085604
419.312428	13405.227100
419.691674	13271.760031
420.070859	13660.344773
420.449983	13293.442034
420.829045	13748.234769
421.208047	13457.634935
421.586988	13821.389473
421.965867	13997.960928
422.344686	13920.090224
422.723444	14349.926728
423.102141	13092.582300
423.480777	14067.707812
423.859352	13543.460579
424.237866	14419.640844
424.616319	14068.605137
424.994712	14525.179921
425.373044	14247.593825
425.751314	14687.787379
426.129524	13848.775542
426.507673	14606.413074
426.885762	14246.159617
427.263789	14257.696298
427.641756	14254.595988
428.019662	14160.580989
428.397508	14049.978074
428.775292	14125.023211
429.153016	13939.763327
429.530679	13838.133666
429.908282	13702.609806
430.285824	13334.222448
430.663305	13660.841326
431.040726	13220.131054
431.418086	12926.166250
431.795385	13185.150487
432.172624	13281.290332
432.549802	12799.035912
432.926920	12733.258936
433.303977	12462.957308
433.680974	12438.479986
434.057910	12423.139754
434.434786	12248.998136
434.811601	11996.050680
435.188355	12395.615054
435.565050	11999.970177
435.941683	11775.580858
436.318257	12034.781865
436.694770	11730.540669
437.071222	11824.464927
437.447614	11141.065947
437.823946	10949.421442
438.200218	10817.237347
438.576429	10506.513227
438.952580	10436.574779
439.328670	10222.018230
439.704700	10199.766577
440.080670	9822.342950
440.456580	9857.855358
440.832429	9729.782324
441.208218	9140.184094
441.583947	9119.560734
441.959616	8964.893092
442.335224	8861.085652
442.710773	8715.895381
443.086261	8699.995581
443.461689	8315.282446
443.837057	8166.376844
444.212365	8172.194335
444.587612	7997.591451
444.962800	7686.736261
445.337927	7627.250646
445.712995	7129.461909
446.088002	7421.347238
446.462949	7299.958773
446.837837	7172.783065
447.212664	6990.850343
447.587431	7424.389574
447.962139	7877.702731
448.336786	8192.220319
448.711374	7695.356634
449.085901	6800.851775
449.460369	6581.659885
449.834776	6397.055352
450.209124	6638.019985
450.583412	6423.619712
450.957640	6340.980077
451.331808	5986.259287
451.705917	5631.173013
452.079965	5485.191280
452.453954	5399.824381
452.827883	5246.991719
453.201752	5096.228452
453.575562	4994.099716
453.949311	4987.261391
454.323001	4874.294174
454.696632	4735.745623
455.070202	4765.627062
455.443713	4673.348741
455.817164	4614.097539
456.190556	4541.076426
456.563888	4403.314294
456.937160	4325.400741
457.310373	4117.347280
457.683526	4047.902866
458.056619	3961.815081
458.429653	3870.983571
458.802628	3825.545131
459.175542	3758.404524
459.548398	3751.757762
459.921194	3754.694234
460.293930	3733.249166
460.666607	3755.168103
461.039224	3766.593878
461.411782	3702.412428
461.784280	3583.249633
462.156719	3491.104903
462.529099	3410.978283
462.901419	3309.109167
463.273680	3227.497927
463.645882	3182.329188
464.018024	3140.885863
464.390106	3121.293418
464.762130	3144.823004
465.134094	3213.962429
465.505999	3297.312867
465.877845	3348.944364
466.249631	3322.672391
466.621358	3240.587283
466.993026	3161.920077
467.364634	3088.488110
467.736184	3027.956455
468.107674	2981.315699
468.479105	2950.032819
468.850477	2915.669794
469.221790	2879.318034
469.593043	2838.058710
469.964238	2812.081644
470.335373	2796.650672
470.706449	2806.178453
471.077467	2818.032726
471.448425	2851.417768
471.819324	2872.446941
472.190164	2844.188753
472.560945	2797.474901
472.931667	2761.649941
473.302330	2739.574728
473.672934	2727.785990
474.043479	2721.204764
474.413965	2708.443083
474.784393	2695.643593
475.154761	2699.757175
475.525070	2694.000177
475.895321	2683.532221
476.265513	2682.549196
476.635645	2687.368539
477.005719	2682.574402
477.375734	2682.634896
477.745691	2683.718744
478.115588	2689.321986
478.485427	2698.915302
478.855207	2715.518342
479.224928	2733.094325
479.594591	2741.157651
479.964194	2730.150291
480.333739	2725.588047
480.703226	2721.766852
481.072653	2721.701317
481.442022	2721.275340
481.811333	2721.396328
482.180584	2709.907538
482.549777	2702.761703
482.918912	2697.879345
483.287988	2691.101514
483.657005	2683.038188
484.025964	2678.352436
484.394864	2675.277332
484.763706	2673.023936
485.132489	2665.111845
485.501213	2662.273675
485.869879	2659.798469
486.238487	2659.513644
486.607036	2655.768066
486.975527	2654.021307
487.343959	2654.006183
487.712333	2649.915287
488.080648	2649.577529
488.448905	2650.245482
488.817104	2646.396561
489.185244	2654.006183
489.553326	2662.729900
489.921350	2674.611899
490.289315	2691.514888
490.657222	2695.230219
491.025070	2695.383974
491.392861	2690.103365
491.760593	2683.081038
492.128267	2672.701302
492.495883	2660.141267
492.863440	2650.994094
493.230939	2647.193064
493.598380	2639.792650
493.965763	2635.442134
494.333088	2632.331742
494.700354	2625.576596
495.067563	2626.688170
495.434713	2625.208592
495.801805	2628.019035
496.168839	2623.560134
496.535815	2623.376132
496.902733	2625.080042
497.269593	2623.081225
497.636395	2622.748509
498.003139	2626.899899
498.369825	2623.257665
498.736453	2622.937552
499.103023	2621.745319
499.469535	2624.258334
499.835989	2622.821605
500.202385	2625.410238
500.568723	2620.908487
500.935003	2623.844960
501.301226	2624.006277
501.667390	2629.745630
502.033497	2631.542802
502.399546	2630.428707
502.765537	2626.305043
503.131470	2633.062709
503.497345	2632.772843
503.863163	2629.675054
504.228923	2630.169087
504.594625	2635.563122
504.960269	2635.792494
505.325856	2638.323153
505.691385	2639.938843
506.056856	2642.315747
506.422270	2645.587456
506.787625	2643.266005
507.152924	2644.344812
507.518164	2650.056439
507.883347	2647.946716
508.248472	2650.048877
508.613540	2656.100782
508.978550	2660.191679
509.343503	2660.920126
509.708398	2661.870383
510.073236	2670.828513
510.438016	2671.907320
510.802738	2669.086795
511.167403	2673.512928
511.532010	2677.049297
511.896561	2682.521470
512.261053	2690.846935
512.625488	2690.093283
512.989866	2684.890812
513.354186	2690.274764
513.718449	2687.948272
514.082655	2698.575024
514.446803	2695.762060
514.810894	2702.431507
515.174927	2705.378061
515.538904	2703.780016
515.902822	2709.446272
516.266684	2709.345449
516.630488	2712.523897
516.994235	2713.295193
517.357925	2718.520349
517.721558	2723.193499
518.085133	2724.859600
518.448651	2725.623335
518.812112	2723.042264
519.175516	2728.854715
519.538863	2729.391598
519.902152	2731.029973
520.265385	2733.064078
520.628560	2738.296796
520.991678	2735.340159
521.354739	2737.873339
521.717743	2740.479616
522.080690	2742.354925
522.443580	2744.542786
522.806413	2744.988928
523.169189	2744.280646
523.531908	2745.732498
523.894569	2748.535379
524.257174	2752.878333
524.619722	2749.891450
524.982213	2753.435381
525.344647	2752.822881
525.707025	2751.766759
526.069345	2753.130391
526.431608	2753.926893
526.793815	2756.361771
527.155964	2752.452356
527.518057	2752.260792
527.880093	2755.527460
528.242072	2755.600557
528.603995	2755.224991
528.965860	2752.822881
529.327669	2756.649117
529.689421	2755.141812
530.051117	2756.460073
530.412755	2753.276585
530.774337	2758.239601
531.135862	2755.025865
531.497331	2757.490989
531.858743	2750.642582
532.220098	2756.429826
532.581396	2750.705596
532.942638	2751.673498
533.303824	2755.494692
533.664953	2756.417223
534.026025	2750.728281
534.387040	2756.674322
534.747999	2756.787748
535.108902	2756.767584
535.469748	2752.044022
535.830537	2753.253899
536.191270	2754.851945
536.551947	2753.251379
536.912567	2753.974784
537.273131	2755.066194
537.633638	2749.967067
537.994089	2750.783734
538.354483	2750.811460
538.714821	2754.705752
539.075103	2756.938983
539.435328	2751.103847
539.795497	2749.566295
540.155609	2750.304824
540.515665	2750.902201
540.875665	2746.428177
541.235609	2747.844741
541.595496	2747.040677
541.955328	2750.481265
542.315102	2742.367528
542.674821	2741.079513
543.034483	2740.300655
543.394090	2740.237640
543.753640	2739.322671
544.113134	2742.725450
544.472571	2731.072822
544.831953	2739.398288
545.191278	2733.986609
545.550548	2727.589385
545.909761	2729.164746
546.268918	2730.782956
546.628019	2730.974520
546.987064	2722.132336
547.346053	2717.655792
547.704986	2718.817777
548.063863	2713.738815
548.422684	2714.837787
548.781449	2708.276725
549.140158	2710.547765
549.498811	2707.124821
549.857408	2699.295909
550.215949	2700.462936
550.574434	2693.964889
550.932864	2692.613860
551.291237	2692.417255
551.649555	2691.162007
552.007817	2685.916687
552.366022	2682.922242
552.724173	2680.109278
553.082267	2678.992662
553.440305	2676.812363
553.798288	2670.919254
554.156215	2670.790705
554.514086	2668.804490
554.871902	2663.342400
555.229661	2658.533139
555.587365	2654.104486
555.945014	2651.435195
556.302606	2649.534680
556.660143	2647.457724
557.017625	2643.510501
557.375050	2640.571508
557.732421	2638.512197
558.089735	2636.747793
558.446994	2630.133799
558.804197	2631.373923
559.161345	2627.666154
559.518437	2621.238683
559.875474	2620.429578
560.232455	2618.539145
560.589381	2614.788527
560.946251	2613.059411
561.303065	2611.297528
561.659825	2611.388268
562.016528	2604.890221
562.373177	2602.775457
562.729770	2603.060282
563.086307	2598.480394
563.442789	2596.466453
563.799216	2594.323963
564.155587	2591.531163
564.511904	2589.860021
564.868164	2586.227870
565.224370	2584.322313
565.580520	2582.636047
565.936615	2583.760225
566.292654	2579.933989
566.648638	2577.713361
567.004567	2577.574729
567.360441	2575.643967
567.716260	2574.164388
568.072023	2571.797567
568.427732	2569.246743
568.783385	2566.441341
569.138982	2562.163922
569.494525	2565.687688
569.850013	2560.838098
570.205445	2566.146433
570.560823	2560.306257
570.916145	2561.190979
571.271412	2561.916905
571.626625	2559.681153
571.981782	2556.280895
572.336884	2560.086966
572.691931	2555.779300
573.046923	2554.695452
573.401860	2552.144628
573.756743	2554.249310
574.111570	2551.859803
574.466342	2549.440049
574.821059	2549.830739
575.175722	2549.951727
575.530330	2547.708413
575.884882	2546.150697
576.239380	2545.399565
576.593823	2546.453166
576.948211	2542.682383
577.302544	2541.744728
577.656823	2543.632640
578.011047	2542.934440
578.365216	2541.354039
578.719330	2539.254398
579.073389	2541.018802
579.427394	2540.640715
579.781344	2540.575180
580.135239	2537.273225
580.489080	2536.375899
580.842866	2538.611651
581.196597	2536.741383
581.550273	2537.532844
581.903895	2536.847247
582.257463	2537.578214
582.610975	2531.952287
582.964434	2534.891279
583.317837	2531.377595
583.671186	2534.228368
584.024481	2533.658717
584.377721	2532.247194
584.730906	2533.537730
585.084037	2533.199972
585.437113	2530.676875
585.790135	2529.504807
586.143103	2529.356093
586.496016	2529.093953
586.848874	2523.561286
587.201679	2526.432223
587.554428	2523.243693
587.907124	2525.492048
588.259765	2522.623632
588.612352	2528.993129
588.964884	2525.882737
589.317362	2526.497758
589.669786	2523.737727
590.022155	2527.876514
590.374470	2524.388035
590.726731	2525.245032
591.078937	2523.394928
591.431090	2520.508867
591.783188	2520.907119
592.135232	2517.388393
592.487222	2520.980215
592.839157	2519.437622
593.191038	2520.256810
593.542866	2519.553569
593.894639	2516.370080
594.246358	2519.946779
594.598022	2516.281860
594.949633	2516.856552
595.301190	2515.180368
595.652692	2514.653567
596.004141	2516.496109
596.355535	2513.294976
596.706876	2512.458145
597.058162	2511.480161
597.409395	2513.204236
597.760573	2513.874709
598.111698	2511.641478
598.462768	2514.159534
598.813785	2510.096364
599.164748	2510.925634
599.515657	2509.841786
599.866511	2511.333968
600.217312	2507.416991
600.568060	2509.070489
600.918753	2512.934534
601.269392	2509.889677
601.619978	2508.984790
601.970510	2508.127794
602.320988	2510.827332
602.671412	2509.584687
603.021783	2507.129645
603.372100	2507.313647
603.722363	2508.052176
604.072572	2506.567557
604.422728	2509.352794
604.772830	2506.522186
605.122878	2502.151506
605.472872	2504.818276
605.822813	2501.289468
606.172701	2507.094357
606.522534	2505.652587
606.872314	2509.582167
607.222041	2506.514624
607.571714	2506.796929
607.921333	2505.544202
608.270899	2509.133504
608.620411	2506.479336
608.969870	2504.447751
609.319276	2505.040087
609.668627	2505.385406
610.017926	2505.881960
610.367171	2506.053359
610.716362	2505.710560
611.065500	2507.313647
611.414585	2508.604183
611.763616	2503.328615
612.112594	2505.566888
612.461518	2506.176867
612.810389	2507.520335
613.159207	2506.796929
613.507971	2506.582680
613.856682	2504.079747
614.205340	2507.946312
614.553945	2504.314161
614.902496	2506.522186
615.250994	2505.942453
615.599439	2502.393481
615.947830	2509.322547
616.296169	2506.189470
616.644454	2508.052176
616.992686	2507.293483
617.340864	2508.674759
617.688990	2505.279542
618.037063	2508.427742
618.385082	2506.670900
618.733048	2507.384223
619.080961	2507.076713
619.428821	2508.026971
619.776628	2505.687875
620.124382	2505.697958
620.472083	2506.323061
620.819731	2508.301713
621.167326	2505.965139
621.514868	2507.185098
621.862357	2503.169819
622.209793	2503.084119
622.557176	2503.066475
622.904506	2499.890548
623.251783	2495.885352
623.599007	2494.935094
623.946179	2494.670433
624.293297	2493.251349
624.640363	2494.925012
624.987376	2495.305619
625.334336	2496.828047
625.681243	2494.357882
626.028097	2494.925012
626.374899	2494.309991
626.721647	2492.643890
627.068343	2493.405104
627.414987	2492.157418
627.761577	2492.938797
628.108115	2491.832264
628.454600	2490.251862
628.801032	2489.160452
629.147412	2492.911071
629.493739	2489.145329
629.840014	2492.147336
630.186236	2488.958806
630.532405	2488.915956
630.878521	2488.449650
631.224585	2490.244300
631.570597	2487.504433
631.916556	2488.784886
632.262462	2490.133395
632.608316	2488.626090
632.954117	2485.145173
633.299866	2484.227683
633.645562	2486.481079
633.991206	2486.723054
634.336797	2482.924545
634.682336	2485.729947
635.027823	2484.754484
635.373257	2484.424288
635.718639	2480.978660
636.063968	2483.262302
636.409245	2478.485809
636.754470	2483.831953
637.099642	2478.858854
637.444762	2482.619555
637.789829	2478.120325
638.134845	2479.569657
638.479808	2478.440439
638.824719	2476.088740
639.169577	2473.910962
639.514383	2479.488999
639.859137	2477.046560
640.203839	2476.615541
640.548489	2473.195118
640.893086	2473.449696
641.237632	2468.403501
641.582125	2475.922382
641.926566	2469.104222
642.270955	2474.904069
642.615292	2472.839717
642.959576	2475.128401
643.303809	2474.402474
643.647990	2473.336270
643.992118	2474.329378
644.336195	2476.305510
644.680219	2471.050107
645.024192	2474.732670
645.368112	2473.432052
645.711981	2472.887608
646.055797	2475.337608
646.399562	2474.646970
646.743274	2477.795171
647.086935	2476.754173
647.430544	2478.246354
647.774101	2477.452372
648.117606	2478.712661
648.461059	2479.741056
648.804460	2481.114771
649.147810	2476.713843
649.491108	2474.712505
649.834354	2474.155458
650.177548	2475.914821
650.520690	2472.615385
650.863781	2471.644963
651.206820	2472.517083
651.549807	2470.258646
651.892742	2469.366362
652.235626	2468.312761
652.578458	2470.044397
652.921238	2469.021043
653.263967	2467.163378
653.606644	2467.785960
653.949269	2466.818058
654.291843	2468.872329
654.634365	2466.031638
654.976836	2468.884932
655.319255	2466.969293
655.661622	2464.481484
656.003938	2468.670683
656.346203	2463.145578
656.688416	2465.424179
657.030577	2463.306895
657.372687	2464.950311
657.714746	2464.683130
658.056753	2464.010136
658.398708	2460.173818
658.740612	2461.509723
659.082465	2461.204734
659.424266	2461.066102
659.766016	2459.775567
660.107715	2467.556587
660.449362	2463.821092
660.790958	2465.764457
661.132503	2464.665486
661.473996	2463.758078
661.815438	2463.742955
662.156829	2466.026597
662.498168	2464.342852
662.839456	2463.569035
663.180693	2464.410907
663.521879	2465.051134
663.863013	2463.574076
664.204097	2465.174642
664.545129	2466.833182
664.886110	2463.022070
665.227040	2466.077009
665.567918	2464.385702
665.908746	2466.392081
666.249522	2465.136834
666.590248	2460.307408
666.930922	2465.935857
667.271545	2465.391412
667.612118	2466.243367
667.952639	2462.964096
668.293109	2463.415280
668.633528	2464.204220
668.973896	2464.219344
669.314213	2462.432255
669.654480	2462.659107
669.994695	2462.719600
670.334859	2464.405866
670.674973	2462.268417
671.015035	2464.980558
671.355047	2463.692543
671.695008	2462.560804
672.034918	2459.848663
672.374777	2464.436113
672.714585	2462.785135
673.054342	2461.970989
673.394049	2463.891669
673.733705	2464.365537
674.073310	2466.384519
674.412864	2461.567697
674.752368	2461.245063
675.091820	2462.444858
675.431223	2458.880762
675.770574	2459.558797
676.109875	2456.748354
676.449125	2457.007973
676.788324	2459.291616
677.127473	2456.642489
677.466571	2452.256686
677.805619	2458.699280
678.144616	2457.060905
678.483562	2458.749692
678.822458	2458.825309
679.161303	2457.320525
679.500098	2457.320525
679.838842	2456.829012
680.177535	2457.433951
680.516179	2458.479990
680.854771	2455.167952
681.193314	2458.396811
681.531805	2461.229939
681.870247	2461.343365
682.208638	2465.502317
682.546978	2463.906792
682.885268	2464.156329
683.223508	2462.394446
683.561697	2460.929991
683.899836	2460.539301
684.237925	2460.975361
684.575963	2460.078036
684.913951	2460.060392
685.251889	2460.372943
685.589776	2459.553756
685.927614	2459.518468
686.265401	2458.066615
686.603137	2459.178190
686.940824	2463.795887
687.278460	2459.362192
687.616046	2460.715742
687.953582	2463.208592
688.291068	2464.098356
688.628504	2464.242029
688.965889	2464.410907
689.303224	2463.017028
689.640510	2464.350414
689.977745	2462.049127
690.314930	2459.725155
690.652065	2459.818416
690.989150	2458.774898
691.326185	2455.573765
691.663170	2455.150308
692.000105	2454.003445
692.336990	2452.133177
692.673825	2450.522529
693.010610	2451.992025
693.347345	2449.564709
693.684030	2442.688576
694.020665	2445.335181
694.357251	2443.676642
694.693786	2449.814247
695.030272	2446.144287
695.366707	2445.864502
695.703093	2446.192178
696.039429	2446.686211
696.375716	2442.991045
696.711952	2444.523556
697.048139	2446.066149
697.384276	2445.017589
697.720363	2444.183278
698.056400	2444.899122
698.392388	2442.370983
698.728326	2444.175716
699.064214	2443.260747
699.400053	2442.486929
699.735842	2441.594645
700.071581	2442.252516
700.407270	2440.886363
700.742910	2443.767383
701.078501	2443.653957
701.414042	2437.728080
701.749533	2434.892431
702.084974	2438.746393
702.420366	2440.273863
702.755709	2436.702205
703.091002	2440.656991
703.426246	2437.476022
703.761440	2436.813111
704.096584	2437.982658
704.431679	2439.000972
704.766725	2438.083482
705.101721	2437.591969
705.436668	2437.334870
705.771565	2436.051897
706.106413	2437.733121
706.441212	2435.744386
706.775961	2440.417536
707.110661	2439.787392
707.445311	2438.275045
707.779913	2439.154727
708.114465	2434.947884
708.448967	2440.019285
708.783421	2437.753286
709.117825	2442.013061
709.452180	2445.380552
709.786485	2442.156734
710.120742	2442.917948
710.454949	2443.532969
710.789107	2441.163627
711.123216	2443.190170
711.457275	2444.604214
711.791286	2442.965839
712.125247	2445.665377
712.459159	2447.381890
712.793023	2445.698144
713.126837	2443.931220
713.460602	2448.221242
713.794318	2445.602362
714.127985	2445.594801
714.461602	2445.133535
714.795171	2445.771241
715.128691	2439.759665
715.462162	2440.936775
715.795584	2440.735128
716.128957	2443.079265
716.462281	2435.812442
716.795556	2438.212031
717.128782	2438.045673
717.461960	2436.331681
717.795088	2437.692792
718.128167	2433.596855
718.461198	2436.530806
718.794180	2436.341763
719.127113	2434.436207
719.459997	2434.095929
719.792833	2431.696340
720.125619	2433.818665
720.458357	2431.787080
720.791046	2432.500404
721.123686	2432.921340
721.456278	2431.479570
721.788821	2430.453695
722.121315	2432.722214
722.453761	2431.487132
722.786158	2432.056782
723.118506	2429.316915
723.450805	2432.349169
723.783056	2427.494538
724.115259	2430.357913
724.447412	2430.892276
724.779518	2431.620722
725.111574	2432.276072
725.443582	2432.137441
725.775542	2429.248859
726.107453	2430.819179
726.439315	2434.516865
726.771129	2439.036260
727.102895	2433.433017
727.434612	2434.375713
727.766281	2434.438727
728.097901	2434.476536
728.429473	2431.363623
728.760996	2433.617019
729.092471	2428.389343
729.423897	2436.644232
729.755276	2434.799170
730.086606	2436.918975
730.417887	2437.254212
730.749120	2437.221444
731.080305	2436.147678
731.411442	2439.381579
731.742530	2440.437700
732.073570	2438.418718
732.404562	2440.712443
732.735506	2439.973914
733.066401	2439.421908
733.397249	2439.671445
733.728048	2435.169695
734.058798	2434.940322
734.389501	2435.111721
734.720156	2432.946546
735.050762	2432.941505
735.381320	2431.978644
735.711831	2431.174580
736.042293	2429.891607
736.372707	2428.210382
736.703073	2429.087543
737.033391	2430.715835
737.363661	2430.219282
737.693883	2431.933274
738.024056	2433.362441
738.354182	2431.908068
738.684260	2435.603234
739.014290	2433.944694
739.344272	2433.387647
739.674207	2434.226999
740.004093	2435.305806
740.333931	2436.167843
740.663722	2430.050403
740.993464	2433.874118
741.323159	2434.937802
741.652806	2430.846905
741.982405	2431.328335
742.311956	2432.984354
742.641460	2435.746907
742.970915	2432.213058
743.300323	2431.595517
743.629683	2429.773139
743.958996	2431.146854
744.288260	2432.510486
744.617477	2426.445978
744.946647	2423.622932
745.275768	2426.045206
745.604842	2422.213929
745.933869	2424.628642
746.262847	2422.952458
746.591778	2426.531677
746.920662	2425.384815
747.249498	2425.878848
747.578286	2427.368509
747.907027	2425.977151
748.235720	2428.545618
748.564365	2425.899013
748.892963	2426.947573
749.221514	2425.435227
749.550017	2425.473035
749.878473	2426.085535
750.206881	2426.985381
750.535242	2426.551842
750.863555	2427.789445
751.191821	2426.123344
751.520039	2425.664599
751.848210	2426.902202
752.176334	2425.785587
752.504411	2426.365319
752.832440	2426.249373
753.160421	2425.992274
753.488356	2428.901020
753.816243	2427.237439
754.144082	2424.926070
754.471875	2426.849270
754.799620	2429.095104
755.127318	2428.170053
755.454969	2423.454053
755.782572	2427.192069
756.110129	2426.042686
756.437638	2424.653848
756.765100	2420.870462
757.092515	2424.820206
757.419882	2426.798859
757.747203	2427.607964
758.074477	2424.643765
758.401703	2426.660227
758.728882	2425.651996
759.056014	2427.602923
759.383099	2427.829775
759.710138	2429.453026
760.037129	2427.726431
760.364073	2429.311874
760.690970	2425.853642
761.017820	2422.793662
761.344623	2427.212233
761.671379	2430.330187
761.998088	2425.427665
762.324751	2433.826227
762.651366	2436.674479
762.977935	2450.593105
763.304456	2451.593774
763.630931	2456.695422
763.957359	2452.249124
764.283740	2450.809874
764.610074	2446.897939
764.936362	2442.154213
765.262602	2437.559202
765.588796	2432.878490
765.914943	2430.446133
766.241044	2429.276586
766.567097	2426.393046
766.893104	2425.853642
767.219064	2423.764084
767.544978	2424.779877
767.870845	2420.807447
768.196665	2420.588157
768.522438	2420.971285
768.848165	2417.439957
769.173846	2420.749474
769.499479	2419.935328
769.825066	2420.623445
770.150607	2418.508681
770.476101	2418.818712
770.801548	2417.376942
771.126949	2418.511202
771.452303	2418.733012
771.777611	2418.813671
772.102872	2417.296284
772.428087	2416.333423
772.753256	2416.557755
773.078378	2420.396593
773.403453	2415.670512
773.728482	2414.821077
774.053465	2415.620100
774.378401	2414.876530
774.703291	2415.297466
775.028135	2414.788310
775.352932	2413.255799
775.677683	2418.173444
776.002388	2414.808474
776.327046	2414.838721
776.651658	2416.141859
776.976224	2413.485171
777.300743	2412.270253
777.625216	2412.648340
777.949643	2412.267733
778.274024	2415.410892
778.598359	2410.972156
778.922647	2408.471744
779.246889	2410.291600
779.571086	2406.888822
779.895236	2415.486509
780.219339	2411.602300
780.543397	2414.261509
780.867409	2410.057187
781.191374	2413.802764
781.515294	2414.906777
781.839167	2412.154307
782.162995	2414.127918
782.486776	2417.145049
782.810511	2412.577764
783.134201	2416.648495
783.457844	2411.592218
783.781441	2412.797054
784.104993	2412.991138
784.428498	2413.777558
784.751958	2413.205387
785.075372	2414.720254
785.398739	2413.729667
785.722061	2414.962229
786.045337	2412.953330
786.368568	2412.577764
786.691752	2413.427198
787.014891	2413.601118
787.337983	2417.041705
787.661030	2419.116140
787.984031	2420.142015
788.306987	2418.536407
788.629897	2419.088414
788.952760	2420.686460
789.275579	2419.433733
789.598351	2418.407858
789.921078	2417.369380
790.243759	2415.801582
790.566395	2412.799574
790.888984	2416.156983
791.211529	2414.982394
791.534027	2412.537434
791.856480	2411.728329
792.178888	2413.820408
792.501249	2412.638257
792.823566	2413.475089
793.145836	2412.708834
793.468062	2412.915521
793.790241	2410.969636
794.112375	2413.853176
794.434464	2415.441139
794.756507	2413.853176
795.078505	2414.952147
795.400457	2411.604821
795.722364	2412.144224
796.044226	2414.132960
796.366042	2411.052815
796.687812	2411.904770
797.009538	2417.313928
797.331218	2415.415933
797.652852	2414.019534
797.974442	2414.664801
798.295986	2414.947106
798.617484	2412.459297
798.938938	2413.575912
799.260346	2414.478279
799.581709	2413.538103
799.903026	2412.759245
800.224299	2412.754204
800.545526	2412.852507
800.866708	2410.896539
801.187845	2413.538103
801.508936	2411.123391
801.829983	2413.543145
802.150984	2411.078020
802.471940	2412.429050
802.792851	2412.131622
803.113717	2415.521798
803.434538	2410.974677
803.755314	2411.130952
804.076045	2411.526683
804.396731	2412.507187
804.717372	2411.962743
805.037967	2414.105233
805.358518	2411.919893
805.679024	2409.124573
805.999485	2411.894687
806.319901	2412.116498
806.640272	2411.869482
806.960598	2412.287897
807.280879	2411.698082
807.601115	2412.207239
807.921306	2412.502146
808.241453	2415.199164
808.561554	2411.032650
808.881611	2412.595408
809.201623	2412.938206
809.521590	2411.163720
809.841513	2410.019378
810.161390	2411.428381
810.481223	2411.882084
810.801011	2412.789492
811.120755	2411.201529
811.440453	2412.519790
811.760107	2412.902918
812.079716	2409.457289
812.399281	2407.834038
812.718801	2408.275139
813.038276	2406.972001
813.357707	2410.296642
813.677093	2409.356466
813.996434	2410.221024
814.315731	2412.192115
814.634983	2410.710016
814.954191	2411.624986
815.273354	2413.797723
815.592473	2409.696744
815.911547	2412.194636
816.230577	2410.984759
816.549562	2413.089441
816.868502	2413.538103
817.187399	2412.819739
817.506250	2414.548855
817.825058	2415.723444
818.143821	2413.618762
818.462539	2415.799061
818.781213	2417.392066
819.099843	2417.046747
819.418429	2420.401634
819.736970	2425.520926
820.055466	2429.382450
820.373919	2430.846905
820.692327	2438.010385
821.010691	2448.707713
821.329011	2479.320120
821.647286	2526.543129
821.965517	2571.716908
822.283704	2598.112390
822.601847	2604.935592
822.919945	2589.207192
823.237999	2561.203582
823.556010	2536.738862
823.873976	2516.879237
824.191897	2496.868377
824.509775	2483.995790
824.827609	2472.910293
825.145398	2465.943418
825.463144	2459.417645
825.780845	2461.187090
826.098502	2465.734210
826.416116	2475.035139
826.733685	2484.832622
827.051210	2490.571975
827.368692	2484.976295
827.686129	2472.567494
828.003522	2460.735906
828.320872	2447.664194
828.638177	2439.656322
828.955439	2433.944694
829.272656	2429.727769
829.589830	2423.118816
829.906960	2424.162335
830.224046	2420.673857
830.541088	2418.498599
830.858086	2416.630851
831.175041	2417.923907
831.491952	2414.080028
831.808819	2419.103537
832.125642	2417.664288
832.442421	2422.357602
832.759157	2427.474373
833.075849	2435.187339
833.392497	2443.336364
833.709101	2449.262240
834.025662	2446.487085
834.342179	2442.650767
834.658653	2437.090374
834.975083	2434.310178
835.291469	2436.719849
835.607811	2424.369023
835.924110	2420.774680
836.240366	2421.432550
836.556578	2417.044226
836.872746	2414.926941
837.188871	2409.051477
837.504952	2413.142373
837.820990	2412.297980
838.136984	2410.904101
838.452935	2411.135994
838.768842	2410.198339
839.084706	2410.132804
839.400526	2415.448701
839.716303	2418.037333
840.032037	2423.348189
840.347727	2423.416244
840.663373	2421.538415
840.978977	2414.548855
841.294537	2415.725964
841.610054	2410.636919
841.925527	2413.858217
842.240957	2409.053997
842.556344	2407.602145
842.871687	2408.254974
843.186987	2409.427042
843.502244	2406.495612
843.817458	2406.551064
844.132629	2403.491084
844.447756	2406.178019
844.762840	2399.127965
845.077881	2401.809859
845.392879	2401.857750
845.707833	2402.692061
846.022745	2397.870197
846.337613	2402.883625
846.652438	2402.644170
846.967221	2403.528893
847.281960	2402.172822
847.596656	2402.535785
847.911309	2403.725498
848.225919	2403.372617
848.540485	2402.964283
848.855009	2401.499828
849.169490	2401.658624
849.483928	2404.600138
849.798323	2404.320354
850.112675	2401.514952
850.426984	2403.196176
850.741251	2400.829355
851.055474	2402.006464
851.369654	2405.925961
851.683792	2401.472102
851.997887	2401.189797
852.311938	2404.937895
852.625947	2403.697771
852.939914	2403.347411
853.253837	2405.247926
853.567718	2404.159037
853.881555	2402.903789
854.195350	2402.639129
854.509103	2403.120559
854.822812	2402.412277
855.136479	2403.193656
855.450103	2402.397153
855.763685	2404.053173
856.077224	2402.810528
856.390720	2404.007802
856.704173	2402.979407
857.017584	2404.370765
857.330953	2400.746176
857.644278	2399.138047
857.957561	2406.800601
858.270802	2403.296999
858.584000	2403.826321
858.897155	2404.383368
859.210268	2402.024108
859.523339	2401.930847
859.836367	2403.717936
860.149352	2401.068809
860.462295	2403.785991
860.775195	2398.263407
861.088054	2399.511093
861.400869	2402.029149
861.713642	2400.463871
862.026373	2402.850857
862.339062	2402.001423
862.651708	2402.808008
862.964312	2400.748696
863.276873	2401.038563
863.589392	2404.277504
863.901869	2404.920251
864.214303	2403.612072
864.526696	2401.439334
864.839045	2403.985117
865.151353	2404.867319
865.463619	2403.319685
865.775842	2404.511918
866.088023	2400.781464
866.400162	2404.690878
866.712258	2402.346742
867.024313	2401.023439
867.336325	2403.843965
867.648296	2406.193142
867.960224	2403.813718
868.272110	2404.022926
868.583954	2403.770868
868.895755	2403.780950
869.207515	2402.031670
869.519233	2405.643657
869.830909	2402.210631
870.142542	2403.849006
870.454134	2407.299676
870.765684	2403.665004
871.077191	2404.209448
871.388657	2405.341187
871.700081	2403.221382
872.011463	2404.907648
872.322803	2405.900755
872.634101	2404.239695
872.945357	2405.147103
873.256571	2404.902607
873.567744	2406.341856
873.878874	2406.097360
874.189963	2405.900755
874.501010	2409.142217
874.812015	2405.429408
875.122979	2405.802453
875.433900	2404.910169
875.744780	2406.654408
876.055618	2409.333781
876.366415	2409.210273
876.677169	2406.341856
876.987882	2405.797412
877.298554	2404.038049
877.609183	2406.866136
877.919771	2403.332288
878.230317	2405.555436
878.540822	2410.926786
878.851285	2412.441652
879.161707	2415.988104
879.472087	2415.801582
879.782425	2421.475400
880.092722	2433.405291
880.402977	2448.473300
880.713191	2464.647842
881.023363	2485.253558
881.333494	2494.899806
881.643583	2501.181084
881.953631	2501.891886
882.263637	2491.612974
882.573602	2485.298928
882.883526	2476.136631
883.193408	2474.173102
883.503248	2464.085753
883.813048	2456.440843
884.122806	2448.180913
884.432522	2442.565067
884.742197	2439.973914
885.051831	2434.373192
885.361424	2424.792479
885.670975	2423.388518
885.980485	2421.551018
886.289954	2420.172262
886.599382	2417.344175
886.908768	2412.887795
887.218113	2413.538103
887.527417	2412.928124
887.836680	2409.873185
888.145901	2408.827145
888.455082	2407.498801
888.764221	2409.568195
889.073319	2407.932340
889.382376	2408.136507
889.691392	2408.955695
890.000366	2410.757907
890.309300	2406.631723
890.618193	2410.563823
890.927044	2407.322361
891.235855	2407.176167
891.544625	2408.141548
891.853353	2407.171126
892.162041	2409.099368
892.470687	2410.069790
892.779293	2408.812022
893.087858	2411.967784
893.396381	2409.802608
893.704864	2414.518608
894.013306	2418.211253
894.321707	2428.878335
894.630068	2432.951587
894.938387	2434.723552
895.246665	2433.768254
895.554903	2427.731472
895.863100	2425.392377
896.171256	2423.930442
896.479371	2417.281160
896.787446	2422.256779
897.095480	2414.856365
897.403473	2415.247055
897.711425	2416.247724
898.019336	2415.005079
898.327207	2412.280336
898.635038	2410.336971
898.942827	2409.351425
899.250576	2409.931158
899.558284	2407.990314
899.865952	2406.687175
900.173579	2408.713719
900.481165	2409.313617
900.788711	2406.014181
901.096216	2406.475447
901.403681	2404.688358
901.711105	2406.210786
902.018489	2405.769685
902.325832	2404.980745
902.633135	2405.668862
902.940397	2408.207083
903.247619	2410.750345
903.554800	2418.836356
903.861941	2427.587799
904.169041	2437.092895
904.476101	2439.837803
904.783121	2437.798656
905.090100	2431.320774
905.397039	2428.674168
905.703938	2426.541760
906.010796	2423.388518
906.317614	2420.794844
906.624391	2416.605646
906.931129	2418.682601
907.237826	2414.241344
907.544483	2411.756056
907.851099	2411.536765
908.157675	2407.798750
908.464211	2405.981414
908.770707	2400.778943
909.077163	2402.376989
909.383578	2398.749879
909.689954	2399.284241
909.996289	2397.131668
910.302584	2402.775240
910.608839	2400.731052
910.915054	2399.863974
911.221229	2401.247770
911.527363	2401.835065
911.833458	2399.780795
912.139513	2401.668707
912.445527	2402.351783
912.751502	2403.246588
913.057436	2402.674417
913.363331	2404.408574
913.669186	2405.762124
913.975000	2405.240364
914.280775	2408.819583
914.586510	2412.033319
914.892205	2415.700758
915.197859	2420.320976
915.503475	2427.839857
915.809050	2433.382606
916.114585	2436.437545
916.420081	2437.279417
916.725536	2438.973245
917.030952	2436.467792
917.336328	2431.736669
917.641665	2431.444282
917.946961	2427.451688
918.252218	2428.777512
918.557435	2423.532191
918.862612	2423.169228
919.167750	2414.896694
919.472848	2418.385173
919.777906	2414.634554
920.082925	2413.860737
920.387904	2410.861251
920.692843	2411.284708
920.997743	2407.594583
921.302603	2406.924110
921.607423	2407.070303
921.912204	2406.609037
922.216946	2403.377658
922.521647	2402.989489
922.826310	2404.348080
923.130932	2405.595766
923.435516	2404.630385
923.740059	2401.887997
924.044564	2402.651732
924.349028	2402.288769
924.653454	2398.119734
924.957840	2399.276679
925.262186	2396.955228
925.566493	2398.623850
925.870761	2396.022614
926.174989	2400.002605
926.479178	2398.197872
926.783328	2397.948335
927.087438	2397.081257
927.391509	2397.842471
927.695541	2398.142420
927.999533	2399.664848
928.303486	2399.614437
928.607400	2399.576628
928.911275	2398.034035
929.215110	2395.064795
929.518906	2398.119734
929.822663	2401.005795
930.126381	2400.897410
930.430060	2398.923798
930.733699	2398.354148
931.037299	2398.402039
931.340861	2397.887841
931.644383	2398.013870
931.947866	2399.609395
932.251309	2397.834909
932.554714	2396.945146
932.858080	2399.531257
933.161407	2398.402039
933.464694	2396.317522
933.767943	2397.171998
934.071153	2397.257697
934.374323	2397.655948
934.677455	2399.188459
934.980548	2396.935063
935.283602	2397.419014
935.586617	2395.286606
935.889593	2398.840619
936.192530	2399.216185
936.495428	2398.457492
936.798287	2397.310629
937.101108	2397.086298
937.403890	2398.656617
937.706632	2400.683161
938.009336	2400.171484
938.312002	2400.484036
938.614628	2401.275497
938.917216	2400.418501
939.219765	2400.501680
939.522275	2401.638460
939.824747	2401.583007
940.127179	2397.570249
940.429573	2396.493962
940.731929	2399.256515
941.034246	2395.024466
941.336524	2397.829868
941.638763	2398.913716
941.940964	2401.731721
942.243126	2399.710218
942.545250	2398.197872
942.847335	2398.482698
943.149381	2398.767523
943.451389	2401.940929
943.753359	2400.499159
944.055290	2399.969838
944.357182	2398.863305
944.659036	2396.201575
944.960851	2401.507390
945.262628	2399.127965
945.564367	2397.572769
945.866067	2397.691236
946.167729	2397.880280
946.469352	2397.971020
946.770937	2397.948335
947.072484	2397.550084
947.373992	2395.568911
947.675462	2398.419683
947.976893	2400.426062
948.278286	2399.826165
948.579641	2397.116545
948.880958	2399.039745
949.182236	2398.586041
949.483476	2397.171998
949.784678	2397.476987
950.085841	2399.264076
950.386967	2399.296844
950.688054	2395.372306
950.989103	2397.686195
951.290114	2400.499159
951.591087	2398.419683
951.892021	2397.948335
952.192917	2398.525547
952.493776	2401.096536
952.794596	2400.110990
953.095378	2400.138717
953.396122	2398.283572
953.696828	2397.660989
953.997496	2396.753582
954.298126	2398.351627
954.598718	2403.014695
954.899272	2399.253994
955.199788	2398.719632
955.500266	2398.671741
955.800706	2395.526061
956.101108	2391.372150
956.401472	2394.689229
956.701798	2393.018087
957.002087	2392.700494
957.302337	2397.781977
957.602550	2391.790566
957.902724	2393.280227
958.202861	2397.529919
958.502960	2396.030176
958.803022	2397.202244
959.103045	2399.085115
959.403031	2396.186452
959.702979	2398.873387
960.002889	2396.267110
960.302762	2393.560011
960.602596	2394.112017
960.902393	2394.096894
961.202153	2395.379867
961.501875	2394.674106
961.801559	2393.307953
962.101205	2394.333828
962.400814	2394.122099
962.700385	2395.311812
962.999918	2395.274003
963.299414	2393.416338
963.598873	2394.817779
963.898293	2396.209137
964.197677	2395.594116
964.497022	2394.653941
964.796331	2396.609909
965.095601	2394.215361
965.394835	2395.238715
965.694030	2393.774260
965.993189	2394.991698
966.292309	2394.797614
966.591393	2394.099414
966.890439	2393.015566
967.189447	2395.674775
967.488419	2394.051523
967.787353	2395.435320
968.086249	2394.439692
968.385108	2396.743499
968.683930	2394.913561
968.982714	2395.755433
969.281462	2397.091339
969.580172	2393.023128
969.878844	2394.240567
970.177480	2394.124620
970.476078	2391.853580
970.774639	2395.490773
971.073162	2395.442882
971.371649	2394.217881
971.670098	2390.280740
971.968510	2393.171842
972.266885	2389.519526
972.565223	2394.699312
972.863524	2395.367264
973.161788	2396.234343
973.460014	2396.312481
973.758204	2395.596637
974.056356	2397.106463
974.354471	2394.986657
974.652550	2395.904147
974.950591	2398.122255
975.248595	2395.140413
975.546563	2392.234187
975.844493	2393.605381
976.142386	2397.865156
976.440243	2393.703684
976.738062	2396.279713
977.035845	2395.813407
977.333590	2397.048489
977.631299	2394.480021
977.928971	2396.085629
978.226606	2392.892058
978.524204	2395.755433
978.821765	2396.141082
979.119290	2396.693088
979.416777	2396.108314
979.714228	2396.055382
980.011642	2394.860628
980.309020	2397.802142
980.606360	2394.825340
980.903664	2395.420197
981.200931	2394.618653
981.498162	2396.506565
981.795356	2397.358520
982.092513	2397.290465
982.389633	2396.776267
982.686717	2400.756258
982.983764	2398.669220
983.280775	2398.482697
983.577749	2398.596123
983.874686	2397.842471
984.171587	2397.154353
984.468451	2397.930691
984.765279	2398.618809
985.062070	2399.291803
985.358824	2398.132337
985.655543	2396.030176
985.952224	2399.080074
986.248869	2392.783673
986.545478	2392.549259
986.842050	2393.907850
987.138586	2392.002294
987.435086	2390.479866
987.731549	2389.217057
988.027975	2393.320556
988.324366	2392.241749
988.620719	2394.956410
988.917037	2393.738972
989.213318	2396.443551
989.509563	2392.332490
989.805772	2393.461708
990.101944	2392.816441
990.398080	2391.286450
990.694180	2391.157901
990.990244	2396.352810
991.286271	2392.939949
991.582262	2393.323077
991.878217	2391.528426
992.174136	2394.762326
992.470019	2392.440875
992.765865	2392.904661
993.061676	2394.056564
993.357450	2396.010012
993.653188	2393.267624
993.948890	2394.873231
994.244556	2393.849877
994.540186	2396.642676
994.835780	2396.052861
995.131337	2396.299878
995.426859	2394.028838
995.722345	2397.560166
996.017795	2393.290309
996.313208	2396.025135
996.608586	2397.419014
996.903928	2393.411297
997.199234	2394.875752
997.494504	2396.743499
997.789738	2394.880793
998.084936	2397.792059
998.380099	2395.752913
998.675225	2394.343910
998.970316	2396.660320
999.265371	2397.950856
999.560390	2395.919271
999.855373	2392.970196
1000.150320	2392.995402
1000.445232	2394.064126
1000.740108	2393.824671
1001.034948	2396.103273
1001.329752	2392.773591
1001.624521	2392.970196
1001.919254	2390.598333
1002.213951	2391.251162
1002.508613	2390.343755
1002.803239	2395.168139
1003.097829	2389.012890
1003.392384	2396.619991
1003.686903	2393.771739
1003.981386	2392.773591
1004.275834	2393.330638
1004.570246	2394.853067
1004.864623	2392.907181
1005.158964	2393.895248
1005.453270	2393.935577
1005.747540	2394.028838
1006.041775	2392.766029
1006.335974	2391.931718
1006.630138	2389.199413
1006.924266	2392.854249
1007.218359	2393.224774
1007.512416	2392.211502
1007.806438	2394.306102
1008.100425	2393.779301
1008.394376	2390.494989
1008.688292	2392.854249
1008.982172	2393.499517
1009.276017	2388.899464
1009.569827	2393.978427
1009.863602	2394.684188
1010.157341	2393.655793
1010.451045	2393.454147
1010.744714	2392.332490
1011.038347	2393.023128
1011.331945	2389.771584
1011.625508	2391.336862
1011.919036	2392.143447
1012.212528	2389.902654
1012.505986	2392.632438
1012.799408	2392.624877
1013.092795	2391.301574
1013.386147	2392.433313
1013.679464	2392.766029
1013.972745	2394.626215
1014.265992	2392.576986
1014.559204	2394.008673
1014.852380	2389.645555
1015.145521	2396.171328
1015.438628	2391.349465
1015.731699	2390.996584
1016.024736	2393.620505
1016.317737	2392.390463
1016.610703	2392.045144
1016.903635	2390.021121
1017.196531	2388.410472
1017.489393	2391.178066
1017.782219	2387.487941
1018.075011	2393.804507
1018.367768	2394.222923
1018.660490	2391.140257
1018.953177	2391.140257
1019.245829	2391.140257
