Dividing Wavelength (nm)	Counts (n)	Blue Motor Position (mm): 0.000000	Red Motor Position (mm): 11.000000	
326.493990	1979.961064
326.888308	1979.961064
327.282561	1979.961064
327.676750	1954.198247
328.070874	1956.214709
328.464933	1961.800307
328.858929	1971.653242
329.252859	1984.828298
329.646726	1999.964362
330.040528	2012.179078
330.434265	2033.137675
330.827938	2050.776673
331.221547	2069.796946
331.615091	2091.693198
332.008571	2112.024171
332.401986	2131.823303
332.795338	2151.566982
333.188625	2175.182267
333.581847	2194.507531
333.975006	2208.521938
334.368100	2228.555484
334.761129	2243.915879
335.154095	2258.925915
335.546996	2275.201280
335.939833	2289.379525
336.332606	2301.939560
336.725315	2310.028092
337.117960	2323.203147
337.510540	2326.298416
337.903056	2336.922647
338.295508	2343.181240
338.687896	2351.728516
339.080220	2358.604650
339.472480	2364.051617
339.864676	2365.337111
340.256807	2368.830631
340.648875	2369.410363
341.040879	2373.904552
341.432818	2376.520911
341.824694	2375.570653
342.216506	2377.173740
342.608253	2375.235417
342.999937	2373.962525
343.391557	2374.217103
343.783113	2370.080837
344.174605	2370.683255
344.566033	2368.361803
344.957397	2368.971783
345.348697	2366.940198
345.739934	2364.480115
346.131106	2365.258973
346.522215	2358.408045
346.913260	2356.941069
347.304241	2358.077849
347.695159	2353.926459
348.086012	2352.938393
348.476802	2352.255317
348.867528	2351.463856
349.258191	2347.836745
349.648789	2350.460666
350.039324	2346.785665
350.429796	2351.607528
350.820203	2348.277846
351.210548	2349.389421
351.600828	2345.860613
351.991045	2346.886488
352.381198	2344.804491
352.771288	2347.032681
353.161314	2344.325582
353.551276	2344.756600
353.941175	2344.970849
354.331010	2347.498988
354.720782	2346.331961
355.110490	2348.504698
355.500135	2345.505212
355.889717	2345.863134
356.279235	2345.633761
356.668689	2349.883454
357.058080	2348.779441
357.447408	2344.905314
357.836672	2345.089317
358.225873	2349.449915
358.615010	2345.290963
359.004084	2351.269771
359.393095	2352.615759
359.782043	2352.557786
360.170927	2352.862776
360.559748	2356.084073
360.948505	2354.221367
361.337199	2355.088445
361.725830	2353.704648
362.114398	2356.268075
362.502903	2355.857221
362.891344	2360.331245
363.279722	2359.691019
363.668037	2359.149095
364.056289	2357.850998
364.444478	2362.173787
364.832603	2358.163549
365.220665	2361.132789
365.608665	2361.183200
365.996601	2362.120855
366.384474	2361.871318
366.772284	2365.490866
367.160031	2363.688654
367.547715	2363.434075
367.935336	2365.571525
368.322893	2366.153778
368.710388	2365.102697
369.097820	2368.273583
369.485189	2364.805269
369.872495	2371.895652
370.259738	2370.597555
370.646918	2376.016795
371.034035	2372.687113
371.421090	2376.059645
371.808081	2381.007538
372.195010	2381.088196
372.581875	2390.419372
372.968678	2392.307284
373.355418	2402.319016
373.742096	2409.737073
374.128710	2421.369536
374.515262	2434.635332
374.901751	2445.042794
375.288177	2461.129116
375.674540	2480.635861
376.060841	2498.305105
376.447079	2522.386697
376.833254	2547.239586
377.219367	2572.727660
377.605417	2611.262240
377.991404	2632.331742
378.377329	2672.383709
378.763191	2706.560212
379.148991	2750.766090
379.534727	2797.779891
379.920402	2842.341170
380.306013	2891.696587
380.691563	2952.399641
381.077049	3007.791839
381.462474	3061.172618
381.847835	3135.837147
382.233134	3203.149154
382.618371	3262.392794
383.003545	3344.883715
383.388657	3422.320879
383.773706	3513.381762
384.158693	3584.472113
384.543618	3679.066844
384.928480	3754.235489
385.313280	3854.511601
385.698017	3957.013382
386.082692	4068.790887
386.467305	4139.142709
386.851856	4257.811471
387.236344	4408.257145
387.620770	4463.873675
388.005133	4583.671655
388.389435	4723.634251
388.773674	4802.147701
389.157851	4928.688224
389.541965	5054.235640
389.926018	5071.221808
390.310008	5241.237242
390.693936	5354.227144
391.077802	5459.405778
391.461606	5580.784160
391.845348	5677.385270
392.229027	5778.735148
392.612645	5974.329396
392.996200	6067.920938
393.379694	6205.063008
393.763125	6391.568056
394.146494	6450.421007
394.529801	6545.063629
394.913047	6736.269553
395.296230	6695.537030
395.679351	6703.897784
396.062410	6882.203395
396.445408	6747.322283
396.828343	6832.908473
397.211217	6884.827316
397.594028	6734.351394
397.976778	6839.487178
398.359466	6910.950575
398.742092	6820.305588
399.124656	6875.279371
399.507158	6946.997346
399.889598	6886.054837
400.271977	6966.667928
400.654294	6907.567961
401.036549	6964.563246
401.418742	6897.793164
401.800874	7017.097111
402.182944	6973.097920
402.564952	7119.422451
402.946898	6899.655870
403.328783	6831.708678
403.710606	6846.254927
404.092367	6896.381641
404.474067	6988.332287
404.855705	6756.847543
405.237282	6614.707169
405.618797	6725.204221
406.000250	6739.216108
406.381642	6799.563760
406.762972	6641.216077
407.144240	6421.923364
407.525447	6409.277630
407.906593	6250.952631
408.287677	6238.894191
408.668700	6172.300549
409.049661	6033.290732
409.430560	5964.594928
409.811399	5820.201159
410.192176	5756.206231
410.572891	5654.253936
410.953545	5687.258370
411.334138	5385.290734
411.714669	5435.271254
412.095139	5115.533551
412.475547	5133.086848
412.855894	4978.406604
413.236180	4940.353454
413.616405	4746.624433
413.996568	4697.074932
414.376670	4578.595213
414.756711	4449.284576
415.136691	4399.755239
415.516609	4325.549455
415.896466	4238.793718
416.276262	4184.911345
416.655997	4150.477743
417.035670	4061.529104
417.415283	4055.290677
417.794834	3972.368737
418.174324	3847.363245
418.553753	3742.272831
418.933121	3708.930640
419.312428	3605.561780
419.691674	3520.255375
420.070859	3484.722802
420.449983	3381.280846
420.829045	3357.529449
421.208047	3271.340842
421.586988	3238.538054
421.965867	3189.918646
422.344686	3132.472177
422.723444	3104.397991
423.102141	2986.649240
423.480777	2993.732061
423.859352	2930.841147
424.237866	2928.030703
424.616319	2875.413660
424.994712	2856.668129
425.373044	2816.903508
425.751314	2796.693522
426.129524	2746.778537
426.507673	2740.872826
426.885762	2705.514172
427.263789	2684.739577
427.641756	2662.261072
428.019662	2647.946716
428.397508	2627.779580
428.775292	2612.280553
429.153016	2597.512492
429.530679	2586.943713
429.908282	2568.026784
430.285824	2552.731923
430.663305	2547.234545
431.040726	2535.110570
431.418086	2526.258303
431.795385	2522.293436
432.172624	2519.921573
432.549802	2510.671056
432.926920	2501.937257
433.303977	2499.356186
433.680974	2492.401914
434.057910	2494.466267
434.434786	2487.519557
434.811601	2484.935965
435.188355	2487.285143
435.565050	2479.700727
435.941683	2477.782568
436.318257	2478.001858
436.694770	2471.738225
437.071222	2474.639409
437.447614	2464.385702
437.823946	2462.107100
438.200218	2464.592389
438.576429	2464.383181
438.952580	2463.954683
439.328670	2459.929322
439.704700	2459.939404
440.080670	2457.010494
440.456580	2460.067953
440.832429	2462.558283
441.208218	2450.217539
441.583947	2457.116358
441.959616	2453.348095
442.335224	2452.748198
442.710773	2450.731737
443.086261	2451.079576
443.461689	2449.726026
443.837057	2452.365070
444.212365	2451.760132
444.587612	2449.559668
444.962800	2451.026644
445.337927	2450.714093
445.712995	2444.490788
446.088002	2451.863476
446.462949	2449.295008
446.837837	2448.677466
447.212664	2449.897426
447.587431	2457.703652
447.962139	2465.938377
448.336786	2472.854840
448.711374	2466.200517
449.085901	2458.724486
449.460369	2459.526029
449.834776	2456.647531
450.209124	2461.691205
450.583412	2462.296143
450.957640	2462.112141
451.331808	2459.039558
451.705917	2453.224587
452.079965	2453.690894
452.453954	2455.853549
452.827883	2455.515792
453.201752	2454.323559
453.575562	2455.790534
453.949311	2458.724486
454.323001	2455.888837
454.696632	2459.631894
455.070202	2459.657099
455.443713	2461.242542
455.817164	2462.200362
456.190556	2460.627522
456.563888	2460.612398
456.937160	2456.813889
457.310373	2456.826492
457.683526	2457.864969
458.056619	2459.367233
458.429653	2457.474280
458.802628	2460.262038
459.175542	2458.590895
459.548398	2462.880917
459.921194	2466.770168
460.293930	2468.000209
460.666607	2475.115798
461.039224	2477.341467
461.411782	2477.729636
461.784280	2477.916159
462.156719	2472.567494
462.529099	2473.479943
462.901419	2470.356948
463.273680	2466.697071
463.645882	2467.302009
464.018024	2469.235292
464.390106	2469.038687
464.762130	2476.965901
465.134094	2483.385811
465.505999	2499.842657
465.877845	2511.018895
466.249631	2511.656601
466.621358	2508.001765
466.993026	2505.466064
467.364634	2502.877432
467.736184	2493.246308
468.107674	2487.779176
468.479105	2490.907212
468.850477	2485.571151
469.221790	2483.227014
469.593043	2475.030098
469.964238	2474.200828
470.335373	2472.050776
470.706449	2480.197281
471.077467	2483.224494
471.448425	2492.832933
471.819324	2500.167812
472.190164	2496.593634
472.560945	2488.875627
472.931667	2481.029071
473.302330	2476.648308
473.672934	2476.867599
474.043479	2478.579070
474.413965	2476.239975
474.784393	2469.200004
475.154761	2475.234265
475.525070	2472.522124
475.895321	2469.620940
476.265513	2471.075313
476.635645	2478.521097
477.005719	2477.971611
477.375734	2478.175778
477.745691	2479.453711
478.115588	2481.782724
478.485427	2489.629280
478.855207	2495.935763
479.224928	2503.068996
479.594591	2509.236847
479.964194	2504.916579
480.333739	2504.082268
480.703226	2503.956239
481.072653	2503.757113
481.442022	2507.185098
481.811333	2507.585870
482.180584	2502.574963
482.549777	2505.554285
482.918912	2499.046155
483.287988	2501.241577
483.657005	2499.693943
484.025964	2496.018942
484.394864	2496.949035
484.763706	2495.139261
485.132489	2493.468118
485.501213	2492.238077
485.869879	2494.720845
486.238487	2491.978457
486.607036	2493.934425
486.975527	2492.837974
487.343959	2489.732623
487.712333	2493.513489
488.080648	2492.742192
488.448905	2493.475680
488.817104	2491.618015
489.185244	2495.431648
489.553326	2501.861639
489.921350	2504.919099
490.289315	2514.091479
490.657222	2513.899915
491.025070	2513.322703
491.392861	2513.799092
491.760593	2511.223062
492.128267	2506.842299
492.495883	2502.280055
492.863440	2497.899293
493.230939	2496.152533
493.598380	2495.267810
493.965763	2487.542242
494.333088	2488.265648
494.700354	2484.746922
495.067563	2488.316059
495.434713	2485.266161
495.801805	2486.430668
496.168839	2488.953765
496.535815	2488.759681
496.902733	2485.056953
497.269593	2486.344968
497.636395	2488.689104
498.003139	2489.909064
498.369825	2489.732623
498.736453	2487.794300
499.103023	2491.746564
499.469535	2491.434013
499.835989	2488.348827
500.202385	2490.211533
500.568723	2491.464260
500.935003	2493.707573
501.301226	2495.202275
501.667390	2496.913747
502.033497	2497.758140
502.399546	2495.923160
502.765537	2495.547594
503.131470	2498.388284
503.497345	2500.160250
503.863163	2499.172184
504.228923	2502.199397
504.594625	2504.127638
504.960269	2507.558143
505.325856	2508.757938
505.691385	2509.768689
506.056856	2511.016375
506.422270	2514.925790
506.787625	2513.637775
507.152924	2519.147756
507.518164	2522.600946
507.883347	2517.849659
508.248472	2526.265865
508.613540	2526.515402
508.978550	2532.171577
509.343503	2530.351720
509.708398	2534.077133
510.073236	2534.971938
510.438016	2538.725077
510.802738	2540.328164
511.167403	2546.226314
511.532010	2548.134391
511.896561	2550.511295
512.261053	2555.708724
512.625488	2551.902653
512.989866	2550.387786
513.354186	2553.747715
513.718449	2553.011707
514.082655	2563.809858
514.446803	2563.469581
514.810894	2564.417317
515.174927	2567.126938
515.538904	2565.758264
515.902822	2571.369069
516.266684	2568.881259
516.630488	2570.365879
516.994235	2573.710685
517.357925	2573.420818
517.721558	2573.902248
518.085133	2578.915676
518.448651	2579.694534
518.812112	2578.212435
519.175516	2577.489029
519.538863	2579.218145
519.902152	2578.222517
520.265385	2582.326017
520.628560	2578.724112
520.991678	2575.260839
521.354739	2579.245872
521.717743	2578.772003
522.080690	2576.077506
522.443580	2576.546334
522.806413	2578.144379
523.169189	2574.295458
523.531908	2574.643298
523.894569	2572.405026
524.257174	2570.781774
524.619722	2571.593400
524.982213	2569.009809
525.344647	2569.095508
525.707025	2561.579148
526.069345	2564.765157
526.431608	2558.907336
526.793815	2557.800803
527.155964	2556.207798
527.518057	2554.208981
527.880093	2549.608928
528.242072	2547.196736
528.603995	2544.018288
528.965860	2540.295396
529.327669	2539.859337
529.689421	2536.045704
530.051117	2533.048738
530.412755	2531.518747
530.774337	2530.792821
531.135862	2525.756709
531.497331	2519.959382
531.858743	2516.526356
532.220098	2519.351923
532.581396	2511.049142
532.942638	2510.764317
533.303824	2505.813904
533.664953	2506.504542
534.026025	2503.774757
534.387040	2504.662000
534.747999	2501.347442
535.108902	2498.549601
535.469748	2495.376195
535.830537	2492.069198
536.191270	2491.789414
536.551947	2486.707931
536.912567	2486.571820
537.273131	2483.839514
537.633638	2481.313896
537.994089	2483.043012
538.354483	2478.248875
538.714821	2476.497074
539.075103	2475.859368
539.435328	2476.063535
539.795497	2470.583800
540.155609	2470.525827
540.515665	2470.097329
540.875665	2469.953656
541.235609	2467.667493
541.595496	2465.948459
541.955328	2465.252780
542.315102	2465.192286
542.674821	2464.473922
543.034483	2460.927470
543.394090	2462.694395
543.753640	2463.483335
544.113134	2461.474435
544.472571	2459.430247
544.831953	2461.663479
545.191278	2459.024435
545.550548	2459.982254
545.909761	2459.543673
546.268918	2461.061061
546.628019	2459.152984
546.987064	2459.160546
547.346053	2455.982098
547.704986	2457.002932
548.063863	2455.465380
548.422684	2454.232818
548.781449	2452.813733
549.140158	2454.235338
549.498811	2458.227932
549.857408	2454.227777
550.215949	2450.368773
550.574434	2452.382714
550.932864	2450.998918
551.291237	2448.894236
551.649555	2454.958744
552.007817	2455.220884
552.366022	2453.416151
552.724173	2454.996553
553.082267	2450.923300
553.440305	2451.354319
553.798288	2451.359360
554.156215	2450.348609
554.514086	2454.343723
554.871902	2454.608384
555.229661	2451.742488
555.587365	2448.259051
555.945014	2451.014041
556.302606	2450.167127
556.660143	2452.486058
557.017625	2449.708382
557.375050	2448.319544
557.732421	2450.996397
558.089735	2450.681325
558.446994	2451.903805
558.804197	2451.737447
559.161345	2450.255347
559.518437	2449.768876
559.875474	2450.043619
560.232455	2451.200564
560.589381	2452.342385
560.946251	2450.683846
561.303065	2448.937086
561.659825	2450.204936
562.016528	2450.726695
562.373177	2448.977415
562.729770	2449.090841
563.086307	2450.714092
563.442789	2450.459514
563.799216	2447.979267
564.155587	2449.368104
564.511904	2450.225101
564.868164	2447.969184
565.224370	2447.341561
565.580520	2448.254009
565.936615	2451.523198
566.292654	2446.124122
566.648638	2451.145111
567.004567	2448.722837
567.360441	2449.781479
567.716260	2446.905501
568.072023	2448.269133
568.427732	2445.556992
568.783385	2447.878443
569.138982	2443.170006
569.494525	2444.631940
569.850013	2445.476334
570.205445	2446.356015
570.560823	2447.107147
570.916145	2446.928186
571.271412	2446.668567
571.626625	2447.638989
571.981782	2446.386262
572.336884	2447.386931
572.691931	2447.500357
573.046923	2447.152517
573.401860	2446.129163
573.756743	2448.700152
574.111570	2446.439194
574.466342	2445.360387
574.821059	2445.980449
575.175722	2446.066149
575.530330	2444.188319
575.884882	2447.172682
576.239380	2444.813422
576.593823	2444.405088
576.948211	2445.088165
577.302544	2443.706889
577.656823	2442.199584
578.011047	2444.107660
578.365216	2446.108998
578.719330	2442.439038
579.073389	2440.755293
579.427394	2444.311827
579.781344	2445.753597
580.135239	2444.775613
580.489080	2442.738987
580.842866	2442.398709
581.196597	2441.897114
581.550273	2443.144800
581.903895	2443.001127
582.257463	2443.762341
582.610975	2440.848554
582.964434	2439.726898
583.317837	2441.019954
583.671186	2442.159254
584.024481	2441.130859
584.377721	2441.335026
584.730906	2443.817794
585.084037	2441.100612
585.437113	2440.430139
585.790135	2440.152875
586.143103	2439.517690
586.496016	2441.392999
586.848874	2437.579366
587.201679	2437.894438
587.554428	2435.141968
587.907124	2439.386620
588.259765	2434.474015
588.612352	2440.909048
588.964884	2438.406115
589.317362	2437.118101
589.669786	2438.443924
590.022155	2440.639347
590.374470	2440.102464
590.726731	2440.914089
591.078937	2437.513831
591.431090	2441.138421
591.783188	2439.497525
592.135232	2434.799170
592.487222	2439.631116
592.839157	2439.162288
593.191038	2437.042483
593.542866	2439.600869
593.894639	2438.249840
594.246358	2438.748914
594.598022	2437.395364
594.949633	2438.108687
595.301190	2436.671958
595.652692	2436.936619
596.004141	2436.588779
596.355535	2434.937802
596.706876	2433.564087
597.058162	2437.990220
597.409395	2432.639035
597.760573	2438.385951
598.111698	2434.030394
598.462768	2436.641712
598.813785	2435.905703
599.164748	2435.731783
599.515657	2436.475353
599.866511	2436.714808
600.217312	2435.668769
600.568060	2433.291865
600.918753	2435.895621
601.269392	2432.018973
601.619978	2435.905703
601.970510	2433.881680
602.320988	2435.091557
602.671412	2436.308995
603.021783	2437.055086
603.372100	2435.673810
603.722363	2434.819334
604.072572	2434.181628
604.422728	2434.645415
604.772830	2434.957966
605.122878	2431.842533
605.472872	2432.969231
605.822813	2428.850608
606.172701	2434.544592
606.522534	2432.291196
606.872314	2433.942174
607.222041	2433.364962
607.571714	2437.037442
607.921333	2435.378902
608.270899	2436.069541
608.620411	2431.986206
608.969870	2434.549633
609.319276	2432.903696
609.668627	2433.019642
610.017926	2433.145671
610.367171	2432.079467
610.716362	2434.279931
611.065500	2431.643407
611.414585	2436.286310
611.763616	2435.401588
612.112594	2433.823707
612.461518	2434.189190
612.810389	2435.310847
613.159207	2434.295054
613.507971	2435.862853
613.856682	2433.732966
614.205340	2432.485280
614.553945	2435.492328
614.902496	2435.613316
615.250994	2434.007709
615.599439	2434.947884
615.947830	2434.763882
616.296169	2435.371341
616.644454	2436.861002
616.992686	2431.414035
617.340864	2437.665066
617.688990	2436.276228
618.037063	2434.552153
618.385082	2434.393357
618.733048	2436.757658
619.080961	2433.735486
619.428821	2436.891249
619.776628	2436.039294
620.124382	2436.616506
620.472083	2434.564756
620.819731	2433.276741
621.167326	2433.163315
621.514868	2436.369489
621.862357	2433.929571
622.209793	2433.916968
622.557176	2432.291196
622.904506	2432.139961
623.251783	2427.739034
623.599007	2431.472008
623.946179	2428.961514
624.293297	2431.104004
624.640363	2431.426638
624.987376	2431.973603
625.334336	2430.244487
625.681243	2432.238264
626.028097	2429.831113
626.374899	2433.034766
626.721647	2431.993768
627.068343	2430.599889
627.414987	2428.235587
627.761577	2431.048551
628.108115	2427.060999
628.454600	2432.649118
628.801032	2431.403953
629.147412	2430.486463
629.493739	2427.912954
629.840014	2426.783735
630.186236	2429.624425
630.532405	2429.155598
630.878521	2429.863880
631.224585	2430.897317
631.570597	2428.190217
631.916556	2428.906061
632.262462	2427.456729
632.608316	2427.449167
632.954117	2427.681061
633.299866	2426.161153
633.645562	2429.720207
633.991206	2426.319949
634.336797	2427.590320
634.682336	2427.423962
635.027823	2428.948911
635.373257	2427.171904
635.718639	2429.064857
636.063968	2428.235587
636.409245	2425.679722
636.754470	2425.654517
637.099642	2426.158632
637.444762	2429.238777
637.789829	2427.562593
638.134845	2426.884558
638.479808	2425.173087
638.824719	2424.348858
639.169577	2425.079825
639.514383	2423.443971
639.859137	2424.822726
640.203839	2427.557552
640.548489	2423.867428
640.893086	2422.702921
641.237632	2422.211409
641.582125	2424.603436
641.926566	2418.591860
642.270955	2427.408838
642.615292	2425.195772
642.959576	2423.600247
643.303809	2422.281985
643.647990	2424.222829
643.992118	2424.270720
644.336195	2422.629824
644.680219	2424.749630
645.024192	2426.055288
645.368112	2425.377253
645.711981	2426.256935
646.055797	2425.372212
646.399562	2425.336924
646.743274	2425.556214
647.086935	2425.324321
647.430544	2423.378436
647.774101	2427.126534
648.117606	2426.251893
648.461059	2426.748447
648.804460	2428.306164
649.147810	2426.105700
649.491108	2425.478076
649.834354	2425.515885
650.177548	2421.500606
650.520690	2426.007398
650.863781	2419.945410
651.206820	2426.640062
651.549807	2421.331727
651.892742	2422.682757
652.235626	2422.211409
652.578458	2424.215267
652.921238	2422.909608
653.263967	2421.724937
653.606644	2422.503796
653.949269	2421.452715
654.291843	2419.637900
654.634365	2420.890626
654.976836	2420.477252
655.319255	2423.038158
655.661622	2421.709814
656.003938	2422.266861
656.346203	2420.454567
656.688416	2423.398600
657.030577	2420.434402
657.372687	2421.233425
657.714746	2419.877354
658.056753	2419.804258
658.398708	2417.843249
658.740612	2417.235790
659.082465	2414.523649
659.424266	2418.160842
659.766016	2416.570358
660.107715	2420.978847
660.449362	2419.642941
660.790958	2419.020358
661.132503	2421.551017
661.473996	2421.291398
661.815438	2421.427509
662.156829	2422.849115
662.498168	2420.971285
662.839456	2420.567992
663.180693	2423.224681
663.521879	2420.520102
663.863013	2420.315935
664.204097	2418.559093
664.545129	2420.109247
664.886110	2419.766449
665.227040	2418.864083
665.567918	2420.545307
665.908746	2420.472211
666.249522	2421.689649
666.590248	2420.930956
666.930922	2424.411872
667.271545	2421.039340
667.612118	2422.009762
667.952639	2421.074628
668.293109	2421.971954
668.633528	2418.511202
668.973896	2421.634197
669.314213	2419.892478
669.654480	2420.598239
669.994695	2422.634866
670.334859	2420.275606
670.674973	2420.452046
671.015035	2423.506985
671.355047	2416.492220
671.695008	2421.949269
672.034918	2419.751326
672.374777	2419.456418
672.714585	2420.144536
673.054342	2422.660071
673.394049	2419.950451
673.733705	2419.998342
674.073310	2421.656882
674.412864	2423.451532
674.752368	2419.945410
675.091820	2417.676891
675.431223	2420.459608
675.770574	2419.562282
676.109875	2414.460635
676.449125	2417.707138
676.788324	2415.955337
677.127473	2418.856521
677.466571	2413.434760
677.805619	2419.829463
678.144616	2416.189750
678.483562	2417.939031
678.822458	2417.402148
679.161303	2419.910122
679.500098	2417.424833
679.838842	2416.734195
680.177535	2419.577406
680.516179	2417.586150
680.854771	2419.043043
681.193314	2417.197981
681.531805	2418.972467
681.870247	2420.744433
682.208638	2418.758218
682.546978	2420.547828
682.885268	2423.209557
683.223508	2418.554052
683.561697	2418.906932
683.899836	2417.651685
684.237925	2419.771490
684.575963	2418.100348
684.913951	2421.167890
685.251889	2420.023548
685.589776	2419.395924
685.927614	2418.808630
686.265401	2421.919022
686.603137	2418.271747
686.940824	2420.278126
687.278460	2421.576223
687.616046	2421.397262
687.953582	2422.355082
688.291068	2418.634710
688.628504	2420.101686
688.965889	2420.444484
689.303224	2419.181675
689.640510	2421.687129
689.977745	2417.901222
690.314930	2421.482962
690.652065	2418.047416
690.989150	2418.768301
691.326185	2417.659247
691.663170	2418.944741
692.000105	2417.928948
692.336990	2415.078176
692.673825	2416.507343
693.010610	2418.407858
693.347345	2412.287897
693.684030	2411.148597
694.020665	2417.001376
694.357251	2407.581980
694.693786	2415.438618
695.030272	2412.756725
695.366707	2414.894174
695.703093	2413.233114
696.039429	2414.611869
696.375716	2414.687487
696.711952	2416.182189
697.048139	2413.525501
697.384276	2412.335788
697.720363	2414.715213
698.056400	2414.233783
698.392388	2414.939544
698.728326	2413.671694
699.064214	2411.551889
699.400053	2411.151117
699.735842	2411.824111
700.071581	2410.515932
700.407270	2412.696231
700.742910	2412.129101
701.078501	2413.981725
701.414042	2409.560633
701.749533	2408.570046
702.084974	2409.439645
702.420366	2409.651374
702.755709	2410.006775
703.091002	2413.490212
703.426246	2411.294790
703.761440	2408.340674
704.096584	2412.771848
704.431679	2410.097516
704.766725	2410.314286
705.101721	2407.715571
705.436668	2411.216652
705.771565	2410.278998
706.106413	2411.229255
706.441212	2411.229255
706.775961	2411.650191
707.110661	2412.240006
707.445311	2413.424677
707.779913	2411.231776
708.114465	2411.352763
708.448967	2414.125398
708.783421	2414.188412
709.117825	2411.919893
709.452180	2413.084400
709.786485	2411.874523
710.120742	2414.763104
710.454949	2414.982394
710.789107	2410.281518
711.123216	2409.391754
711.457275	2413.696900
711.791286	2409.850499
712.125247	2411.130952
712.459159	2414.904256
712.793023	2416.416602
713.126837	2412.151786
713.460602	2416.265368
713.794318	2411.745973
714.127985	2412.096333
714.461602	2411.831673
714.795171	2414.064904
715.128691	2412.595408
715.462162	2415.231931
715.795584	2410.831004
716.128957	2411.791344
716.462281	2412.371076
716.795556	2413.797723
717.128782	2409.732032
717.461960	2410.790675
717.795088	2408.212124
718.128167	2410.397465
718.461198	2408.141548
718.794180	2411.869482
719.127113	2407.763462
719.459997	2408.476785
719.792833	2409.205232
720.125619	2409.865623
720.458357	2408.917886
720.791046	2407.534089
721.123686	2408.302865
721.456278	2411.239337
721.788821	2407.103071
722.121315	2408.940571
722.453761	2407.997875
722.786158	2409.487536
723.118506	2409.255643
723.450805	2407.960067
723.783056	2407.148441
724.115259	2408.801939
724.447412	2407.178688
724.779518	2408.554923
725.111574	2408.265057
725.443582	2408.204563
725.775542	2409.497619
726.107453	2407.455951
726.439315	2408.993503
726.771129	2411.998031
727.102895	2409.230438
727.434612	2408.804460
727.766281	2408.751528
728.097901	2408.691034
728.429473	2406.540982
728.760996	2408.917886
729.092471	2403.861609
729.423897	2412.013154
729.755276	2410.014337
730.086606	2407.660118
730.417887	2407.244223
730.749120	2409.709347
731.080305	2412.000552
731.411442	2414.551375
731.742530	2410.503329
732.073570	2411.990469
732.404562	2413.727147
732.735506	2411.559451
733.066401	2409.530386
733.397249	2409.195149
733.728048	2410.374779
734.058798	2412.595408
734.389501	2409.142217
734.720156	2408.998544
735.050762	2408.335633
735.381320	2408.663308
735.711831	2409.096847
736.042293	2410.009296
736.372707	2406.757752
736.703073	2407.435787
737.033391	2410.233627
737.363661	2407.581980
737.693883	2405.709192
738.024056	2411.660274
738.354182	2408.043246
738.684260	2410.163051
739.014290	2409.084244
739.344272	2409.197670
739.674207	2408.479306
740.004093	2410.349574
740.333931	2407.473595
740.663722	2411.128432
740.993464	2409.545510
741.323159	2406.787998
741.652806	2409.008627
741.982405	2408.431415
742.311956	2410.170613
742.641460	2409.343863
742.970915	2407.844120
743.300323	2408.128945
743.629683	2406.611558
743.958996	2406.619120
744.288260	2404.406053
744.617477	2405.484860
744.946647	2402.681979
745.275768	2404.413615
745.604842	2403.433111
745.933869	2404.602658
746.262847	2405.255488
746.591778	2405.562998
746.920662	2405.053842
747.249498	2405.205076
747.578286	2410.029460
747.907027	2408.675911
748.235720	2404.698440
748.564365	2406.490570
748.892963	2405.343708
749.221514	2408.940571
749.550017	2407.070303
749.878473	2407.471075
750.206881	2405.918399
750.535242	2407.438307
750.863555	2406.929151
751.191821	2407.115673
751.520039	2405.646177
751.848210	2407.440828
752.176334	2405.068965
752.504411	2406.750190
752.832440	2404.484191
753.160421	2405.668862
753.488356	2408.910324
753.816243	2404.597617
754.144082	2407.118194
754.471875	2404.821948
754.799620	2404.131310
755.127318	2408.247413
755.454969	2402.349263
755.782572	2405.936043
756.110129	2402.008985
756.437638	2405.772206
756.765100	2404.181722
757.092515	2406.238513
757.419882	2405.943605
757.747203	2407.282032
758.074477	2403.675086
758.401703	2407.244223
758.728882	2405.716753
759.056014	2406.891342
759.383099	2405.094171
759.710138	2405.946126
760.037129	2406.316651
760.364073	2405.719274
760.690970	2406.261198
761.017820	2405.968811
761.344623	2408.181878
761.671379	2408.496950
761.998088	2402.767678
762.324751	2406.571229
762.651366	2409.059038
762.977935	2413.840573
763.304456	2413.636406
763.630931	2419.552200
763.957359	2417.752508
764.283740	2413.810326
764.610074	2413.840573
764.936362	2410.457958
765.262602	2410.369738
765.588796	2408.688513
765.914943	2407.350087
766.241044	2405.235323
766.567097	2406.508214
766.893104	2407.007289
767.219064	2405.351270
767.544978	2402.876063
767.870845	2402.576114
768.196665	2404.302710
768.522438	2403.049983
768.848165	2405.782288
769.173846	2401.192318
769.499479	2402.233316
769.825066	2403.423028
770.150607	2404.441341
770.476101	2403.090312
770.801548	2402.923954
771.126949	2400.819272
771.452303	2401.769530
771.777611	2401.283058
772.102872	2402.034190
772.428087	2402.687020
772.753256	2403.188615
773.078378	2401.633419
773.403453	2399.178377
773.728482	2401.749365
774.053465	2401.509910
774.378401	2399.523696
774.703291	2400.090826
775.028135	2403.107956
775.352932	2401.751886
775.677683	2400.978069
776.002388	2401.797256
776.327046	2404.196845
776.651658	2402.921433
776.976224	2401.187277
777.300743	2402.934036
777.625216	2400.466392
777.949643	2399.503531
778.274024	2401.744324
778.598359	2396.020094
778.922647	2395.664692
779.246889	2397.164436
779.571086	2394.648900
779.895236	2403.440672
780.219339	2398.331463
780.543397	2401.419170
780.867409	2401.058727
781.191374	2402.313974
781.515294	2395.775598
781.839167	2399.881618
782.162995	2402.588717
782.486776	2400.284910
782.810511	2400.279869
783.134201	2402.931516
783.457844	2400.032852
783.781441	2399.939591
784.104993	2397.608057
784.428498	2398.452451
784.751958	2398.787687
785.075372	2400.990672
785.398739	2400.622667
785.722061	2398.671741
786.045337	2401.159550
786.368568	2399.516134
786.691752	2400.259704
787.014891	2401.678789
787.337983	2399.531258
787.661030	2402.966804
787.984031	2399.969838
788.306987	2401.025960
788.629897	2403.483522
788.952760	2402.742473
789.275579	2401.144427
789.598351	2401.583007
789.921078	2400.058058
790.243759	2401.903120
790.566395	2400.995713
790.888984	2400.156361
791.211529	2398.888510
791.534027	2400.252142
791.856480	2401.073851
792.178888	2398.218037
792.501249	2397.333314
792.823566	2397.764333
793.145836	2400.317678
793.468062	2401.240209
793.790241	2398.394477
794.112375	2400.713408
794.434464	2400.027811
794.756507	2403.274314
795.078505	2401.792215
795.400457	2399.828686
795.722364	2396.556977
796.044226	2397.713922
796.366042	2397.560166
796.687812	2398.424724
797.009538	2398.452451
797.331218	2400.806669
797.652852	2401.023439
797.974442	2401.562842
798.295986	2401.283058
798.617484	2402.203069
798.938938	2399.745507
799.260346	2399.896741
799.581709	2400.799108
799.903026	2399.874056
800.224299	2398.986813
800.545526	2398.243243
800.866708	2400.501680
801.187845	2400.126114
801.508936	2400.494118
801.829983	2401.852709
802.150984	2399.140568
802.471940	2400.358007
802.792851	2400.983110
803.113717	2400.415980
803.434538	2397.850033
803.755314	2399.385064
804.076045	2398.084446
804.396731	2400.174005
804.717372	2398.946484
805.037967	2400.113511
805.358518	2396.531771
805.679024	2400.521844
805.999485	2398.835578
806.319901	2400.214334
806.640272	2398.442368
806.960598	2399.692574
807.280879	2399.374982
807.601115	2398.505383
807.921306	2399.440517
808.241453	2398.964128
808.561554	2400.630229
808.881611	2401.459499
809.201623	2400.312636
809.521590	2400.400857
809.841513	2400.252143
810.161390	2398.202913
810.481223	2399.259035
810.801011	2400.335322
811.120755	2399.112842
811.440453	2398.328942
811.760107	2399.750548
812.079716	2398.265928
812.399281	2394.021276
812.718801	2399.087636
813.038276	2394.434651
813.357707	2397.595454
813.677093	2399.410270
813.996434	2399.790877
814.315731	2396.693088
814.634983	2398.109652
814.954191	2399.841288
815.273354	2398.291134
815.592473	2397.177039
815.911547	2401.028480
816.230577	2399.697616
816.549562	2398.432286
816.868502	2400.121072
817.187399	2398.649056
817.506250	2397.867677
817.825058	2400.166443
818.143821	2398.351628
818.462539	2398.936401
818.781213	2400.305075
819.099843	2398.197872
819.418429	2402.828172
819.736970	2404.426218
820.055466	2405.094171
820.373919	2406.818245
820.692327	2408.985942
821.010691	2416.373752
821.329011	2426.468663
821.647286	2447.812908
821.965517	2464.715897
822.283704	2477.575881
822.601847	2480.409009
822.919945	2475.289718
823.237999	2463.984930
823.556010	2453.136367
823.873976	2444.495829
824.191897	2436.142637
824.509775	2431.051072
824.827609	2425.571338
825.145398	2420.026068
825.463144	2420.444484
825.780845	2419.050605
826.098502	2426.506472
826.416116	2426.624939
826.733685	2432.344128
827.051210	2431.081319
827.368692	2431.139292
827.686129	2426.219126
828.003522	2420.744433
828.320872	2413.291087
828.638177	2411.113308
828.955439	2403.302041
829.272656	2404.217010
829.589830	2402.240878
829.906960	2403.871691
830.224046	2402.906310
830.541088	2403.526372
830.858086	2402.394633
831.175041	2403.869170
831.491952	2401.015877
831.808819	2399.543860
832.125642	2401.126783
832.442421	2403.077709
832.759157	2405.988976
833.075849	2407.445869
833.392497	2412.711354
833.709101	2414.163207
834.025662	2414.478279
834.342179	2413.328896
834.658653	2409.545510
834.975083	2408.988462
835.291469	2414.316962
835.607811	2406.412433
835.924110	2402.185425
836.240366	2402.205590
836.556578	2400.360527
836.872746	2399.690054
837.188871	2399.760630
837.504952	2396.756102
837.820990	2398.565877
838.136984	2400.400857
838.452935	2398.923798
838.768842	2398.296175
839.084706	2395.924312
839.400526	2400.582338
839.716303	2402.056876
840.032037	2405.338667
840.347727	2403.002092
840.663373	2404.668193
840.978977	2397.144271
841.294537	2401.734242
841.610054	2399.044786
841.925527	2399.533778
842.240957	2398.233160
842.556344	2399.022101
842.871687	2396.466236
843.186987	2396.556977
843.502244	2397.015722
843.817458	2395.102604
844.132629	2397.567728
844.447756	2397.235012
844.762840	2391.054557
845.077881	2393.333159
845.392879	2390.772253
845.707833	2393.794424
846.022745	2389.103631
846.337613	2394.210320
846.652438	2396.846843
846.967221	2398.386916
847.281960	2396.509086
847.596656	2396.483880
847.911309	2394.268293
848.225919	2395.664693
848.540485	2395.069836
848.855009	2398.293654
849.169490	2396.607388
849.483928	2395.337017
849.798323	2393.280227
850.112675	2394.666544
850.426984	2394.351472
850.741251	2393.249980
851.055474	2395.785680
851.369654	2395.866339
851.683792	2394.124620
851.997887	2394.613612
852.311938	2394.840464
852.625947	2395.780639
852.939914	2394.240567
853.253837	2395.314332
853.567718	2393.557490
853.881555	2394.419528
854.195350	2395.178221
854.509103	2396.176370
854.822812	2392.390463
855.136479	2395.432799
855.450103	2393.824671
855.763685	2394.515309
856.077224	2395.596637
856.390720	2392.728220
856.704173	2395.518499
857.017584	2394.028838
857.330953	2392.478683
857.644278	2394.658982
857.957561	2398.243243
858.270802	2393.673437
858.584000	2394.444733
858.897155	2393.073539
859.210268	2393.199568
859.523339	2396.410783
859.836367	2396.549415
860.149352	2395.374826
860.462295	2395.374826
860.775195	2393.078581
861.088054	2391.886348
861.400869	2391.062119
861.713642	2388.954917
862.026373	2396.965310
862.339062	2393.128992
862.651708	2394.222922
862.964312	2394.474980
863.276873	2394.984137
863.589392	2392.471122
863.901869	2396.262069
864.214303	2392.579506
864.526696	2391.672099
864.839045	2392.425751
865.151353	2394.386760
865.463619	2393.562531
865.775842	2394.323746
866.088023	2394.084291
866.400162	2393.837274
866.712258	2396.047820
867.024313	2396.521689
867.336325	2393.471791
867.648296	2394.691750
867.960224	2395.788201
868.272110	2394.701832
868.583954	2395.258880
868.895755	2394.505227
869.207515	2395.203427
869.519233	2395.561349
869.830909	2393.696122
870.142542	2395.979765
870.454134	2395.160577
870.765684	2395.639487
871.077191	2394.532953
871.388657	2392.811399
871.700081	2395.248797
872.011463	2394.963972
872.322803	2395.374826
872.634101	2394.807696
872.945357	2395.652090
873.256571	2396.904816
873.567744	2394.613612
873.878874	2397.600496
874.189963	2395.871380
874.501010	2396.216699
874.812015	2394.893396
875.122979	2396.665362
875.433900	2394.777449
875.744780	2398.971689
876.055618	2397.897924
876.366415	2396.872049
876.677169	2396.824158
876.987882	2396.010012
877.298554	2392.332490
877.609183	2395.180742
877.919771	2392.425751
878.230317	2394.396842
878.540822	2397.842471
878.851285	2395.967162
879.161707	2397.877759
879.472087	2398.785167
879.782425	2402.732390
880.092722	2409.613565
880.402977	2412.723957
880.713191	2421.656882
881.023363	2430.274734
881.333494	2435.930909
881.643583	2435.588110
881.953631	2436.613985
882.263637	2433.826227
882.573602	2430.562080
882.883526	2424.757191
883.193408	2425.422624
883.503248	2421.634197
883.813048	2415.027764
884.122806	2413.706982
884.432522	2410.891498
884.742197	2405.719274
885.051831	2409.623648
885.361424	2406.273801
885.670975	2404.542164
885.980485	2401.683830
886.289954	2402.492935
886.599382	2400.834396
886.908768	2400.199210
887.218113	2398.152502
887.527417	2395.994888
887.836680	2397.177039
888.145901	2397.555125
888.455082	2396.768705
888.764221	2400.015208
889.073319	2398.956566
889.382376	2394.139743
889.691392	2396.811555
890.000366	2396.725855
890.309300	2397.628222
890.618193	2395.969682
890.927044	2395.364744
891.235855	2399.075033
891.544625	2395.856256
891.853353	2394.875752
892.162041	2395.107645
892.470687	2396.284754
892.779293	2395.747872
893.087858	2396.428427
893.396381	2394.132182
893.704864	2399.284241
894.013306	2399.392626
894.321707	2405.426887
894.630068	2408.691034
894.938387	2407.975190
895.246665	2408.801939
895.554903	2405.517628
895.863100	2404.141393
896.171256	2403.871691
896.479371	2403.478481
896.787446	2401.588048
897.095480	2400.471433
897.403473	2401.257853
897.711425	2400.148799
898.019336	2398.021432
898.327207	2396.904816
898.635038	2402.180384
898.942827	2396.055382
899.250576	2396.867008
899.558284	2395.309291
899.865952	2396.398180
900.173579	2393.812068
900.481165	2397.010681
900.788711	2395.062275
901.096216	2395.125289
901.403681	2393.570093
901.711105	2395.029507
902.018489	2394.772408
902.325832	2398.099570
902.633135	2392.624877
902.940397	2399.196021
903.247619	2399.611916
903.554800	2402.485374
903.861941	2406.230951
904.169041	2408.887639
904.476101	2410.278997
904.783121	2407.972670
905.090100	2407.415622
905.397039	2408.103740
905.703938	2404.615261
906.010796	2405.631054
906.317614	2403.158368
906.624391	2400.133675
906.931129	2401.000754
907.237826	2397.413973
907.544483	2398.525547
907.851099	2397.338356
908.157675	2395.826009
908.464211	2392.851729
908.770707	2391.392315
909.077163	2390.195041
909.383578	2391.009187
909.689954	2390.754609
909.996289	2389.698487
910.302584	2393.812068
910.608839	2395.367264
910.915054	2393.474311
911.221229	2394.779970
911.527363	2395.110166
911.833458	2393.665875
912.139513	2393.955741
912.445527	2397.144271
912.751502	2395.465567
913.057436	2394.255690
913.363331	2394.981616
913.669186	2394.278375
913.975000	2394.777449
914.280775	2395.853736
914.586510	2395.679816
914.892205	2398.288613
915.197859	2400.988151
915.503475	2404.582494
915.809050	2410.674728
916.114585	2408.408729
916.420081	2406.730025
916.725536	2407.844120
917.030952	2409.147258
917.336328	2407.317320
917.641665	2406.677093
917.946961	2404.569891
918.252218	2406.520817
918.557435	2402.497977
918.862612	2402.525703
919.167750	2399.102759
919.472848	2402.261042
919.777906	2398.613767
920.082925	2399.861453
920.387904	2393.411297
920.692843	2398.331463
920.997743	2395.551267
921.302603	2396.246946
921.607423	2395.876421
921.912204	2393.915412
922.216946	2395.989847
922.521647	2397.335835
922.826310	2395.052192
923.130932	2394.270813
923.435516	2392.846687
923.740059	2391.173024
924.044564	2392.912222
924.349028	2394.328787
924.653454	2387.908877
924.957840	2389.093548
925.262186	2389.885010
925.566493	2392.080432
925.870761	2389.166645
926.174989	2391.291492
926.479178	2392.193858
926.783328	2389.781666
927.087438	2391.934239
927.391509	2391.397356
927.695541	2393.565052
927.999533	2391.798128
928.303486	2390.374002
928.607400	2392.125803
928.911275	2392.002294
929.215110	2391.359547
929.518906	2391.021790
929.822663	2392.370298
930.126381	2391.667058
930.430060	2390.684033
930.733699	2392.791235
931.037299	2393.615463
931.340861	2391.556152
931.644383	2390.356358
931.947866	2389.333003
932.251309	2393.784342
932.554714	2391.566234
932.858080	2392.168652
933.161407	2390.235370
933.464694	2391.775442
933.767943	2390.079094
934.071153	2392.234187
934.374323	2390.900802
934.677455	2393.151677
934.980548	2391.498179
935.283602	2392.624877
935.586617	2389.811913
935.889593	2392.871893
936.192530	2388.725544
936.495428	2391.412479
936.798287	2391.014228
937.101108	2391.346944
937.403890	2392.241749
937.706632	2393.164280
938.009336	2392.355175
938.312002	2395.636966
938.614628	2392.070350
938.917216	2396.226781
939.219765	2392.763508
939.522275	2393.214692
939.824747	2393.842315
940.127179	2389.872407
940.429573	2389.504403
940.731929	2389.958106
941.034246	2387.785369
941.336524	2394.036400
941.638763	2392.778632
941.940964	2390.706718
942.243126	2391.334341
942.545250	2390.971378
942.847335	2393.628066
943.149381	2393.461708
943.451389	2390.310987
943.753359	2391.472973
944.055290	2389.695966
944.357182	2392.035062
944.659036	2392.455998
944.960851	2391.556152
945.262628	2390.232849
945.564367	2391.669578
945.866067	2392.788714
946.167729	2391.493138
946.469352	2390.384084
946.770937	2393.103786
947.072484	2393.544887
947.373992	2393.260062
947.675462	2392.269475
947.976893	2390.016080
948.278286	2391.959444
948.579641	2391.258724
948.880958	2390.494989
949.182236	2391.036913
949.483476	2391.178066
949.784678	2393.509599
950.085841	2390.424413
950.386967	2389.917777
950.688054	2391.432644
950.989103	2394.270813
951.290114	2389.869886
951.591087	2390.379043
951.892021	2390.779814
952.192917	2391.170504
952.493776	2389.978271
952.794596	2390.595812
953.095378	2393.791904
953.396122	2394.626215
953.696828	2392.289640
953.997496	2390.321069
954.298126	2388.869217
954.598718	2390.908364
954.899272	2391.397356
955.199788	2393.849877
955.500266	2387.888713
955.800706	2389.063302
956.101108	2386.996428
956.401472	2387.278733
956.701798	2386.227653
957.002087	2388.806203
957.302337	2389.017931
957.602550	2387.061963
957.902724	2391.591440
958.202861	2389.280071
958.502960	2389.186810
958.803022	2390.928528
959.103045	2390.260576
959.403031	2391.137736
959.702979	2393.504558
960.002889	2391.457850
960.302762	2388.554145
960.602596	2389.630431
960.902393	2388.458363
961.202153	2390.404248
961.501875	2389.181769
961.801559	2389.864845
962.101205	2391.498179
962.400814	2386.467107
962.700385	2392.892058
962.999918	2390.600853
963.299414	2390.477345
963.598873	2389.688405
963.898293	2390.560524
964.197677	2388.274361
964.497022	2387.477859
964.796331	2389.481717
965.095601	2387.094731
965.394835	2387.981974
965.694030	2388.743188
965.993189	2390.000956
966.292309	2391.619167
966.591393	2388.717983
966.890439	2390.437016
967.189447	2388.970040
967.488419	2389.501882
967.787353	2389.461553
968.086249	2391.326780
968.385108	2387.137581
968.683930	2389.174207
968.982714	2391.611605
969.281462	2387.523229
969.580172	2387.308980
969.878844	2390.240411
970.177480	2388.939793
970.476078	2387.823178
970.774639	2390.005997
971.073162	2387.976933
971.371649	2387.550955
971.670098	2386.053733
971.968510	2386.048692
972.266885	2381.836808
972.565223	2390.356357
972.863524	2388.773435
973.161788	2390.247973
973.460014	2390.028683
973.758204	2389.252345
974.056356	2390.542880
974.354471	2390.013559
974.652550	2390.426934
974.950591	2392.657644
975.248595	2388.276882
975.546563	2388.934752
975.844493	2388.395349
976.142386	2389.663199
976.440243	2389.456512
976.738062	2390.081615
977.035845	2387.969371
977.333590	2390.744526
977.631299	2388.055071
977.928971	2389.154042
978.226606	2390.086656
978.524204	2391.788045
978.821765	2388.082797
979.119290	2389.383415
979.416777	2388.455842
979.714228	2389.494320
980.011642	2389.501882
980.309020	2394.437172
980.606360	2388.944834
980.903664	2393.423900
981.200931	2390.469783
981.498162	2390.936090
981.795356	2391.379712
982.092513	2392.526574
982.389633	2391.127654
982.686717	2390.631100
982.983764	2390.119423
983.280775	2391.687222
983.577749	2389.154042
983.874686	2391.883827
984.171587	2393.161760
984.468451	2392.324928
984.765279	2389.423744
985.062070	2390.699156
985.358824	2390.643703
985.655543	2388.561707
985.952224	2387.414844
986.248869	2389.159083
986.545478	2384.649771
986.842050	2389.953065
987.138586	2386.099103
987.435086	2384.874103
987.731549	2385.932745
988.027975	2386.522560
988.324366	2391.162942
988.620719	2389.643034
988.917037	2384.889226
989.213318	2389.418703
989.509563	2389.257386
989.805772	2387.389638
990.101944	2389.678322
990.398080	2391.074722
990.694180	2388.304608
990.990244	2390.207643
991.286271	2387.727396
991.582262	2387.119937
991.878217	2390.694115
992.174136	2387.712272
992.470019	2386.031048
992.765865	2388.370143
993.061676	2386.956099
993.357450	2390.628580
993.653188	2389.194372
993.948890	2390.860473
994.244556	2389.917777
994.540186	2386.714124
994.835780	2389.998436
995.131337	2389.925339
995.426859	2388.513816
995.722345	2390.338713
996.017795	2389.690925
996.313208	2391.654455
996.608586	2390.074053
996.903928	2387.044319
997.199234	2389.171686
997.494504	2391.800648
997.789738	2390.752088
998.084936	2387.818137
998.380099	2387.971892
998.675225	2388.397869
998.970316	2388.100441
999.265371	2391.059598
999.560390	2389.713610
999.855373	2389.350647
1000.150320	2389.423744
1000.445232	2389.499361
1000.740108	2387.601367
1001.034948	2387.505585
1001.329752	2389.839639
1001.624521	2387.462735
1001.919254	2384.017107
1002.213951	2384.367467
1002.508613	2383.782693
1002.803239	2386.814947
1003.097829	2384.180944
1003.392384	2389.118754
1003.686903	2387.366953
1003.981386	2388.128168
1004.275834	2386.101624
1004.570246	2388.092879
1004.864623	2388.632283
1005.158964	2387.092210
1005.453270	2388.745709
1005.747540	2391.430123
1006.041775	2388.019783
1006.335974	2390.978940
1006.630138	2389.857283
1006.924266	2387.155225
1007.218359	2387.918960
1007.512416	2386.484751
1007.806438	2387.654299
1008.100425	2390.038765
1008.394376	2387.424927
1008.688292	2387.271171
1008.982172	2389.713610
1009.276017	2388.992725
1009.569827	2389.350647
1009.863602	2387.301418
1010.157341	2388.435678
1010.451045	2385.957951
1010.744714	2385.431150
1011.038347	2388.276882
1011.331945	2388.503733
1011.625508	2390.588251
1011.919036	2390.502551
1012.212528	2389.103631
1012.505986	2387.797972
1012.799408	2389.607746
1013.092795	2387.908877
1013.386147	2387.901316
1013.679464	2385.978115
1013.972745	2388.997767
1014.265992	2388.105482
1014.559204	2389.983312
1014.852380	2386.908208
1015.145521	2389.103631
1015.438628	2388.566748
1015.731699	2387.384597
1016.024736	2387.619011
1016.317737	2389.161604
1016.610703	2389.262427
1016.903635	2386.129350
1017.196531	2382.650954
1017.489393	2390.472304
1017.782219	2384.894267
1018.075011	2386.598177
1018.367768	2388.128168
1018.660490	2390.126985
1018.953177	2390.126985
1019.245829	2390.126985
