Dividing Wavelength (nm)	Counts (n)	Blue Motor Position (mm): 0.000000	Red Motor Position (mm): 19.800000	
326.493990	1981.208750
326.888308	1981.208750
327.282561	1981.208750
327.676750	1958.664710
328.070874	1960.764350
328.464933	1965.576132
328.858929	1974.834211
329.252859	1986.842239
329.646726	2001.436379
330.040528	2016.448936
330.434265	2036.255629
330.827938	2054.711293
331.221547	2076.254664
331.615091	2094.037334
332.008571	2114.572475
332.401986	2136.161216
332.795338	2156.991264
333.188625	2178.169151
333.581847	2196.972655
333.975006	2213.232897
334.368100	2233.337018
334.761129	2248.115161
335.154095	2263.417583
335.546996	2277.880653
335.939833	2295.796914
336.332606	2310.592701
336.725315	2320.828764
337.117960	2330.230516
337.510540	2338.513131
337.903056	2347.554441
338.295508	2351.065604
338.687896	2361.836030
339.080220	2368.691999
339.472480	2370.920189
339.864676	2374.733822
340.256807	2380.503422
340.648875	2382.174565
341.040879	2382.451828
341.432818	2385.095913
341.824694	2383.460059
342.216506	2385.353012
342.608253	2387.649258
342.999937	2383.197919
343.391557	2384.047353
343.783113	2379.384286
344.174605	2384.385111
344.566033	2378.877650
344.957397	2378.809595
345.348697	2375.167361
345.739934	2376.775489
346.131106	2372.878677
346.522215	2368.548326
346.913260	2366.826772
347.304241	2367.797194
347.695159	2363.595392
348.086012	2366.168901
348.476802	2362.791328
348.867528	2360.928622
349.258191	2357.669516
349.648789	2359.340658
350.039324	2359.728827
350.429796	2360.605988
350.820203	2355.728672
351.210548	2356.252952
351.600828	2356.068950
351.991045	2356.205061
352.381198	2356.187417
352.771288	2354.397807
353.161314	2352.734226
353.551276	2357.893847
353.941175	2356.862931
354.331010	2358.690350
354.720782	2358.108096
355.110490	2355.489217
355.500135	2357.210771
355.889717	2354.692715
356.279235	2355.814371
356.668689	2359.812006
357.058080	2358.347551
357.447408	2357.551049
357.836672	2356.260513
358.225873	2359.363344
358.615010	2358.029958
359.004084	2361.107583
359.393095	2360.890813
359.782043	2363.164374
360.170927	2364.487677
360.559748	2366.047914
360.948505	2364.739734
361.337199	2367.802235
361.725830	2368.563449
362.114398	2368.306351
362.502903	2367.840044
362.891344	2368.820548
363.279722	2368.487832
363.668037	2370.443800
364.056289	2368.306351
364.444478	2372.999665
364.832603	2371.694006
365.220665	2372.220807
365.608665	2373.501260
365.996601	2374.320447
366.384474	2375.989069
366.772284	2375.616024
367.160031	2378.643237
367.547715	2378.751621
367.935336	2376.687269
368.322893	2378.822197
368.710388	2380.480737
369.097820	2385.358053
369.485189	2383.651623
369.872495	2384.034751
370.259738	2385.151366
370.646918	2387.533311
371.034035	2388.203785
371.421090	2392.244270
371.808081	2395.173180
372.195010	2398.679303
372.581875	2407.927299
372.968678	2411.839235
373.355418	2416.517425
373.742096	2429.238777
374.128710	2439.457196
374.515262	2449.501695
374.901751	2463.458129
375.288177	2481.213073
375.674540	2498.756289
376.060841	2519.961902
376.447079	2544.272867
376.833254	2568.097360
377.219367	2596.400918
377.605417	2630.645476
377.991404	2656.582213
378.377329	2693.342307
378.763191	2730.157853
379.148991	2774.605707
379.534727	2823.565393
379.920402	2870.569111
380.306013	2917.076276
380.691563	2977.779330
381.077049	3033.796632
381.462474	3092.894078
381.847835	3162.857732
382.233134	3232.304667
382.618371	3291.749953
383.003545	3380.154148
383.388657	3459.879996
383.773706	3551.906259
384.158693	3621.022999
384.543618	3714.657391
384.928480	3791.038433
385.313280	3894.583733
385.698017	3997.811440
386.082692	4117.062455
386.467305	4178.564532
386.851856	4307.292916
387.236344	4461.244713
387.620770	4519.797715
388.005133	4640.099811
388.389435	4782.693888
388.773674	4869.404255
389.157851	4997.875540
389.541965	5129.973936
389.926018	5151.905476
390.310008	5333.780224
390.693936	5454.117607
391.077802	5570.532973
391.461606	5699.551224
391.845348	5815.507844
392.229027	5933.818684
392.612645	6154.011243
392.996200	6269.771259
393.379694	6440.991528
393.763125	6661.161402
394.146494	6755.098263
394.529801	6890.034828
394.913047	7131.012064
395.296230	7128.640201
395.679351	7179.386976
396.062410	7434.348373
396.445408	7326.697053
396.828343	7480.568192
397.211217	7612.154911
397.594028	7495.948753
397.976778	7697.040380
398.359466	7864.487346
398.742092	7839.127821
399.124656	7978.167886
399.507158	8163.311822
399.889598	8189.051954
400.271977	8396.525682
400.654294	8424.887213
401.036549	8619.606822
401.418742	8640.477198
401.800874	8939.142879
402.182944	9020.494499
402.564952	9377.851813
402.946898	9204.594917
403.328783	9255.639120
403.710606	9447.976783
404.092367	9705.199138
404.474067	10060.227438
404.855705	9855.339823
405.237282	9805.455085
405.618797	10221.478827
406.000250	10472.165325
406.381642	10829.694038
406.762972	10772.852508
407.144240	10581.334032
407.525447	10825.678759
407.906593	10767.738257
408.287677	11020.499191
408.668700	11171.587612
409.049661	11142.411935
409.430560	11300.694083
409.811399	11277.968562
410.192176	11434.458580
410.572891	11505.112872
410.953545	11978.527629
411.334138	11459.394647
411.714669	12045.882486
412.095139	11374.892306
412.475547	11860.909948
412.855894	11708.170548
413.236180	12024.465144
413.616405	11713.143647
413.996568	11987.757982
414.376670	11955.444186
414.756711	11841.682988
415.136691	12106.721651
415.516609	12272.983946
415.896466	12341.619256
416.276262	12616.790638
416.655997	13050.564283
417.035670	13093.645983
417.415283	13716.415006
417.794834	13787.996870
418.174324	13536.488664
418.553753	13433.003858
418.933121	13900.059200
419.312428	13697.535885
419.691674	13601.322943
420.070859	14028.976627
420.449983	13676.743646
420.829045	14196.778994
421.208047	13927.815793
421.586988	14333.895858
421.965867	14558.650662
422.344686	14519.001987
422.723444	15022.625859
423.102141	13740.552051
423.480777	14842.313868
423.859352	14321.976050
424.237866	15328.283619
424.616319	14992.331045
424.994712	15560.617797
425.373044	15306.170598
425.751314	15854.456572
426.129524	14989.127391
426.507673	15900.699077
426.885762	15553.565223
427.263789	15631.108251
427.641756	15690.593867
428.019662	15657.949875
428.397508	15588.618886
428.775292	15742.805097
429.153016	15600.526092
429.530679	15553.265274
429.908282	15452.903463
430.285824	15101.666110
430.663305	15552.257043
431.040726	15103.092756
431.418086	14834.527806
431.795385	15209.299786
432.172624	15396.883641
432.549802	14904.922478
432.926920	14895.261107
433.303977	14657.205219
433.680974	14698.272979
434.057910	14741.813425
434.434786	14602.740593
434.811601	14377.239699
435.188355	14939.650987
435.565050	14518.734805
435.941683	14309.441221
436.318257	14727.960334
436.694770	14405.598710
437.071222	14607.217138
437.447614	13801.580259
437.823946	13617.295839
438.200218	13519.003422
438.576429	13177.951720
438.952580	13152.854335
439.328670	12924.142227
439.704700	12968.300214
440.080670	12510.260975
440.456580	12645.394145
440.832429	12521.540557
441.208218	11783.515634
441.583947	11809.931280
441.959616	11660.221614
442.335224	11582.353431
442.710773	11442.708428
443.086261	11491.327836
443.461689	10991.447021
443.837057	10831.453401
444.212365	10919.048490
444.587612	10713.412263
444.962800	10341.596920
445.337927	10297.237287
445.712995	9598.218291
446.088002	10119.478640
446.462949	9995.695628
446.837837	9860.050781
447.212664	9630.141398
447.587431	10390.544003
447.962139	11174.115751
448.336786	11747.846950
448.711374	11016.763696
449.085901	9615.761507
449.460369	9342.092388
449.834776	9088.920601
450.209124	9572.785670
450.583412	9246.786854
450.957640	9184.316875
451.331808	8627.924725
451.705917	8070.405877
452.079965	7869.977162
452.453954	7765.506811
452.827883	7546.209057
453.201752	7321.265210
453.575562	7184.486103
453.949311	7225.768112
454.323001	7058.981537
454.696632	6849.577048
455.070202	6952.764426
455.443713	6819.050341
455.817164	6743.052426
456.190556	6659.628891
456.563888	6414.467497
456.937160	6309.374563
457.310373	5922.450882
457.683526	5820.879194
458.056619	5672.850752
458.429653	5518.041959
458.802628	5448.723573
459.175542	5332.706458
459.548398	5342.819013
459.921194	5386.344335
460.293930	5347.005691
460.666607	5416.213172
461.039224	5459.925017
461.411782	5346.554508
461.784280	5102.229946
462.156719	4912.402777
462.529099	4740.219647
462.901419	4522.882902
463.273680	4337.045806
463.645882	4242.914861
464.018024	4142.517762
464.390106	4097.316256
464.762130	4168.479704
465.134094	4322.675997
465.505999	4531.946896
465.877845	4669.527546
466.249631	4589.458900
466.621358	4381.929719
466.993026	4168.991381
467.364634	3983.003051
467.736184	3827.634689
468.107674	3707.703119
468.479105	3616.334726
468.850477	3531.827343
469.221790	3429.154163
469.593043	3331.181859
469.964238	3260.199892
470.335373	3216.646843
470.706449	3210.413457
471.077467	3225.741085
471.448425	3283.353912
471.819324	3310.858447
472.190164	3243.306985
472.560945	3139.083650
472.931667	3053.182389
473.302330	3004.862929
473.672934	2969.690799
474.043479	2955.434416
474.413965	2922.528284
474.784393	2894.794376
475.154761	2890.995867
475.525070	2873.165305
475.895321	2855.561596
476.265513	2846.994155
476.635645	2849.275277
477.005719	2833.872032
477.375734	2826.958089
477.745691	2826.867348
478.115588	2825.980105
478.485427	2841.075841
478.855207	2862.999819
479.224928	2878.768548
479.594591	2891.477297
479.964194	2871.789070
480.333739	2863.130889
480.703226	2855.538911
481.072653	2853.219980
481.442022	2851.536235
481.811333	2845.771675
482.180584	2826.539673
482.549777	2813.359577
482.918912	2805.250881
483.287988	2797.742082
483.657005	2780.725667
484.025964	2773.322733
484.394864	2768.064809
484.763706	2759.260434
485.132489	2745.949267
485.501213	2744.194946
485.869879	2739.121025
486.238487	2732.015518
486.607036	2731.274469
486.975527	2724.242059
487.343959	2719.069835
487.712333	2716.929865
488.080648	2712.909545
488.448905	2712.957436
488.817104	2708.879143
489.185244	2711.795450
489.553326	2719.258878
489.921350	2734.082391
490.289315	2753.299270
490.657222	2754.632655
491.025070	2753.180803
491.392861	2745.969432
491.760593	2732.338152
492.128267	2719.084959
492.495883	2708.017105
492.863440	2698.554860
493.230939	2688.749815
493.598380	2680.033660
493.965763	2671.816580
494.333088	2665.681495
494.700354	2664.451454
495.067563	2660.753767
495.434713	2657.464415
495.801805	2661.787204
496.168839	2657.015752
496.535815	2654.205309
496.902733	2651.828405
497.269593	2653.865031
497.636395	2652.080462
498.003139	2650.323620
498.369825	2649.741367
498.736453	2651.621717
499.103023	2649.053249
499.469535	2648.244144
499.835989	2646.976294
500.202385	2647.858496
500.568723	2647.177940
500.935003	2648.912097
501.301226	2644.102836
501.667390	2655.170690
502.033497	2654.913591
502.399546	2651.243631
502.765537	2648.344967
503.131470	2650.263126
503.497345	2653.673467
503.863163	2648.130718
504.228923	2652.224135
504.594625	2655.213539
504.960269	2653.917963
505.325856	2658.054230
505.691385	2658.777635
506.056856	2660.194199
506.422270	2663.024807
506.787625	2664.027997
507.152924	2665.096722
507.518164	2670.415139
507.883347	2663.788542
508.248472	2669.079233
508.613540	2674.737928
508.978550	2677.966787
509.343503	2677.059380
509.708398	2681.256140
510.073236	2687.960875
510.438016	2692.618901
510.802738	2687.877696
511.167403	2695.320959
511.532010	2699.270703
511.896561	2701.582072
512.261053	2708.223793
512.625488	2706.093905
512.989866	2705.990562
513.354186	2710.303269
513.718449	2705.869574
514.082655	2716.410627
514.446803	2715.160420
514.810894	2722.276009
515.174927	2720.839280
515.538904	2720.987994
515.902822	2727.725496
516.266684	2728.151474
516.630488	2732.323029
516.994235	2729.252966
517.357925	2735.062896
517.721558	2737.533061
518.085133	2741.084554
518.448651	2744.714185
518.812112	2741.860892
519.175516	2744.958681
519.538863	2746.448342
519.902152	2748.772314
520.265385	2750.375401
520.628560	2751.207191
520.991678	2752.759866
521.354739	2756.248345
521.717743	2761.113058
522.080690	2759.562903
522.443580	2763.164808
522.806413	2763.139602
523.169189	2764.551125
523.531908	2767.079264
523.894569	2764.306629
524.257174	2767.893410
524.619722	2768.508431
524.982213	2772.811056
525.344647	2769.922475
525.707025	2768.548760
526.069345	2772.669903
526.431608	2775.349277
526.793815	2772.969852
527.155964	2770.580345
527.518057	2772.165788
527.880093	2772.140582
528.242072	2774.169647
528.603995	2773.053031
528.965860	2774.474637
529.327669	2773.269801
529.689421	2773.688217
530.051117	2775.692075
530.412755	2773.400871
530.774337	2775.916407
531.135862	2772.289296
531.497331	2773.418515
531.858743	2768.931888
532.220098	2772.770727
532.581396	2770.020777
532.942638	2768.803338
533.303824	2772.521189
533.664953	2773.980603
534.026025	2769.383071
534.387040	2773.675614
534.747999	2772.155706
535.108902	2776.110491
535.469748	2773.075716
535.830537	2772.117897
536.191270	2772.049842
536.551947	2769.579676
536.912567	2773.768875
537.273131	2774.799791
537.633638	2769.287289
537.994089	2769.582197
538.354483	2768.274017
538.714821	2770.839965
539.075103	2769.383071
539.435328	2771.129831
539.795497	2768.427772
540.155609	2769.138575
540.515665	2773.713422
540.875665	2766.592792
541.235609	2769.209151
541.595496	2767.989192
541.955328	2773.506735
542.315102	2770.023298
542.674821	2765.834099
543.034483	2765.705549
543.394090	2763.827720
543.753640	2763.885693
544.113134	2769.335180
544.472571	2762.101124
544.831953	2767.303595
545.191278	2764.556166
545.550548	2761.191196
545.909761	2762.978285
546.268918	2762.196906
546.628019	2764.220930
546.987064	2758.567276
547.346053	2751.207191
547.704986	2758.713469
548.063863	2749.568816
548.422684	2750.612335
548.781449	2745.205697
549.140158	2747.131418
549.498811	2743.227044
549.857408	2738.170767
550.215949	2741.881056
550.574434	2736.275293
550.932864	2733.225395
551.291237	2731.937380
551.649555	2732.207082
552.007817	2731.569376
552.366022	2727.367574
552.724173	2725.635938
553.082267	2724.471432
553.440305	2721.429095
553.798288	2716.299721
554.156215	2713.567416
554.514086	2710.668752
554.871902	2708.682538
555.229661	2707.447455
555.587365	2701.183821
555.945014	2697.904551
556.302606	2697.057637
556.660143	2692.644107
557.017625	2690.410876
557.375050	2685.039526
557.732421	2686.927438
558.089735	2682.153466
558.446994	2676.056190
558.804197	2677.598783
559.161345	2674.354801
559.518437	2665.207627
559.875474	2665.028666
560.232455	2662.346772
560.589381	2658.197902
560.946251	2657.066163
561.303065	2655.513488
561.659825	2654.802685
562.016528	2648.193733
562.373177	2645.796664
562.729770	2641.877167
563.086307	2638.192083
563.442789	2635.406846
563.799216	2634.985910
564.155587	2633.302164
564.511904	2631.255456
564.868164	2623.706328
565.224370	2624.782614
565.580520	2618.713065
565.936615	2620.159876
566.292654	2613.802981
566.648638	2613.845831
567.004567	2612.618310
567.360441	2606.689913
567.716260	2608.653442
568.072023	2604.063472
568.427732	2600.592637
568.783385	2599.937287
569.138982	2595.652307
569.494525	2593.086359
569.850013	2592.514188
570.205445	2593.993767
570.560823	2591.334558
570.916145	2588.143508
571.271412	2586.812643
571.626625	2586.323652
571.981782	2584.705441
572.336884	2579.888619
572.691931	2581.017837
573.046923	2580.511201
573.401860	2572.954512
573.756743	2575.941395
574.111570	2578.318299
574.466342	2570.592731
574.821059	2573.680438
575.175722	2570.706157
575.530330	2567.419325
575.884882	2566.718604
576.239380	2567.996537
576.593823	2564.661813
576.948211	2562.995712
577.302544	2563.608212
577.656823	2561.286761
578.011047	2562.620146
578.365216	2558.766184
578.719330	2557.997408
579.073389	2556.764846
579.427394	2558.657799
579.781344	2558.446071
580.135239	2554.526574
580.489080	2556.230484
580.842866	2552.517674
581.196597	2551.890050
581.550273	2552.603373
581.903895	2550.758311
582.257463	2553.649413
582.610975	2549.581202
582.964434	2549.225800
583.317837	2549.465255
583.671186	2548.822508
584.024481	2549.107333
584.377721	2547.431150
584.730906	2549.132539
585.084037	2549.409803
585.437113	2545.694472
585.790135	2547.655481
586.143103	2542.629451
586.496016	2546.430481
586.848874	2538.732639
587.201679	2542.624409
587.554428	2536.229706
587.907124	2538.609130
588.259765	2535.718029
588.612352	2543.378062
588.964884	2540.544933
589.317362	2539.887063
589.669786	2539.123328
590.022155	2538.760365
590.374470	2537.437062
590.726731	2539.209028
591.078937	2538.664583
591.431090	2539.856816
591.783188	2534.866074
592.135232	2533.242822
592.487222	2535.294572
592.839157	2532.433717
593.191038	2535.445806
593.542866	2533.638553
593.894639	2530.306350
594.246358	2531.344828
594.598022	2530.024045
594.949633	2530.881042
595.301190	2529.381298
595.652692	2528.206709
596.004141	2530.956659
596.355535	2526.727131
596.706876	2525.779394
597.058162	2524.146060
597.409395	2526.565814
597.760573	2525.436595
598.111698	2525.214785
598.462768	2526.480114
598.813785	2525.028262
599.164748	2522.568179
599.515657	2524.536749
599.866511	2523.231091
600.217312	2522.719413
600.568060	2521.895185
600.918753	2523.284023
601.269392	2522.505164
601.619978	2521.000380
601.970510	2520.851666
602.320988	2522.089269
602.671412	2523.344517
603.021783	2521.582633
603.372100	2523.412572
603.722363	2521.348220
604.072572	2522.348889
604.422728	2521.718744
604.772830	2515.122395
605.122878	2517.290091
605.472872	2516.725482
605.822813	2513.494102
606.172701	2518.303363
606.522534	2521.181862
606.872314	2519.921573
607.222041	2518.875534
607.571714	2521.164217
607.921333	2519.387211
608.270899	2520.859228
608.620411	2518.356295
608.969870	2516.985101
609.319276	2517.151459
609.668627	2519.843435
610.017926	2518.557941
610.367171	2519.049453
610.716362	2516.806140
611.065500	2517.660616
611.414585	2519.840915
611.763616	2516.785975
612.112594	2518.862931
612.461518	2518.263033
612.810389	2517.705986
613.159207	2519.450225
613.507971	2516.070132
613.856682	2516.675070
614.205340	2515.767662
614.553945	2519.533404
614.902496	2516.717920
615.250994	2519.435102
615.599439	2518.590708
615.947830	2517.882426
616.296169	2521.953158
616.644454	2518.633558
616.992686	2519.465349
617.340864	2521.262520
617.688990	2516.705317
618.037063	2519.016686
618.385082	2517.958044
618.733048	2519.770338
619.080961	2520.763446
619.428821	2520.990298
619.776628	2520.040040
620.124382	2518.152128
620.472083	2519.717406
620.819731	2521.113806
621.167326	2517.209432
621.514868	2518.331089
621.862357	2516.007117
622.209793	2515.097189
622.557176	2512.306910
622.904506	2511.696931
623.251783	2505.201404
623.599007	2509.279697
623.946179	2506.746518
624.293297	2507.416991
624.640363	2510.116529
624.987376	2506.340705
625.334336	2507.406909
625.681243	2507.732063
626.028097	2503.454644
626.374899	2505.720643
626.721647	2502.043121
627.068343	2507.124604
627.414987	2502.698471
627.761577	2504.591424
628.108115	2502.174191
628.454600	2503.568070
628.801032	2503.200066
629.147412	2501.183604
629.493739	2500.608913
629.840014	2502.206958
630.186236	2497.826196
630.532405	2499.646052
630.878521	2496.061792
631.224585	2500.198059
631.570597	2495.734117
631.916556	2499.759478
632.262462	2497.997595
632.608316	2497.707729
632.954117	2499.383912
633.299866	2495.340907
633.645562	2495.978613
633.991206	2498.015239
634.336797	2492.681698
634.682336	2494.020125
635.027823	2492.651451
635.373257	2489.077273
635.718639	2489.815802
636.063968	2493.024497
636.409245	2490.017448
636.754470	2491.406286
637.099642	2489.422592
637.444762	2486.896974
637.789829	2489.548621
638.134845	2487.522077
638.479808	2484.809937
638.824719	2484.333548
639.169577	2482.732981
639.514383	2483.663074
639.859137	2481.455049
640.203839	2485.356902
640.548489	2483.960502
640.893086	2480.782055
641.237632	2480.555203
641.582125	2481.208032
641.926566	2480.587970
642.270955	2479.292394
642.615292	2479.980511
642.959576	2482.435553
643.303809	2481.734833
643.647990	2479.310038
643.992118	2478.576550
644.336195	2482.397744
644.680219	2484.988897
645.024192	2483.010245
645.368112	2481.177785
645.711981	2481.765080
646.055797	2483.801706
646.399562	2486.728096
646.743274	2485.188023
647.086935	2487.277581
647.430544	2485.898826
647.774101	2484.883033
648.117606	2485.092241
648.461059	2486.586943
648.804460	2490.387973
649.147810	2487.169197
649.491108	2480.834987
649.834354	2482.352374
650.177548	2482.594349
650.520690	2480.149390
650.863781	2480.446818
651.206820	2480.519915
651.549807	2479.388176
651.892742	2477.507825
652.235626	2476.333236
652.578458	2478.697538
652.921238	2473.527834
653.263967	2477.689307
653.606644	2476.048411
653.949269	2475.367855
654.291843	2472.529686
654.634365	2472.980869
654.976836	2472.794346
655.319255	2475.254429
655.661622	2471.599593
656.003938	2472.880046
656.346203	2470.992134
656.688416	2474.551188
657.030577	2470.160343
657.372687	2472.917855
657.714746	2472.300313
658.056753	2471.682772
658.398708	2467.896865
658.740612	2468.847123
659.082465	2465.779581
659.424266	2466.712194
659.766016	2464.310084
660.107715	2469.404170
660.449362	2472.164202
660.790958	2469.888121
661.132503	2471.700416
661.473996	2471.077833
661.815438	2468.146403
662.156829	2471.423153
662.498168	2471.463482
662.839456	2472.688482
663.180693	2469.958697
663.521879	2471.990282
663.863013	2472.935499
664.204097	2472.275108
664.545129	2468.196814
664.886110	2470.533389
665.227040	2469.447020
665.567918	2471.365179
665.908746	2468.653038
666.249522	2469.157154
666.590248	2471.864253
666.930922	2471.027422
667.271545	2473.064048
667.612118	2473.618575
667.952639	2473.293421
668.293109	2471.609675
668.633528	2473.716877
668.973896	2469.744448
669.314213	2468.000209
669.654480	2469.666310
669.994695	2469.023563
670.334859	2469.535240
670.674973	2470.717391
671.015035	2469.073975
671.355047	2467.533902
671.695008	2470.072123
672.034918	2468.771506
672.374777	2470.127576
672.714585	2467.533902
673.054342	2470.157823
673.394049	2468.768985
673.733705	2469.613378
674.073310	2467.710343
674.412864	2469.933492
674.752368	2468.017853
675.091820	2468.063223
675.431223	2464.143726
675.770574	2466.019036
676.109875	2459.107614
676.449125	2464.443675
676.788324	2461.413942
677.127473	2463.316977
677.466571	2460.582151
677.805619	2465.096504
678.144616	2462.344034
678.483562	2467.140692
678.822458	2461.832357
679.161303	2461.968468
679.500098	2461.030814
679.838842	2463.392594
680.177535	2464.345372
680.516179	2462.538119
680.854771	2462.389405
681.193314	2462.081894
681.531805	2466.387040
681.870247	2470.402319
682.208638	2468.716053
682.546978	2470.266208
682.885268	2471.292083
683.223508	2470.132617
683.561697	2467.496094
683.899836	2468.761423
684.237925	2465.852678
684.575963	2467.997688
684.913951	2466.359313
685.251889	2468.312761
685.589776	2466.591207
685.927614	2464.544498
686.265401	2467.803604
686.603137	2466.623974
686.940824	2468.698409
687.278460	2468.605148
687.616046	2469.699078
687.953582	2469.545323
688.291068	2470.321660
688.628504	2470.407360
688.965889	2467.133131
689.303224	2470.450210
689.640510	2470.291413
689.977745	2468.615230
690.314930	2466.906279
690.652065	2467.614561
690.989150	2463.871504
691.326185	2462.356637
691.663170	2461.832357
692.000105	2460.967799
692.336990	2458.825309
692.673825	2457.643158
693.010610	2455.157870
693.347345	2453.615277
693.684030	2446.345933
694.020665	2450.280553
694.357251	2447.676797
694.693786	2451.366922
695.030272	2447.606221
695.366707	2448.553958
695.703093	2447.417178
696.039429	2449.927672
696.375716	2448.264092
696.711952	2448.465738
697.048139	2447.268464
697.384276	2445.887188
697.720363	2450.399020
698.056400	2445.075562
698.392388	2448.332147
698.728326	2449.211829
699.064214	2447.238217
699.400053	2447.107147
699.735842	2447.553289
700.071581	2446.517332
700.407270	2445.864503
700.742910	2445.274688
701.078501	2442.776796
701.414042	2444.049687
701.749533	2443.316199
702.084974	2441.244285
702.420366	2445.199070
702.755709	2444.127825
703.091002	2441.130859
703.426246	2442.597835
703.761440	2444.548761
704.096584	2440.614141
704.431679	2441.498863
704.766725	2440.268822
705.101721	2439.351332
705.436668	2437.211362
705.771565	2440.528441
706.106413	2441.019954
706.441212	2438.154058
706.775961	2440.911569
707.110661	2441.168668
707.445311	2440.674635
707.779913	2443.500201
708.114465	2441.198915
708.448967	2440.614141
708.783421	2443.568257
709.117825	2444.125304
709.452180	2445.720830
709.786485	2445.821653
710.120742	2448.624534
710.454949	2446.615634
710.789107	2448.261571
711.123216	2444.866354
711.457275	2450.557817
711.791286	2446.653443
712.125247	2449.920111
712.459159	2450.215018
712.793023	2454.222736
713.126837	2447.724688
713.460602	2453.141408
713.794318	2449.068156
714.127985	2450.187292
714.461602	2446.464400
714.795171	2449.794082
715.128691	2441.907197
715.462162	2446.517332
715.795584	2444.521035
716.128957	2442.285283
716.462281	2441.735798
716.795556	2439.333688
717.128782	2438.794284
717.461960	2440.919131
717.795088	2440.495674
718.128167	2438.567432
718.461198	2437.102977
718.794180	2436.828234
719.127113	2433.753130
719.459997	2436.921496
719.792833	2435.835127
720.125619	2435.847730
720.458357	2434.849581
720.791046	2435.918306
721.123686	2436.271187
721.456278	2438.433842
721.788821	2435.000816
722.121315	2435.477205
722.453761	2433.785898
722.786158	2436.180446
723.118506	2432.684406
723.450805	2433.546443
723.783056	2431.678696
724.115259	2435.346135
724.447412	2430.947728
724.779518	2434.650456
725.111574	2434.743717
725.443582	2434.100970
725.775542	2435.275559
726.107453	2437.168512
726.439315	2435.129365
726.771129	2439.313523
727.102895	2435.946032
727.434612	2438.025508
727.766281	2438.048193
728.097901	2435.520055
728.429473	2436.833275
728.760996	2432.850764
729.092471	2433.183480
729.423897	2438.181784
729.755276	2439.132042
730.086606	2439.182453
730.417887	2442.242433
730.749120	2440.848554
731.080305	2439.777309
731.411442	2439.328647
731.742530	2440.833431
732.073570	2442.497012
732.404562	2443.943823
732.735506	2444.886519
733.066401	2443.205294
733.397249	2441.899635
733.728048	2439.676486
734.058798	2438.310333
734.389501	2432.283634
734.720156	2435.449479
735.050762	2433.879159
735.381320	2435.963676
735.711831	2433.755651
736.042293	2429.871442
736.372707	2433.080136
736.703073	2431.925712
737.033391	2433.067533
737.363661	2433.753130
737.693883	2435.182297
738.024056	2436.482915
738.354182	2434.151382
738.684260	2432.689447
739.014290	2434.216917
739.344272	2435.222627
739.674207	2435.368820
740.004093	2436.727411
740.333931	2435.333532
740.663722	2436.931578
740.993464	2434.360589
741.323159	2436.198090
741.652806	2437.244129
741.982405	2435.106680
742.311956	2434.942843
742.641460	2436.011567
742.970915	2434.378233
743.300323	2434.489139
743.629683	2434.186670
743.958996	2432.482760
744.288260	2431.010743
744.617477	2429.173242
744.946647	2426.756009
745.275768	2428.104517
745.604842	2428.066709
745.933869	2427.600402
746.262847	2425.599064
746.591778	2429.153078
746.920662	2426.088056
747.249498	2430.259611
747.578286	2428.313725
747.907027	2429.432862
748.235720	2428.422110
748.564365	2431.537543
748.892963	2428.933787
749.221514	2430.325146
749.550017	2428.918664
749.878473	2430.267173
750.206881	2430.438572
750.535242	2427.648293
750.863555	2429.392532
751.191821	2429.044693
751.520039	2428.464960
751.848210	2425.805751
752.176334	2429.891607
752.504411	2428.220464
752.832440	2427.610484
753.160421	2429.818510
753.488356	2426.856832
753.816243	2425.588982
754.144082	2423.428847
754.471875	2427.489497
754.799620	2425.825916
755.127318	2427.948242
755.454969	2426.148550
755.782572	2427.807089
756.110129	2425.636873
756.437638	2427.822213
756.765100	2426.088056
757.092515	2424.550504
757.419882	2425.084866
757.747203	2428.001174
758.074477	2427.585279
758.401703	2427.378591
758.728882	2427.764240
759.056014	2427.706266
759.383099	2428.001174
759.710138	2428.578386
760.037129	2430.778850
760.364073	2429.556370
760.690970	2431.230033
761.017820	2429.321956
761.344623	2429.682399
761.671379	2429.974786
761.998088	2429.226174
762.324751	2434.683223
762.651366	2440.548606
762.977935	2454.184927
763.304456	2454.061419
763.630931	2462.659107
763.957359	2460.839250
764.283740	2453.910184
764.610074	2449.642847
764.936362	2442.189501
765.262602	2439.137083
765.588796	2438.496856
765.914943	2433.077616
766.241044	2430.244487
766.567097	2426.985381
766.893104	2428.139806
767.219064	2423.794331
767.544978	2426.113262
767.870845	2428.888417
768.196665	2422.682757
768.522438	2422.072777
768.848165	2422.294588
769.173846	2422.627304
769.499479	2420.217632
769.825066	2419.398445
770.150607	2420.091603
770.476101	2418.664957
770.801548	2421.049423
771.126949	2419.466500
771.452303	2417.500450
771.777611	2415.771335
772.102872	2417.623959
772.428087	2415.325192
772.753256	2419.254772
773.078378	2417.719741
773.403453	2418.932138
773.728482	2415.824267
774.053465	2418.652354
774.378401	2419.882396
774.703291	2418.206212
775.028135	2416.499781
775.352932	2416.913156
775.677683	2414.372414
776.002388	2416.129257
776.327046	2415.811664
776.651658	2414.521128
776.976224	2413.263361
777.300743	2414.395100
777.625216	2416.824936
777.949643	2416.046078
778.274024	2413.916190
778.598359	2410.775551
778.922647	2415.055491
779.246889	2412.103895
779.571086	2410.082393
779.895236	2416.235121
780.219339	2414.334606
780.543397	2414.629513
780.867409	2413.505336
781.191374	2411.501477
781.515294	2414.972312
781.839167	2414.226221
782.162995	2415.005079
782.486776	2413.079358
782.810511	2413.510377
783.134201	2413.661612
783.457844	2414.679925
783.781441	2413.883423
784.104993	2413.888464
784.428498	2412.938206
784.751958	2412.827301
785.075372	2414.485840
785.398739	2414.566499
785.722061	2413.220511
786.045337	2412.003072
786.368568	2414.432908
786.691752	2415.446180
787.014891	2415.776376
787.337983	2415.173958
787.661030	2417.939031
787.984031	2420.290729
788.306987	2418.584298
788.629897	2421.714855
788.952760	2419.542118
789.275579	2419.809299
789.598351	2421.571182
789.921078	2418.206212
790.243759	2416.751839
790.566395	2416.338464
790.888984	2415.231931
791.211529	2415.347878
791.534027	2415.355439
791.856480	2413.510377
792.178888	2414.871489
792.501249	2413.442322
792.823566	2414.112795
793.145836	2414.337126
793.468062	2412.955850
793.790241	2413.026426
794.112375	2415.723444
794.434464	2413.422157
794.756507	2413.807805
795.078505	2414.715213
795.400457	2412.456776
795.722364	2410.614234
796.044226	2413.097002
796.366042	2411.723288
796.687812	2414.014492
797.009538	2417.218146
797.331218	2417.160172
797.652852	2415.242013
797.974442	2418.276788
798.295986	2417.119843
798.617484	2414.833680
798.938938	2414.831159
799.260346	2412.885274
799.581709	2414.004410
799.903026	2415.269740
800.224299	2414.868968
800.545526	2415.355439
800.866708	2413.147414
801.187845	2415.438618
801.508936	2411.614903
801.829983	2412.766807
802.150984	2413.467527
802.471940	2413.127249
802.792851	2411.186405
803.113717	2413.477610
803.434538	2411.398134
803.755314	2411.730850
804.076045	2412.068607
804.396731	2412.224883
804.717372	2412.335788
805.037967	2410.367218
805.358518	2413.054153
805.679024	2413.013823
805.999485	2412.456776
806.319901	2410.957033
806.640272	2411.856879
806.960598	2417.480286
807.280879	2411.932496
807.601115	2411.970305
807.921306	2412.751683
808.241453	2414.848803
808.561554	2412.010634
808.881611	2412.829821
809.201623	2414.445511
809.521590	2411.859399
809.841513	2410.520973
810.161390	2413.432239
810.481223	2410.589028
810.801011	2413.049112
811.120755	2413.187743
811.440453	2413.401992
811.760107	2410.105078
812.079716	2410.450397
812.399281	2406.921589
812.718801	2409.815211
813.038276	2407.360169
813.357707	2409.550551
813.677093	2409.795047
813.996434	2411.761097
814.315731	2409.013668
814.634983	2410.899059
814.954191	2409.515263
815.273354	2414.251427
815.592473	2412.575243
815.911547	2413.238155
816.230577	2411.592218
816.549562	2413.754873
816.868502	2414.158165
817.187399	2412.000552
817.506250	2415.060532
817.825058	2418.072621
818.143821	2416.076324
818.462539	2416.088927
818.781213	2416.119174
819.099843	2423.338107
819.418429	2421.682087
819.736970	2425.261307
820.055466	2429.785742
820.373919	2430.776329
820.692327	2440.014243
821.010691	2455.052005
821.329011	2482.836325
821.647286	2533.895652
821.965517	2587.168045
822.283704	2614.231479
822.601847	2623.761781
822.919945	2602.578852
823.237999	2576.747980
823.556010	2550.213867
823.873976	2527.763088
824.191897	2504.485560
824.509775	2489.553662
824.827609	2479.589822
825.145398	2472.496918
825.463144	2466.399643
825.780845	2468.600106
826.098502	2470.772844
826.416116	2482.962354
826.733685	2494.788901
827.051210	2494.625063
827.368692	2493.490803
827.686129	2478.616879
828.003522	2465.446865
828.320872	2452.173507
828.638177	2445.887188
828.955439	2437.264294
829.272656	2430.927564
829.589830	2423.668302
829.906960	2427.003025
830.224046	2421.702252
830.541088	2421.777869
830.858086	2418.901891
831.175041	2416.827456
831.491952	2418.417940
831.808819	2421.493044
832.125642	2421.430030
832.442421	2422.158477
832.759157	2428.278437
833.075849	2438.769078
833.392497	2446.293001
833.709101	2450.761983
834.025662	2453.935390
834.342179	2448.697631
834.658653	2439.933585
834.975083	2434.342945
835.291469	2433.541402
835.607811	2425.019331
835.924110	2422.357602
836.240366	2421.999680
836.556578	2417.160173
836.872746	2416.328382
837.188871	2416.104051
837.504952	2412.731519
837.820990	2409.298493
838.136984	2411.733370
838.452935	2410.717578
838.768842	2410.034502
839.084706	2413.951478
839.400526	2414.717733
839.716303	2420.953641
840.032037	2425.105031
840.347727	2419.590009
840.663373	2421.901378
840.978977	2417.109761
841.294537	2414.868968
841.610054	2411.521642
841.925527	2411.998031
842.240957	2410.818401
842.556344	2407.990314
842.871687	2406.881260
843.186987	2402.298851
843.502244	2404.322874
843.817458	2404.670714
844.132629	2402.631567
844.447756	2403.675086
844.762840	2400.756258
845.077881	2400.199210
845.392879	2402.969324
845.707833	2403.138203
846.022745	2401.157030
846.337613	2399.828686
846.652438	2405.542833
846.967221	2405.691547
847.281960	2403.665004
847.596656	2402.750034
847.911309	2402.598800
848.225919	2401.789694
848.540485	2404.564850
848.855009	2404.529562
849.169490	2403.060065
849.483928	2404.864798
849.798323	2400.809190
850.112675	2402.523182
850.426984	2403.140724
850.741251	2399.919426
851.055474	2400.607544
851.369654	2402.802966
851.683792	2401.961094
851.997887	2402.994530
852.311938	2401.711557
852.625947	2403.972514
852.939914	2403.813718
853.253837	2403.571742
853.567718	2400.874725
853.881555	2400.393295
854.195350	2401.646022
854.509103	2401.635939
854.822812	2399.536299
855.136479	2400.763820
855.450103	2401.383882
855.763685	2403.657442
856.077224	2404.343039
856.390720	2405.626013
856.704173	2403.138203
857.017584	2403.327246
857.330953	2404.020405
857.644278	2404.869839
857.957561	2406.374624
858.270802	2404.302710
858.584000	2402.805487
858.897155	2401.532596
859.210268	2402.329098
859.523339	2404.363203
859.836367	2400.751217
860.149352	2403.990158
860.462295	2402.429921
860.775195	2398.477656
861.088054	2398.313819
861.400869	2401.106618
861.713642	2396.534292
862.026373	2401.898079
862.339062	2403.002092
862.651708	2401.799777
862.964312	2402.049314
863.276873	2403.251629
863.589392	2401.938408
863.901869	2402.616444
864.214303	2400.937739
864.526696	2404.592576
864.839045	2405.883111
865.151353	2404.096022
865.463619	2403.181053
865.775842	2402.868501
866.088023	2406.004099
866.400162	2406.374624
866.712258	2405.386558
867.024313	2405.545354
867.336325	2403.493604
867.648296	2403.944788
867.960224	2402.210631
868.272110	2403.957391
868.583954	2405.121897
868.895755	2401.913203
869.207515	2405.270611
869.519233	2402.102246
869.830909	2405.784809
870.142542	2405.010992
870.454134	2401.749365
870.765684	2403.458316
871.077191	2405.048800
871.388657	2403.231464
871.700081	2405.547875
872.011463	2403.372617
872.322803	2402.543347
872.634101	2406.147772
872.945357	2406.336815
873.256571	2408.907804
873.567744	2405.439490
873.878874	2404.509397
874.189963	2407.128276
874.501010	2407.145920
874.812015	2404.416136
875.122979	2406.016702
875.433900	2408.363359
875.744780	2409.353946
876.055618	2404.073337
876.366415	2406.097360
876.677169	2407.831517
876.987882	2408.060890
877.298554	2403.365055
877.609183	2405.540313
877.919771	2405.610889
878.230317	2407.992834
878.540822	2407.440828
878.851285	2411.095664
879.161707	2412.965933
879.472087	2418.387693
879.782425	2422.637386
880.092722	2433.932091
880.402977	2453.895061
880.713191	2470.777885
881.023363	2492.175062
881.333494	2504.997237
881.643583	2511.258350
881.953631	2506.731394
882.263637	2499.310816
882.573602	2492.590957
882.883526	2482.942189
883.193408	2476.182002
883.503248	2467.493573
883.813048	2461.378653
884.122806	2451.286263
884.432522	2449.942796
884.742197	2437.458378
885.051831	2435.204983
885.361424	2432.754982
885.670975	2426.952614
885.980485	2421.903898
886.289954	2420.688980
886.599382	2413.525501
886.908768	2416.038516
887.218113	2411.756056
887.527417	2413.535583
887.836680	2409.265726
888.145901	2410.831004
888.455082	2410.039543
888.764221	2408.126425
889.073319	2409.429563
889.382376	2408.209604
889.691392	2406.661970
890.000366	2408.975859
890.309300	2405.893194
890.618193	2407.748338
890.927044	2406.543502
891.235855	2407.511404
891.544625	2405.613410
891.853353	2407.806312
892.162041	2409.341343
892.470687	2409.742115
892.779293	2409.502660
893.087858	2407.153482
893.396381	2410.379821
893.704864	2414.407702
894.013306	2422.103024
894.321707	2430.935125
894.630068	2437.294541
894.938387	2436.341763
895.246665	2431.784560
895.554903	2432.820517
895.863100	2425.334403
896.171256	2426.579568
896.479371	2420.285688
896.787446	2421.402303
897.095480	2419.761408
897.403473	2415.113464
897.711425	2415.965419
898.019336	2416.527508
898.327207	2413.964081
898.635038	2411.740932
898.942827	2410.382341
899.250576	2409.308575
899.558284	2410.087434
899.865952	2407.095509
900.173579	2405.923441
900.481165	2409.676580
900.788711	2403.579304
901.096216	2407.098029
901.403681	2407.755900
901.711105	2406.014181
902.018489	2402.298851
902.325832	2408.222207
902.633135	2407.435787
902.940397	2410.747825
903.247619	2413.686818
903.554800	2422.314752
903.861941	2429.470670
904.169041	2438.083482
904.476101	2444.941971
904.783121	2441.372834
905.090100	2436.641712
905.397039	2433.813624
905.703938	2428.253232
906.010796	2424.333734
906.317614	2421.432550
906.624391	2418.352405
906.931129	2416.197312
907.237826	2415.027764
907.544483	2409.779923
907.851099	2411.451066
908.157675	2407.473595
908.464211	2405.734397
908.770707	2399.085115
909.077163	2403.196176
909.383578	2398.303737
909.689954	2402.860940
909.996289	2397.542522
910.302584	2401.759447
910.608839	2401.126783
910.915054	2400.675599
911.221229	2403.670045
911.527363	2399.453120
911.833458	2402.901269
912.139513	2401.472102
912.445527	2403.987637
912.751502	2402.369427
913.057436	2404.837072
913.363331	2404.927813
913.669186	2403.042421
913.975000	2410.062228
914.280775	2406.266239
914.586510	2411.277146
914.892205	2417.497930
915.197859	2420.885585
915.503475	2431.565270
915.809050	2432.006371
916.114585	2441.052721
916.420081	2439.711774
916.725536	2439.376538
917.030952	2439.719336
917.336328	2436.152720
917.641665	2434.839499
917.946961	2427.502100
918.252218	2428.772470
918.557435	2423.885072
918.862612	2421.346851
919.167750	2421.747622
919.472848	2417.311407
919.777906	2416.817374
920.082925	2412.113977
920.387904	2410.057187
920.692843	2408.761610
920.997743	2408.403688
921.302603	2409.301014
921.607423	2405.079047
921.912204	2406.354459
922.216946	2405.973852
922.521647	2401.550240
922.826310	2404.068296
923.130932	2403.475960
923.435516	2400.829355
923.740059	2399.969838
924.044564	2399.690054
924.349028	2403.551578
924.653454	2395.962121
924.957840	2397.880280
925.262186	2396.952707
925.566493	2398.384395
925.870761	2394.595968
926.174989	2399.014539
926.479178	2398.422204
926.783328	2396.221740
927.087438	2396.846843
927.391509	2400.123593
927.695541	2399.992523
927.999533	2399.301885
928.303486	2398.129817
928.607400	2398.326422
928.911275	2399.659807
929.215110	2397.875238
929.518906	2397.413973
929.822663	2398.795249
930.126381	2397.043448
930.430060	2396.367933
930.733699	2396.867008
931.037299	2396.070505
931.340861	2396.524209
931.644383	2397.482028
931.947866	2398.132337
932.251309	2395.614281
932.554714	2399.259035
932.858080	2397.653428
933.161407	2397.660989
933.464694	2398.412121
933.767943	2394.558159
934.071153	2397.781977
934.374323	2399.064951
934.677455	2398.555794
934.980548	2399.455640
935.283602	2396.924981
935.586617	2396.171328
935.889593	2396.814076
936.192530	2398.046638
936.495428	2398.144940
936.798287	2397.678633
937.101108	2400.892369
937.403890	2398.759961
937.706632	2398.742317
938.009336	2399.412790
938.312002	2401.509910
938.614628	2398.838099
938.917216	2401.482184
939.219765	2401.799777
939.522275	2400.617626
939.824747	2401.973697
940.127179	2399.730383
940.429573	2396.297357
940.731929	2399.564025
941.034246	2395.463046
941.336524	2401.091495
941.638763	2399.816083
941.940964	2400.428583
942.243126	2396.710732
942.545250	2401.393964
942.847335	2399.818603
943.149381	2399.203582
943.451389	2398.870866
943.753359	2397.827348
944.055290	2399.437996
944.357182	2398.772564
944.659036	2399.601834
944.960851	2400.040414
945.262628	2397.482028
945.564367	2398.991854
945.866067	2396.546894
946.167729	2396.050341
946.469352	2396.657800
946.770937	2398.961607
947.072484	2396.332645
947.373992	2398.137378
947.675462	2398.765002
947.976893	2396.100752
948.278286	2397.789539
948.579641	2397.103942
948.880958	2397.497152
949.182236	2397.850033
949.483476	2395.400032
949.784678	2397.882800
950.085841	2397.635784
950.386967	2399.483367
950.688054	2399.818603
950.989103	2398.417163
951.290114	2398.162584
951.591087	2396.854405
951.892021	2399.059910
952.192917	2397.724004
952.493776	2398.999416
952.794596	2397.734086
953.095378	2399.508572
953.396122	2397.708880
953.696828	2399.735424
953.997496	2400.650394
954.298126	2400.496638
954.598718	2399.533778
954.899272	2398.212996
955.199788	2398.034035
955.500266	2397.003119
955.800706	2395.959600
956.101108	2396.115876
956.401472	2394.137223
956.701798	2390.517674
957.002087	2394.664023
957.302337	2395.218550
957.602550	2396.529250
957.902724	2393.877603
958.202861	2396.231822
958.502960	2393.461708
958.803022	2395.762995
959.103045	2393.653272
959.403031	2397.083777
959.702979	2397.204765
960.002889	2395.087480
960.302762	2397.340876
960.602596	2393.134033
960.902393	2394.911040
961.202153	2392.743344
961.501875	2396.662841
961.801559	2394.469939
962.101205	2392.904661
962.400814	2395.465567
962.700385	2392.821482
962.999918	2393.053375
963.299414	2392.690412
963.598873	2395.253838
963.898293	2390.931049
964.197677	2393.512120
964.497022	2394.855587
964.796331	2391.775442
965.095601	2390.421892
965.394835	2390.021121
965.694030	2395.417676
965.993189	2394.938766
966.292309	2394.855587
966.591393	2395.926833
966.890439	2393.575134
967.189447	2392.952552
967.488419	2393.489435
967.787353	2393.665875
968.086249	2392.370298
968.385108	2394.671585
968.683930	2392.617315
968.982714	2394.938766
969.281462	2394.704353
969.580172	2393.708725
969.878844	2393.809548
970.177480	2394.434651
970.476078	2394.447254
970.774639	2391.084804
971.073162	2395.445402
971.371649	2390.956255
971.670098	2389.940462
971.968510	2391.851060
972.266885	2389.398538
972.565223	2392.284599
972.863524	2393.726369
973.161788	2395.384908
973.460014	2393.915412
973.758204	2392.609753
974.056356	2394.666544
974.354471	2394.502707
974.652550	2393.582696
974.950591	2394.338869
975.248595	2393.670916
975.546563	2393.617984
975.844493	2395.241236
976.142386	2395.190824
976.440243	2395.712583
976.738062	2394.117058
977.035845	2393.502038
977.333590	2393.013046
977.631299	2391.823333
977.928971	2394.646379
978.226606	2396.463715
978.524204	2395.238715
978.821765	2393.312994
979.119290	2395.087480
979.416777	2390.197561
979.714228	2395.669734
980.011642	2394.681668
980.309020	2395.236194
980.606360	2393.698643
980.903664	2395.251318
981.200931	2396.408263
981.498162	2392.818961
981.795356	2395.757954
982.092513	2397.532440
982.389633	2397.562687
982.686717	2396.985475
982.983764	2400.267266
983.280775	2398.868346
983.577749	2397.688716
983.874686	2398.074364
984.171587	2398.933881
984.468451	2398.268448
984.765279	2398.361710
985.062070	2395.926833
985.358824	2397.197203
985.655543	2398.223078
985.952224	2395.626884
986.248869	2395.720145
986.545478	2388.838970
986.842050	2392.352654
987.138586	2391.659496
987.435086	2392.405587
987.731549	2390.139588
988.027975	2392.135885
988.324366	2393.310474
988.620719	2392.410628
988.917037	2393.711245
989.213318	2393.890206
989.509563	2391.193189
989.805772	2391.649413
990.101944	2392.065309
990.398080	2394.643859
990.694180	2393.524723
990.990244	2392.844167
991.286271	2391.911553
991.582262	2394.172511
991.878217	2396.536812
992.174136	2393.607902
992.470019	2392.594630
992.765865	2392.017418
993.061676	2391.546070
993.357450	2395.090001
993.653188	2391.994732
993.948890	2392.760988
994.244556	2395.183262
994.540186	2392.261914
994.835780	2393.567573
995.131337	2393.769219
995.426859	2395.836092
995.722345	2397.124107
996.017795	2394.197717
996.313208	2396.781308
996.608586	2393.318035
996.903928	2394.026318
997.199234	2396.206617
997.494504	2394.606050
997.789738	2394.704353
998.084936	2394.732079
998.380099	2395.367264
998.675225	2394.742161
998.970316	2395.102604
999.265371	2395.306771
999.560390	2396.378016
999.855373	2392.123282
1000.150320	2390.724362
1000.445232	2392.188817
1000.740108	2393.013046
1001.034948	2394.306102
1001.329752	2394.175032
1001.624521	2392.655124
1001.919254	2385.443753
1002.213951	2388.657489
1002.508613	2390.278220
1002.803239	2387.931563
1003.097829	2387.157745
1003.392384	2393.761657
1003.686903	2392.718138
1003.981386	2391.046996
1004.275834	2391.722510
1004.570246	2392.256873
1004.864623	2390.978940
1005.158964	2393.744013
1005.453270	2391.188148
1005.747540	2393.691081
1006.041775	2393.325597
1006.335974	2391.846018
1006.630138	2391.069681
1006.924266	2393.474311
1007.218359	2391.173024
1007.512416	2391.485576
1007.806438	2392.511451
1008.100425	2392.622356
1008.394376	2391.830895
1008.688292	2392.589589
1008.982172	2389.892571
1009.276017	2392.927346
1009.569827	2391.102448
1009.863602	2390.253014
1010.157341	2389.212016
1010.451045	2388.995246
1010.744714	2389.554814
1011.038347	2394.666544
1011.331945	2392.740823
1011.625508	2392.093035
1011.919036	2393.232336
1012.212528	2393.247459
1012.505986	2390.681512
1012.799408	2391.520864
1013.092795	2389.643034
1013.386147	2389.847201
1013.679464	2390.013559
1013.972745	2391.339383
1014.265992	2391.669578
1014.559204	2392.907181
1014.852380	2391.949362
1015.145521	2391.046996
1015.438628	2390.689074
1015.731699	2391.243601
1016.024736	2391.694784
1016.317737	2392.161091
1016.610703	2391.982130
1016.903635	2388.982643
1017.196531	2390.386604
1017.489393	2389.663199
1017.782219	2385.635317
1018.075011	2389.741337
1018.367768	2389.494320
1018.660490	2390.724362
1018.953177	2390.724362
1019.245829	2390.724362
