Dividing Wavelength (nm)	Counts (n)	Blue Motor Position (mm): 0.000000	Red Motor Position (mm): 48.200000	
326.493990	1998.643580
326.888308	1998.643580
327.282561	1998.643580
327.676750	1973.977214
328.070874	1974.385548
328.464933	1983.842752
328.858929	1991.764926
329.252859	2004.680362
329.646726	2019.050171
330.040528	2031.784126
330.434265	2052.959492
330.827938	2073.668552
331.221547	2091.746130
331.615091	2114.290170
332.008571	2134.364045
332.401986	2153.349030
332.795338	2174.912566
333.188625	2195.961903
333.581847	2214.820860
333.975006	2232.099415
334.368100	2251.603639
334.761129	2268.148706
335.154095	2281.202774
335.546996	2327.316729
335.939833	2411.710685
336.332606	2426.413210
336.725315	2440.074737
337.117960	2449.368104
337.510540	2456.551749
337.903056	2466.008953
338.295508	2472.131435
338.687896	2480.310707
339.080220	2489.160452
339.472480	2492.263283
339.864676	2497.279231
340.256807	2499.020949
340.648875	2500.266114
341.040879	2502.297699
341.432818	2502.522031
341.824694	2506.381034
342.216506	2503.855416
342.608253	2506.713750
342.999937	2503.535302
343.391557	2503.182422
343.783113	2502.945488
344.174605	2501.637308
344.566033	2494.287306
344.957397	2498.531957
345.348697	2493.851246
345.739934	2493.717655
346.131106	2492.439723
346.522215	2491.008035
346.913260	2486.450832
347.304241	2492.653972
347.695159	2484.696511
348.086012	2485.941676
348.476802	2483.549648
348.867528	2479.541931
349.258191	2481.238279
349.648789	2481.369349
350.039324	2477.744759
350.429796	2480.756849
350.820203	2477.036477
351.210548	2477.855665
351.600828	2478.274081
351.991045	2474.513380
352.381198	2477.538072
352.771288	2477.679224
353.161314	2473.580766
353.551276	2475.536734
353.941175	2470.540951
354.331010	2476.829790
354.720782	2475.602269
355.110490	2481.145018
355.500135	2476.857516
355.889717	2474.790643
356.279235	2478.190902
356.668689	2476.164358
357.058080	2477.661580
357.447408	2479.539410
357.836672	2475.085551
358.225873	2477.921200
358.615010	2480.764411
359.004084	2484.641058
359.393095	2483.446304
359.782043	2484.557879
360.170927	2484.399082
360.559748	2485.266161
360.948505	2485.939155
361.337199	2490.803868
361.725830	2488.923518
362.114398	2490.687922
362.502903	2489.427633
362.891344	2492.273365
363.279722	2490.924856
363.668037	2494.299909
364.056289	2493.306801
364.444478	2495.038438
364.832603	2494.892244
365.220665	2498.484066
365.608665	2498.262256
365.996601	2494.970382
366.384474	2501.017246
366.772284	2502.496825
367.160031	2500.624036
367.547715	2504.987155
367.935336	2502.257370
368.322893	2504.931702
368.710388	2504.944305
369.097820	2511.326406
369.485189	2507.379182
369.872495	2509.332629
370.259738	2513.904956
370.646918	2517.421161
371.034035	2515.928979
371.421090	2519.268744
371.808081	2522.462315
372.195010	2530.515558
372.581875	2533.885569
372.968678	2540.373534
373.355418	2547.534493
373.742096	2561.652245
374.128710	2571.434604
374.515262	2582.071438
374.901751	2598.934098
375.288177	2615.395986
375.674540	2635.411887
376.060841	2656.630104
376.447079	2682.244206
376.833254	2706.356045
377.219367	2727.816237
377.605417	2766.640683
377.991404	2794.813172
378.377329	2835.051662
378.763191	2872.215048
379.148991	2921.187337
379.534727	2972.523927
379.920402	3019.026051
380.306013	3069.835840
380.691563	3137.939308
381.077049	3193.941486
381.462474	3251.261926
381.847835	3325.744974
382.233134	3401.609298
382.618371	3463.975933
383.003545	3551.528173
383.388657	3634.487921
383.773706	3730.849577
384.158693	3806.292965
384.543618	3904.262748
384.928480	3984.671673
385.313280	4092.050770
385.698017	4202.416752
386.082692	4325.635154
386.467305	4387.351480
386.851856	4521.667983
387.236344	4678.722611
387.620770	4745.114607
388.005133	4870.979616
388.389435	5024.364283
388.773674	5109.390905
389.157851	5246.177573
389.541965	5381.015836
389.926018	5407.746554
390.310008	5591.045428
390.693936	5717.845571
391.077802	5836.721020
391.461606	5973.001052
391.845348	6090.860709
392.229027	6216.292178
392.612645	6441.500685
392.996200	6564.986269
393.379694	6747.735658
393.763125	6972.389638
394.146494	7071.125677
394.529801	7214.848973
394.913047	7465.883311
395.296230	7461.240408
395.679351	7520.887341
396.062410	7797.704660
396.445408	7684.986981
396.828343	7846.999583
397.211217	7987.378074
397.594028	7868.409363
397.976778	8077.571878
398.359466	8248.431705
398.742092	8214.769400
399.124656	8371.234213
399.507158	8563.259324
399.889598	8589.503571
400.271977	8793.834140
400.654294	8836.142023
401.036549	9041.818580
401.418742	9068.314884
401.800874	9376.646977
402.182944	9458.187640
402.564952	9833.443571
402.946898	9656.234410
403.328783	9713.154078
403.710606	9913.313092
404.092367	10180.020377
404.474067	10553.330423
404.855705	10339.643473
405.237282	10289.761255
405.618797	10726.743594
406.000250	10990.582463
406.381642	11357.215500
406.762972	11301.246089
407.144240	11102.584299
407.525447	11363.819412
407.906593	11304.613580
408.287677	11564.285935
408.668700	11729.938251
409.049661	11701.390197
409.430560	11873.119623
409.811399	11834.466576
410.192176	11998.230979
410.572891	12079.305336
410.953545	12590.783326
411.334138	12040.206147
411.714669	12675.618383
412.095139	11945.298864
412.475547	12479.477169
412.855894	12308.403093
413.236180	12655.116010
413.616405	12326.649549
413.996568	12618.318108
414.376670	12580.194382
414.756711	12451.377778
415.136691	12741.917118
415.516609	12937.241665
415.896466	13008.435360
416.276262	13296.673413
416.655997	13751.534204
417.035670	13775.305765
417.415283	14445.615389
417.794834	14546.267067
418.174324	14280.449545
418.553753	14179.649154
418.933121	14688.326782
419.312428	14488.666843
419.691674	14404.807249
420.070859	14859.834398
420.449983	14517.156924
420.829045	15078.378500
421.208047	14816.674559
421.586988	15293.723989
421.965867	15551.924327
422.344686	15550.064142
422.723444	16124.710310
423.102141	14783.753304
423.480777	16000.697925
423.859352	15501.046482
424.237866	16634.325593
424.616319	16329.716392
424.994712	17006.251842
425.373044	16796.998587
425.751314	17493.844844
426.129524	16586.207780
426.507673	17728.336636
426.885762	17399.003097
427.263789	17615.243391
427.641756	17787.769319
428.019662	17838.773193
428.397508	17895.191267
428.775292	18216.811841
429.153016	18162.049787
429.530679	18246.524402
429.908282	18274.084390
430.285824	17981.705028
430.663305	18716.712821
431.040726	18300.888205
431.418086	18123.643756
431.795385	18784.997770
432.172624	19200.688796
432.549802	18752.441999
432.926920	18944.068859
433.303977	18827.093926
433.680974	19087.744265
434.057910	19385.303412
434.434786	19410.206712
434.811601	19310.724582
435.188355	20387.719210
435.565050	20018.432005
435.941683	19976.235027
436.318257	20875.891945
436.694770	20675.599341
437.071222	21284.457300
437.447614	20338.220120
437.823946	20373.072137
438.200218	20515.671256
438.576429	20294.699839
438.952580	20577.153168
439.328670	20535.654390
439.704700	20956.565530
440.080670	20511.676142
440.456580	21120.927310
440.832429	21304.470681
441.208218	20263.222874
441.583947	20731.518340
441.959616	20840.674445
442.335224	21081.689489
442.710773	21211.030374
443.086261	21762.136874
443.461689	21113.605034
443.837057	21236.006770
444.212365	21904.078122
444.587612	21897.333058
444.962800	21452.168927
445.337927	21902.681722
445.712995	20606.530492
446.088002	22495.753308
446.462949	22702.100338
446.837837	22879.080126
447.212664	22844.018901
447.587431	25755.935556
447.962139	28740.477594
448.336786	31159.223209
448.711374	29543.974502
449.085901	25790.643900
449.460369	25749.014052
449.834776	25670.296434
450.209124	28221.760507
450.583412	27725.358088
450.957640	28252.509025
451.331808	26875.832924
451.705917	25483.743495
452.079965	25544.870006
452.453954	25904.405098
452.827883	25785.068384
453.201752	25578.872589
453.575562	25757.286585
453.949311	26913.177792
454.323001	26968.196945
454.696632	26715.042801
455.070202	28303.838053
455.443713	28433.713300
455.817164	29068.840711
456.190556	29575.217053
456.563888	29011.933646
456.937160	29451.217272
457.310373	27756.272964
457.683526	28232.243586
458.056619	28219.955774
458.429653	28154.420774
458.802628	28742.809127
459.175542	28868.411996
459.548398	30165.377372
459.921194	31767.824069
460.293930	32459.979533
460.666607	34521.420767
461.039224	36280.322193
461.411782	36690.112548
461.784280	35481.125389
462.156719	35021.717477
462.529099	34463.669308
462.901419	33150.917559
463.273680	32080.972984
463.645882	32147.843890
464.018024	32142.026398
464.390106	32988.448732
464.762130	35739.184575
465.134094	39854.197801
465.505999	45206.007712
465.877845	49804.538168
466.249631	50954.637089
466.621358	49300.430345
466.993026	47199.095941
467.364634	45109.073885
467.736184	43130.610044
468.107674	41852.682585
468.479105	41045.878679
468.850477	40360.191016
469.221790	38899.751102
469.593043	37118.968547
469.964238	36227.138020
470.335373	36143.364126
470.706449	37942.418343
471.077467	40567.652140
471.448425	45145.541592
471.819324	47944.049930
472.190164	46077.794611
472.560945	42476.275836
472.931667	39339.311991
473.302330	38241.862881
473.672934	37404.953205
474.043479	37925.553163
474.413965	37101.712678
474.784393	36723.558084
475.154761	37646.361460
475.525070	37669.621344
475.895321	37196.191462
476.265513	37792.912843
476.635645	38786.980491
477.005719	38606.918037
477.375734	39088.754042
477.745691	39796.700921
478.115588	41159.344970
478.485427	43157.413859
478.855207	46548.298103
479.224928	49145.805554
479.594591	50794.139353
479.964194	49817.546866
480.333739	49991.060860
480.703226	50022.845335
481.072653	50647.280459
481.442022	51118.784620
481.811333	51388.834190
482.180584	50077.378017
482.549777	49581.706565
482.918912	49040.110202
483.287988	48748.035830
483.657005	47918.881969
484.025964	47266.907022
484.394864	47292.727812
484.763706	46874.521250
485.132489	46002.525143
485.501213	45820.325240
485.869879	45975.577655
486.238487	45562.649182
486.607036	45770.753054
486.975527	45216.669752
487.343959	45412.339618
487.712333	45494.081928
488.080648	45414.131748
488.448905	45871.434978
488.817104	45688.206680
489.185244	46649.950449
489.553326	48364.086430
489.921350	51073.298289
490.289315	53890.801694
490.657222	54456.893024
491.025070	54730.738583
491.392861	53851.455488
491.760593	52637.898523
492.128267	51002.520489
492.495883	49493.345221
492.863440	48104.640927
493.230939	46741.638955
493.598380	45639.937632
493.965763	45309.316078
494.333088	44483.489378
494.700354	43989.927649
495.067563	43691.970251
495.434713	43556.327924
495.801805	43619.841422
496.168839	43242.609359
496.535815	42879.190057
496.902733	42939.600725
497.269593	42512.347813
497.636395	42456.731283
498.003139	42852.086294
498.369825	42305.761328
498.736453	42609.684932
499.103023	42134.919145
499.469535	42007.214115
499.835989	42104.463014
500.202385	41759.373348
500.568723	41776.825822
500.935003	41971.074083
501.301226	41757.981989
501.667390	42398.947057
502.033497	42676.155066
502.399546	42062.006416
502.765537	41383.724207
503.131470	41776.649382
503.497345	42140.797130
503.863163	40790.561881
504.228923	41420.668303
504.594625	41828.021260
504.960269	41112.966355
505.325856	41825.692247
505.691385	41165.674139
506.056856	41306.786117
506.422270	41749.268355
506.787625	41329.153717
507.152924	41508.238187
507.518164	41617.674075
507.883347	40808.757926
508.248472	41081.280182
508.613540	41562.405385
508.978550	41883.625187
509.343503	41622.130455
509.708398	41828.104439
510.073236	42369.864640
510.438016	42360.294010
510.802738	41803.601911
511.167403	42442.530352
511.532010	42683.794934
511.896561	42967.831186
512.261053	43849.105537
512.625488	43390.710897
512.989866	43258.602419
513.354186	43111.859472
513.718449	43081.907457
514.082655	43795.117300
514.446803	43445.782982
514.810894	43968.233043
515.174927	43904.863219
515.538904	43784.230928
515.902822	44494.602602
516.266684	43911.603242
516.630488	44357.876427
516.994235	44197.204772
517.357925	44790.470442
517.721558	44960.165762
518.085133	45282.517304
518.448651	45418.232727
518.812112	45187.660433
519.175516	45290.031144
519.538863	45630.961858
519.902152	45584.149703
520.265385	46042.156174
520.628560	46094.269102
520.991678	45875.656945
521.354739	46117.889428
521.717743	46462.855586
522.080690	46357.785337
522.443580	46895.815084
522.806413	46938.828729
523.169189	46884.606078
523.531908	47066.571568
523.894569	46929.610979
524.257174	47109.431458
524.619722	47411.252900
524.982213	47393.898728
525.344647	47321.611103
525.707025	47341.332096
526.069345	47753.622864
526.431608	47675.197633
526.793815	47990.809152
527.155964	47538.536994
527.518057	47682.472018
527.880093	47467.270202
528.242072	47994.567332
528.603995	47689.890076
528.965860	47706.215853
529.327669	47801.289494
529.689421	47690.381589
530.051117	47646.251328
530.412755	47790.597207
530.774337	47865.833907
531.135862	47657.455292
531.497331	47874.454280
531.858743	47743.016276
532.220098	48104.439280
532.581396	47814.111669
532.942638	47476.314032
533.303824	47788.270714
533.664953	47740.160462
534.026025	47447.524002
534.387040	47938.010627
534.747999	47882.532729
535.108902	48036.056028
535.469748	47555.371927
535.830537	47680.775670
536.191270	47864.936582
536.551947	47503.798402
536.912567	47840.302983
537.273131	47949.247359
537.633638	47422.434179
537.994089	47767.286911
538.354483	47366.600880
538.714821	47926.753731
539.075103	48291.887024
539.435328	48037.439825
539.795497	47929.848999
540.155609	47914.347451
540.515665	48379.832474
540.875665	47841.654013
541.235609	48162.702416
541.595496	48131.593456
541.955328	48819.169032
542.315102	48165.011264
542.674821	47961.406622
543.034483	48012.334879
543.394090	47967.834093
543.753640	47928.286242
544.113134	48947.186613
544.472571	47939.948951
544.831953	49218.554445
545.191278	48409.219880
545.550548	48130.436511
545.909761	48591.142520
546.268918	48788.937232
546.628019	49095.210013
546.987064	48670.311320
547.346053	47923.197197
547.704986	48816.315738
548.063863	48366.642295
548.422684	48564.900793
548.781449	48409.595446
549.140158	48818.798507
549.498811	48657.925205
549.857408	48095.460985
550.215949	48934.762689
550.574434	48877.129698
550.932864	48622.012025
551.291237	49353.044868
551.649555	48942.435325
552.007817	49176.460810
552.366022	48839.542855
552.724173	49003.403040
553.082267	49416.505433
553.440305	49696.120593
553.798288	49007.945120
554.156215	49320.171504
554.514086	49555.890816
554.871902	49296.407504
555.229661	49311.077262
555.587365	49116.886975
555.945014	49217.193333
556.302606	49131.357607
556.660143	49373.322909
557.017625	49461.654007
557.375050	49264.877608
557.732421	49606.501480
558.089735	49593.845664
558.446994	49503.011633
558.804197	49962.772426
559.161345	49924.086611
559.518437	49171.059214
559.875474	49467.786571
560.232455	49620.495723
560.589381	49823.835705
560.946251	49504.423156
561.303065	50188.598474
561.659825	50003.260453
562.016528	49660.247742
562.373177	49383.264065
562.729770	49865.039576
563.086307	49382.724661
563.442789	49838.898673
563.799216	49892.765922
564.155587	49674.236944
564.511904	49692.944666
564.868164	49797.863680
565.224370	50040.449045
565.580520	49760.115520
565.936615	49979.297328
566.292654	49710.278673
566.648638	49957.585078
567.004567	49897.562580
567.360441	49950.053594
567.716260	49804.785185
568.072023	50083.624007
568.427732	50044.313089
568.783385	49622.857504
569.138982	50004.379589
569.494525	49970.689558
569.850013	49722.258976
570.205445	49699.833403
570.560823	49661.392084
570.916145	49562.797197
571.271412	49576.738508
571.626625	49332.797073
571.981782	49385.726668
572.336884	49076.643444
572.691931	49400.295603
573.046923	48995.979941
573.401860	48841.115695
573.756743	48845.894709
574.111570	48968.281321
574.466342	48785.552097
574.821059	48887.978261
575.175722	48436.371535
575.530330	48453.294688
575.884882	48160.443979
576.239380	48129.246798
576.593823	48105.747460
576.948211	48015.722534
577.302544	47541.027324
577.656823	47562.379131
578.011047	47791.237433
578.365216	47509.187396
578.719330	47307.095100
579.073389	47147.472005
579.427394	47225.526710
579.781344	47208.369143
580.135239	46862.614045
580.489080	46949.694936
580.842866	46418.470747
581.196597	46874.488483
581.550273	46815.895152
581.903895	46683.254832
582.257463	47100.266640
582.610975	46473.106772
582.964434	46734.840959
583.317837	46389.388330
583.671186	46223.902373
584.024481	46463.591594
584.377721	45985.783471
584.730906	46299.262582
585.084037	46321.879719
585.437113	46011.692481
585.790135	46068.254228
586.143103	45654.438511
586.496016	45771.433610
586.848874	45822.818091
587.201679	45844.353900
587.554428	45301.613195
587.907124	45484.730587
588.259765	45242.515748
588.612352	45503.828999
588.964884	44871.872473
589.317362	45173.005798
589.669786	45117.225431
590.022155	44880.661725
590.374470	45325.150342
590.726731	44821.271892
591.078937	44353.089852
591.431090	44442.272904
591.783188	44106.159013
592.135232	43768.290800
592.487222	44020.550138
592.839157	44111.729488
593.191038	43774.317499
593.542866	43521.543963
593.894639	42920.709001
594.246358	43211.800347
594.598022	43197.518758
594.949633	42775.289356
595.301190	42735.136566
595.652692	42546.635221
596.004141	42880.447825
596.355535	41892.613565
596.706876	41844.147912
597.058162	41673.083917
597.409395	42156.606189
597.760573	42246.671443
598.111698	41800.307517
598.462768	41823.592607
598.813785	41861.444110
599.164748	41283.667386
599.515657	41695.161651
599.866511	41136.732875
600.217312	41775.956223
600.568060	40717.545809
600.918753	41473.474390
601.269392	41438.040119
601.619978	41082.805131
601.970510	41296.587863
602.320988	41490.324447
602.671412	41788.622122
603.021783	41533.554861
603.372100	41186.630215
603.722363	41298.311938
604.072572	41372.109389
604.422728	41396.869016
604.772830	41189.123066
605.122878	41284.037911
605.472872	41232.960940
605.822813	41517.027438
606.172701	41333.937772
606.522534	41594.688934
606.872314	41855.845909
607.222041	41582.081008
607.571714	41980.899292
607.921333	41401.635427
608.270899	41708.354350
608.620411	42062.785274
608.969870	41855.477905
609.319276	41849.332738
609.668627	41912.982347
610.017926	42391.115624
610.367171	42570.129518
610.716362	42636.715599
611.065500	42580.242073
611.414585	42768.355249
611.763616	43072.921600
612.112594	42982.342147
612.461518	43217.103641
612.810389	43518.267213
613.159207	43363.239129
613.507971	43451.119044
613.856682	43927.911374
614.205340	43811.589270
614.553945	44528.479156
614.902496	43955.693173
615.250994	44414.382721
615.599439	44489.425337
615.947830	44725.603394
616.296169	44749.362352
616.644454	44880.835645
616.992686	45064.817596
617.340864	45564.353092
617.688990	45267.373678
618.037063	45910.803869
618.385082	45847.534868
618.733048	46161.334092
619.080961	46167.892633
619.428821	46168.757191
619.776628	46314.539799
620.124382	46123.285983
620.472083	46269.696215
620.819731	46413.583348
621.167326	46080.002637
621.514868	46055.033802
621.862357	45618.333767
622.209793	45656.339026
622.557176	45323.915259
622.904506	45075.217496
623.251783	44751.441828
623.599007	44508.266649
623.946179	44279.418429
624.293297	44235.464609
624.640363	43635.834482
624.987376	43626.707473
625.334336	43364.280127
625.681243	42980.791993
626.028097	42940.316568
626.374899	42793.641677
626.721647	42756.122889
627.068343	42633.264929
627.414987	42384.806620
627.761577	42158.642815
628.108115	42486.027948
628.454600	41916.740527
628.801032	42104.629372
629.147412	42065.762076
629.493739	42075.836822
629.840014	41681.973992
630.186236	42036.730071
630.532405	41640.926397
630.878521	41845.100690
631.224585	41738.692014
631.570597	41444.180245
631.916556	41600.272012
632.262462	41518.786801
632.608316	41542.477704
632.954117	41429.959150
633.299866	41434.039964
633.645562	41352.259846
633.991206	40862.514270
634.336797	40417.143451
634.682336	40425.451273
635.027823	40171.682109
635.373257	40002.889154
635.718639	39739.183876
636.063968	39603.123134
636.409245	39030.107779
636.754470	39074.900952
637.099642	38813.076024
637.444762	38327.423865
637.789829	38461.579051
638.134845	38114.606514
638.479808	38063.983247
638.824719	37945.722819
639.169577	37536.446662
639.514383	37587.710155
639.859137	37282.039792
640.203839	37534.667135
640.548489	37153.019021
640.893086	37232.570949
641.237632	36947.952444
641.582125	37064.435866
641.926566	36993.000195
642.270955	36957.442416
642.615292	36969.324416
642.959576	36946.745088
643.303809	36933.509538
643.647990	37090.080215
643.992118	37043.391569
644.336195	37018.619339
644.680219	37098.040197
645.024192	37401.966321
645.368112	37915.581760
645.711981	37922.788090
646.055797	38813.350767
646.399562	38714.276970
646.743274	39694.529335
647.086935	40156.551085
647.430544	40048.327595
647.774101	40165.297487
648.117606	40426.078896
648.461059	40750.182239
648.804460	40381.860415
649.147810	39756.500240
649.491108	39508.576293
649.834354	39128.606884
650.177548	38266.975389
650.520690	37813.112747
650.863781	37841.479319
651.206820	37673.646705
651.549807	37236.571105
651.892742	36740.660198
652.235626	36517.710128
652.578458	36381.767853
652.921238	35741.498465
653.263967	36066.587353
653.606644	35745.392756
653.949269	35687.401843
654.291843	35282.317405
654.634365	35685.047624
654.976836	35270.886588
655.319255	35242.545222
655.661622	35253.108959
656.003938	35017.094739
656.346203	34883.115993
656.688416	35102.872493
657.030577	34901.077625
657.372687	34727.089761
657.714746	35018.410480
658.056753	35143.841950
658.398708	34574.063016
658.740612	34614.488028
659.082465	34900.392028
659.424266	34705.367429
659.766016	34830.299825
660.107715	34713.949994
660.449362	34844.248697
660.790958	34820.459492
661.132503	34842.146536
661.473996	34859.614134
661.815438	34995.470710
662.156829	35184.216551
662.498168	34946.140499
662.839456	34974.902802
663.180693	35117.451509
663.521879	35273.734840
663.863013	35229.302110
664.204097	35216.845419
664.545129	35673.397517
664.886110	35648.169063
665.227040	35699.437597
665.567918	35840.751222
665.908746	35888.899283
666.249522	36061.445376
666.590248	36059.648204
666.930922	36181.694539
667.271545	36150.759498
667.612118	36222.238019
667.952639	35998.831724
668.293109	36058.965128
668.633528	35959.639274
668.973896	35890.489767
669.314213	35937.496006
669.654480	35658.044683
669.994695	35692.982400
670.334859	35560.274025
670.674973	35466.564016
671.015035	35632.922093
671.355047	35570.147125
671.695008	35522.513262
672.034918	35409.533443
672.374777	35478.297302
672.714585	35300.858769
673.054342	35523.455958
673.394049	35273.986898
673.733705	35591.511535
674.073310	35249.260038
674.412864	35316.947611
674.752368	34897.437912
675.091820	35212.356272
675.431223	34806.823171
675.770574	34507.010628
676.109875	34381.057400
676.449125	34082.074127
676.788324	34000.709904
677.127473	33448.643064
677.466571	33361.841956
677.805619	33001.422141
678.144616	32991.188599
678.483562	32917.156734
678.822458	32568.891141
679.161303	32495.007991
679.500098	32395.906468
679.838842	32253.821547
680.177535	32416.308017
680.516179	32683.516898
680.854771	32924.705862
681.193314	33799.706497
681.531805	34918.033546
681.870247	35689.080547
682.208638	36435.642664
682.546978	36664.480802
682.885268	36783.409183
683.223508	36269.604700
683.561697	35934.315037
683.899836	35740.084421
684.237925	35217.256273
684.575963	35056.730811
684.913951	34574.937656
685.251889	34728.372735
685.589776	34700.535483
685.927614	34680.028070
686.265401	34808.980785
686.603137	34889.820728
686.940824	35369.980550
687.278460	35750.791832
687.616046	35891.661835
687.953582	36490.132496
688.291068	36361.270521
688.628504	36678.906063
688.965889	36616.667978
689.303224	36248.883038
689.640510	35932.379234
689.977745	35207.443667
690.314930	34419.894449
690.652065	33890.026330
690.989150	33152.911335
691.326185	32221.167472
691.663170	31513.097086
692.000105	30731.256974
692.336990	30024.376299
692.673825	29559.614682
693.010610	29018.406488
693.347345	28413.846113
693.684030	27718.970946
694.020665	27420.096058
694.357251	26722.445736
694.693786	26651.337740
695.030272	26396.038586
695.366707	25823.005587
695.703093	25527.278900
696.039429	25516.574009
696.375716	25228.819907
696.711952	25184.621590
697.048139	25008.702965
697.384276	24818.860673
697.720363	24948.183913
698.056400	24730.978238
698.392388	24508.718806
698.728326	24471.815039
699.064214	24268.815336
699.400053	24217.088056
699.735842	23856.038097
700.071581	23565.569333
700.407270	23258.000975
700.742910	23069.481986
701.078501	22782.544550
701.414042	22485.308037
701.749533	22176.728928
702.084974	21811.179739
702.420366	22037.038555
702.755709	21570.015980
703.091002	21255.044688
703.426246	21281.014192
703.761440	21169.599651
704.096584	20885.308821
704.431679	20842.262408
704.766725	20727.664378
705.101721	20659.921353
705.436668	20753.379304
705.771565	20405.869884
706.106413	20766.448495
706.441212	20739.271635
706.775961	20872.358097
707.110661	20933.255235
707.445311	21293.057508
707.779913	21102.378385
708.114465	21345.092298
708.448967	21618.562292
708.783421	22347.187983
709.117825	22608.501234
709.452180	22824.560047
709.786485	23219.322722
710.120742	24045.477097
710.454949	24048.048085
710.789107	24515.632749
711.123216	25239.355918
711.457275	25356.361099
711.791286	25933.898369
712.125247	26029.405549
712.459159	25724.687964
712.793023	26448.411133
713.126837	25314.600181
713.460602	25619.695852
713.794318	25250.138946
714.127985	24869.957808
714.461602	23954.902686
714.795171	23948.228198
715.128691	22876.970403
715.462162	22342.222447
715.795584	21896.985219
716.128957	21627.913632
716.462281	21208.230013
716.795556	20956.925973
717.128782	20435.884914
717.461960	19872.858606
717.795088	19782.122878
718.128167	19354.212095
718.461198	18881.084683
718.794180	18728.781343
719.127113	18353.089353
719.459997	18148.980595
719.792833	17766.639323
720.125619	17731.666318
720.458357	17382.815952
720.791046	17197.669494
721.123686	17037.829629
721.456278	16779.442768
721.788821	16731.662712
722.121315	16457.343284
722.453761	16527.057401
722.786158	16453.393540
723.118506	16450.875484
723.450805	16321.214487
723.783056	16471.098073
724.115259	16351.894949
724.447412	16279.229237
724.779518	16525.381217
725.111574	16550.135803
725.443582	16747.441524
725.775542	16718.767441
726.107453	17201.967078
726.439315	17082.322853
726.771129	17488.576839
727.102895	17865.337554
727.434612	18089.217717
727.766281	18213.618270
728.097901	18492.545312
728.429473	18532.912352
728.760996	18523.576135
729.092471	18629.420201
729.423897	18506.814298
729.755276	18376.644144
730.086606	18498.561929
730.417887	19016.583337
730.749120	19532.114414
731.080305	19706.445076
731.411442	20066.179294
731.742530	20143.641664
732.073570	20261.410580
732.404562	20583.931000
732.735506	20402.058772
733.066401	20129.400404
733.397249	19595.509445
733.728048	18948.071536
734.058798	18089.989013
734.389501	17359.722426
734.720156	16885.480919
735.050762	16334.223184
735.381320	15950.319154
735.711831	15683.798391
736.042293	15309.336442
736.372707	15313.505477
736.703073	15079.976545
737.033391	15265.922026
737.363661	15210.149220
737.693883	15304.905268
738.024056	15476.521269
738.354182	15652.976777
738.684260	15926.711431
739.014290	16143.372661
739.344272	16335.541446
739.674207	16628.548431
740.004093	16755.391423
740.333931	16752.265908
740.663722	16810.415617
740.993464	16815.814693
741.323159	16655.979869
741.652806	16387.747635
741.982405	16165.707493
742.311956	15827.753581
742.641460	15714.892228
742.970915	15402.577624
743.300323	15060.119440
743.629683	14850.483058
743.958996	14560.679726
744.288260	14279.370738
744.617477	13967.865239
744.946647	13892.852870
745.275768	13609.976084
745.604842	13424.217126
745.933869	13238.387593
746.262847	13190.549563
746.591778	13111.479065
746.920662	12990.143533
747.249498	12995.376251
747.578286	13107.078138
747.907027	13247.882606
748.235720	13458.892703
748.564365	13485.404131
748.892963	13392.256211
749.221514	13438.521400
749.550017	13292.307774
749.878473	13252.959048
750.206881	13036.479299
750.535242	12930.824276
750.863555	12845.890916
751.191821	12729.558729
751.520039	12764.564502
751.848210	12654.624498
752.176334	12690.182277
752.504411	12589.076895
752.832440	12422.517172
753.160421	12477.317035
753.488356	12337.727485
753.816243	12242.739543
754.144082	12102.658481
754.471875	12035.659026
754.799620	11975.170221
755.127318	11950.639966
755.454969	11912.667475
755.782572	11862.850793
756.110129	11866.992100
756.437638	11790.018722
756.765100	11779.316353
757.092515	11771.497523
757.419882	11782.925819
757.747203	11782.640994
758.074477	11855.049607
758.401703	11799.864096
758.728882	11969.506484
759.056014	12013.326714
759.383099	12135.877164
759.710138	12237.557237
760.037129	12313.913074
760.364073	12337.596415
760.690970	12325.573263
761.017820	12320.348107
761.344623	12519.060309
761.671379	12877.761091
761.998088	13533.905072
762.324751	15152.223842
762.651366	18112.903578
762.977935	21832.967606
763.304456	24119.708087
763.630931	24642.135463
763.957359	23491.179546
764.283740	21561.957696
764.610074	19645.295880
764.936362	17440.665712
765.262602	15873.257556
765.588796	14334.944418
765.914943	13282.779993
766.241044	12361.811597
766.567097	11693.687313
766.893104	11116.039138
767.219064	10736.883875
767.544978	10328.862965
767.870845	9998.380043
768.196665	9791.596953
768.522438	9586.416950
768.848165	9413.543182
769.173846	9248.178212
769.499479	9117.912276
769.825066	8952.564951
770.150607	8761.795086
770.476101	8691.329838
770.801548	8583.315555
771.126949	8436.461702
771.452303	8342.812187
771.777611	8173.724326
772.102872	8149.352867
772.428087	8028.718056
772.753256	7903.964622
773.078378	7811.396434
773.403453	7658.213413
773.728482	7547.786938
774.053465	7477.354457
774.378401	7382.248048
774.703291	7287.570138
775.028135	7183.992070
775.352932	7140.416337
775.677683	7053.900054
776.002388	6960.414377
776.327046	6962.672814
776.651658	6868.335181
776.976224	6790.504807
777.300743	6771.018227
777.625216	6701.417536
777.949643	6654.857439
778.274024	6662.088974
778.598359	6588.231029
778.922647	6592.158088
779.246889	6546.452467
779.571086	6547.208640
779.895236	6558.624333
780.219339	6549.293157
780.543397	6548.252159
780.867409	6599.742504
781.191374	6594.489622
781.515294	6557.999230
781.839167	6617.903261
782.162995	6586.305309
782.486776	6536.503750
782.810511	6496.663511
783.134201	6419.206182
783.457844	6412.783752
783.781441	6363.856833
784.104993	6316.800183
784.428498	6291.793539
784.751958	6270.615652
785.075372	6245.556076
785.398739	6205.297422
785.722061	6232.456638
786.045337	6226.966821
786.368568	6339.858421
786.691752	6363.677872
787.014891	6619.639938
787.337983	6895.368369
787.661030	7340.837490
787.984031	7783.922146
788.306987	8047.720685
788.629897	8141.960015
788.952760	8064.926143
789.275579	7895.871049
789.598351	7586.487876
789.921078	7320.738410
790.243759	7023.451485
790.566395	6818.170659
790.888984	6620.554908
791.211529	6476.345140
791.534027	6300.945754
791.856480	6159.836296
792.178888	6092.000009
792.501249	6023.573908
792.823566	5908.154170
793.145836	5900.940279
793.468062	5880.478235
793.790241	5838.462738
794.112375	5876.097473
794.434464	5977.623790
794.756507	6004.475496
795.078505	6126.642819
795.400457	6344.836560
795.722364	6582.821871
796.044226	6783.316122
796.366042	6947.083045
796.687812	6896.936168
797.009538	6938.908814
797.331218	6848.682243
797.652852	6782.564990
797.974442	6657.486401
798.295986	6586.559887
798.617484	6456.414939
798.938938	6343.543504
799.260346	6275.185458
799.581709	6125.095184
799.903026	6071.144756
800.224299	5999.436863
800.545526	5878.744078
800.866708	5810.159180
801.187845	5752.536271
801.508936	5674.577347
801.829983	5640.826822
802.150984	5529.016551
802.471940	5504.566955
802.792851	5481.407894
803.113717	5456.865036
803.434538	5431.465183
803.755314	5396.010748
804.076045	5384.045569
804.396731	5343.030741
804.717372	5362.545048
805.037967	5355.520200
805.358518	5381.061206
805.679024	5436.614721
805.999485	5444.889775
806.319901	5463.166479
806.640272	5476.467563
806.960598	5529.460172
807.280879	5519.718142
807.601115	5557.191560
807.921306	5520.754100
808.241453	5513.792266
808.561554	5530.044946
808.881611	5500.191233
809.201623	5498.326006
809.521590	5454.556188
809.841513	5439.906595
810.161390	5457.772444
810.481223	5369.650554
810.801011	5352.808059
811.120755	5336.888095
811.440453	5277.727634
811.760107	5244.743365
812.079716	5228.586467
812.399281	5169.733516
812.718801	5172.208723
813.038276	5129.943689
813.357707	5094.418678
813.677093	5120.226865
813.996434	5056.060538
814.315731	5076.940997
814.634983	5067.957661
814.954191	5081.866205
815.273354	5140.477180
815.592473	5185.013253
815.911547	5262.057208
816.230577	5324.774203
816.549562	5409.982306
816.868502	5468.384073
817.187399	5531.847159
817.506250	5618.383606
817.825058	5652.703781
818.143821	5816.727804
818.462539	5998.058108
818.781213	6237.250775
819.099843	6614.046778
819.418429	7260.620129
819.736970	7903.609220
820.055466	8649.558837
820.373919	9641.262183
820.692327	11197.191633
821.010691	14083.531994
821.329011	20629.873555
821.647286	30492.288637
821.965517	41054.728425
822.283704	46548.877835
822.601847	48083.901620
822.919945	43558.533429
823.237999	38445.046587
823.556010	33171.666948
823.873976	28320.302462
824.191897	23927.672893
824.509775	20700.268228
824.827609	17786.400646
825.145398	16126.439425
825.463144	15312.066227
825.780845	15631.302336
826.098502	16931.284843
826.416116	19426.640873
826.733685	21685.087878
827.051210	22134.012711
827.368692	20638.027622
827.686129	18029.822842
828.003522	15490.666746
828.320872	13216.428327
828.638177	11483.496404
828.955439	10171.581486
829.272656	9056.571516
829.589830	8178.770521
829.906960	7411.736278
830.224046	6848.578899
830.541088	6417.073774
830.858086	6142.482124
831.175041	5926.022540
831.491952	5864.795206
831.808819	5899.533797
832.125642	6157.993754
832.442421	6740.693166
832.759157	7911.969974
833.075849	9724.854597
833.392497	11601.499733
833.709101	12753.201741
834.025662	12468.210190
834.342179	11408.410938
834.658653	10071.877545
834.975083	8929.352958
835.291469	7998.589600
835.607811	7212.167079
835.924110	6667.039387
836.240366	6152.972765
836.556578	5676.442574
836.872746	5308.551770
837.188871	5020.109549
837.504952	4784.911996
837.820990	4607.234008
838.136984	4484.681038
838.452935	4437.299233
838.768842	4472.743585
839.084706	4771.157208
839.400526	5541.284199
839.716303	6474.013607
840.032037	7053.398459
840.347727	6900.391878
840.663373	6288.224402
840.978977	5690.903124
841.294537	5229.922372
841.610054	4878.969845
841.925527	4623.602635
842.240957	4403.417638
842.556344	4208.829099
842.871687	4039.058161
843.186987	3878.472205
843.502244	3754.870675
843.817458	3663.514885
844.132629	3582.727874
844.447756	3533.443033
844.762840	3481.685507
845.077881	3440.998354
845.392879	3404.235740
845.707833	3376.537120
846.022745	3350.771783
846.337613	3333.531036
846.652438	3310.684527
846.967221	3299.969555
847.281960	3278.204373
847.596656	3264.961262
847.911309	3256.310642
848.225919	3242.538209
848.540485	3229.146384
848.855009	3223.099520
849.169490	3209.085112
849.483928	3204.046479
849.798323	3191.219263
850.112675	3183.337419
850.426984	3185.568130
850.741251	3176.675534
851.055474	3173.073630
851.369654	3177.852644
851.683792	3171.278979
851.997887	3171.634381
852.311938	3174.684279
852.625947	3175.448013
852.939914	3167.160357
853.253837	3174.018846
853.567718	3167.694719
853.881555	3163.976868
854.195350	3170.517765
854.509103	3166.323525
854.822812	3165.045592
855.136479	3158.459325
855.450103	3165.983247
855.763685	3156.745333
856.077224	3158.484531
856.390720	3166.757064
856.704173	3174.515400
857.017584	3183.264322
857.330953	3187.387986
857.644278	3194.085159
857.957561	3200.840305
858.270802	3194.793441
858.584000	3195.161446
858.897155	3190.604242
859.210268	3179.614527
859.523339	3167.664472
859.836367	3165.216992
860.149352	3160.435457
860.462295	3156.488234
860.775195	3146.670587
861.088054	3139.854947
861.400869	3143.482057
861.713642	3137.725059
862.026373	3151.240393
862.339062	3152.392296
862.651708	3159.530570
862.964312	3178.548323
863.276873	3186.006710
863.589392	3217.229097
863.901869	3241.923189
864.214303	3265.868669
864.526696	3283.923562
864.839045	3304.609937
865.151353	3316.882626
865.463619	3315.705516
865.775842	3318.931855
866.088023	3325.618945
866.400162	3318.896567
866.712258	3322.584171
867.024313	3323.645334
867.336325	3321.308759
867.648296	3321.036537
867.960224	3320.383707
868.272110	3323.960406
868.583954	3325.460149
868.895755	3331.328052
869.207515	3327.305211
869.519233	3346.920341
869.830909	3354.368646
870.142542	3365.136550
870.454134	3372.857078
870.765684	3385.399468
871.077191	3407.265473
871.388657	3419.787699
871.700081	3435.364865
872.011463	3462.226653
872.322803	3477.965135
872.634101	3499.190913
872.945357	3519.390817
873.256571	3549.098337
873.567744	3563.231211
873.878874	3572.501893
874.189963	3589.228442
874.501010	3588.000921
874.812015	3588.595777
875.122979	3604.782922
875.433900	3603.021039
875.744780	3603.134465
876.055618	3617.398409
876.366415	3616.070065
876.677169	3624.103144
876.987882	3644.479488
877.298554	3662.811644
877.609183	3708.305537
877.919771	3758.225563
878.230317	3835.559383
878.540822	3946.525262
878.851285	4113.977269
879.161707	4353.840410
879.472087	4760.220425
879.782425	5433.539617
880.092722	6697.624068
880.402977	8734.104028
880.713191	11186.206959
881.023363	13634.287048
881.333494	14994.400438
881.643583	15487.384955
881.953631	15087.364356
882.263637	14251.107509
882.573602	13225.361251
882.883526	12224.603993
883.193408	11228.053577
883.503248	10266.680332
883.813048	9394.538032
884.122806	8584.348992
884.432522	7778.097092
884.742197	7068.728608
885.051831	6469.390869
885.361424	5941.564417
885.670975	5519.718142
885.980485	5168.296787
886.289954	4881.694588
886.599382	4647.066685
886.908768	4451.232982
887.218113	4276.796456
887.527417	4132.717758
887.836680	3999.933766
888.145901	3893.741860
888.455082	3812.165909
888.764221	3737.894589
889.073319	3671.134589
889.382376	3637.663848
889.691392	3607.913478
890.000366	3599.691357
890.309300	3590.473607
890.618193	3593.780604
890.927044	3592.444698
891.235855	3598.347889
891.544625	3616.506125
891.853353	3644.948315
892.162041	3704.880073
892.470687	3805.405722
892.779293	3936.780711
893.087858	4121.039926
893.396381	4423.952778
893.704864	4860.095765
894.013306	5450.712308
894.321707	6038.057143
894.630068	6394.507049
894.938387	6438.387772
895.246665	6251.368527
895.554903	5929.057314
895.863100	5581.505045
896.171256	5301.209329
896.479371	5051.694899
896.787446	4815.824352
897.095480	4605.588072
897.403473	4444.555974
897.711425	4292.842449
898.019336	4163.272192
898.327207	4032.817213
898.635038	3928.808127
898.942827	3815.228410
899.250576	3720.903380
899.558284	3634.137561
899.865952	3577.346442
900.173579	3512.295393
900.481165	3460.174903
900.788711	3417.219231
901.096216	3383.055332
901.403681	3353.567102
901.711105	3338.330215
902.018489	3336.472550
902.325832	3372.289948
902.633135	3436.864608
902.940397	3619.616517
903.247619	4050.925037
903.554800	4845.108414
903.861941	5857.722467
904.169041	6583.830102
904.476101	6808.479041
904.783121	6536.193719
905.090100	6122.801459
905.397039	5692.443197
905.703938	5314.638963
906.010796	4974.073733
906.317614	4704.016600
906.624391	4445.309626
906.931129	4233.334148
907.237826	4041.661917
907.544483	3856.296170
907.851099	3672.092408
908.157675	3502.455061
908.464211	3351.238089
908.770707	3243.748086
909.077163	3159.376815
909.383578	3093.272165
909.689954	3048.136194
909.996289	3012.407016
910.302584	2988.217039
910.608839	2975.803198
910.915054	2962.043368
911.221229	2955.817543
911.527363	2962.592854
911.833458	2970.111735
912.139513	2986.152687
912.445527	2997.870849
912.751502	3034.572969
913.057436	3081.221286
913.363331	3145.536327
913.669186	3239.261459
913.975000	3369.534957
914.280775	3574.036925
914.586510	3864.684650
914.892205	4260.879013
915.197859	4786.777223
915.503475	5388.285179
915.809050	5899.604373
916.114585	6187.618095
916.420081	6252.220482
916.725536	6189.826120
917.030952	5945.433503
917.336328	5738.206791
917.641665	5513.235219
917.946961	5282.282317
918.252218	5069.023865
918.557435	4831.081404
918.862612	4624.454590
919.167750	4445.339873
919.472848	4241.727669
919.777906	4064.604208
920.082925	3895.244124
920.387904	3731.903178
920.692843	3615.066876
920.997743	3512.885208
921.302603	3408.044331
921.607423	3335.386181
921.912204	3268.411932
922.216946	3211.283056
922.521647	3160.705159
922.826310	3118.861062
923.130932	3078.015113
923.435516	3033.844523
923.740059	3007.731346
924.044564	2973.123824
924.349028	2947.338323
924.653454	2914.490164
924.957840	2882.007489
925.262186	2862.810775
925.566493	2841.055676
925.870761	2812.699186
926.174989	2800.227371
926.479178	2785.257665
926.783328	2762.925353
927.087438	2753.637027
927.391509	2739.133627
927.695541	2727.528891
927.999533	2716.874413
928.303486	2705.998123
928.607400	2699.353882
928.911275	2694.970599
929.215110	2686.355267
929.518906	2682.821418
929.822663	2683.456604
930.126381	2682.034998
930.430060	2684.573219
930.733699	2687.040864
931.037299	2690.579754
931.340861	2686.723272
931.644383	2691.842563
931.947866	2692.870959
932.251309	2688.643951
932.554714	2687.174455
932.858080	2684.820236
933.161407	2680.308403
933.464694	2675.902435
933.767943	2673.979235
934.071153	2668.945642
934.374323	2668.128976
934.677455	2664.453974
934.980548	2661.769560
935.283602	2658.069353
935.586617	2653.386121
935.889593	2660.048006
936.192530	2661.903151
936.495428	2667.919768
936.798287	2674.664832
937.101108	2687.335772
937.403890	2712.135728
937.706632	2735.032649
938.009336	2771.059255
938.312002	2799.662762
938.614628	2826.698470
938.917216	2845.045749
939.219765	2855.889271
939.522275	2869.570963
939.824747	2867.304964
940.127179	2862.810775
940.429573	2857.827595
940.731929	2856.216946
941.034246	2846.326202
941.336524	2846.807632
941.638763	2839.755058
941.940964	2835.086950
942.243126	2816.681697
942.545250	2808.429328
942.847335	2794.051957
943.149381	2779.253650
943.451389	2764.268821
943.753359	2750.690473
944.055290	2742.054976
944.357182	2732.582648
944.659036	2726.528222
944.960851	2720.617469
945.262628	2718.888354
945.564367	2716.922304
945.866067	2713.685883
946.167729	2710.852754
946.469352	2713.580019
946.770937	2711.550954
947.072484	2703.618699
947.373992	2703.820345
947.675462	2699.230374
947.976893	2692.727286
948.278286	2692.906247
948.579641	2688.661595
948.880958	2682.685307
949.182236	2681.162879
949.483476	2679.741273
949.784678	2680.257992
950.085841	2683.350740
950.386967	2683.917869
950.688054	2690.458767
950.989103	2699.046372
951.290114	2707.760007
951.591087	2719.074876
951.892021	2732.141547
952.192917	2743.136304
952.493776	2752.742222
952.794596	2757.133067
953.095378	2758.801689
953.396122	2759.691453
953.696828	2754.320103
953.997496	2749.667118
954.298126	2740.099008
954.598718	2733.608523
954.899272	2723.301884
955.199788	2710.419215
955.500266	2698.070909
955.800706	2681.699762
956.101108	2664.948007
956.401472	2653.822181
956.701798	2642.834986
957.002087	2623.983591
957.302337	2615.670729
957.602550	2602.624222
957.902724	2589.703745
958.202861	2578.441807
958.502960	2573.720767
958.803022	2563.348593
959.103045	2555.781821
959.403031	2550.075235
959.702979	2541.348997
960.002889	2539.357742
960.302762	2533.366330
960.602596	2526.903571
960.902393	2524.592202
961.202153	2521.587674
961.501875	2516.261695
961.801559	2514.454442
962.101205	2514.701458
962.400814	2510.638288
962.700385	2508.543689
962.999918	2509.136024
963.299414	2502.648059
963.598873	2503.179901
963.898293	2499.252842
964.197677	2497.591782
964.497022	2498.521875
964.796331	2497.100270
965.095601	2494.980464
965.394835	2497.130517
965.694030	2496.152533
965.993189	2495.136740
966.292309	2490.511482
966.591393	2489.543580
966.890439	2491.083652
967.189447	2491.204640
967.488419	2492.301091
967.787353	2491.749085
968.086249	2492.205309
968.385108	2492.195227
968.683930	2491.313025
968.982714	2495.202275
969.281462	2495.393839
969.580172	2498.849550
969.878844	2502.217041
970.177480	2506.018071
970.476078	2506.534789
970.774639	2512.954698
971.073162	2511.316323
971.371649	2511.200377
971.670098	2514.850172
971.968510	2515.263547
972.266885	2513.105933
972.565223	2522.316121
972.863524	2521.549866
973.161788	2524.761081
973.460014	2524.075484
973.758204	2525.146729
974.056356	2526.575896
974.354471	2528.491535
974.652550	2525.907943
974.950591	2528.234436
975.248595	2522.142201
975.546563	2522.338806
975.844493	2522.051461
976.142386	2519.432581
976.440243	2519.722448
976.738062	2518.431912
977.035845	2516.092817
977.333590	2511.281035
977.631299	2507.898421
977.928971	2508.889008
978.226606	2505.332474
978.524204	2506.058400
978.821765	2503.673934
979.119290	2502.096053
979.416777	2503.310971
979.714228	2501.365086
980.011642	2503.951198
980.309020	2509.120901
980.606360	2515.152642
980.903664	2521.907788
981.200931	2536.391023
981.498162	2555.113868
981.795356	2589.416399
982.092513	2630.005250
982.389633	2676.497291
982.686717	2719.387428
982.983764	2751.290370
983.280775	2771.162598
983.577749	2772.909358
983.874686	2765.493821
984.171587	2745.702251
984.468451	2730.263717
984.765279	2712.700337
985.062070	2692.041689
985.358824	2671.924964
985.655543	2651.404948
985.952224	2628.845784
986.248869	2600.569952
986.545478	2565.700291
986.842050	2545.558361
987.138586	2524.488858
987.435086	2512.516118
987.731549	2497.753099
988.027975	2493.959631
988.324366	2487.756491
988.620719	2483.791623
988.917037	2478.163175
989.213318	2475.166209
989.509563	2471.617237
989.805772	2468.826958
990.101944	2468.370734
990.398080	2468.227061
990.694180	2469.079016
990.990244	2469.749489
991.286271	2467.430559
991.582262	2468.176649
991.878217	2468.716053
992.174136	2471.148410
992.470019	2473.306023
992.765865	2472.451548
993.061676	2475.957670
993.357450	2476.862558
993.653188	2481.644092
993.948890	2490.113230
994.244556	2494.715804
994.540186	2505.332474
994.835780	2513.985614
995.131337	2534.982020
995.426859	2551.975750
995.722345	2570.401167
996.017795	2588.965216
996.313208	2605.938781
996.608586	2614.725512
996.903928	2619.335647
997.199234	2615.748867
997.494504	2615.464041
997.789738	2605.495160
998.084936	2597.298243
998.380099	2583.414906
998.675225	2571.474933
998.970316	2556.270813
999.265371	2542.778165
999.560390	2527.513551
999.855373	2515.210615
1000.150320	2505.798781
1000.445232	2499.262925
1000.740108	2487.958137
1001.034948	2483.448825
1001.329752	2472.834676
1001.624521	2471.801239
1001.919254	2464.340331
1002.213951	2465.895527
1002.508613	2461.996195
1002.803239	2461.164404
1003.097829	2454.731892
1003.392384	2458.099383
1003.686903	2454.588219
1003.981386	2455.609053
1004.275834	2453.532098
1004.570246	2453.060750
1004.864623	2451.913887
1005.158964	2450.320883
1005.453270	2447.749894
1005.747540	2450.661160
1006.041775	2448.289298
1006.335974	2447.686880
1006.630138	2448.344750
1006.924266	2447.540686
1007.218359	2446.880295
1007.512416	2447.190326
1007.806438	2446.983639
1008.100425	2445.136056
1008.394376	2445.617486
1008.688292	2446.166972
1008.982172	2443.351487
1009.276017	2444.450459
1009.569827	2441.680345
1009.863602	2443.618668
1010.157341	2443.716971
1010.451045	2441.677824
1010.744714	2444.712599
1011.038347	2441.556837
1011.331945	2442.428956
1011.625508	2440.936775
1011.919036	2439.053904
1012.212528	2440.430139
1012.505986	2440.720005
1012.799408	2438.055755
1013.092795	2438.806887
1013.386147	2441.433328
1013.679464	2438.421239
1013.972745	2441.335026
1014.265992	2437.365117
1014.559204	2440.745211
1014.852380	2440.064655
1015.145521	2440.639347
1015.438628	2441.627413
1015.731699	2440.445262
1016.024736	2438.753955
1016.317737	2441.970211
1016.610703	2440.762855
1016.903635	2438.212031
1017.196531	2435.880497
1017.489393	2440.793102
1017.782219	2438.708585
1018.075011	2442.328133
1018.367768	2443.106991
1018.660490	2442.209666
1018.953177	2442.209666
1019.245829	2442.209666
