Dividing Wavelength (nm)	Counts (n)	Blue Motor Position (mm): 0.000000	Red Motor Position (mm): 15.200000	
326.493990	1982.670684
326.888308	1982.670684
327.282561	1982.670684
327.676750	1955.340069
328.070874	1959.564556
328.464933	1964.310802
328.858929	1975.396299
329.252859	1987.643782
329.646726	2000.191214
330.040528	2016.615294
330.434265	2033.878725
330.827938	2057.098280
331.221547	2074.704509
331.615091	2095.406008
332.008571	2114.854779
332.401986	2135.316823
332.795338	2155.418424
333.188625	2176.066990
333.581847	2193.096008
333.975006	2214.173072
334.368100	2230.849209
334.761129	2249.846797
335.154095	2264.433376
335.546996	2278.374687
335.939833	2295.053344
336.332606	2306.436269
336.725315	2317.216777
337.117960	2328.317398
337.510540	2332.851916
337.903056	2343.435818
338.295508	2350.541324
338.687896	2357.593899
339.080220	2364.026411
339.472480	2367.454396
339.864676	2371.842720
340.256807	2374.690972
340.648875	2376.778010
341.040879	2378.010572
341.432818	2377.990407
341.824694	2381.660367
342.216506	2378.328164
342.608253	2380.412682
342.999937	2379.434698
343.391557	2377.687938
343.783113	2376.283977
344.174605	2374.496888
344.566033	2376.266333
344.957397	2373.889428
345.348697	2371.560415
345.739934	2368.457585
346.131106	2365.632018
346.522215	2364.568335
346.913260	2364.369209
347.304241	2363.897862
347.695159	2361.793180
348.086012	2359.224712
348.476802	2358.148426
348.867528	2357.881244
349.258191	2353.016531
349.648789	2353.661799
350.039324	2355.496779
350.429796	2354.745647
350.820203	2350.553927
351.210548	2352.330934
351.600828	2351.826819
351.991045	2350.800944
352.381198	2352.036027
352.771288	2352.008300
353.161314	2350.337158
353.551276	2349.429750
353.941175	2350.294308
354.331010	2352.555265
354.720782	2354.324710
355.110490	2348.708865
355.500135	2352.751870
355.889717	2352.197343
356.279235	2354.402848
356.668689	2353.697087
357.058080	2353.520646
357.447408	2350.402693
357.836672	2350.349761
358.225873	2355.050637
358.615010	2353.860924
359.004084	2357.908971
359.393095	2358.702953
359.782043	2359.688498
360.170927	2356.608353
360.559748	2358.478621
360.948505	2362.322501
361.337199	2360.540453
361.725830	2359.456605
362.114398	2365.536237
362.502903	2361.523478
362.891344	2364.396936
363.279722	2362.950125
363.668037	2366.446165
364.056289	2366.161340
364.444478	2366.821731
364.832603	2366.516741
365.220665	2368.800384
365.608665	2370.897504
365.996601	2368.064375
366.384474	2370.143851
366.772284	2370.479088
367.160031	2372.185518
367.547715	2370.221989
367.935336	2372.939171
368.322893	2372.659387
368.710388	2376.102495
369.097820	2379.099461
369.485189	2375.802546
369.872495	2376.586446
370.259738	2380.211035
370.646918	2382.537528
371.034035	2383.195398
371.421090	2386.905688
371.808081	2387.979453
372.195010	2394.308622
372.581875	2399.044786
372.968678	2405.825138
373.355418	2411.864440
373.742096	2422.332396
374.128710	2431.109045
374.515262	2443.623710
374.901751	2456.370267
375.288177	2472.368369
375.674540	2490.897130
376.060841	2512.397651
376.447079	2534.929088
376.833254	2560.205433
377.219367	2584.728126
377.605417	2620.890843
377.991404	2644.768269
378.377329	2686.269568
378.763191	2720.647716
379.148991	2766.665889
379.534727	2812.162303
379.920402	2858.843387
380.306013	2904.543968
380.691563	2964.231229
381.077049	3022.675846
381.462474	3075.698702
381.847835	3150.007831
382.233134	3220.347050
382.618371	3276.999537
383.003545	3364.355172
383.388657	3440.118673
383.773706	3530.378012
384.158693	3602.728652
384.543618	3696.284905
384.928480	3773.782563
385.313280	3875.918861
385.698017	3979.829645
386.082692	4094.031944
386.467305	4156.433867
386.851856	4280.466416
387.236344	4433.949386
387.620770	4500.290971
388.005133	4614.924288
388.389435	4760.792596
388.773674	4842.424000
389.157851	4970.459225
389.541965	5098.799440
389.926018	5122.056804
390.310008	5300.168331
390.693936	5416.944139
391.077802	5534.513929
391.461606	5663.138969
391.845348	5778.510816
392.229027	5898.018930
392.612645	6118.713084
392.996200	6230.200722
393.379694	6404.168420
393.763125	6617.855370
394.146494	6706.912394
394.529801	6840.805440
394.913047	7079.025165
395.296230	7073.497540
395.679351	7129.227496
396.062410	7379.931638
396.445408	7275.355422
396.828343	7420.170128
397.211217	7561.297230
397.594028	7438.643436
397.976778	7638.646174
398.359466	7803.151627
398.742092	7773.033253
399.124656	7910.344202
399.507158	8097.973427
399.889598	8110.825849
400.271977	8314.753125
400.654294	8342.033329
401.036549	8530.348152
401.418742	8548.912201
401.800874	8841.969597
402.182944	8910.937623
402.564952	9259.747660
402.946898	9078.223272
403.328783	9121.660374
403.710606	9299.736613
404.092367	9535.592037
404.474067	9865.648982
404.855705	9643.112287
405.237282	9569.513961
405.618797	9956.369587
406.000250	10162.270475
406.381642	10479.830399
406.762972	10394.738243
407.144240	10165.748871
407.525447	10357.968067
407.906593	10254.266491
408.287677	10442.724987
408.668700	10522.922183
409.049661	10443.765985
409.430560	10524.626092
409.811399	10425.769066
410.192176	10499.417803
410.572891	10483.777623
410.953545	10820.637605
411.334138	10282.864957
411.714669	10696.806702
412.095139	10028.596719
412.475547	10347.638743
412.855894	10124.436615
413.236180	10280.992168
413.616405	9923.733157
413.996568	10023.447180
414.376670	9890.925328
414.756711	9684.767341
415.136691	9770.724055
415.516609	9769.584755
415.896466	9699.096821
416.276262	9760.697200
416.655997	9923.607128
417.035670	9809.170415
417.415283	10093.209187
417.794834	9993.616152
418.174324	9680.321043
418.553753	9454.762176
418.933121	9596.738713
419.312428	9324.965068
419.691674	9104.883414
420.070859	9199.445378
420.449983	8845.027057
420.829045	8973.117735
421.208047	8677.612858
421.586988	8732.831137
421.965867	8689.799848
422.344686	8517.362139
422.723444	8594.353161
423.102141	7835.818304
423.480777	8192.933642
423.859352	7805.057183
424.237866	8088.987571
424.616319	7793.089484
424.994712	7872.633850
425.373044	7609.455373
425.751314	7673.208325
426.129524	7194.560849
426.507673	7377.494240
426.885762	7111.732171
427.263789	6993.474264
427.641756	6869.040943
428.019662	6720.228602
428.397508	6564.797226
428.775292	6480.917467
429.153016	6303.947761
429.530679	6164.839641
429.908282	6013.229460
430.285824	5807.177338
430.663305	5793.987159
431.040726	5570.981636
431.418086	5396.298093
431.795385	5374.253128
432.172624	5308.135874
432.549802	5104.760605
432.926920	4994.775231
433.303977	4856.269529
433.680974	4768.056898
434.057910	4688.562943
434.434786	4573.438113
434.811601	4450.025626
435.188355	4455.560813
435.565050	4312.923885
435.941683	4201.199313
436.318257	4180.253319
436.694770	4067.402049
437.071222	4022.240872
437.447614	3849.467927
437.823946	3765.199999
438.200218	3694.500337
438.576429	3597.947117
438.952580	3544.994837
439.328670	3474.395998
439.704700	3426.285747
440.080670	3343.794826
440.456580	3307.984989
440.832429	3261.704676
441.208218	3162.376302
441.583947	3130.806076
441.959616	3084.994590
442.335224	3048.226934
442.710773	3009.757889
443.086261	2984.539517
443.461689	2930.765529
443.837057	2897.168759
444.212365	2884.281050
444.587612	2849.224866
444.962800	2813.929227
445.337927	2794.425003
445.712995	2746.158475
446.088002	2757.969899
446.462949	2737.775037
446.837837	2724.589899
447.212664	2701.375385
447.587431	2723.354816
447.962139	2744.867940
448.336786	2756.041657
448.711374	2726.838253
449.085901	2672.766837
449.460369	2653.549959
449.834776	2641.920017
450.209124	2653.691111
450.583412	2641.511683
450.957640	2639.936323
451.331808	2619.801954
451.705917	2598.676999
452.079965	2592.604929
452.453954	2586.500092
452.827883	2583.077148
453.201752	2574.124059
453.575562	2570.834706
453.949311	2574.078689
454.323001	2571.177505
454.696632	2565.365054
455.070202	2571.384192
455.443713	2565.289437
455.817164	2564.548387
456.190556	2565.370096
456.563888	2559.126627
456.937160	2555.688560
457.310373	2547.166489
457.683526	2544.345963
458.056619	2542.521066
458.429653	2541.563247
458.802628	2542.495860
459.175542	2537.699202
459.548398	2543.758669
459.921194	2549.946685
460.293930	2550.390307
460.666607	2560.734755
461.039224	2568.334294
461.411782	2563.194838
461.784280	2559.487069
462.156719	2553.863662
462.529099	2551.698486
462.901419	2540.151723
463.273680	2532.158974
463.645882	2531.047400
464.018024	2530.886083
464.390106	2535.584438
464.762130	2545.139945
465.134094	2562.894889
465.505999	2585.234762
465.877845	2603.070365
466.249631	2609.946498
466.621358	2597.809921
466.993026	2589.786924
467.364634	2581.032961
467.736184	2570.063410
468.107674	2563.638459
468.479105	2559.114024
468.850477	2554.138405
469.221790	2546.657332
469.593043	2537.822710
469.964238	2532.521937
470.335373	2532.486649
470.706449	2543.234389
471.077467	2548.643547
471.448425	2569.503842
471.819324	2578.502301
472.190164	2572.440314
472.560945	2558.604867
472.931667	2543.834286
473.302330	2538.853626
473.672934	2535.559232
474.043479	2538.228523
474.413965	2534.487987
474.784393	2528.972965
475.154761	2533.371372
475.525070	2529.653521
475.895321	2530.013963
476.265513	2529.484642
476.635645	2537.726928
477.005719	2538.457896
477.375734	2537.905889
477.745691	2539.413194
478.115588	2548.177240
478.485427	2552.532797
478.855207	2566.101063
479.224928	2574.880232
479.594591	2583.520770
479.964194	2578.459452
480.333739	2577.882239
480.703226	2578.731674
481.072653	2580.294432
481.442022	2580.801067
481.811333	2584.380287
482.180584	2578.267888
482.549777	2575.883422
482.918912	2574.877712
483.287988	2573.677917
483.657005	2569.103070
484.025964	2568.641804
484.394864	2563.522513
484.763706	2567.447051
485.132489	2562.705846
485.501213	2560.631411
485.869879	2561.841288
486.238487	2562.680640
486.607036	2558.090669
486.975527	2559.212326
487.343959	2560.044117
487.712333	2559.328273
488.080648	2559.809703
488.448905	2560.167625
488.817104	2562.998233
489.185244	2563.532595
489.553326	2570.660787
489.921350	2583.976994
490.289315	2594.984354
490.657222	2595.586772
491.025070	2596.310177
491.392861	2594.356730
491.760593	2589.242480
492.128267	2582.482292
492.495883	2577.902404
492.863440	2569.085426
493.230939	2563.646021
493.598380	2560.520506
493.965763	2556.858107
494.333088	2555.542366
494.700354	2555.310473
495.067563	2553.573796
495.434713	2550.304607
495.801805	2555.302911
496.168839	2554.793755
496.535815	2550.105482
496.902733	2555.144115
497.269593	2552.449618
497.636395	2552.600853
498.003139	2553.961964
498.369825	2553.445246
498.736453	2556.714434
499.103023	2555.721327
499.469535	2554.042623
499.835989	2553.397355
500.202385	2551.801830
500.568723	2555.466749
500.935003	2558.297357
501.301226	2557.440361
501.667390	2562.337842
502.033497	2564.785322
502.399546	2562.007646
502.765537	2560.444888
503.131470	2564.054354
503.497345	2566.390929
503.863163	2563.570404
504.228923	2567.510065
504.594625	2571.273287
504.960269	2570.572566
505.325856	2575.061714
505.691385	2573.710685
506.056856	2573.637588
506.422270	2581.552199
506.787625	2581.751325
507.152924	2582.547827
507.518164	2584.642427
507.883347	2584.327355
508.248472	2586.628641
508.613540	2591.604260
508.978550	2592.640217
509.343503	2598.051896
509.708398	2605.364090
510.073236	2604.063472
510.438016	2606.972218
510.802738	2608.643360
511.167403	2610.233844
511.532010	2614.828856
511.896561	2618.783641
512.261053	2625.042234
512.625488	2621.311780
512.989866	2624.470063
513.354186	2625.347223
513.718449	2626.736061
514.082655	2636.024387
514.446803	2632.175466
514.810894	2641.584780
515.174927	2638.950777
515.538904	2641.020171
515.902822	2645.814308
516.266684	2645.272384
516.630488	2649.605256
516.994235	2649.398568
517.357925	2651.304125
517.721558	2656.120947
518.085133	2659.788387
518.448651	2658.979281
518.812112	2657.865186
519.175516	2661.971206
519.538863	2665.860456
519.902152	2665.936074
520.265385	2665.391629
520.628560	2666.669562
520.991678	2669.492608
521.354739	2667.892041
521.717743	2672.401353
522.080690	2672.194666
522.443580	2677.939061
522.806413	2676.900583
523.169189	2678.312106
523.531908	2679.138856
523.894569	2676.882939
524.257174	2677.825635
524.619722	2681.309072
524.982213	2683.214628
525.344647	2682.077848
525.707025	2683.433919
526.069345	2683.259999
526.431608	2682.738239
526.793815	2684.565658
527.155964	2682.473579
527.518057	2682.120698
527.880093	2682.529032
528.242072	2681.568692
528.603995	2683.050791
528.965860	2680.419309
529.327669	2679.287570
529.689421	2678.743125
530.051117	2675.678103
530.412755	2676.489729
530.774337	2677.379493
531.135862	2671.965294
531.497331	2672.870181
531.858743	2667.483708
532.220098	2670.800787
532.581396	2665.744510
532.942638	2662.737462
533.303824	2666.046979
533.664953	2662.760147
534.026025	2659.627070
534.387040	2661.149498
534.747999	2657.950886
535.108902	2659.586740
535.469748	2651.755308
535.830537	2651.591470
536.191270	2650.006027
536.551947	2645.857158
536.912567	2646.300779
537.273131	2644.183495
537.633638	2637.020015
537.994089	2636.531023
538.354483	2631.109262
538.714821	2632.639252
539.075103	2628.278654
539.435328	2628.432410
539.795497	2621.510905
540.155609	2618.395472
540.515665	2617.319186
540.875665	2614.002107
541.235609	2610.586725
541.595496	2607.289810
541.955328	2605.485077
542.315102	2599.680189
542.674821	2596.169025
543.034483	2593.431678
543.394090	2591.604260
543.753640	2588.972778
544.113134	2589.618046
544.472571	2582.734350
544.831953	2581.022878
545.191278	2576.594225
545.550548	2571.038873
545.909761	2571.653894
546.268918	2568.369582
546.628019	2568.735066
546.987064	2561.037224
547.346053	2556.762325
547.704986	2555.902809
548.063863	2550.952396
548.422684	2551.481717
548.781449	2545.659184
549.140158	2546.054915
549.498811	2543.496529
549.857408	2540.834800
550.215949	2538.364634
550.574434	2535.322298
550.932864	2533.290713
551.291237	2527.337110
551.649555	2530.515558
552.007817	2529.658562
552.366022	2527.047244
552.724173	2525.371060
553.082267	2525.318128
553.440305	2523.974661
553.798288	2520.730678
554.156215	2519.051974
554.514086	2520.597088
554.871902	2517.184227
555.229661	2515.997035
555.587365	2512.498474
555.945014	2512.437980
556.302606	2509.897239
556.660143	2512.581653
557.017625	2510.083761
557.375050	2508.337002
557.732421	2504.813235
558.089735	2508.470592
558.446994	2507.578308
558.804197	2505.995386
559.161345	2503.842813
559.518437	2505.803822
559.875474	2501.922133
560.232455	2506.771723
560.589381	2503.777278
560.946251	2504.823317
561.303065	2500.233347
561.659825	2504.614109
562.016528	2504.006650
562.373177	2499.903151
562.729770	2500.697133
563.086307	2499.358707
563.442789	2500.792915
563.799216	2499.396515
564.155587	2498.516834
564.511904	2497.138078
564.868164	2497.881648
565.224370	2497.939622
565.580520	2497.906854
565.936615	2498.148830
566.292654	2495.792090
566.648638	2497.052379
567.004567	2493.566421
567.360441	2498.204282
567.716260	2495.648417
568.072023	2494.211688
568.427732	2490.839157
568.783385	2493.231184
569.138982	2490.798827
569.494525	2493.490803
569.850013	2490.501399
570.205445	2494.390649
570.560823	2492.709425
570.916145	2492.301091
571.271412	2492.112048
571.626625	2493.536174
571.981782	2492.043992
572.336884	2492.643890
572.691931	2492.006184
573.046923	2491.018118
573.401860	2488.472335
573.756743	2494.045330
574.111570	2488.242962
574.466342	2491.265134
574.821059	2490.758498
575.175722	2488.689104
575.530330	2492.167501
575.884882	2491.403766
576.239380	2487.673312
576.593823	2488.618528
576.948211	2488.721872
577.302544	2486.619711
577.656823	2486.662561
578.011047	2488.905874
578.365216	2486.720534
578.719330	2485.233393
579.073389	2484.512508
579.427394	2487.587612
579.781344	2486.730616
580.135239	2483.950420
580.489080	2486.622231
580.842866	2484.958651
581.196597	2484.439412
581.550273	2484.802375
581.903895	2486.783548
582.257463	2483.867241
582.610975	2481.271047
582.964434	2484.257930
583.317837	2480.096458
583.671186	2482.238948
584.024481	2481.414719
584.377721	2481.119812
584.730906	2482.586788
585.084037	2479.027733
585.437113	2481.659215
585.790135	2478.541262
586.143103	2479.264667
586.496016	2479.509163
586.848874	2477.235603
587.201679	2478.246354
587.554428	2475.937506
587.907124	2477.754842
588.259765	2475.113277
588.612352	2478.984883
588.964884	2476.300469
589.317362	2477.081848
589.669786	2476.245016
590.022155	2477.260809
590.374470	2477.170068
590.726731	2477.631333
591.078937	2475.599748
591.431090	2474.208390
591.783188	2476.048411
592.135232	2471.229068
592.487222	2473.845427
592.839157	2474.387351
593.191038	2473.457258
593.542866	2473.852989
593.894639	2473.048925
594.246358	2473.530355
594.598022	2475.554378
594.949633	2472.776702
595.301190	2472.355766
595.652692	2473.406847
596.004141	2471.836527
596.355535	2472.648153
596.706876	2469.900724
597.058162	2470.011629
597.409395	2468.786629
597.760573	2468.559777
598.111698	2472.824593
598.462768	2467.034828
598.813785	2469.704119
599.164748	2467.879221
599.515657	2466.066927
599.866511	2469.968780
600.217312	2465.461988
600.568060	2467.410394
600.918753	2471.365179
601.269392	2468.877370
601.619978	2465.701443
601.970510	2467.929633
602.320988	2465.731690
602.671412	2469.615899
603.021783	2465.482153
603.372100	2469.913327
603.722363	2467.733028
604.072572	2467.155816
604.422728	2468.907617
604.772830	2461.494600
605.122878	2463.269086
605.472872	2466.041721
605.822813	2462.003757
606.172701	2465.777060
606.522534	2466.258490
606.872314	2464.771350
607.222041	2466.389560
607.571714	2466.170270
607.921333	2465.046093
608.270899	2468.136320
608.620411	2464.741103
608.969870	2468.322843
609.319276	2465.532564
609.668627	2463.831175
610.017926	2467.307050
610.367171	2467.929633
610.716362	2464.214303
611.065500	2464.541978
611.414585	2466.321505
611.763616	2465.880404
612.112594	2467.566670
612.461518	2467.037349
612.810389	2467.906948
613.159207	2465.615743
613.507971	2466.460137
613.856682	2464.778912
614.205340	2466.747482
614.553945	2468.234623
614.902496	2465.439303
615.250994	2467.546505
615.599439	2464.567183
615.947830	2467.057513
616.296169	2466.684468
616.644454	2468.698409
616.992686	2468.433748
617.340864	2466.573563
617.688990	2467.833851
618.037063	2468.070785
618.385082	2466.107256
618.733048	2468.670683
619.080961	2471.319809
619.428821	2464.536936
619.776628	2468.653038
620.124382	2466.913840
620.472083	2469.807463
620.819731	2466.152626
621.167326	2466.200517
621.514868	2465.736731
621.862357	2466.210599
622.209793	2463.561473
622.557176	2464.317646
622.904506	2462.449899
623.251783	2460.877059
623.599007	2462.780094
623.946179	2458.192644
624.293297	2458.048971
624.640363	2459.004270
624.987376	2464.070630
625.334336	2458.477469
625.681243	2462.205403
626.028097	2458.578293
626.374899	2459.221040
626.721647	2459.596606
627.068343	2459.238684
627.414987	2458.784980
627.761577	2459.654579
628.108115	2458.054013
628.454600	2457.754064
628.801032	2458.099383
629.147412	2458.366564
629.493739	2457.428909
629.840014	2454.716769
630.186236	2457.781790
630.532405	2456.932356
630.878521	2457.151646
631.224585	2456.508899
631.570597	2456.466049
631.916556	2456.831533
632.262462	2455.183075
632.608316	2455.898919
632.954117	2454.754577
633.299866	2455.137705
633.645562	2454.651234
633.991206	2454.983950
634.336797	2454.192489
634.682336	2452.823815
635.027823	2451.843311
635.373257	2450.320882
635.718639	2452.178548
636.063968	2454.878086
636.409245	2450.487241
636.754470	2454.023610
637.099642	2450.250306
637.444762	2450.454473
637.789829	2448.755604
638.134845	2449.085800
638.479808	2448.886674
638.824719	2447.891046
639.169577	2444.372321
639.514383	2449.211829
639.859137	2446.592949
640.203839	2448.768207
640.548489	2448.352312
640.893086	2448.755604
641.237632	2443.490119
641.582125	2444.745366
641.926566	2443.086827
642.270955	2446.565223
642.615292	2444.430294
642.959576	2446.290480
643.303809	2447.031530
643.647990	2445.539348
643.992118	2444.964657
644.336195	2447.243258
644.680219	2445.070521
645.024192	2447.240737
645.368112	2446.174533
645.711981	2447.722168
646.055797	2447.485233
646.399562	2448.223762
646.743274	2446.245110
647.086935	2447.306273
647.430544	2450.325924
647.774101	2446.663525
648.117606	2448.990018
648.461059	2449.274843
648.804460	2450.439350
649.147810	2451.127467
649.491108	2451.818105
649.834354	2449.683177
650.177548	2445.143618
650.520690	2449.524380
650.863781	2445.814091
651.206820	2448.080090
651.549807	2447.207970
651.892742	2443.583380
652.235626	2443.880808
652.578458	2445.007506
652.921238	2440.321754
653.263967	2444.470623
653.606644	2445.239399
653.949269	2441.312341
654.291843	2439.127000
654.634365	2444.402568
654.976836	2441.365273
655.319255	2443.099430
655.661622	2441.763524
656.003938	2440.732608
656.346203	2441.158585
656.688416	2442.055911
657.030577	2444.049687
657.372687	2439.353852
657.714746	2440.377207
658.056753	2442.691096
658.398708	2435.162133
658.740612	2438.569953
659.082465	2440.994748
659.424266	2438.106167
659.766016	2436.949222
660.107715	2439.779830
660.449362	2443.664039
660.790958	2439.641198
661.132503	2443.452310
661.473996	2439.356373
661.815438	2440.362083
662.156829	2444.339553
662.498168	2440.278904
662.839456	2440.820828
663.180693	2440.707402
663.521879	2444.236210
663.863013	2441.355190
664.204097	2439.661363
664.545129	2439.817638
664.886110	2441.889553
665.227040	2441.254367
665.567918	2440.646908
665.908746	2441.922320
666.249522	2441.589604
666.590248	2442.965839
666.930922	2441.022474
667.271545	2443.222938
667.612118	2443.225458
667.952639	2441.433328
668.293109	2442.827207
668.633528	2439.447114
668.973896	2443.762341
669.314213	2439.006013
669.654480	2440.478030
669.994695	2439.293358
670.334859	2439.857968
670.674973	2437.728080
671.015035	2443.114553
671.355047	2439.701692
671.695008	2443.661518
672.034918	2439.048862
672.374777	2440.523400
672.714585	2441.561878
673.054342	2440.041970
673.394049	2439.865529
673.733705	2441.241764
674.073310	2441.098092
674.412864	2441.377876
674.752368	2440.462906
675.091820	2439.260591
675.431223	2440.581373
675.770574	2438.675817
676.109875	2433.301947
676.449125	2438.582556
676.788324	2435.255394
677.127473	2437.355035
677.466571	2434.894952
677.805619	2436.329160
678.144616	2436.750096
678.483562	2437.423090
678.822458	2436.308995
679.161303	2437.423090
679.500098	2437.370158
679.838842	2436.661876
680.177535	2438.141455
680.516179	2439.192535
680.854771	2435.504931
681.193314	2438.030549
681.531805	2442.849892
681.870247	2437.579366
682.208638	2441.302258
682.546978	2443.106991
682.885268	2441.536672
683.223508	2439.920982
683.561697	2439.127000
683.899836	2439.855447
684.237925	2439.885694
684.575963	2436.566094
684.913951	2439.063986
685.251889	2440.256219
685.589776	2437.619695
685.927614	2438.837134
686.265401	2436.833275
686.603137	2438.680858
686.940824	2437.183636
687.278460	2439.056424
687.616046	2441.352670
687.953582	2440.556167
688.291068	2441.115736
688.628504	2442.444080
688.965889	2440.228493
689.303224	2439.265632
689.640510	2440.654470
689.977745	2441.163627
690.314930	2440.553647
690.652065	2436.500559
690.989150	2437.042483
691.326185	2435.489808
691.663170	2433.818665
692.000105	2432.951587
692.336990	2430.249528
692.673825	2433.075095
693.010610	2433.047369
693.347345	2426.957655
693.684030	2426.629980
694.020665	2429.057296
694.357251	2422.884403
694.693786	2434.499221
695.030272	2426.236770
695.366707	2427.849939
695.703093	2426.708118
696.039429	2428.200299
696.375716	2429.745413
696.711952	2428.979158
697.048139	2429.458067
697.384276	2427.131575
697.720363	2426.748447
698.056400	2428.096956
698.392388	2428.190217
698.728326	2427.907913
699.064214	2426.030083
699.400053	2428.225505
699.735842	2426.445978
700.071581	2426.047727
700.407270	2426.912285
700.742910	2427.542429
701.078501	2426.819023
701.414042	2427.509661
701.749533	2426.796338
702.084974	2424.250555
702.420366	2424.580751
702.755709	2427.360947
703.091002	2426.037644
703.426246	2424.439599
703.761440	2422.370205
704.096584	2424.490010
704.431679	2422.957499
704.766725	2424.500092
705.101721	2422.045051
705.436668	2420.555390
705.771565	2421.356933
706.106413	2424.623601
706.441212	2424.800041
706.775961	2423.726275
707.110661	2421.185534
707.445311	2425.861204
707.779913	2425.079825
708.114465	2424.404311
708.448967	2424.411872
708.783421	2426.062850
709.117825	2429.145516
709.452180	2426.657706
709.786485	2428.762388
710.120742	2429.815989
710.454949	2428.719538
710.789107	2425.384815
711.123216	2424.517737
711.457275	2427.562593
711.791286	2426.987902
712.125247	2427.575196
712.459159	2430.209199
712.793023	2428.659044
713.126837	2427.948242
713.460602	2429.042172
713.794318	2429.639549
714.127985	2431.565270
714.461602	2424.774835
714.795171	2429.415217
715.128691	2425.382294
715.462162	2425.246183
715.795584	2426.113262
716.128957	2424.699218
716.462281	2423.491862
716.795556	2423.048240
717.128782	2425.861204
717.461960	2422.390370
717.795088	2421.482962
718.128167	2423.207037
718.461198	2423.413724
718.794180	2422.851635
719.127113	2418.453228
719.459997	2419.529515
719.792833	2420.343661
720.125619	2419.474062
720.458357	2418.549010
720.791046	2421.445153
721.123686	2418.944741
721.456278	2419.882396
721.788821	2418.647313
722.121315	2421.369536
722.453761	2423.249886
722.786158	2417.865934
723.118506	2420.641089
723.450805	2418.188568
723.783056	2420.852818
724.115259	2422.632345
724.447412	2419.963054
724.779518	2419.993301
725.111574	2420.744433
725.443582	2420.749474
725.775542	2417.772673
726.107453	2421.430030
726.439315	2421.432550
726.771129	2423.234763
727.102895	2418.733013
727.434612	2421.616552
727.766281	2422.392890
728.097901	2420.401634
728.429473	2418.206212
728.760996	2420.663774
729.092471	2417.102199
729.423897	2419.718558
729.755276	2421.997160
730.086606	2422.344999
730.417887	2422.181162
730.749120	2421.714855
731.080305	2424.101841
731.411442	2422.960020
731.742530	2424.961358
732.073570	2425.059661
732.404562	2425.367171
732.735506	2425.430185
733.066401	2426.032603
733.397249	2424.643765
733.728048	2423.270051
734.058798	2424.031265
734.389501	2422.183682
734.720156	2421.581264
735.050762	2419.320307
735.381320	2418.554052
735.711831	2421.354413
736.042293	2420.338620
736.372707	2417.432395
736.703073	2418.987591
737.033391	2419.181675
737.363661	2418.770821
737.693883	2419.978178
738.024056	2420.812488
738.354182	2418.773342
738.684260	2421.737540
739.014290	2419.854669
739.344272	2422.410534
739.674207	2425.770463
740.004093	2420.419278
740.333931	2421.109917
740.663722	2420.487334
740.993464	2421.944228
741.323159	2420.499937
741.652806	2421.588826
741.982405	2418.826274
742.311956	2418.702766
742.641460	2419.537077
742.970915	2416.033475
743.300323	2419.224525
743.629683	2419.438774
743.958996	2418.112951
744.288260	2417.755029
744.617477	2417.140008
744.946647	2413.732188
745.275768	2416.010789
745.604842	2412.542476
745.933869	2415.705800
746.262847	2414.420305
746.591778	2415.531880
746.920662	2417.571027
747.249498	2415.972981
747.578286	2418.806109
747.907027	2418.387693
748.235720	2417.679411
748.564365	2414.773186
748.892963	2417.119843
749.221514	2416.837539
749.550017	2416.378794
749.878473	2416.421643
750.206881	2416.366191
750.535242	2416.237641
750.863555	2415.466345
751.191821	2418.375091
751.520039	2418.007086
751.848210	2418.498599
752.176334	2415.766293
752.504411	2414.833680
752.832440	2416.673701
753.160421	2415.103382
753.488356	2417.341654
753.816243	2417.455080
754.144082	2417.137487
754.471875	2417.868455
754.799620	2415.415933
755.127318	2416.734195
755.454969	2415.920049
755.782572	2416.310738
756.110129	2416.298135
756.437638	2414.924421
756.765100	2414.826118
757.092515	2417.114802
757.419882	2416.530028
757.747203	2415.569688
758.074477	2416.318300
758.401703	2415.995666
758.728882	2416.033475
759.056014	2418.506161
759.383099	2417.079514
759.710138	2418.516243
760.037129	2416.986253
760.364073	2418.420461
760.690970	2418.218815
761.017820	2418.100348
761.344623	2417.649164
761.671379	2419.887437
761.998088	2417.694535
762.324751	2422.128230
762.651366	2422.075297
762.977935	2431.598037
763.304456	2433.458223
763.630931	2435.903183
763.957359	2439.477361
764.283740	2431.464447
764.610074	2433.095260
764.936362	2424.928591
765.262602	2421.956830
765.588796	2422.954979
765.914943	2418.095307
766.241044	2416.502302
766.567097	2416.063722
766.893104	2416.782086
767.219064	2415.133629
767.544978	2416.023392
767.870845	2412.434091
768.196665	2410.745304
768.522438	2412.015675
768.848165	2410.100037
769.173846	2411.141035
769.499479	2412.275294
769.825066	2408.617937
770.150607	2413.472568
770.476101	2410.858730
770.801548	2412.454255
771.126949	2413.119688
771.452303	2410.631878
771.777611	2409.202711
772.102872	2410.896539
772.428087	2410.876374
772.753256	2410.979718
773.078378	2410.793195
773.403453	2409.046435
773.728482	2412.000552
774.053465	2409.159861
774.378401	2412.310583
774.703291	2405.810015
775.028135	2407.224058
775.352932	2409.331261
775.677683	2409.696744
776.002388	2407.312278
776.327046	2408.060890
776.651658	2407.587021
776.976224	2408.219686
777.300743	2408.504511
777.625216	2406.787998
777.949643	2408.416291
778.274024	2407.967628
778.598359	2403.425549
778.922647	2403.707853
779.246889	2406.540982
779.571086	2404.093502
779.895236	2407.733215
780.219339	2406.432597
780.543397	2408.239851
780.867409	2406.851013
781.191374	2408.859913
781.515294	2404.844634
781.839167	2408.522155
782.162995	2407.529048
782.486776	2405.825138
782.810511	2406.072155
783.134201	2407.476116
783.457844	2407.297155
783.781441	2404.769016
784.104993	2408.849830
784.428498	2409.086765
784.751958	2408.217166
785.075372	2408.638102
785.398739	2407.229099
785.722061	2408.002917
786.045337	2409.560633
786.368568	2408.839748
786.691752	2406.815725
787.014891	2407.713050
787.337983	2410.420150
787.661030	2411.070459
787.984031	2412.207239
788.306987	2410.611714
788.629897	2411.549368
788.952760	2409.669018
789.275579	2408.602814
789.598351	2413.122208
789.921078	2407.650036
790.243759	2410.278998
790.566395	2407.962587
790.888984	2407.733215
791.211529	2407.360169
791.534027	2408.930489
791.856480	2405.472257
792.178888	2405.442010
792.501249	2409.517783
792.823566	2403.720456
793.145836	2408.507032
793.468062	2409.119532
793.790241	2406.709861
794.112375	2407.103071
794.434464	2407.213976
794.756507	2408.985942
795.078505	2406.200704
795.400457	2407.619789
795.722364	2403.722977
796.044226	2404.809346
796.366042	2403.473440
796.687812	2408.310427
797.009538	2407.778585
797.331218	2410.218504
797.652852	2409.532907
797.974442	2407.440828
798.295986	2410.271436
798.617484	2406.586352
798.938938	2408.912845
799.260346	2407.405540
799.581709	2403.468399
799.903026	2409.648853
800.224299	2405.931002
800.545526	2408.759090
800.866708	2405.694068
801.187845	2406.906466
801.508936	2404.781619
801.829983	2408.010478
802.150984	2405.351270
802.471940	2404.809346
802.792851	2404.635426
803.113717	2405.709192
803.434538	2407.521486
803.755314	2405.683986
804.076045	2404.307751
804.396731	2403.591907
804.717372	2404.617782
805.037967	2406.283883
805.358518	2405.686506
805.679024	2408.186919
805.999485	2404.337998
806.319901	2406.210786
806.640272	2403.397823
806.960598	2408.542320
807.280879	2407.511404
807.601115	2407.249264
807.921306	2404.285066
808.241453	2406.926630
808.561554	2407.670200
808.881611	2406.815725
809.201623	2407.259346
809.521590	2404.950498
809.841513	2406.185581
810.161390	2405.986455
810.481223	2408.189439
810.801011	2408.033163
811.120755	2401.726680
811.440453	2406.765313
811.760107	2407.092988
812.079716	2403.929664
812.399281	2402.384551
812.718801	2401.777092
813.038276	2403.143244
813.357707	2406.314130
813.677093	2406.903945
813.996434	2405.033677
814.315731	2404.862278
814.634983	2406.223389
814.954191	2404.990827
815.273354	2406.505694
815.592473	2406.104922
815.911547	2406.309089
816.230577	2406.898904
816.549562	2408.050808
816.868502	2405.472257
817.187399	2410.329409
817.506250	2408.020561
817.825058	2407.022412
818.143821	2407.216497
818.462539	2409.028791
818.781213	2408.680952
819.099843	2412.524832
819.418429	2412.797054
819.736970	2418.370049
820.055466	2418.296953
820.373919	2420.759556
820.692327	2423.554876
821.010691	2434.317740
821.329011	2451.775255
821.647286	2490.773622
821.965517	2516.652385
822.283704	2539.420756
822.601847	2543.022661
822.919945	2528.998171
823.237999	2514.295645
823.556010	2495.940804
823.873976	2484.104175
824.191897	2467.047431
824.509775	2453.771552
824.827609	2448.813577
825.145398	2442.461724
825.463144	2439.999120
825.780845	2438.975766
826.098502	2447.797785
826.416116	2449.211829
826.733685	2460.264558
827.051210	2462.628860
827.368692	2457.408745
827.686129	2449.710903
828.003522	2438.254881
828.320872	2429.813469
828.638177	2427.970927
828.955439	2420.512540
829.272656	2416.522467
829.589830	2416.509864
829.906960	2417.238310
830.224046	2416.058680
830.541088	2411.176323
830.858086	2410.808319
831.175041	2411.352763
831.491952	2405.875550
831.808819	2413.465007
832.125642	2409.918555
832.442421	2411.536765
832.759157	2414.649678
833.075849	2422.967582
833.392497	2430.579724
833.709101	2433.193562
834.025662	2431.610640
834.342179	2428.354055
834.658653	2427.308015
834.975083	2419.668147
835.291469	2424.573189
835.607811	2416.862744
835.924110	2412.366035
836.240366	2413.712023
836.556578	2410.188257
836.872746	2406.074675
837.188871	2409.253123
837.504952	2406.566188
837.820990	2403.866650
838.136984	2406.160375
838.452935	2405.777247
838.768842	2405.547875
839.084706	2402.782802
839.400526	2407.786147
839.716303	2411.672877
840.032037	2412.794533
840.347727	2415.496592
840.663373	2411.766138
840.978977	2409.099367
841.294537	2408.837227
841.610054	2406.825807
841.925527	2404.564850
842.240957	2405.305899
842.556344	2406.062072
842.871687	2402.308933
843.186987	2401.991341
843.502244	2403.934705
843.817458	2398.898593
844.132629	2399.294323
844.447756	2399.425393
844.762840	2396.181411
845.077881	2397.973541
845.392879	2397.540002
845.707833	2398.205434
846.022745	2394.563200
846.337613	2400.292472
846.652438	2399.674930
846.967221	2400.849519
847.281960	2397.479508
847.596656	2400.055537
847.911309	2397.320712
848.225919	2398.545712
848.540485	2401.041083
848.855009	2397.671072
849.169490	2400.902451
849.483928	2396.617471
849.798323	2398.628891
850.112675	2398.517986
850.426984	2398.581000
850.741251	2402.918913
851.055474	2398.601165
851.369654	2402.046793
851.683792	2399.256515
851.997887	2399.322050
852.311938	2401.978738
852.625947	2402.873542
852.939914	2397.464384
853.253837	2399.564025
853.567718	2395.957079
853.881555	2400.657955
854.195350	2398.480177
854.509103	2398.487739
854.822812	2397.930691
855.136479	2402.147616
855.450103	2399.405229
855.763685	2401.502349
856.077224	2400.746176
856.390720	2399.808521
856.704173	2401.177194
857.017584	2398.218037
857.330953	2398.311298
857.644278	2399.453120
857.957561	2401.709036
858.270802	2401.915723
858.584000	2397.983623
858.897155	2398.278531
859.210268	2401.396484
859.523339	2398.099570
859.836367	2399.964797
860.149352	2401.651063
860.462295	2398.470095
860.775195	2396.430948
861.088054	2395.949518
861.400869	2396.614950
861.713642	2395.324415
862.026373	2398.810372
862.339062	2399.579148
862.651708	2399.309447
862.964312	2399.982441
863.276873	2399.795918
863.589392	2398.235681
863.901869	2400.347924
864.214303	2401.656104
864.526696	2397.386247
864.839045	2398.084446
865.151353	2401.404046
865.463619	2399.662327
865.775842	2400.675599
866.088023	2398.439848
866.400162	2401.928326
866.712258	2398.744837
867.024313	2400.478994
867.336325	2399.546381
867.648296	2398.016391
867.960224	2400.496638
868.272110	2400.320198
868.583954	2397.998747
868.895755	2400.655435
869.207515	2398.949004
869.519233	2401.598131
869.830909	2398.734755
870.142542	2400.910013
870.454134	2401.661145
870.765684	2399.047307
871.077191	2400.436145
871.388657	2400.887328
871.700081	2401.041083
872.011463	2401.086453
872.322803	2399.541340
872.634101	2399.871535
872.945357	2403.092833
873.256571	2402.752555
873.567744	2399.775753
873.878874	2400.917575
874.189963	2402.349262
874.501010	2402.399674
874.812015	2401.179715
875.122979	2404.138872
875.433900	2402.591238
875.744780	2402.455127
876.055618	2401.963614
876.366415	2402.286248
876.677169	2404.307751
876.987882	2400.758778
877.298554	2396.279713
877.609183	2401.761968
877.919771	2401.686351
878.230317	2401.451937
878.540822	2404.133831
878.851285	2405.583163
879.161707	2408.512073
879.472087	2412.580284
879.782425	2411.083062
880.092722	2419.179155
880.402977	2430.567121
880.713191	2443.369131
881.023363	2459.130299
881.333494	2468.171608
881.643583	2470.180508
881.953631	2467.765795
882.263637	2462.981740
882.573602	2458.041410
882.883526	2455.256172
883.193408	2447.654112
883.503248	2443.555654
883.813048	2437.629778
884.122806	2432.843202
884.432522	2427.542429
884.742197	2423.519588
885.051831	2420.812488
885.361424	2413.969122
885.670975	2417.041705
885.980485	2411.725809
886.289954	2410.924265
886.599382	2410.150448
886.908768	2407.861764
887.218113	2408.133987
887.527417	2406.805642
887.836680	2406.611558
888.145901	2403.221382
888.455082	2405.273132
888.764221	2403.859088
889.073319	2401.280538
889.382376	2402.321536
889.691392	2401.719118
890.000366	2402.480333
890.309300	2401.537637
890.618193	2403.291958
890.927044	2402.729870
891.235855	2402.273645
891.544625	2402.896228
891.853353	2402.732390
892.162041	2402.167781
892.470687	2404.055693
892.779293	2404.814387
893.087858	2405.774727
893.396381	2404.327915
893.704864	2407.587021
894.013306	2408.348236
894.321707	2415.773855
894.630068	2420.757036
894.938387	2418.818712
895.246665	2421.130081
895.554903	2420.076480
895.863100	2418.811150
896.171256	2414.679925
896.479371	2412.754204
896.787446	2410.311765
897.095480	2409.729512
897.403473	2409.364028
897.711425	2407.304717
898.019336	2405.562998
898.327207	2405.474778
898.635038	2407.032494
898.942827	2402.160219
899.250576	2403.027298
899.558284	2403.869170
899.865952	2401.764489
900.173579	2400.930178
900.481165	2401.514952
900.788711	2400.267266
901.096216	2401.754406
901.403681	2399.853891
901.711105	2400.536968
902.018489	2401.416649
902.325832	2404.998389
902.633135	2400.786505
902.940397	2405.081568
903.247619	2406.740108
903.554800	2413.200346
903.861941	2418.428023
904.169041	2426.108221
904.476101	2427.867583
904.783121	2424.610998
905.090100	2422.539084
905.397039	2418.125553
905.703938	2414.536252
906.010796	2413.848134
906.317614	2410.152969
906.624391	2410.586508
906.931129	2407.080385
907.237826	2406.364542
907.544483	2403.269273
907.851099	2402.233316
908.157675	2403.044942
908.464211	2403.397823
908.770707	2393.691081
909.077163	2396.748541
909.383578	2394.595968
909.689954	2397.451782
909.996289	2392.972716
910.302584	2397.882800
910.608839	2399.168294
910.915054	2394.976575
911.221229	2396.405742
911.527363	2399.294323
911.833458	2398.843140
912.139513	2397.499673
912.445527	2398.830537
912.751502	2401.998902
913.057436	2398.780126
913.363331	2403.458316
913.669186	2403.075189
913.975000	2402.853378
914.280775	2401.769530
914.586510	2405.560477
914.892205	2407.400499
915.197859	2412.058525
915.503475	2418.017169
915.809050	2422.213929
916.114585	2425.561255
916.420081	2421.513209
916.725536	2423.191913
917.030952	2423.842222
917.336328	2417.205543
917.641665	2419.373239
917.946961	2416.759401
918.252218	2416.134298
918.557435	2414.667322
918.862612	2413.880902
919.167750	2411.829152
919.472848	2410.780592
919.777906	2407.690365
920.082925	2406.808163
920.387904	2405.258008
920.692843	2400.899931
920.997743	2403.975035
921.302603	2402.326577
921.607423	2399.745507
921.912204	2403.581825
922.216946	2399.014539
922.521647	2402.687020
922.826310	2398.568397
923.130932	2401.094015
923.435516	2398.621329
923.740059	2399.332132
924.044564	2398.104611
924.349028	2399.904303
924.653454	2391.871224
924.957840	2395.503376
925.262186	2393.557490
925.566493	2395.853736
925.870761	2390.434495
926.174989	2398.097049
926.479178	2395.521020
926.783328	2394.185114
927.087438	2397.030845
927.391509	2396.549415
927.695541	2395.878942
927.999533	2396.148643
928.303486	2396.317522
928.607400	2396.932543
928.911275	2395.208468
929.215110	2398.432286
929.518906	2396.481359
929.822663	2397.731566
930.126381	2395.301729
930.430060	2396.743499
930.733699	2396.105793
931.037299	2396.375495
931.340861	2396.791390
931.644383	2396.942625
931.947866	2396.181411
932.251309	2396.771226
932.554714	2395.760474
932.858080	2395.866339
933.161407	2396.136040
933.464694	2396.030176
933.767943	2397.030845
934.071153	2396.090670
934.374323	2394.724517
934.677455	2393.645710
934.980548	2392.733262
935.283602	2393.817110
935.586617	2395.190824
935.889593	2395.463046
936.192530	2395.805845
936.495428	2392.912222
936.798287	2394.467418
937.101108	2398.086967
937.403890	2396.743499
937.706632	2397.240053
938.009336	2395.861298
938.312002	2397.844992
938.614628	2396.884652
938.917216	2398.661658
939.219765	2395.921791
939.522275	2398.190311
939.824747	2400.083264
940.127179	2397.146792
940.429573	2392.057747
940.731929	2393.111348
941.034246	2394.825340
941.336524	2399.969838
941.638763	2393.686040
941.940964	2394.764847
942.243126	2396.204096
942.545250	2398.099570
942.847335	2398.412121
943.149381	2398.253325
943.451389	2394.706873
943.753359	2395.790721
944.055290	2395.536143
944.357182	2396.065464
944.659036	2395.432799
944.960851	2397.605537
945.262628	2397.141751
945.564367	2395.634446
945.866067	2395.498334
946.167729	2398.243243
946.469352	2394.603530
946.770937	2396.468757
947.072484	2394.711914
947.373992	2395.505896
947.675462	2394.162429
947.976893	2397.671072
948.278286	2396.080588
948.579641	2396.130999
948.880958	2395.566390
949.182236	2397.126627
949.483476	2393.582696
949.784678	2396.814076
950.085841	2393.887686
950.386967	2395.153015
950.688054	2395.460526
950.989103	2394.727038
951.290114	2393.736451
951.591087	2394.202758
951.892021	2394.848026
952.192917	2395.919271
952.493776	2395.405073
952.794596	2398.210475
953.095378	2395.654610
953.396122	2397.197203
953.696828	2394.676626
953.997496	2397.512275
954.298126	2395.407594
954.598718	2397.870197
954.899272	2394.427089
955.199788	2397.000598
955.500266	2395.740310
955.800706	2391.621687
956.101108	2389.065822
956.401472	2391.732593
956.701798	2390.220246
957.002087	2391.838457
957.302337	2391.722510
957.602550	2391.893909
957.902724	2395.556308
958.202861	2393.270144
958.502960	2394.139743
958.803022	2393.494476
959.103045	2393.567573
959.403031	2395.132851
959.702979	2392.806358
960.002889	2394.515309
960.302762	2392.375340
960.602596	2391.299053
960.902393	2391.311656
961.202153	2392.720659
961.501875	2392.713097
961.801559	2393.872562
962.101205	2391.722510
962.400814	2394.424569
962.700385	2394.139743
962.999918	2395.808365
963.299414	2393.464229
963.598873	2390.510113
963.898293	2393.207130
964.197677	2391.563714
964.497022	2391.142778
964.796331	2393.973385
965.095601	2391.828374
965.394835	2393.040772
965.694030	2397.547563
965.993189	2391.175545
966.292309	2392.297202
966.591393	2393.202089
966.890439	2392.939949
967.189447	2393.136554
967.488419	2393.749054
967.787353	2394.565721
968.086249	2390.623539
968.385108	2393.126472
968.683930	2393.297871
968.982714	2394.858108
969.281462	2393.499517
969.580172	2389.327962
969.878844	2394.112017
970.177480	2393.756616
970.476078	2392.340052
970.774639	2392.425751
971.073162	2392.287119
971.371649	2394.210320
971.670098	2389.706049
971.968510	2390.810061
972.266885	2388.478528
972.565223	2392.695453
972.863524	2392.912223
973.161788	2392.793755
973.460014	2394.079250
973.758204	2393.527243
974.056356	2393.058416
974.354471	2393.315515
974.652550	2391.974568
974.950591	2395.876421
975.248595	2393.446585
975.546563	2393.050854
975.844493	2394.084291
976.142386	2392.498848
976.440243	2391.326780
976.738062	2395.208468
977.035845	2394.449774
977.333590	2393.774260
977.631299	2391.046996
977.928971	2391.987171
978.226606	2392.599671
978.524204	2394.356513
978.821765	2393.237377
979.119290	2388.896943
979.416777	2388.786038
979.714228	2394.623694
980.011642	2392.453478
980.309020	2394.699312
980.606360	2392.448436
980.903664	2394.737120
981.200931	2394.442213
981.498162	2395.747872
981.795356	2393.756616
982.092513	2393.209651
982.389633	2394.686709
982.686717	2397.774415
982.983764	2394.553118
983.280775	2396.352810
983.577749	2395.223592
983.874686	2396.506565
984.171587	2395.236194
984.468451	2395.236194
984.765279	2393.151677
985.062070	2395.962121
985.358824	2393.423900
985.655543	2395.221071
985.952224	2393.272665
986.248869	2392.143447
986.545478	2390.643703
986.842050	2392.178735
987.138586	2388.425596
987.435086	2390.132026
987.731549	2389.310318
988.027975	2392.806358
988.324366	2389.438868
988.620719	2393.280227
988.917037	2395.447923
989.213318	2390.595812
989.509563	2389.050699
989.805772	2394.202758
990.101944	2391.780483
990.398080	2389.655637
990.694180	2392.508930
990.990244	2392.287119
991.286271	2392.443395
991.582262	2396.201575
991.878217	2392.226626
992.174136	2391.888868
992.470019	2391.581358
992.765865	2391.770401
993.061676	2390.046327
993.357450	2392.793755
993.653188	2392.750906
993.948890	2392.826523
994.244556	2389.748898
994.540186	2394.961452
994.835780	2393.648231
995.131337	2391.475494
995.426859	2391.699825
995.722345	2393.945659
996.017795	2392.995402
996.313208	2393.933056
996.608586	2393.812068
996.903928	2395.621843
997.199234	2393.635628
997.494504	2395.316853
997.789738	2395.465567
998.084936	2392.125803
998.380099	2393.146636
998.675225	2395.853736
998.970316	2394.263252
999.265371	2394.011194
999.560390	2392.539177
999.855373	2392.156049
1000.150320	2392.246790
1000.445232	2393.648231
1000.740108	2393.519682
1001.034948	2391.707387
1001.329752	2391.503220
1001.624521	2390.421893
1001.919254	2386.567930
1002.213951	2390.500030
1002.508613	2387.407283
1002.803239	2388.120606
1003.097829	2387.689587
1003.392384	2389.179248
1003.686903	2391.901471
1003.981386	2391.929198
1004.275834	2393.832233
1004.570246	2393.033210
1004.864623	2393.597819
1005.158964	2392.062788
1005.453270	2389.885010
1005.747540	2389.096069
1006.041775	2389.070863
1006.335974	2390.550442
1006.630138	2390.908364
1006.924266	2392.824002
1007.218359	2388.949876
1007.512416	2391.230998
1007.806438	2393.799466
1008.100425	2392.861811
1008.394376	2389.469114
1008.688292	2392.869373
1008.982172	2391.830895
1009.276017	2392.093035
1009.569827	2389.912736
1009.863602	2392.236708
1010.157341	2390.500030
1010.451045	2392.834085
1010.744714	2392.430792
1011.038347	2392.554301
1011.331945	2391.825854
1011.625508	2389.728734
1011.919036	2387.619011
1012.212528	2390.696635
1012.505986	2391.294012
1012.799408	2392.662685
1013.092795	2391.046996
1013.386147	2391.314177
1013.679464	2390.704197
1013.972745	2391.452808
1014.265992	2391.339383
1014.559204	2391.941800
1014.852380	2388.551624
1015.145521	2390.774773
1015.438628	2389.030534
1015.731699	2392.529095
1016.024736	2389.922818
1016.317737	2392.110679
1016.610703	2391.714948
1016.903635	2388.047509
1017.196531	2385.955430
1017.489393	2388.959958
1017.782219	2388.009700
1018.075011	2390.101779
1018.367768	2391.891389
1018.660490	2391.513302
1018.953177	2391.513302
1019.245829	2391.513302
