Dividing Wavelength (nm)	Counts (n)	Blue Motor Position (mm): 0.000000	Red Motor Position (mm): 14.400000	
326.493990	1983.268061
326.888308	1983.268061
327.282561	1983.268061
327.676750	1957.538012
328.070874	1958.513475
328.464933	1961.896089
328.858929	1973.137862
329.252859	1986.544811
329.646726	2001.436379
330.040528	2014.041785
330.434265	2033.752696
330.827938	2054.179452
331.221547	2074.419684
331.615091	2094.428024
332.008571	2115.799996
332.401986	2136.395630
332.795338	2155.110913
333.188625	2178.723678
333.581847	2195.866122
333.975006	2214.994780
334.368100	2233.543705
334.761129	2246.544841
335.154095	2262.459764
335.546996	2279.249327
335.939833	2292.510082
336.332606	2308.122535
336.725315	2316.833649
337.117960	2324.854125
337.510540	2333.300578
337.903056	2343.917248
338.295508	2349.396983
338.687896	2355.176665
339.080220	2366.320136
339.472480	2367.424149
339.864676	2368.651670
340.256807	2375.084182
340.648875	2376.518390
341.040879	2377.740870
341.432818	2376.704913
341.824694	2380.533669
342.216506	2380.241282
342.608253	2380.236241
342.999937	2377.294728
343.391557	2377.050232
343.783113	2376.745242
344.174605	2373.730632
344.566033	2372.089737
344.957397	2372.533358
345.348697	2368.286186
345.739934	2370.804242
346.131106	2368.513038
346.522215	2367.509848
346.913260	2363.169415
347.304241	2364.061699
347.695159	2359.905268
348.086012	2361.251256
348.476802	2359.522140
348.867528	2357.306553
349.258191	2354.879237
349.648789	2354.828826
350.039324	2354.700276
350.429796	2354.730523
350.820203	2351.869668
351.210548	2351.418485
351.600828	2352.845132
351.991045	2353.104751
352.381198	2350.838753
352.771288	2349.505367
353.161314	2348.976046
353.551276	2348.918073
353.941175	2349.943948
354.331010	2351.768845
354.720782	2352.174658
355.110490	2350.306911
355.500135	2352.164576
355.889717	2352.041068
356.279235	2353.218177
356.668689	2352.547704
357.058080	2350.748012
357.447408	2352.835049
357.836672	2350.725327
358.225873	2354.047447
358.615010	2351.249607
359.004084	2355.436285
359.393095	2356.114320
359.782043	2358.816378
360.170927	2359.547346
360.559748	2358.907119
360.948505	2361.094980
361.337199	2359.595237
361.725830	2359.733868
362.114398	2362.219157
362.502903	2362.965248
362.891344	2361.357120
363.279722	2361.583972
363.668037	2365.178315
364.056289	2367.025898
364.444478	2367.681248
364.832603	2366.970445
365.220665	2366.196628
365.608665	2368.608820
365.996601	2368.545805
366.384474	2368.024046
366.772284	2370.101001
367.160031	2371.255426
367.547715	2370.615199
367.935336	2371.262987
368.322893	2371.147041
368.710388	2371.875488
369.097820	2378.416385
369.485189	2375.200128
369.872495	2377.017464
370.259738	2380.563916
370.646918	2381.486447
371.034035	2380.400079
371.421090	2383.941489
371.808081	2387.868548
372.195010	2392.566903
372.581875	2397.802142
372.968678	2402.969324
373.355418	2408.650705
373.742096	2420.991449
374.128710	2430.622574
374.515262	2440.823349
374.901751	2457.242387
375.288177	2471.627319
375.674540	2487.191882
376.060841	2509.824142
376.447079	2532.158974
376.833254	2559.527398
377.219367	2585.043198
377.605417	2620.452263
377.991404	2645.365645
378.377329	2686.309897
378.763191	2717.595298
379.148991	2763.308481
379.534727	2809.349339
379.920402	2858.551000
380.306013	2906.452044
380.691563	2964.901703
381.077049	3018.731143
381.462474	3072.898341
381.847835	3147.053714
382.233134	3219.174982
382.618371	3279.167233
383.003545	3359.314018
383.388657	3440.461471
383.773706	3527.673433
384.158693	3598.632714
384.543618	3691.750388
384.928480	3772.575207
385.313280	3873.254611
385.698017	3978.569356
386.082692	4095.123354
386.467305	4155.506294
386.851856	4283.120583
387.236344	4435.166825
387.620770	4493.392152
388.005133	4617.041573
388.389435	4762.504067
388.773674	4840.384853
389.157851	4970.670954
389.541965	5101.650213
389.926018	5125.131908
390.310008	5303.596315
390.693936	5419.041259
391.077802	5535.746491
391.461606	5664.651316
391.845348	5777.757164
392.229027	5894.457355
392.612645	6117.687209
392.996200	6232.023099
393.379694	6407.157824
393.763125	6623.536750
394.146494	6713.775925
394.529801	6846.360792
394.913047	7077.575833
395.296230	7076.857469
395.679351	7127.326981
396.062410	7380.569344
396.445408	7276.683766
396.828343	7419.368585
397.211217	7553.584265
397.594028	7436.218641
397.976778	7634.935885
398.359466	7795.335318
398.742092	7761.075636
399.124656	7903.309272
399.507158	8071.978717
399.889598	8094.058971
400.271977	8284.680122
400.654294	8307.062845
401.036549	8481.774114
401.418742	8497.719283
401.800874	8770.997713
402.182944	8832.782094
402.564952	9160.240325
402.946898	8967.116241
403.328783	8993.945262
403.710606	9151.420826
404.092367	9361.561324
404.474067	9669.497686
404.855705	9435.956152
405.237282	9342.772944
405.618797	9687.008134
406.000250	9861.129588
406.381642	10133.578747
406.762972	10025.582109
407.144240	9778.119428
407.525447	9930.576523
407.906593	9802.851329
408.287677	9945.959604
408.668700	9989.270678
409.049661	9882.617506
409.430560	9927.060318
409.811399	9806.359972
410.192176	9833.690587
410.572891	9794.031830
410.953545	10062.987470
411.334138	9546.370024
411.714669	9889.536490
412.095139	9253.292463
412.475547	9505.791256
412.855894	9276.527141
413.236180	9378.449189
413.616405	9035.829689
413.996568	9092.046116
414.376670	8938.013660
414.756711	8727.411897
415.136691	8763.425900
415.516609	8741.086026
415.896466	8634.639542
416.276262	8656.414806
416.655997	8763.188965
417.035670	8633.948904
417.415283	8839.002878
417.794834	8719.986277
418.174324	8424.355371
418.553753	8211.507774
418.933121	8282.467055
419.312428	8027.319136
419.691674	7818.537228
420.070859	7865.601441
420.449983	7539.927779
420.829045	7615.371167
421.208047	7338.195925
421.586988	7359.348607
421.965867	7298.592621
422.344686	7120.947400
422.723444	7157.793194
423.102141	6546.996912
423.480777	6775.202384
423.859352	6469.368183
424.237866	6641.422764
424.616319	6391.126955
424.994712	6416.277272
425.373044	6207.268513
425.751314	6216.113217
426.129524	5849.346590
426.507673	5943.230518
426.885762	5730.821501
427.263789	5621.443586
427.641756	5511.201113
428.019662	5380.133634
428.397508	5250.691926
428.775292	5164.100027
429.153016	5022.872102
429.530679	4904.261313
429.908282	4781.408394
430.285824	4619.201707
430.663305	4593.222121
431.040726	4431.063325
431.418086	4300.704128
431.795385	4265.005197
432.172624	4204.448337
432.549802	4062.005493
432.926920	3983.257629
433.303977	3875.490363
433.680974	3808.642142
434.057910	3742.396340
434.434786	3662.799041
434.811601	3582.558995
435.188355	3574.515834
435.565050	3479.432111
435.941683	3406.708426
436.318257	3381.066597
436.694770	3310.813077
437.071222	3276.208076
437.447614	3175.442972
437.823946	3125.709469
438.200218	3081.019640
438.576429	3026.970909
438.952580	2993.769870
439.328670	2955.925928
439.704700	2926.291505
440.080670	2881.838611
440.456580	2864.030735
440.832429	2832.851198
441.208218	2783.899074
441.583947	2767.404418
441.959616	2744.409195
442.335224	2729.416803
442.710773	2709.579863
443.086261	2698.965714
443.461689	2672.855057
443.837057	2659.082625
444.212365	2653.421409
444.587612	2639.512866
444.962800	2619.597787
445.337927	2614.085286
445.712995	2591.405135
446.088002	2599.861670
446.462949	2592.675505
446.837837	2586.661409
447.212664	2575.885942
447.587431	2595.289344
447.962139	2609.056735
448.336786	2623.207254
448.711374	2604.199583
449.085901	2574.988617
449.460369	2565.322205
449.834776	2558.730896
450.209124	2572.415108
450.583412	2562.940259
450.957640	2564.699622
451.331808	2553.488096
451.705917	2536.794315
452.079965	2537.661393
452.453954	2532.784077
452.827883	2533.623429
453.201752	2526.593540
453.575562	2523.379805
453.949311	2528.481452
454.323001	2527.231246
454.696632	2524.060360
455.070202	2529.948428
455.443713	2528.330218
455.817164	2526.160001
456.190556	2523.780576
456.563888	2523.420134
456.937160	2516.969978
457.310373	2515.097189
457.683526	2515.997035
458.056619	2515.311438
458.429653	2510.960922
458.802628	2514.036026
459.175542	2509.849348
459.548398	2516.213804
459.921194	2522.041378
460.293930	2526.079343
460.666607	2532.171577
461.039224	2537.661393
461.411782	2538.137783
461.784280	2532.784077
462.156719	2530.321473
462.529099	2522.863086
462.901419	2517.406037
463.273680	2514.905625
463.645882	2508.629388
464.018024	2512.690038
464.390106	2516.264216
464.762130	2527.180835
465.134094	2541.250695
465.505999	2561.916905
465.877845	2581.179154
466.249631	2583.601428
466.621358	2573.531724
466.993026	2566.763975
467.364634	2562.325239
467.736184	2550.304607
468.107674	2544.683721
468.479105	2541.122146
468.850477	2538.858667
469.221790	2534.069571
469.593043	2525.300484
469.964238	2519.939217
470.335373	2521.529701
470.706449	2524.125895
471.077467	2534.165353
471.448425	2553.193188
471.819324	2559.991184
472.190164	2556.245607
472.560945	2542.518545
472.931667	2530.008922
473.302330	2521.844773
473.672934	2523.687315
474.043479	2525.514733
474.413965	2519.301511
474.784393	2513.317662
475.154761	2518.532735
475.525070	2516.359998
475.895321	2517.968126
476.265513	2516.760770
476.635645	2523.440298
477.005719	2525.287881
477.375734	2529.658562
477.745691	2528.836854
478.115588	2531.551515
478.485427	2541.051569
478.855207	2551.892571
479.224928	2563.275496
479.594591	2568.755230
479.964194	2564.755075
480.333739	2563.351113
480.703226	2562.375650
481.072653	2566.373285
481.442022	2566.653069
481.811333	2567.986454
482.180584	2562.859601
482.549777	2561.362378
482.918912	2558.859445
483.287988	2557.306770
483.657005	2555.141594
484.025964	2554.960113
484.394864	2552.439536
484.763706	2548.376366
485.132489	2549.619010
485.501213	2545.427291
485.869879	2547.741181
486.238487	2549.435008
486.607036	2548.691438
486.975527	2546.611962
487.343959	2546.841335
487.712333	2546.798485
488.080648	2546.380069
488.448905	2553.541028
488.817104	2546.909390
489.185244	2552.149670
489.553326	2557.074877
489.921350	2565.785991
490.289315	2578.489698
490.657222	2578.199832
491.025070	2582.242837
491.392861	2578.961046
491.760593	2574.860068
492.128267	2568.823286
492.495883	2559.290464
492.863440	2558.062943
493.230939	2552.046326
493.598380	2550.939793
493.965763	2542.178267
494.333088	2542.962167
494.700354	2539.846734
495.067563	2543.141128
495.434713	2538.828421
495.801805	2542.064841
496.168839	2539.758513
496.535815	2541.260777
496.902733	2540.171888
497.269593	2539.715664
497.636395	2540.509645
498.003139	2543.894780
498.369825	2541.361600
498.736453	2541.399409
499.103023	2539.594676
499.469535	2545.039122
499.835989	2540.098791
500.202385	2541.936292
500.568723	2544.240099
500.935003	2546.276725
501.301226	2543.302445
501.667390	2548.497354
502.033497	2550.476007
502.399546	2549.508105
502.765537	2546.425439
503.131470	2551.791748
503.497345	2554.050185
503.863163	2552.840308
504.228923	2554.670247
504.594625	2560.152501
504.960269	2556.190154
505.325856	2561.130485
505.691385	2559.000598
506.056856	2564.029149
506.422270	2566.363203
506.787625	2570.496949
507.152924	2572.959553
507.518164	2571.953842
507.883347	2571.860581
508.248472	2575.381827
508.613540	2576.944585
508.978550	2584.768456
509.343503	2584.806264
509.708398	2588.428333
510.073236	2592.131061
510.438016	2595.130547
510.802738	2594.187852
511.167403	2599.496187
511.532010	2602.909048
511.896561	2605.265787
512.261053	2611.887343
512.625488	2610.110336
512.989866	2609.974225
513.354186	2612.933382
513.718449	2609.767537
514.082655	2622.796400
514.446803	2621.591564
514.810894	2626.065588
515.174927	2626.988119
515.538904	2626.622635
515.902822	2633.496249
516.266684	2632.488018
516.630488	2633.846609
516.994235	2634.665796
517.357925	2641.456231
517.721558	2643.540748
518.085133	2645.816829
518.448651	2646.172230
518.812112	2646.063845
519.175516	2646.782210
519.538863	2649.867396
519.902152	2649.733805
520.265385	2654.928714
520.628560	2654.643889
520.991678	2655.372336
521.354739	2658.374343
521.717743	2658.306287
522.080690	2659.125475
522.443580	2662.941628
522.806413	2661.784683
523.169189	2659.876607
523.531908	2663.720487
523.894569	2665.021104
524.257174	2661.714107
524.619722	2661.376350
524.982213	2663.922133
525.344647	2664.476660
525.707025	2665.132010
526.069345	2665.182421
526.431608	2661.298212
526.793815	2666.137720
527.155964	2664.443892
527.518057	2662.419869
527.880093	2660.877276
528.242072	2662.868532
528.603995	2660.496669
528.965860	2660.789056
529.327669	2657.078766
529.689421	2656.433499
530.051117	2655.793272
530.412755	2653.129022
530.774337	2652.176244
531.135862	2648.617190
531.497331	2648.715492
531.858743	2643.354225
532.220098	2644.732981
532.581396	2638.469347
532.942638	2634.834675
533.303824	2637.642598
533.664953	2635.852988
534.026025	2630.080867
534.387040	2631.872997
534.747999	2629.236474
535.108902	2627.179683
535.469748	2621.523508
535.830537	2620.742129
536.191270	2619.486882
536.551947	2612.514966
536.912567	2611.305089
537.273131	2608.300562
537.633638	2603.443410
537.994089	2606.720160
538.354483	2597.966196
538.714821	2595.516196
539.075103	2595.062492
539.435328	2590.036461
539.795497	2588.380442
540.155609	2582.787282
540.515665	2580.811150
540.875665	2579.260995
541.235609	2577.257136
541.595496	2570.806980
541.955328	2570.655745
542.315102	2565.112997
542.674821	2563.172152
543.034483	2559.421534
543.394090	2559.575289
543.753640	2555.486913
544.113134	2552.487427
544.472571	2548.691438
544.831953	2546.906870
545.191278	2543.362938
545.550548	2539.468647
545.909761	2540.471837
546.268918	2533.966228
546.628019	2537.996630
546.987064	2532.204344
547.346053	2528.491535
547.704986	2529.724097
548.063863	2524.352747
548.422684	2522.774866
548.781449	2522.099352
549.140158	2519.175482
549.498811	2519.097344
549.857408	2515.283712
550.215949	2512.248937
550.574434	2508.616786
550.932864	2508.354646
551.291237	2504.951867
551.649555	2509.967815
552.007817	2507.744666
552.366022	2505.080416
552.724173	2506.290293
553.082267	2503.870539
553.440305	2506.307937
553.798288	2502.496825
554.156215	2502.055724
554.514086	2503.487412
554.871902	2499.267966
555.229661	2497.644714
555.587365	2496.308808
555.945014	2497.929539
556.302606	2496.712101
556.660143	2494.355361
557.017625	2493.122799
557.375050	2491.466780
557.732421	2494.191524
558.089735	2493.934425
558.446994	2490.309835
558.804197	2495.948366
559.161345	2492.565752
559.518437	2492.417038
559.875474	2490.501399
560.232455	2491.325628
560.589381	2489.566265
560.946251	2492.243118
561.303065	2490.130874
561.659825	2489.616677
562.016528	2489.543580
562.373177	2489.384784
562.729770	2488.069043
563.086307	2487.743888
563.442789	2485.964361
563.799216	2488.507623
564.155587	2486.896974
564.511904	2489.727582
564.868164	2487.731285
565.224370	2488.537870
565.580520	2487.292705
565.936615	2486.942345
566.292654	2486.899495
566.648638	2487.388487
567.004567	2486.874289
567.360441	2485.742550
567.716260	2481.661736
568.072023	2486.286995
568.427732	2482.180975
568.783385	2485.503095
569.138982	2481.331540
569.494525	2484.880513
569.850013	2482.548979
570.205445	2482.939668
570.560823	2485.026706
570.916145	2483.484113
571.271412	2482.609473
571.626625	2482.304483
571.981782	2483.595018
572.336884	2479.236941
572.691931	2481.568475
573.046923	2481.197950
573.401860	2479.925058
573.756743	2480.401448
574.111570	2482.062508
574.466342	2479.884729
574.821059	2482.241469
575.175722	2477.613689
575.530330	2480.383803
575.884882	2480.366159
576.239380	2482.049905
576.593823	2479.884729
576.948211	2475.080510
577.302544	2477.709471
577.656823	2476.093782
578.011047	2477.868268
578.365216	2478.604276
578.719330	2476.519759
579.073389	2477.185191
579.427394	2475.982876
579.781344	2475.413226
580.135239	2476.577732
580.489080	2478.543782
580.842866	2473.343832
581.196597	2477.215438
581.550273	2475.934985
581.903895	2473.626137
582.257463	2474.278966
582.610975	2474.893987
582.964434	2475.415746
583.317837	2472.711167
583.671186	2475.070427
584.024481	2472.968266
584.377721	2475.503967
584.730906	2471.518934
585.084037	2472.650673
585.437113	2474.909110
585.790135	2471.571867
586.143103	2470.011629
586.496016	2473.132104
586.848874	2466.472739
587.201679	2470.246043
587.554428	2466.245887
587.907124	2469.079016
588.259765	2465.976186
588.612352	2469.573049
588.964884	2469.331074
589.317362	2471.070272
589.669786	2468.925261
590.022155	2471.977679
590.374470	2468.307719
590.726731	2469.923409
591.078937	2467.241515
591.431090	2469.293265
591.783188	2466.926443
592.135232	2466.868470
592.487222	2465.862760
592.839157	2465.769498
593.191038	2466.949128
593.542866	2464.400825
593.894639	2466.901238
594.246358	2466.341669
594.598022	2464.148767
594.949633	2464.733541
595.301190	2464.539457
595.652692	2465.835033
596.004141	2463.208592
596.355535	2463.884107
596.706876	2461.650876
597.058162	2465.116669
597.409395	2463.029631
597.760573	2463.753037
598.111698	2462.860753
598.462768	2461.555094
598.813785	2463.180866
599.164748	2461.557614
599.515657	2460.458643
599.866511	2459.004270
600.217312	2461.492079
600.568060	2460.826647
600.918753	2464.988120
601.269392	2461.071143
601.619978	2460.982923
601.970510	2459.546194
602.320988	2459.316822
602.671412	2460.350258
603.021783	2459.198354
603.372100	2462.112141
603.722363	2459.944445
604.072572	2462.608695
604.422728	2459.170628
604.772830	2456.944959
605.122878	2454.152159
605.472872	2458.227932
605.822813	2455.825822
606.172701	2463.322018
606.522534	2458.507716
606.872314	2459.203396
607.222041	2458.225412
607.571714	2461.416462
607.921333	2457.164249
608.270899	2458.646348
608.620411	2460.758592
608.969870	2460.796400
609.319276	2458.974023
609.668627	2460.408231
610.017926	2459.100052
610.367171	2459.581482
610.716362	2457.648200
611.065500	2461.734055
611.414585	2461.905454
611.763616	2461.179528
612.112594	2461.038376
612.461518	2460.466205
612.810389	2459.349589
613.159207	2460.793880
613.507971	2460.083077
613.856682	2457.895216
614.205340	2460.115844
614.553945	2460.657768
614.902496	2458.369085
615.250994	2459.352110
615.599439	2460.453602
615.947830	2460.932511
616.296169	2458.301029
616.644454	2462.288582
616.992686	2461.237501
617.340864	2461.986113
617.688990	2458.815227
618.037063	2460.136009
618.385082	2460.035186
618.733048	2459.793211
619.080961	2460.486369
619.428821	2459.374795
619.776628	2461.928139
620.124382	2461.456791
620.472083	2458.268262
620.819731	2458.911009
621.167326	2458.918570
621.514868	2459.909157
621.862357	2460.342696
622.209793	2458.636266
622.557176	2460.098200
622.904506	2456.773559
623.251783	2451.414813
623.599007	2452.024792
623.946179	2450.003290
624.293297	2452.758280
624.640363	2451.193002
624.987376	2451.739967
625.334336	2453.937910
625.681243	2452.538990
626.028097	2455.263734
626.374899	2454.255503
626.721647	2453.774073
627.068343	2450.373815
627.414987	2453.612756
627.761577	2451.399689
628.108115	2453.814402
628.454600	2452.564196
628.801032	2449.952878
629.147412	2452.609566
629.493739	2449.496654
629.840014	2450.499843
630.186236	2451.172838
630.532405	2452.470935
630.878521	2450.714092
631.224585	2453.194340
631.570597	2451.739967
631.916556	2452.720472
632.262462	2450.313321
632.608316	2450.996397
632.954117	2451.210646
633.299866	2450.736778
633.645562	2449.305090
633.991206	2448.725357
634.336797	2448.412806
634.682336	2449.920111
635.027823	2449.796602
635.373257	2446.890377
635.718639	2449.095882
636.063968	2448.130501
636.409245	2446.945830
636.754470	2446.471962
637.099642	2446.746704
637.444762	2445.073041
637.789829	2442.857454
638.134845	2443.825356
638.479808	2444.185798
638.824719	2445.211673
639.169577	2444.626899
639.514383	2443.689245
639.859137	2445.466251
640.203839	2442.118925
640.548489	2445.073041
640.893086	2440.785540
641.237632	2436.472833
641.582125	2439.772268
641.926566	2437.382761
642.270955	2441.829059
642.615292	2442.759152
642.959576	2442.005499
643.303809	2443.127156
643.647990	2443.480037
643.992118	2439.752103
644.336195	2439.618513
644.680219	2441.715633
645.024192	2442.643205
645.368112	2443.527928
645.711981	2439.472319
646.055797	2445.297373
646.399562	2442.998607
646.743274	2443.885850
647.086935	2443.384255
647.430544	2443.832917
647.774101	2443.147321
648.117606	2442.940633
648.461059	2444.770572
648.804460	2446.638320
649.147810	2445.930037
649.491108	2443.653957
649.834354	2441.251847
650.177548	2442.587753
650.520690	2444.032043
650.863781	2441.357711
651.206820	2443.658998
651.549807	2441.329985
651.892742	2439.802515
652.235626	2438.300251
652.578458	2438.348142
652.921238	2438.151537
653.263967	2441.723195
653.606644	2435.993923
653.949269	2437.977617
654.291843	2439.472319
654.634365	2438.917793
654.976836	2439.880653
655.319255	2438.504418
655.661622	2436.107349
656.003938	2437.902000
656.346203	2435.489808
656.688416	2439.464758
657.030577	2436.901331
657.372687	2438.701023
657.714746	2437.962494
658.056753	2437.720518
658.398708	2431.076278
658.740612	2435.459561
659.082465	2431.872780
659.424266	2434.138779
659.766016	2431.600558
660.107715	2437.844027
660.449362	2435.172215
660.790958	2435.567946
661.132503	2436.566094
661.473996	2437.133224
661.815438	2437.173553
662.156829	2438.905190
662.498168	2437.193718
662.839456	2435.169695
663.180693	2436.825714
663.521879	2435.852771
663.863013	2437.120621
664.204097	2432.906217
664.545129	2438.418718
664.886110	2436.853440
665.227040	2437.584407
665.567918	2436.911413
665.908746	2437.692792
666.249522	2437.914603
666.590248	2438.310333
666.930922	2436.896290
667.271545	2437.813780
667.612118	2439.265632
667.952639	2438.103646
668.293109	2435.446958
668.633528	2439.058945
668.973896	2438.280087
669.314213	2436.215734
669.654480	2439.520210
669.994695	2435.598193
670.334859	2437.173553
670.674973	2435.565425
671.015035	2435.250353
671.355047	2437.024839
671.695008	2435.515014
672.034918	2435.608275
672.374777	2436.036773
672.714585	2436.989551
673.054342	2437.231527
673.394049	2435.877977
673.733705	2435.152051
674.073310	2436.881166
674.412864	2434.988213
674.752368	2437.564243
675.091820	2435.086516
675.431223	2434.053079
675.770574	2434.940322
676.109875	2432.462595
676.449125	2432.018973
676.788324	2432.313881
677.127473	2434.844540
677.466571	2428.706935
677.805619	2434.020312
678.144616	2432.888573
678.483562	2433.667431
678.822458	2433.720363
679.161303	2433.929571
679.500098	2431.706422
679.838842	2430.990578
680.177535	2432.243305
680.516179	2430.965372
680.854771	2434.012750
681.193314	2435.388985
681.531805	2435.318409
681.870247	2434.874787
682.208638	2434.405960
682.546978	2437.695313
682.885268	2437.435693
683.223508	2434.148861
683.561697	2438.277566
683.899836	2436.150199
684.237925	2434.358069
684.575963	2436.835796
684.913951	2434.292534
685.251889	2435.615837
685.589776	2435.240271
685.927614	2434.902513
686.265401	2435.913265
686.603137	2435.036104
686.940824	2435.265477
687.278460	2435.570466
687.616046	2437.178594
687.953582	2436.813111
688.291068	2437.536516
688.628504	2435.693975
688.965889	2438.106167
689.303224	2439.086671
689.640510	2434.171546
689.977745	2434.602565
690.314930	2433.979982
690.652065	2435.421752
690.989150	2433.821186
691.326185	2436.127514
691.663170	2431.663572
692.000105	2432.563418
692.336990	2430.615012
692.673825	2428.845567
693.010610	2428.069229
693.347345	2426.866914
693.684030	2425.531008
694.020665	2424.258117
694.357251	2423.302818
694.693786	2428.303643
695.030272	2427.063519
695.366707	2423.736358
695.703093	2425.682243
696.039429	2425.226019
696.375716	2425.140319
696.711952	2429.626946
697.048139	2423.373395
697.384276	2427.275248
697.720363	2424.295926
698.056400	2426.539239
698.392388	2422.183682
698.728326	2426.942532
699.064214	2424.737027
699.400053	2426.556883
699.735842	2423.723755
700.071581	2423.423806
700.407270	2425.367171
700.742910	2423.138981
701.078501	2423.093611
701.414042	2422.032448
701.749533	2421.735020
702.084974	2423.443971
702.420366	2421.697211
702.755709	2423.887592
703.091002	2420.878023
703.426246	2422.927253
703.761440	2422.115627
704.096584	2421.656882
704.431679	2423.552356
704.766725	2423.426327
705.101721	2421.540935
705.436668	2419.834505
705.771565	2421.603950
706.106413	2422.249217
706.441212	2419.746284
706.775961	2420.946079
707.110661	2421.167890
707.445311	2422.176121
707.779913	2422.390370
708.114465	2420.590678
708.448967	2420.416758
708.783421	2424.500092
709.117825	2423.396080
709.452180	2424.076636
709.786485	2426.314908
710.120742	2423.897675
710.454949	2427.986050
710.789107	2422.365164
711.123216	2423.017993
711.457275	2423.537232
711.791286	2424.830288
712.125247	2424.623601
712.459159	2428.419590
712.793023	2430.499066
713.126837	2426.093097
713.460602	2428.724579
713.794318	2424.888261
714.127985	2425.034455
714.461602	2422.246697
714.795171	2426.564445
715.128691	2424.096800
715.462162	2426.219126
715.795584	2424.759712
716.128957	2421.112437
716.462281	2423.935483
716.795556	2422.460946
717.128782	2421.175452
717.461960	2418.864083
717.795088	2423.869948
718.128167	2420.593198
718.461198	2419.680749
718.794180	2417.134967
719.127113	2418.927097
719.459997	2421.414906
719.792833	2421.893816
720.125619	2417.649164
720.458357	2416.842580
720.791046	2418.072621
721.123686	2416.245203
721.456278	2419.002714
721.788821	2419.350554
722.121315	2419.050605
722.453761	2420.288208
722.786158	2418.291912
723.118506	2417.041705
723.450805	2416.552713
723.783056	2415.499112
724.115259	2418.538928
724.447412	2415.703279
724.779518	2418.216294
725.111574	2416.131777
725.443582	2416.741757
725.775542	2417.873496
726.107453	2420.096645
726.439315	2417.084555
726.771129	2423.126378
727.102895	2420.227715
727.434612	2420.492375
727.766281	2418.120512
728.097901	2416.376273
728.429473	2415.607497
728.760996	2416.827456
729.092471	2415.602456
729.423897	2420.567993
729.755276	2419.915163
730.086606	2418.740574
730.417887	2419.463980
730.749120	2420.590678
731.080305	2422.627304
731.411442	2422.642427
731.742530	2423.159146
732.073570	2424.321132
732.404562	2423.401121
732.735506	2422.828950
733.066401	2421.326686
733.397249	2423.849784
733.728048	2420.762077
734.058798	2422.284505
734.389501	2422.007242
734.720156	2420.530184
735.050762	2416.073804
735.381320	2416.265368
735.711831	2416.088927
736.042293	2419.428692
736.372707	2416.323341
736.703073	2416.391397
737.033391	2417.462642
737.363661	2415.178999
737.693883	2416.754360
738.024056	2417.964237
738.354182	2417.046747
738.684260	2418.959864
739.014290	2418.627148
739.344272	2418.589340
739.674207	2421.389701
740.004093	2416.222518
740.333931	2420.338620
740.663722	2418.680080
740.993464	2419.093455
741.323159	2419.400965
741.652806	2415.446180
741.982405	2418.564134
742.311956	2419.093455
742.641460	2417.197981
742.970915	2418.654875
743.300323	2417.361819
743.629683	2414.770666
743.958996	2416.310738
744.288260	2415.458783
744.617477	2414.374935
744.946647	2411.204049
745.275768	2411.866961
745.604842	2413.142373
745.933869	2411.302352
746.262847	2410.949471
746.591778	2416.013310
746.920662	2413.528021
747.249498	2413.583474
747.578286	2416.456932
747.907027	2415.073135
748.235720	2414.165727
748.564365	2414.198495
748.892963	2416.590522
749.221514	2416.557755
749.550017	2412.988618
749.878473	2414.911818
750.206881	2412.303021
750.535242	2412.371076
750.863555	2414.145563
751.191821	2414.289235
751.520039	2412.305541
751.848210	2415.345357
752.176334	2412.897877
752.504411	2415.365522
752.832440	2413.046591
753.160421	2414.816036
753.488356	2413.099523
753.816243	2415.829308
754.144082	2414.427867
754.471875	2416.535069
754.799620	2411.758576
755.127318	2413.263361
755.454969	2413.505336
755.782572	2415.065573
756.110129	2415.680594
756.437638	2412.779410
756.765100	2413.109605
757.092515	2413.896025
757.419882	2413.885943
757.747203	2415.889802
758.074477	2414.566499
758.401703	2412.499626
758.728882	2413.820408
759.056014	2412.136663
759.383099	2415.489030
759.710138	2414.465676
760.037129	2414.964750
760.364073	2415.093299
760.690970	2412.411406
761.017820	2415.035326
761.344623	2414.657240
761.671379	2415.355439
761.998088	2413.409554
762.324751	2415.312590
762.651366	2421.931625
762.977935	2430.884714
763.304456	2429.087542
763.630931	2434.433686
763.957359	2432.875970
764.283740	2426.398087
764.610074	2427.615526
764.936362	2423.083528
765.262602	2421.966913
765.588796	2419.496747
765.914943	2415.063053
766.241044	2413.618762
766.567097	2414.445511
766.893104	2412.176992
767.219064	2413.613721
767.544978	2409.043915
767.870845	2410.248751
768.196665	2412.333268
768.522438	2408.459141
768.848165	2411.138514
769.173846	2412.285377
769.499479	2411.899728
769.825066	2411.317475
770.150607	2409.890829
770.476101	2408.191960
770.801548	2411.385531
771.126949	2406.490570
771.452303	2409.255643
771.777611	2407.919738
772.102872	2410.465520
772.428087	2408.471744
772.753256	2408.786816
773.078378	2408.507032
773.403453	2407.115673
773.728482	2405.154665
774.053465	2408.746487
774.378401	2408.048287
774.703291	2408.449059
775.028135	2407.229099
775.352932	2406.283883
775.677683	2408.612896
776.002388	2406.765313
776.327046	2406.472926
776.651658	2409.361508
776.976224	2409.598442
777.300743	2406.611558
777.625216	2407.340005
777.949643	2407.057700
778.274024	2410.929306
778.598359	2402.770199
778.922647	2401.426731
779.246889	2403.836403
779.571086	2401.119221
779.895236	2408.592732
780.219339	2406.251116
780.543397	2403.843965
780.867409	2404.582494
781.191374	2403.039901
781.515294	2407.967628
781.839167	2408.070972
782.162995	2406.500653
782.486776	2404.847154
782.810511	2407.662639
783.134201	2405.381517
783.457844	2407.692886
783.781441	2409.124573
784.104993	2406.581311
784.428498	2404.562329
784.751958	2406.263718
785.075372	2404.711043
785.398739	2405.716753
785.722061	2404.461506
786.045337	2405.169788
786.368568	2404.287586
786.691752	2406.583832
787.014891	2406.891342
787.337983	2406.142731
787.661030	2407.203894
787.984031	2409.386713
788.306987	2408.159192
788.629897	2409.837897
788.952760	2410.321847
789.275579	2409.104409
789.598351	2409.671538
789.921078	2410.609193
790.243759	2407.922258
790.566395	2405.464696
790.888984	2407.332443
791.211529	2406.969480
791.534027	2406.853533
791.856480	2404.869839
792.178888	2405.976373
792.501249	2406.404871
792.823566	2405.792371
793.145836	2404.832031
793.468062	2405.197514
793.790241	2406.203225
794.112375	2405.363873
794.434464	2407.902093
794.756507	2406.228430
795.078505	2404.721125
795.400457	2407.453431
795.722364	2403.715415
796.044226	2404.688358
796.366042	2404.330436
796.687812	2405.870508
797.009538	2407.241702
797.331218	2408.781775
797.652852	2406.992165
797.974442	2409.479975
798.295986	2406.651887
798.617484	2404.869839
798.938938	2405.600807
799.260346	2404.862278
799.581709	2407.322361
799.903026	2407.181208
800.224299	2404.660632
800.545526	2406.624161
800.866708	2404.844634
801.187845	2406.518297
801.508936	2401.956053
801.829983	2405.734397
802.150984	2405.988976
802.471940	2405.981414
802.792851	2405.147103
803.113717	2407.329923
803.434538	2404.572411
803.755314	2403.130641
804.076045	2405.182391
804.396731	2401.822462
804.717372	2407.032494
805.037967	2400.037893
805.358518	2405.177350
805.679024	2405.250447
805.999485	2405.535272
806.319901	2406.883780
806.640272	2403.861609
806.960598	2402.808008
807.280879	2406.470406
807.601115	2405.484860
807.921306	2404.098543
808.241453	2405.837741
808.561554	2406.278842
808.881611	2405.283214
809.201623	2407.927299
809.521590	2404.446383
809.841513	2405.878070
810.161390	2406.097360
810.481223	2404.577453
810.801011	2403.097874
811.120755	2404.070817
811.440453	2404.859757
811.760107	2404.433780
812.079716	2401.341032
812.399281	2399.274159
812.718801	2402.797925
813.038276	2402.566032
813.357707	2403.145765
813.677093	2405.721794
813.996434	2405.537792
814.315731	2403.833882
814.634983	2406.334295
814.954191	2404.151475
815.273354	2406.014181
815.592473	2405.600807
815.911547	2404.443862
816.230577	2403.090312
816.549562	2404.582494
816.868502	2406.848492
817.187399	2405.048800
817.506250	2404.569891
817.825058	2407.284552
818.143821	2406.087278
818.462539	2405.487381
818.781213	2407.156003
819.099843	2409.497619
819.418429	2413.069276
819.736970	2413.207908
820.055466	2414.450552
820.373919	2416.451890
820.692327	2423.998498
821.010691	2430.090732
821.329011	2448.672425
821.647286	2480.083855
821.965517	2505.856754
822.283704	2526.033972
822.601847	2527.485824
822.919945	2520.254289
823.237999	2502.131341
823.556010	2489.543580
823.873976	2472.045735
824.191897	2459.641976
824.509775	2447.744853
824.827609	2443.963987
825.145398	2439.474840
825.463144	2437.045004
825.780845	2433.831268
826.098502	2439.729418
826.416116	2446.638320
826.733685	2454.731892
827.051210	2456.113168
827.368692	2451.971860
827.686129	2444.266457
828.003522	2438.156578
828.320872	2428.986719
828.638177	2424.762232
828.955439	2417.709658
829.272656	2413.245717
829.589830	2409.661456
829.906960	2412.197157
830.224046	2411.816549
830.541088	2411.025088
830.858086	2407.140879
831.175041	2408.262536
831.491952	2408.665828
831.808819	2411.398134
832.125642	2410.536096
832.442421	2410.420150
832.759157	2413.850655
833.075849	2420.976326
833.392497	2425.021852
833.709101	2429.881524
834.025662	2425.450350
834.342179	2424.704259
834.658653	2420.242838
834.975083	2418.085224
835.291469	2422.483631
835.607811	2415.882240
835.924110	2408.229768
836.240366	2411.398134
836.556578	2405.736918
836.872746	2406.356980
837.188871	2403.654921
837.504952	2402.213151
837.820990	2404.297668
838.136984	2404.035528
838.452935	2401.832544
838.768842	2404.703481
839.084706	2403.244067
839.400526	2406.959398
839.716303	2410.520973
840.032037	2409.157341
840.347727	2410.399985
840.663373	2408.154151
840.978977	2409.316137
841.294537	2406.127607
841.610054	2404.801784
841.925527	2406.041908
842.240957	2404.204407
842.556344	2403.990158
842.871687	2400.945301
843.186987	2402.039232
843.502244	2399.687533
843.817458	2401.063768
844.132629	2399.049827
844.447756	2399.140568
844.762840	2395.210989
845.077881	2397.781977
845.392879	2396.612429
845.707833	2396.173849
846.022745	2396.357851
846.337613	2402.160219
846.652438	2399.145609
846.967221	2398.606206
847.281960	2400.413459
847.596656	2397.635784
847.911309	2399.072513
848.225919	2398.906154
848.540485	2396.206617
848.855009	2399.092677
849.169490	2398.563356
849.483928	2398.651576
849.798323	2397.880280
850.112675	2399.213665
850.426984	2396.279713
850.741251	2400.196690
851.055474	2399.185938
851.369654	2401.840106
851.683792	2396.887172
851.997887	2399.092677
852.311938	2396.713252
852.625947	2398.656617
852.939914	2398.170146
853.253837	2399.707698
853.567718	2400.418501
853.881555	2398.238202
854.195350	2398.780126
854.509103	2399.974879
854.822812	2397.827347
855.136479	2401.973697
855.450103	2398.694426
855.763685	2398.394477
856.077224	2396.070505
856.390720	2397.371123
856.704173	2397.373644
857.017584	2397.114024
857.330953	2399.112842
857.644278	2399.319529
857.957561	2399.158212
858.270802	2397.628222
858.584000	2396.587224
858.897155	2398.447409
859.210268	2398.107132
859.523339	2399.105280
859.836367	2398.999416
860.149352	2401.545198
860.462295	2399.264076
860.775195	2395.674775
861.088054	2393.176883
861.400869	2396.257028
861.713642	2394.026318
862.026373	2399.138047
862.339062	2397.078736
862.651708	2397.192162
862.964312	2397.164436
863.276873	2399.627039
863.589392	2398.724673
863.901869	2401.933367
864.214303	2398.729714
864.526696	2397.592934
864.839045	2399.874056
865.151353	2398.523027
865.463619	2399.604354
865.775842	2399.196021
866.088023	2398.495300
866.400162	2400.337842
866.712258	2399.344735
867.024313	2400.330280
867.336325	2397.797101
867.648296	2397.429096
867.960224	2400.819272
868.272110	2400.499159
868.583954	2399.644683
868.895755	2398.240722
869.207515	2402.296330
869.519233	2402.129972
869.830909	2400.962945
870.142542	2399.037224
870.454134	2401.096536
870.765684	2402.084602
871.077191	2398.283572
871.388657	2400.226937
871.700081	2399.889179
872.011463	2400.965466
872.322803	2401.373799
872.634101	2400.307595
872.945357	2398.941443
873.256571	2402.571073
873.567744	2399.990003
873.878874	2402.286248
874.189963	2402.387071
874.501010	2399.075033
874.812015	2401.212482
875.122979	2399.674930
875.433900	2399.238871
875.744780	2403.997720
876.055618	2400.927657
876.366415	2401.262894
876.677169	2399.226268
876.987882	2398.512944
877.298554	2398.495300
877.609183	2399.279200
877.919771	2398.245763
878.230317	2400.277348
878.540822	2402.697102
878.851285	2405.583163
879.161707	2403.266753
879.472087	2406.525858
879.782425	2409.084244
880.092722	2419.489186
880.402977	2425.031934
880.713191	2441.992896
881.023363	2452.332303
881.333494	2463.473253
881.643583	2462.270938
881.953631	2463.369909
882.263637	2458.628704
882.573602	2453.632921
882.883526	2449.756273
883.193408	2443.903494
883.503248	2438.428801
883.813048	2435.089036
884.122806	2429.750454
884.432522	2424.555545
884.742197	2419.824422
885.051831	2418.808630
885.361424	2413.291087
885.670975	2412.960891
885.980485	2408.456620
886.289954	2408.217166
886.599382	2407.889491
886.908768	2405.502504
887.218113	2404.090981
887.527417	2406.762793
887.836680	2403.692730
888.145901	2402.676938
888.455082	2402.021588
888.764221	2402.515621
889.073319	2399.967317
889.382376	2403.917061
889.691392	2401.603172
890.000366	2401.787174
890.309300	2402.417318
890.618193	2400.705846
890.927044	2400.685682
891.235855	2401.136865
891.544625	2401.943450
891.853353	2402.248439
892.162041	2402.813049
892.470687	2404.849675
892.779293	2400.645352
893.087858	2402.636608
893.396381	2401.106618
893.704864	2406.087278
894.013306	2407.400499
894.321707	2416.666139
894.630068	2415.393248
894.938387	2419.141346
895.246665	2419.418609
895.554903	2416.358629
895.863100	2413.490213
896.171256	2411.929975
896.479371	2409.762279
896.787446	2411.501477
897.095480	2407.667680
897.403473	2407.387896
897.711425	2404.199366
898.019336	2405.275652
898.327207	2403.135683
898.635038	2403.677607
898.942827	2402.324057
899.250576	2401.734242
899.558284	2401.373799
899.865952	2402.750034
900.173579	2400.574776
900.481165	2400.710887
900.788711	2399.221227
901.096216	2398.714591
901.403681	2399.871535
901.711105	2399.422873
902.018489	2400.093346
902.325832	2403.972514
902.633135	2400.925137
902.940397	2404.859757
903.247619	2404.431259
903.554800	2410.016857
903.861941	2414.296797
904.169041	2421.422468
904.476101	2423.517068
904.783121	2422.670154
905.090100	2417.215625
905.397039	2415.335275
905.703938	2415.148752
906.010796	2410.432753
906.317614	2408.078534
906.624391	2408.716240
906.931129	2407.327402
907.237826	2404.098543
907.544483	2404.378327
907.851099	2403.445713
908.157675	2400.302554
908.464211	2398.207955
908.770707	2397.504714
909.077163	2397.141751
909.383578	2393.791904
909.689954	2394.797614
909.996289	2395.173180
910.302584	2395.866339
910.608839	2397.129148
910.915054	2397.459343
911.221229	2396.751061
911.527363	2399.861453
911.833458	2396.839281
912.139513	2398.308778
912.445527	2396.882131
912.751502	2397.262738
913.057436	2400.116031
913.363331	2397.507234
913.669186	2396.806514
913.975000	2403.528893
914.280775	2400.690723
914.586510	2405.159706
914.892205	2407.161044
915.197859	2410.160530
915.503475	2414.725295
915.809050	2420.807447
916.114585	2421.593867
916.420081	2422.949938
916.725536	2422.327355
917.030952	2420.411717
917.336328	2417.780234
917.641665	2415.965419
917.946961	2414.448032
918.252218	2415.544483
918.557435	2411.682959
918.862612	2412.827301
919.167750	2408.184398
919.472848	2406.359500
919.777906	2402.540826
920.082925	2407.433266
920.387904	2401.300703
920.692843	2400.627708
920.997743	2397.454302
921.302603	2399.831206
921.607423	2401.951011
921.912204	2401.784653
922.216946	2399.884138
922.521647	2400.728532
922.826310	2400.839437
923.130932	2398.896072
923.435516	2398.195352
923.740059	2397.489590
924.044564	2395.271483
924.349028	2396.887172
924.653454	2388.987684
924.957840	2394.096894
925.262186	2393.865001
925.566493	2395.790721
925.870761	2388.286964
926.174989	2396.317522
926.479178	2398.175187
926.783328	2396.015053
927.087438	2394.147305
927.391509	2393.698642
927.695541	2397.252656
927.999533	2395.004301
928.303486	2396.667882
928.607400	2396.090670
928.911275	2394.832902
929.215110	2396.809034
929.518906	2395.891544
929.822663	2395.203427
930.126381	2396.188973
930.430060	2394.071688
930.733699	2394.059085
931.037299	2395.221071
931.340861	2393.935577
931.644383	2393.862480
931.947866	2393.370968
932.251309	2397.640825
932.554714	2394.177552
932.858080	2396.274672
933.161407	2394.779970
933.464694	2396.055382
933.767943	2394.429610
934.071153	2394.981616
934.374323	2396.980434
934.677455	2394.956410
934.980548	2394.210320
935.283602	2396.219219
935.586617	2393.333159
935.889593	2395.112686
936.192530	2394.842984
936.495428	2393.708725
936.798287	2391.795607
937.101108	2396.746020
937.403890	2396.216699
937.706632	2395.445402
938.009336	2394.230484
938.312002	2395.062275
938.614628	2398.001267
938.917216	2396.423386
939.219765	2395.241236
939.522275	2395.757954
939.824747	2396.138561
940.127179	2397.040928
940.429573	2395.198386
940.731929	2394.391801
941.034246	2391.717469
941.336524	2398.210475
941.638763	2394.049003
941.940964	2396.211658
942.243126	2396.761143
942.545250	2395.470608
942.847335	2397.653428
943.149381	2396.693088
943.451389	2395.440361
943.753359	2396.637635
944.055290	2396.617471
944.357182	2395.712583
944.659036	2396.609909
944.960851	2397.683675
945.262628	2396.594785
945.564367	2393.000443
945.866067	2394.348951
946.167729	2394.603530
946.469352	2396.390619
946.770937	2393.428941
947.072484	2394.250649
947.373992	2392.851729
947.675462	2392.869373
947.976893	2393.068498
948.278286	2397.194683
948.579641	2393.461708
948.880958	2396.541853
949.182236	2392.385422
949.483476	2395.687378
949.784678	2394.233005
950.085841	2396.897255
950.386967	2395.044631
950.688054	2396.322563
950.989103	2394.043962
951.290114	2392.705535
951.591087	2394.464898
951.892021	2394.608571
952.192917	2394.845505
952.493776	2394.842984
952.794596	2397.678633
953.095378	2394.343910
953.396122	2395.548746
953.696828	2395.445402
953.997496	2396.700650
954.298126	2394.855587
954.598718	2393.653272
954.899272	2392.650083
955.199788	2392.670247
955.500266	2395.626884
955.800706	2392.652603
956.101108	2387.956768
956.401472	2393.897768
956.701798	2390.016080
957.002087	2391.515823
957.302337	2393.799466
957.602550	2391.563714
957.902724	2392.405587
958.202861	2392.826523
958.502960	2391.926677
958.803022	2394.626215
959.103045	2393.020607
959.403031	2392.657644
959.702979	2396.577141
960.002889	2394.386760
960.302762	2392.939949
960.602596	2395.110166
960.902393	2391.591440
961.202153	2393.471791
961.501875	2392.685371
961.801559	2391.238559
962.101205	2391.208313
962.400814	2392.725700
962.700385	2392.582027
962.999918	2391.548590
963.299414	2393.494476
963.598873	2392.052706
963.898293	2392.125802
964.197677	2393.232336
964.497022	2393.391132
964.796331	2393.595299
965.095601	2393.439023
965.394835	2393.698643
965.694030	2392.735782
965.993189	2394.739641
966.292309	2392.677809
966.591393	2390.777294
966.890439	2387.843342
967.189447	2391.977088
967.488419	2393.723848
967.787353	2393.930536
968.086249	2393.282747
968.385108	2395.969682
968.683930	2393.161760
968.982714	2392.390463
969.281462	2393.602861
969.580172	2391.319218
969.878844	2390.971378
970.177480	2390.222767
970.476078	2393.169321
970.774639	2393.680998
971.073162	2393.023128
971.371649	2389.741337
971.670098	2389.380894
971.968510	2389.950545
972.266885	2388.410472
972.565223	2392.697973
972.863524	2390.905843
973.161788	2393.587737
973.460014	2390.862993
973.758204	2392.576986
974.056356	2390.875596
974.354471	2391.490617
974.652550	2390.787376
974.950591	2393.996071
975.248595	2390.517674
975.546563	2392.123282
975.844493	2393.865001
976.142386	2392.322408
976.440243	2391.793086
976.738062	2393.018087
977.035845	2392.163611
977.333590	2394.711914
977.631299	2394.278375
977.928971	2393.071019
978.226606	2394.144785
978.524204	2390.719321
978.821765	2393.232336
979.119290	2393.897768
979.416777	2395.145454
979.714228	2390.172355
980.011642	2392.728220
980.309020	2397.161915
980.606360	2391.357027
980.903664	2393.345762
981.200931	2390.550442
981.498162	2394.492624
981.795356	2393.060937
982.092513	2392.455998
982.389633	2392.057747
982.686717	2393.464229
982.983764	2394.263252
983.280775	2394.346431
983.577749	2396.340207
983.874686	2392.259393
984.171587	2395.072357
984.468451	2395.178221
984.765279	2395.120248
985.062070	2394.099414
985.358824	2393.302912
985.655543	2392.264434
985.952224	2392.148488
986.248869	2390.298384
986.545478	2387.959289
986.842050	2394.810217
987.138586	2391.740154
987.435086	2388.662530
987.731549	2386.535163
988.027975	2393.307953
988.324366	2393.426420
988.620719	2390.575648
988.917037	2391.533467
989.213318	2392.047665
989.509563	2392.534136
989.805772	2389.401059
990.101944	2391.828374
990.398080	2389.746378
990.694180	2394.815258
990.990244	2390.603374
991.286271	2392.549259
991.582262	2391.301574
991.878217	2390.983981
992.174136	2392.135885
992.470019	2392.511451
992.765865	2391.634290
993.061676	2390.646224
993.357450	2392.723179
993.653188	2392.113200
993.948890	2392.519013
994.244556	2392.786194
994.540186	2394.341390
994.835780	2393.459188
995.131337	2394.858108
995.426859	2392.324928
995.722345	2395.190824
996.017795	2394.086811
996.313208	2393.181924
996.608586	2391.772922
996.903928	2393.403735
997.199234	2393.368447
997.494504	2392.914743
997.789738	2390.116903
998.084936	2392.355175
998.380099	2390.936090
998.675225	2391.740154
998.970316	2392.899620
999.265371	2392.289640
999.560390	2392.115720
999.855373	2393.630587
1000.150320	2393.302912
1000.445232	2393.436503
1000.740108	2389.721172
1001.034948	2389.648075
1001.329752	2392.297202
1001.624521	2390.293343
1001.919254	2383.744884
1002.213951	2387.608929
1002.508613	2388.513816
1002.803239	2387.913918
1003.097829	2388.216388
1003.392384	2390.648744
1003.686903	2390.384084
1003.981386	2389.564896
1004.275834	2390.000956
1004.570246	2392.808879
1004.864623	2391.581358
1005.158964	2393.691081
1005.453270	2392.365257
1005.747540	2392.468601
1006.041775	2391.677140
1006.335974	2390.439537
1006.630138	2388.518857
1006.924266	2389.017931
1007.218359	2388.365102
1007.512416	2391.014228
1007.806438	2388.634803
1008.100425	2395.049672
1008.394376	2389.829557
1008.688292	2389.320400
1008.982172	2392.274517
1009.276017	2393.035731
1009.569827	2389.494320
1009.863602	2393.774260
1010.157341	2391.437685
1010.451045	2389.811913
1010.744714	2390.028683
1011.038347	2393.630587
1011.331945	2391.392315
1011.625508	2391.054557
1011.919036	2390.358878
1012.212528	2389.885010
1012.505986	2389.277551
1012.799408	2389.325442
1013.092795	2389.479197
1013.386147	2391.888868
1013.679464	2389.065822
1013.972745	2390.827705
1014.265992	2389.854763
1014.559204	2390.550442
1014.852380	2390.308467
1015.145521	2391.225957
1015.438628	2387.074566
1015.731699	2391.215874
1016.024736	2390.845349
1016.317737	2391.440206
1016.610703	2392.249311
1016.903635	2386.870400
1017.196531	2387.087169
1017.489393	2387.959289
1017.782219	2383.933927
1018.075011	2388.657489
1018.367768	2390.227808
1018.660490	2390.958775
1018.953177	2390.958775
1019.245829	2390.958775
