Dividing Wavelength (nm)	Counts (n)	Blue Motor Position (mm): 0.000000	Red Motor Position (mm): 17.000000	
326.493990	1979.192288
326.888308	1979.192288
327.282561	1979.192288
327.676750	1956.431478
328.070874	1955.869390
328.464933	1965.593776
328.858929	1975.149283
329.252859	1986.383494
329.646726	2002.220279
330.040528	2015.322238
330.434265	2034.405526
330.827938	2054.315563
331.221547	2073.948336
331.615091	2095.516913
332.008571	2114.736312
332.401986	2135.866308
332.795338	2158.135606
333.188625	2177.007165
333.581847	2196.377799
333.975006	2211.304655
334.368100	2233.889024
334.761129	2246.670870
335.154095	2261.138982
335.546996	2277.805036
335.939833	2295.416307
336.332606	2308.450210
336.725315	2319.981850
337.117960	2327.412511
337.510540	2332.612461
337.903056	2344.252485
338.295508	2349.805316
338.687896	2356.673888
339.080220	2363.595392
339.472480	2369.332225
339.864676	2372.757689
340.256807	2376.820859
340.648875	2379.739688
341.040879	2380.647095
341.432818	2381.998124
341.824694	2381.529297
342.216506	2385.113558
342.608253	2382.267826
342.999937	2376.311703
343.391557	2378.761704
343.783113	2379.270860
344.174605	2376.462938
344.566033	2376.725078
344.957397	2373.203832
345.348697	2370.479088
345.739934	2371.757020
346.131106	2368.172760
346.522215	2367.282996
346.913260	2364.245701
347.304241	2363.706298
347.695159	2360.167408
348.086012	2361.652028
348.476802	2358.960051
348.867528	2357.533405
349.258191	2354.901922
349.648789	2355.595081
350.039324	2355.237159
350.429796	2356.336131
350.820203	2353.699607
351.210548	2353.097189
351.600828	2350.861438
351.991045	2353.588702
352.381198	2350.606859
352.771288	2353.543332
353.161314	2353.371932
353.551276	2352.739268
353.941175	2352.646006
354.331010	2350.803464
354.720782	2353.845801
355.110490	2350.987467
355.500135	2354.753208
355.889717	2354.511233
356.279235	2353.329083
356.668689	2356.126923
357.058080	2352.769514
357.447408	2352.441839
357.836672	2354.299505
358.225873	2354.266737
358.615010	2354.473424
359.004084	2358.980216
359.393095	2359.133971
359.782043	2358.637418
360.170927	2359.431399
360.559748	2361.876359
360.948505	2362.032635
361.337199	2363.171935
361.725830	2361.790659
362.114398	2365.717718
362.502903	2365.349714
362.891344	2366.017667
363.279722	2365.377440
363.668037	2367.280476
364.056289	2365.926926
364.444478	2368.591176
364.832603	2367.923223
365.220665	2370.010261
365.608665	2371.870446
365.996601	2369.700230
366.384474	2371.018491
366.772284	2373.097967
367.160031	2373.823893
367.547715	2372.092257
367.935336	2369.375075
368.322893	2379.137270
368.710388	2374.340612
369.097820	2379.439739
369.485189	2374.582587
369.872495	2379.182640
370.259738	2381.723382
370.646918	2385.690770
371.034035	2384.218753
371.421090	2387.840822
371.808081	2392.781153
372.195010	2394.986657
372.581875	2397.965979
372.968678	2405.983934
373.355418	2412.759245
373.742096	2422.294588
374.128710	2434.824376
374.515262	2444.306786
374.901751	2458.732048
375.288177	2476.615541
375.674540	2494.262100
376.060841	2514.996366
376.447079	2540.698689
376.833254	2561.077553
377.219367	2589.575196
377.605417	2623.449229
377.991404	2647.767755
378.377329	2690.057995
378.763191	2721.310628
379.148991	2770.736621
379.534727	2816.442242
379.920402	2862.949407
380.306013	2911.430184
380.691563	2972.183649
381.077049	3026.519726
381.462474	3079.998807
381.847835	3154.696104
382.233134	3222.219839
382.618371	3282.547327
383.003545	3364.813917
383.388657	3442.583797
383.773706	3532.880945
384.158693	3604.729990
384.543618	3701.351265
384.928480	3776.938326
385.313280	3878.331053
385.698017	3977.722442
386.082692	4099.178962
386.467305	4159.221625
386.851856	4279.322074
387.236344	4436.974078
387.620770	4499.749047
388.005133	4615.193990
388.389435	4756.900825
388.773674	4843.621274
389.157851	4969.614832
389.541965	5103.069298
389.926018	5127.324809
390.310008	5300.569103
390.693936	5423.774902
391.077802	5537.954517
391.461606	5666.718189
391.845348	5778.473008
392.229027	5896.950205
392.612645	6118.506396
392.996200	6234.460497
393.379694	6403.203039
393.763125	6621.744620
394.146494	6717.529064
394.529801	6854.260280
394.913047	7086.932215
395.296230	7080.630772
395.679351	7135.231510
396.062410	7389.073771
396.445408	7288.091897
396.828343	7436.039680
397.211217	7568.616985
397.594028	7452.249511
397.976778	7647.725292
398.359466	7814.683266
398.742092	7789.492621
399.124656	7935.988551
399.507158	8121.533260
399.889598	8136.583625
400.271977	8342.970984
400.654294	8372.736477
401.036549	8565.253101
401.418742	8593.735620
401.800874	8879.004434
402.182944	8962.354872
402.564952	9319.359305
402.946898	9141.804825
403.328783	9201.744144
403.710606	9394.606087
404.092367	9635.860587
404.474067	9990.982149
404.855705	9785.038412
405.237282	9740.363706
405.618797	10147.603237
406.000250	10392.482327
406.381642	10749.355690
406.762972	10694.008862
407.144240	10490.212656
407.525447	10729.677546
407.906593	10665.206229
408.287677	10908.167159
408.668700	11046.801411
409.049661	11008.970072
409.430560	11149.358645
409.811399	11114.708274
410.192176	11250.085940
410.572891	11297.447580
410.953545	11742.863769
411.334138	11222.112577
411.714669	11763.804722
412.095139	11077.393653
412.475547	11524.085254
412.855894	11348.252328
413.236180	11609.918460
413.616405	11279.405290
413.996568	11485.732156
414.376670	11414.508213
414.756711	11244.086967
415.136691	11443.913264
415.516609	11539.208716
415.896466	11532.715709
416.276262	11711.147350
416.655997	12012.925943
417.035670	11966.015485
417.415283	12443.632045
417.794834	12421.244281
418.174324	12097.531628
418.553753	11912.314594
418.933121	12214.952703
419.312428	11946.977568
419.691674	11759.010585
420.070859	12012.988957
420.449983	11615.924995
420.829045	11916.055130
421.208047	11591.467837
421.586988	11793.867643
421.965867	11852.723114
422.344686	11707.694159
422.723444	11958.484002
423.102141	10880.856708
423.480777	11560.038763
423.859352	11071.813096
424.237866	11646.847432
424.616319	11283.370158
424.994712	11534.462469
425.373044	11229.122301
425.751314	11472.703293
426.129524	10758.149983
426.507673	11219.382792
426.885762	10862.285098
427.263789	10787.330702
427.641756	10684.700371
428.019662	10534.204285
428.397508	10359.480413
428.775292	10321.712088
429.153016	10097.640362
429.530679	9947.386251
429.908282	9772.049879
430.285824	9454.583215
430.663305	9566.948014
431.040726	9206.243374
431.418086	8945.388868
431.795385	9014.611472
432.172624	8989.166248
432.549802	8631.672823
432.926920	8509.553392
433.303977	8284.528887
433.680974	8189.011625
434.057910	8101.272862
434.434786	7927.380781
434.811601	7715.243986
435.188355	7854.011828
435.565050	7569.925165
435.941683	7371.172633
436.318257	7433.728311
436.694770	7207.128446
437.071222	7181.108530
437.447614	6775.830008
437.823946	6619.957531
438.200218	6488.388457
438.576429	6279.672085
438.952580	6180.300860
439.328670	6020.471078
439.704700	5955.667045
440.080670	5732.898456
440.456580	5694.099216
440.832429	5578.440023
441.208218	5283.678717
441.583947	5216.026432
441.959616	5109.559783
442.335224	5016.933623
442.710773	4909.420934
443.086261	4860.463769
443.461689	4669.593081
443.837057	4571.099017
444.212365	4534.222977
444.587612	4427.874796
444.962800	4281.018422
445.337927	4223.677818
445.712995	4017.343391
446.088002	4079.490736
446.462949	4006.709077
446.837837	3928.815688
447.212664	3840.897965
447.587431	3943.011577
447.962139	4050.007547
448.336786	4115.093885
448.711374	3939.255918
449.085901	3656.739574
449.460369	3565.968558
449.834776	3489.143894
450.209124	3530.599823
450.583412	3453.293728
450.957640	3414.481885
451.331808	3308.814259
451.705917	3204.359031
452.079965	3155.485044
452.453954	3122.205867
452.827883	3070.128227
453.201752	3025.602236
453.575562	2994.631907
453.949311	2986.440032
454.323001	2955.656226
454.696632	2917.303128
455.070202	2919.836308
455.443713	2895.517782
455.817164	2877.709906
456.190556	2860.333048
456.563888	2830.756599
456.937160	2814.965184
457.310373	2773.095881
457.683526	2759.101638
458.056619	2746.019844
458.429653	2728.464025
458.802628	2719.571430
459.175542	2706.119111
459.548398	2711.132538
459.921194	2715.052036
460.293930	2712.430636
460.666607	2726.981926
461.039224	2730.097359
461.411782	2723.591750
461.784280	2704.137937
462.156719	2690.695701
462.529099	2678.632220
462.901419	2661.575476
463.273680	2644.448155
463.645882	2640.100160
464.018024	2634.053296
464.390106	2633.254273
464.762130	2647.117446
465.134094	2671.380520
465.505999	2700.798173
465.877845	2726.387070
466.249631	2730.140209
466.621358	2712.244113
466.993026	2697.004705
467.364634	2679.907632
467.736184	2659.571617
468.107674	2648.034936
468.479105	2638.136631
468.850477	2629.702780
469.221790	2620.802623
469.593043	2605.379213
469.964238	2597.507451
470.335373	2595.790938
470.706449	2603.975252
471.077467	2612.754421
471.448425	2634.602782
471.819324	2647.606438
472.190164	2637.393061
472.560945	2616.507560
472.931667	2597.807400
473.302330	2587.253744
473.672934	2581.300142
474.043479	2581.985739
474.413965	2576.558937
474.784393	2571.364028
475.154761	2576.526169
475.525070	2571.535427
475.895321	2572.498287
476.265513	2574.265212
476.635645	2577.400809
477.005719	2575.807805
477.375734	2575.953998
477.745691	2579.780234
478.115588	2584.944896
478.485427	2592.506627
478.855207	2608.108998
479.224928	2621.553755
479.594591	2630.131278
479.964194	2623.340844
480.333739	2624.785135
480.703226	2624.260855
481.072653	2626.539456
481.442022	2628.971813
481.811333	2625.548870
482.180584	2621.095010
482.549777	2616.487396
482.918912	2614.085286
483.287988	2613.621500
483.657005	2609.918772
484.025964	2605.535489
484.394864	2603.456013
484.763706	2602.074737
485.132489	2598.722369
485.501213	2600.443923
485.869879	2595.296905
486.238487	2599.665065
486.607036	2596.489138
486.975527	2593.993767
487.343959	2593.653489
487.712333	2596.524426
488.080648	2596.196751
488.448905	2596.622729
488.817104	2594.492841
489.185244	2598.404777
489.553326	2608.981117
489.921350	2620.928652
490.289315	2635.061527
490.657222	2640.906745
491.025070	2640.924389
491.392861	2634.559932
491.760593	2625.750516
492.128267	2622.130967
492.495883	2614.985132
492.863440	2607.320057
493.230939	2598.087184
493.598380	2597.189859
493.965763	2590.197778
494.333088	2592.766246
494.700354	2584.788620
495.067563	2587.798189
495.434713	2583.669484
495.801805	2586.898343
496.168839	2586.061512
496.535815	2588.299784
496.902733	2584.907087
497.269593	2585.002869
497.636395	2581.138825
498.003139	2586.933631
498.369825	2587.198292
498.736453	2584.609659
499.103023	2587.243662
499.469535	2586.396748
499.835989	2587.289032
500.202385	2584.292067
500.568723	2585.769125
500.935003	2590.785073
501.301226	2588.937490
501.667390	2590.911102
502.033497	2595.531319
502.399546	2595.440578
502.765537	2591.107707
503.131470	2594.833119
503.497345	2598.974427
503.863163	2593.338417
504.228923	2596.615167
504.594625	2603.345107
504.960269	2601.623553
505.325856	2604.900303
505.691385	2602.044490
506.056856	2608.141765
506.422270	2610.543875
506.787625	2611.728546
507.152924	2611.940275
507.518164	2616.263064
507.883347	2612.908176
508.248472	2617.697272
508.613540	2622.355299
508.978550	2626.836884
509.343503	2625.576596
509.708398	2632.077164
510.073236	2636.576394
510.438016	2640.495891
510.802738	2639.477578
511.167403	2644.228865
511.532010	2643.283649
511.896561	2648.619710
512.261053	2658.802841
512.625488	2655.463077
512.989866	2652.975267
513.354186	2656.297387
513.718449	2658.800320
514.082655	2666.215858
514.446803	2667.428255
514.810894	2667.955056
515.174927	2674.803463
515.538904	2671.829182
515.902822	2676.509894
516.266684	2675.042918
516.630488	2678.730522
516.994235	2681.571212
517.357925	2684.006090
517.721558	2690.189065
518.085133	2690.025227
518.448651	2693.440609
518.812112	2692.485310
519.175516	2693.438088
519.538863	2695.333562
519.902152	2695.830116
520.265385	2700.883873
520.628560	2702.179449
520.991678	2704.463092
521.354739	2702.461754
521.717743	2706.479553
522.080690	2704.132896
522.443580	2713.612786
522.806413	2711.480378
523.169189	2711.407281
523.531908	2712.816284
523.894569	2712.675132
524.257174	2711.361911
524.619722	2716.440873
524.982213	2718.472458
525.344647	2714.681511
525.707025	2715.538507
526.069345	2718.880792
526.431608	2719.634444
526.793815	2720.435988
527.155964	2718.684187
527.518057	2720.657799
527.880093	2718.222921
528.242072	2723.175855
528.603995	2721.693756
528.965860	2721.066132
529.327669	2722.384394
529.689421	2722.928838
530.051117	2724.131154
530.412755	2723.039744
530.774337	2723.090155
531.135862	2720.776266
531.497331	2718.391800
531.858743	2715.029350
532.220098	2722.480176
532.581396	2717.403734
532.942638	2711.495502
533.303824	2719.377346
533.664953	2717.494475
534.026025	2715.946840
534.387040	2718.303580
534.747999	2715.173023
535.108902	2716.783672
535.469748	2712.150852
535.830537	2712.559185
536.191270	2710.971222
536.551947	2710.010882
536.912567	2710.759493
537.273131	2709.630275
537.633638	2702.522248
537.994089	2704.216075
538.354483	2697.229036
538.714821	2702.038297
539.075103	2703.598534
539.435328	2702.179449
539.795497	2696.099818
540.155609	2691.406503
540.515665	2694.022862
540.875665	2686.859383
541.235609	2690.582275
541.595496	2686.622448
541.955328	2685.951975
542.315102	2679.428722
542.674821	2678.347394
543.034483	2675.531910
543.394090	2669.832886
543.753640	2670.790705
544.113134	2668.292813
544.472571	2664.267452
544.831953	2668.943122
545.191278	2660.801658
545.550548	2655.304280
545.909761	2655.584064
546.268918	2651.399907
546.628019	2649.428815
546.987064	2643.961684
547.346053	2636.644449
547.704986	2639.437248
548.063863	2633.077833
548.422684	2629.213788
548.781449	2626.547018
549.140158	2623.948303
549.498811	2621.863786
549.857408	2613.742487
550.215949	2616.552931
550.574434	2609.616303
550.932864	2606.407608
551.291237	2602.951897
551.649555	2604.018102
552.007817	2604.219748
552.366022	2597.721700
552.724173	2595.798500
553.082267	2592.751123
553.440305	2589.418920
553.798288	2586.510174
554.156215	2584.891964
554.514086	2585.166707
554.871902	2579.611355
555.229661	2576.301838
555.587365	2575.011302
555.945014	2572.853688
556.302606	2566.869839
556.660143	2566.884962
557.017625	2563.688871
557.375050	2563.633418
557.732421	2560.119734
558.089735	2559.812223
558.446994	2557.405073
558.804197	2557.261400
559.161345	2553.445246
559.518437	2548.794782
559.875474	2552.336192
560.232455	2550.060111
560.589381	2545.891077
560.946251	2544.673638
561.303065	2543.967877
561.659825	2544.671118
562.016528	2540.539892
562.373177	2538.233564
562.729770	2540.819676
563.086307	2534.792977
563.442789	2536.776671
563.799216	2535.783564
564.155587	2535.811290
564.511904	2535.539068
564.868164	2530.654190
565.224370	2533.537730
565.580520	2530.029087
565.936615	2529.237625
566.292654	2528.821730
566.648638	2526.157480
567.004567	2529.711494
567.360441	2530.760054
567.716260	2526.464991
568.072023	2525.610515
568.427732	2520.566841
568.783385	2523.707480
569.138982	2521.421316
569.494525	2523.193282
569.850013	2518.590708
570.205445	2524.501461
570.560823	2523.021883
570.916145	2520.702952
571.271412	2522.205216
571.626625	2520.612211
571.981782	2520.208919
572.336884	2519.687159
572.691931	2516.773373
573.046923	2517.017868
573.401860	2517.032992
573.756743	2517.148938
574.111570	2516.017199
574.466342	2515.384535
574.821059	2514.063752
575.175722	2514.842611
575.530330	2514.557785
575.884882	2512.437980
576.239380	2513.801612
576.593823	2512.006962
576.948211	2513.579802
577.302544	2508.926817
577.656823	2512.536283
578.011047	2513.625172
578.365216	2509.682990
578.719330	2511.452435
579.073389	2507.840448
579.427394	2509.899759
579.781344	2509.027640
580.135239	2506.922958
580.489080	2510.315654
580.842866	2502.660662
581.196597	2509.110819
581.550273	2508.163082
581.903895	2504.316681
582.257463	2507.958915
582.610975	2506.149141
582.964434	2506.562515
583.317837	2504.682165
583.671186	2505.516476
584.024481	2503.741990
584.377721	2504.853564
584.730906	2499.744355
585.084037	2503.815087
585.437113	2499.086484
585.790135	2502.554798
586.143103	2498.002636
586.496016	2501.768378
586.848874	2497.853922
587.201679	2500.684530
587.554428	2497.362410
587.907124	2496.974241
588.259765	2495.439209
588.612352	2501.249139
588.964884	2499.298213
589.317362	2498.582369
589.669786	2497.460712
590.022155	2501.811228
590.374470	2496.931391
590.726731	2500.535816
591.078937	2495.834940
591.431090	2495.015752
591.783188	2492.943838
592.135232	2495.255207
592.487222	2495.275372
592.839157	2494.955259
593.191038	2493.742861
593.542866	2492.177583
593.894639	2492.149857
594.246358	2494.141112
594.598022	2489.813282
594.949633	2490.259424
595.301190	2490.214053
595.652692	2490.952583
596.004141	2491.532315
596.355535	2492.311173
596.706876	2489.578868
597.058162	2490.176245
597.409395	2488.260606
597.760573	2491.053406
598.111698	2485.457725
598.462768	2490.743375
598.813785	2487.010400
599.164748	2485.243476
599.515657	2486.549135
599.866511	2487.209526
600.217312	2489.057109
600.568060	2486.070225
600.918753	2490.067860
601.269392	2485.553507
601.619978	2485.225832
601.970510	2488.076604
602.320988	2487.179279
602.671412	2486.584423
603.021783	2486.413023
603.372100	2488.051398
603.722363	2486.682725
604.072572	2486.468476
604.422728	2485.346819
604.772830	2482.097796
605.122878	2482.291880
605.472872	2482.806078
605.822813	2480.479585
606.172701	2485.523260
606.522534	2482.077631
606.872314	2487.126347
607.222041	2482.773310
607.571714	2483.713486
607.921333	2480.396406
608.270899	2486.236583
608.620411	2482.289360
608.969870	2485.571151
609.319276	2481.999493
609.668627	2485.682056
610.017926	2481.429843
610.367171	2484.020996
610.716362	2481.427322
611.065500	2482.838845
611.414585	2484.096613
611.763616	2482.617035
612.112594	2484.787251
612.461518	2482.705255
612.810389	2483.405975
613.159207	2483.242138
613.507971	2481.618886
613.856682	2483.010245
614.205340	2484.157107
614.553945	2488.744557
614.902496	2481.802888
615.250994	2483.027889
615.599439	2483.746253
615.947830	2485.576192
616.296169	2483.158959
616.644454	2484.474700
616.992686	2484.056284
617.340864	2482.526294
617.688990	2483.915132
618.037063	2486.397900
618.385082	2479.269708
618.733048	2486.234063
619.080961	2485.404793
619.428821	2487.199443
619.776628	2484.298259
620.124382	2482.238948
620.472083	2486.183651
620.819731	2483.521922
621.167326	2486.420585
621.514868	2484.378918
621.862357	2479.161324
622.209793	2483.547127
622.557176	2478.505974
622.904506	2479.491519
623.251783	2474.583956
623.599007	2478.163175
623.946179	2473.734522
624.293297	2476.297948
624.640363	2476.686117
624.987376	2474.800726
625.334336	2475.372897
625.681243	2472.622947
626.028097	2474.808287
626.374899	2474.334419
626.721647	2474.611682
627.068343	2476.371045
627.414987	2473.028760
627.761577	2474.551188
628.108115	2471.453399
628.454600	2471.904583
628.801032	2473.374079
629.147412	2471.828965
629.493739	2471.581949
629.840014	2472.141517
630.186236	2472.126393
630.532405	2472.799387
630.878521	2474.384830
631.224585	2469.177318
631.570597	2469.867957
631.916556	2467.312092
632.262462	2470.735035
632.608316	2471.781074
632.954117	2465.141875
633.299866	2466.162708
633.645562	2469.815024
633.991206	2466.576083
634.336797	2465.237657
634.682336	2466.898717
635.027823	2466.510548
635.373257	2466.127420
635.718639	2464.597430
636.063968	2465.517441
636.409245	2462.031483
636.754470	2464.325208
637.099642	2462.714559
637.444762	2464.562142
637.789829	2461.570217
638.134845	2461.476956
638.479808	2462.442337
638.824719	2460.708180
639.169577	2460.317491
639.514383	2460.904785
639.859137	2459.442850
640.203839	2456.849177
640.548489	2461.552573
640.893086	2455.530915
641.237632	2456.256841
641.582125	2457.670885
641.926566	2455.488065
642.270955	2461.008129
642.615292	2459.256328
642.959576	2459.067284
643.303809	2458.618622
643.647990	2458.192644
643.992118	2457.398662
644.336195	2460.788838
644.680219	2459.089970
645.024192	2460.335135
645.368112	2457.277675
645.711981	2458.321194
646.055797	2461.381174
646.399562	2460.778756
646.743274	2461.897892
647.086935	2461.227419
647.430544	2462.775053
647.774101	2463.289251
648.117606	2464.476443
648.461059	2462.059209
648.804460	2467.380147
649.147810	2458.595937
649.491108	2458.663992
649.834354	2460.015021
650.177548	2456.219032
650.520690	2458.021245
650.863781	2457.360854
651.206820	2460.940073
651.549807	2453.721141
651.892742	2457.091152
652.235626	2455.082252
652.578458	2456.087963
652.921238	2452.649896
653.263967	2457.247428
653.606644	2453.048147
653.949269	2453.980760
654.291843	2449.559668
654.634365	2455.845987
654.976836	2452.743157
655.319255	2451.145111
655.661622	2452.538990
656.003938	2454.053857
656.346203	2450.482199
656.688416	2453.007817
657.030577	2451.510595
657.372687	2452.052519
657.714746	2450.613269
658.056753	2451.530759
658.398708	2444.130346
658.740612	2447.674277
659.082465	2447.263423
659.424266	2446.993721
659.766016	2447.475151
660.107715	2451.369442
660.449362	2450.903136
660.790958	2453.002776
661.132503	2447.591098
661.473996	2450.313321
661.815438	2451.664350
662.156829	2452.092848
662.498168	2449.272322
662.839456	2449.408434
663.180693	2449.330296
663.521879	2452.092848
663.863013	2449.574792
664.204097	2450.686366
664.545129	2450.472117
664.886110	2454.817592
665.227040	2449.663012
665.567918	2452.692745
665.908746	2451.802982
666.249522	2452.430605
666.590248	2452.438167
666.930922	2453.065791
667.271545	2452.493620
667.612118	2450.986315
667.952639	2448.959771
668.293109	2450.845163
668.633528	2449.262240
668.973896	2450.842642
669.314213	2451.596294
669.654480	2452.344906
669.994695	2449.342899
670.334859	2450.421706
670.674973	2448.377518
671.015035	2451.077056
671.355047	2452.294494
671.695008	2451.603856
672.034918	2448.571602
672.374777	2450.696448
672.714585	2448.518670
673.054342	2451.737447
673.394049	2449.027827
673.733705	2449.259720
674.073310	2452.201233
674.412864	2451.747529
674.752368	2449.317693
675.091820	2447.581015
675.431223	2450.119236
675.770574	2449.935234
676.109875	2446.033381
676.449125	2445.274688
676.788324	2443.840479
677.127473	2444.941971
677.466571	2445.037753
677.805619	2445.282249
678.144616	2444.097578
678.483562	2443.316199
678.822458	2443.182609
679.161303	2446.134204
679.500098	2442.454162
679.838842	2446.734102
680.177535	2445.105809
680.516179	2447.424740
680.854771	2444.939451
681.193314	2446.033381
681.531805	2449.350460
681.870247	2452.458332
682.208638	2448.712754
682.546978	2451.480348
682.885268	2450.368773
683.223508	2449.695779
683.561697	2449.663012
683.899836	2449.335337
684.237925	2449.819288
684.575963	2448.047322
684.913951	2446.597990
685.251889	2448.453135
685.589776	2447.341561
685.927614	2448.889195
686.265401	2448.732919
686.603137	2448.196036
686.940824	2450.197374
687.278460	2450.250306
687.616046	2449.289967
687.953582	2450.419185
688.291068	2449.799123
688.628504	2451.034206
688.965889	2450.983794
689.303224	2448.218721
689.640510	2450.704010
689.977745	2445.783844
690.314930	2443.459872
690.652065	2443.835438
690.989150	2445.244441
691.326185	2443.195212
691.663170	2444.820984
692.000105	2443.515325
692.336990	2440.871240
692.673825	2440.321754
693.010610	2440.367124
693.347345	2436.341763
693.684030	2434.829417
694.020665	2435.227668
694.357251	2433.372523
694.693786	2435.653645
695.030272	2436.102308
695.366707	2437.644901
695.703093	2434.950404
696.039429	2435.104160
696.375716	2435.381423
696.711952	2435.973759
697.048139	2437.087854
697.384276	2434.557194
697.720363	2434.993254
698.056400	2433.407811
698.392388	2434.443768
698.728326	2433.644746
699.064214	2434.269849
699.400053	2432.644077
699.735842	2434.025353
700.071581	2432.470157
700.407270	2431.093922
700.742910	2430.791453
701.078501	2432.802873
701.414042	2428.699374
701.749533	2431.096442
702.084974	2430.357913
702.420366	2430.952769
702.755709	2430.957811
703.091002	2431.184663
703.426246	2429.684919
703.761440	2432.150043
704.096584	2431.388829
704.431679	2427.570155
704.766725	2430.352872
705.101721	2428.543098
705.436668	2428.318767
705.771565	2430.236926
706.106413	2431.295568
706.441212	2429.049734
706.775961	2427.940680
707.110661	2428.835485
707.445311	2429.508479
707.779913	2430.478901
708.114465	2431.799683
708.448967	2429.377409
708.783421	2431.479570
709.117825	2431.708943
709.452180	2431.766916
709.786485	2432.704570
710.120742	2436.084664
710.454949	2433.647266
710.789107	2433.695157
711.123216	2432.339087
711.457275	2431.653490
711.791286	2438.045673
712.125247	2437.627257
712.459159	2436.094746
712.793023	2437.707916
713.126837	2436.828234
713.460602	2437.372679
713.794318	2434.015270
714.127985	2436.407298
714.461602	2432.316402
714.795171	2434.554674
715.128691	2433.317071
715.462162	2431.852615
715.795584	2430.315063
716.128957	2430.257090
716.462281	2433.506114
716.795556	2428.238108
717.128782	2428.661565
717.461960	2426.337593
717.795088	2427.950762
718.128167	2429.314394
718.461198	2427.229877
718.794180	2428.366657
719.127113	2427.335742
719.459997	2426.655186
719.792833	2427.486976
720.125619	2425.117634
720.458357	2424.832809
720.791046	2425.518406
721.123686	2423.214598
721.456278	2420.724268
721.788821	2424.835329
722.121315	2425.052099
722.453761	2422.350040
722.786158	2425.450350
723.118506	2423.902716
723.450805	2423.252407
723.783056	2424.179979
724.115259	2424.875658
724.447412	2423.144022
724.779518	2426.574527
725.111574	2424.905905
725.443582	2425.190731
725.775542	2422.849115
726.107453	2425.573858
726.439315	2425.316759
726.771129	2429.982347
727.102895	2425.135278
727.434612	2428.258273
727.766281	2426.254414
728.097901	2428.235588
728.429473	2424.505134
728.760996	2424.774835
729.092471	2424.142171
729.423897	2429.737851
729.755276	2428.134764
730.086606	2426.529157
730.417887	2428.298602
730.749120	2432.316402
731.080305	2429.997471
731.411442	2428.631318
731.742530	2430.226843
732.073570	2433.818665
732.404562	2428.525454
732.735506	2429.861360
733.066401	2430.012594
733.397249	2428.195258
733.728048	2429.745413
734.058798	2426.922367
734.389501	2423.902716
734.720156	2424.963879
735.050762	2424.469846
735.381320	2425.026893
735.711831	2424.595874
736.042293	2427.015628
736.372707	2423.827098
736.703073	2423.358271
737.033391	2423.880031
737.363661	2424.091759
737.693883	2425.951945
738.024056	2428.154929
738.354182	2426.080494
738.684260	2425.747778
739.014290	2423.673343
739.344272	2425.899013
739.674207	2425.364650
740.004093	2430.166349
740.333931	2427.396235
740.663722	2426.415731
740.993464	2427.088725
741.323159	2425.394897
741.652806	2424.767274
741.982405	2422.992788
742.311956	2426.017480
742.641460	2423.539753
742.970915	2423.741399
743.300323	2420.842735
743.629683	2423.297777
743.958996	2425.175607
744.288260	2422.521440
744.617477	2419.242169
744.946647	2419.383321
745.275768	2420.066398
745.604842	2416.308218
745.933869	2415.239493
746.262847	2417.097158
746.591778	2419.607653
746.920662	2419.864752
747.249498	2419.416089
747.578286	2423.050761
747.907027	2422.402973
748.235720	2422.211409
748.564365	2423.726275
748.892963	2421.094793
749.221514	2421.490524
749.550017	2423.416244
749.878473	2420.941038
750.206881	2422.155956
750.535242	2419.368198
750.863555	2420.263003
751.191821	2420.915832
751.520039	2420.741912
751.848210	2420.431881
752.176334	2421.261151
752.504411	2421.598908
752.832440	2420.666295
753.160421	2418.876685
753.488356	2419.315266
753.816243	2420.487334
754.144082	2417.523136
754.471875	2421.614032
754.799620	2417.903743
755.127318	2422.937335
755.454969	2417.195461
755.782572	2420.131933
756.110129	2420.144536
756.437638	2419.602612
756.765100	2419.156469
757.092515	2421.349371
757.419882	2418.241500
757.747203	2417.298804
758.074477	2419.242169
758.401703	2419.753846
758.728882	2417.190419
759.056014	2419.847108
759.383099	2420.673857
759.710138	2420.010945
760.037129	2418.223856
760.364073	2420.136974
760.690970	2418.997673
761.017820	2419.675708
761.344623	2422.014804
761.671379	2420.938517
761.998088	2419.277457
762.324751	2424.058992
762.651366	2427.489497
762.977935	2439.061465
763.304456	2438.143975
763.630931	2444.715119
763.957359	2444.654626
764.283740	2441.420725
764.610074	2436.525765
764.936362	2431.850095
765.262602	2430.320105
765.588796	2428.843047
765.914943	2423.537232
766.241044	2421.583785
766.567097	2418.889288
766.893104	2416.892991
767.219064	2418.049936
767.544978	2416.000707
767.870845	2417.611356
768.196665	2416.950965
768.522438	2417.749987
768.848165	2414.480799
769.173846	2414.989956
769.499479	2415.148752
769.825066	2414.180851
770.150607	2417.235790
770.476101	2414.264030
770.801548	2410.896539
771.126949	2411.181364
771.452303	2411.864440
771.777611	2411.569533
772.102872	2413.462486
772.428087	2411.274625
772.753256	2411.864440
773.078378	2412.227403
773.403453	2409.943761
773.728482	2410.475603
774.053465	2415.448701
774.378401	2410.100037
774.703291	2409.787485
775.028135	2410.752866
775.352932	2410.432753
775.677683	2412.025757
776.002388	2410.251271
776.327046	2409.459810
776.651658	2410.911662
776.976224	2411.176323
777.300743	2408.877557
777.625216	2409.603483
777.949643	2409.976528
778.274024	2409.374110
778.598359	2404.605179
778.922647	2408.585170
779.246889	2408.872516
779.571086	2405.749521
779.895236	2410.707496
780.219339	2410.140366
780.543397	2410.669687
780.867409	2409.573236
781.191374	2410.034502
781.515294	2410.150448
781.839167	2410.445356
782.162995	2410.097516
782.486776	2408.617937
782.810511	2409.369069
783.134201	2408.771692
783.457844	2411.541807
783.781441	2410.266395
784.104993	2408.242371
784.428498	2409.815211
784.751958	2408.736404
785.075372	2409.510222
785.398739	2408.227248
785.722061	2409.759759
786.045337	2410.563823
786.368568	2409.880746
786.691752	2409.888308
787.014891	2410.805798
787.337983	2408.645664
787.661030	2410.387382
787.984031	2414.506005
788.306987	2412.151786
788.629897	2413.800243
788.952760	2412.313103
789.275579	2414.241344
789.598351	2414.778227
789.921078	2411.322516
790.243759	2410.543658
790.566395	2411.304872
790.888984	2410.024419
791.211529	2409.626168
791.534027	2410.107598
791.856480	2409.512742
792.178888	2408.136507
792.501249	2409.222876
792.823566	2411.400654
793.145836	2410.578946
793.468062	2409.157341
793.790241	2408.312947
794.112375	2411.889646
794.434464	2406.485529
794.756507	2410.100037
795.078505	2410.659605
795.400457	2407.158523
795.722364	2403.027298
796.044226	2408.139028
796.366042	2407.380334
796.687812	2410.780592
797.009538	2409.406878
797.331218	2413.555748
797.652852	2409.994172
797.974442	2409.926117
798.295986	2409.737073
798.617484	2409.724471
798.938938	2410.500808
799.260346	2409.820252
799.581709	2413.192784
799.903026	2410.450397
800.224299	2408.620458
800.545526	2409.278328
800.866708	2409.280849
801.187845	2407.221538
801.508936	2407.750859
801.829983	2408.670869
802.150984	2407.781106
802.471940	2407.642474
802.792851	2406.782957
803.113717	2409.540468
803.434538	2407.337484
803.755314	2408.063410
804.076045	2405.328584
804.396731	2408.012999
804.717372	2406.253636
805.037967	2408.532238
805.358518	2405.878070
805.679024	2409.376631
805.999485	2409.041394
806.319901	2406.513256
806.640272	2408.507032
806.960598	2406.354459
807.280879	2407.755900
807.601115	2407.264387
807.921306	2407.947464
808.241453	2409.921076
808.561554	2406.682134
808.881611	2408.315468
809.201623	2409.621127
809.521590	2409.880746
809.841513	2405.928482
810.161390	2408.673390
810.481223	2405.938564
810.801011	2407.902093
811.120755	2406.009140
811.440453	2407.428225
811.760107	2408.113822
812.079716	2406.921589
812.399281	2403.780950
812.718801	2403.060065
813.038276	2399.190980
813.357707	2404.625343
813.677093	2407.758421
813.996434	2406.137690
814.315731	2408.176836
814.634983	2407.662639
814.954191	2405.850344
815.273354	2408.131466
815.592473	2408.040725
815.911547	2410.205901
816.230577	2409.094326
816.549562	2410.440314
816.868502	2406.856054
817.187399	2409.580798
817.506250	2407.816394
817.825058	2410.253792
818.143821	2410.601631
818.462539	2409.346384
818.781213	2414.077507
819.099843	2412.353432
819.418429	2415.325192
819.736970	2416.570358
820.055466	2420.457087
820.373919	2424.434558
820.692327	2428.056627
821.010691	2439.484922
821.329011	2463.523664
821.647286	2500.361896
821.965517	2541.638864
822.283704	2566.703481
822.601847	2572.208421
822.919945	2556.979095
823.237999	2534.787936
823.556010	2513.841942
823.873976	2497.289313
824.191897	2479.846921
824.509775	2467.652369
824.827609	2456.297170
825.145398	2450.598146
825.463144	2448.727878
825.780845	2449.993208
826.098502	2451.500513
826.416116	2463.727831
826.733685	2470.924078
827.051210	2475.995479
827.368692	2469.273100
827.686129	2459.465536
828.003522	2448.405244
828.320872	2440.765375
828.638177	2433.148192
828.955439	2426.443457
829.272656	2423.204516
829.589830	2416.199833
829.906960	2418.019689
830.224046	2413.008782
830.541088	2414.168248
830.858086	2413.192784
831.175041	2413.081879
831.491952	2411.604821
831.808819	2410.712537
832.125642	2415.776376
832.442421	2416.517425
832.759157	2422.034968
833.075849	2426.398087
833.392497	2435.020981
833.709101	2441.118256
834.025662	2438.517021
834.342179	2433.818665
834.658653	2431.136772
834.975083	2423.464135
835.291469	2427.607964
835.607811	2418.899371
835.924110	2415.844431
836.240366	2413.278484
836.556578	2410.417629
836.872746	2409.071641
837.188871	2408.917886
837.504952	2407.831517
837.820990	2406.251116
838.136984	2407.949984
838.452935	2406.730025
838.768842	2406.667011
839.084706	2406.472926
839.400526	2410.294121
839.716303	2412.736560
840.032037	2416.663619
840.347727	2416.837539
840.663373	2413.011303
840.978977	2411.108267
841.294537	2409.043915
841.610054	2405.633574
841.925527	2407.977711
842.240957	2404.448903
842.556344	2403.866650
842.871687	2404.975704
843.186987	2402.656773
843.502244	2401.310785
843.817458	2402.117369
844.132629	2399.972358
844.447756	2403.193656
844.762840	2394.343910
845.077881	2399.311967
845.392879	2398.291134
845.707833	2397.560166
846.022745	2393.645710
846.337613	2399.180897
846.652438	2400.547050
846.967221	2401.265414
847.281960	2402.261042
847.596656	2401.335991
847.911309	2399.256515
848.225919	2402.462688
848.540485	2401.451937
848.855009	2401.736762
849.169490	2399.425393
849.483928	2399.339694
849.798323	2398.533109
850.112675	2397.545043
850.426984	2399.367420
850.741251	2400.743655
851.055474	2400.358007
851.369654	2398.291134
851.683792	2398.817934
851.997887	2401.736762
852.311938	2396.788870
852.625947	2402.296330
852.939914	2399.654766
853.253837	2400.090826
853.567718	2398.316339
853.881555	2400.973028
854.195350	2400.431103
854.509103	2398.422204
854.822812	2398.558315
855.136479	2402.503018
855.450103	2401.283058
855.763685	2402.286248
856.077224	2399.374982
856.390720	2399.085115
856.704173	2399.127965
857.017584	2400.859602
857.330953	2397.575290
857.644278	2400.589900
857.957561	2400.945301
858.270802	2401.008316
858.584000	2399.700136
858.897155	2400.156361
859.210268	2399.821124
859.523339	2400.496638
859.836367	2401.288100
860.149352	2402.271125
860.462295	2399.869015
860.775195	2398.079405
861.088054	2399.682492
861.400869	2398.399518
861.713642	2393.943138
862.026373	2399.372461
862.339062	2397.171997
862.651708	2400.025291
862.964312	2398.165105
863.276873	2400.758778
863.589392	2400.826834
863.901869	2399.410270
864.214303	2400.932698
864.526696	2402.205590
864.839045	2401.162071
865.151353	2402.129972
865.463619	2399.390105
865.775842	2400.166443
866.088023	2401.371279
866.400162	2403.753224
866.712258	2400.307595
867.024313	2400.567215
867.336325	2401.280538
867.648296	2399.979920
867.960224	2398.795249
868.272110	2400.499159
868.583954	2399.556463
868.895755	2402.495456
869.207515	2402.354304
869.519233	2402.213151
869.830909	2400.327760
870.142542	2402.152658
870.454134	2399.740465
870.765684	2399.453120
871.077191	2402.591238
871.388657	2404.779099
871.700081	2401.023439
872.011463	2402.429921
872.322803	2401.310785
872.634101	2401.971176
872.945357	2404.088461
873.256571	2402.016546
873.567744	2403.722977
873.878874	2401.421690
874.189963	2402.339180
874.501010	2403.536454
874.812015	2403.357493
875.122979	2402.881104
875.433900	2405.225241
875.744780	2402.855898
876.055618	2402.145096
876.366415	2401.998902
876.677169	2401.661145
876.987882	2400.496638
877.298554	2397.872718
877.609183	2402.389592
877.919771	2399.054868
878.230317	2404.436300
878.540822	2403.765827
878.851285	2408.960736
879.161707	2408.023081
879.472087	2412.489543
879.782425	2417.923907
880.092722	2424.048909
880.402977	2433.034766
880.713191	2452.728033
881.023363	2470.679582
881.333494	2477.333905
881.643583	2483.287508
881.953631	2482.659884
882.263637	2474.435242
882.573602	2468.821917
882.883526	2463.546350
883.193408	2458.631225
883.503248	2451.472786
883.813048	2447.278546
884.122806	2440.944336
884.432522	2433.251536
884.742197	2428.459919
885.051831	2425.621749
885.361424	2420.202509
885.670975	2418.428023
885.980485	2416.514905
886.289954	2414.750501
886.599382	2411.067938
886.908768	2409.903432
887.218113	2407.208935
887.527417	2408.123904
887.836680	2405.406722
888.145901	2405.429408
888.455082	2405.094171
888.764221	2403.866650
889.073319	2406.021743
889.382376	2406.074675
889.691392	2401.134344
890.000366	2404.499315
890.309300	2401.507390
890.618193	2400.279869
890.927044	2405.439490
891.235855	2402.596279
891.544625	2401.479663
891.853353	2402.102246
892.162041	2401.774571
892.470687	2404.665673
892.779293	2406.472926
893.087858	2403.952349
893.396381	2404.988307
893.704864	2410.752866
894.013306	2414.037178
894.321707	2422.259300
894.630068	2426.675350
894.938387	2426.750968
895.246665	2425.450350
895.554903	2423.789290
895.863100	2420.870462
896.171256	2417.886099
896.479371	2415.277302
896.787446	2414.198495
897.095480	2412.489543
897.403473	2411.947619
897.711425	2410.379821
898.019336	2408.396127
898.327207	2405.754562
898.635038	2405.079047
898.942827	2405.497463
899.250576	2406.243554
899.558284	2403.299520
899.865952	2406.767834
900.173579	2402.845816
900.481165	2402.024108
900.788711	2403.347411
901.096216	2399.679972
901.403681	2403.100394
901.711105	2403.012174
902.018489	2402.825652
902.325832	2402.979407
902.633135	2403.932185
902.940397	2406.654408
903.247619	2408.847310
903.554800	2416.207394
903.861941	2423.234763
904.169041	2430.700712
904.476101	2432.863367
904.783121	2429.059816
905.090100	2423.184351
905.397039	2421.379618
905.703938	2419.088414
906.010796	2416.255285
906.317614	2412.076169
906.624391	2414.027095
906.931129	2408.809501
907.237826	2409.454769
907.544483	2408.605334
907.851099	2405.855385
908.157675	2401.678789
908.464211	2399.233829
908.770707	2397.048489
909.077163	2401.036042
909.383578	2396.360372
909.689954	2395.901627
909.996289	2395.364744
910.302584	2399.644683
910.608839	2398.606206
910.915054	2397.245094
911.221229	2399.614437
911.527363	2397.499673
911.833458	2400.184087
912.139513	2400.567215
912.445527	2399.437996
912.751502	2397.781977
913.057436	2402.147616
913.363331	2401.615775
913.669186	2400.340363
913.975000	2404.005282
914.280775	2404.436300
914.586510	2406.777916
914.892205	2411.478792
915.197859	2415.952816
915.503475	2420.247879
915.809050	2428.079312
916.114585	2428.918664
916.420081	2430.882193
916.725536	2428.409507
917.030952	2428.916143
917.336328	2424.505134
917.641665	2424.517737
917.946961	2422.017324
918.252218	2420.860379
918.557435	2417.011458
918.862612	2413.689338
919.167750	2413.117167
919.472848	2413.470048
919.777906	2409.764800
920.082925	2407.196332
920.387904	2406.286404
920.692843	2404.668193
920.997743	2403.412946
921.302603	2402.689540
921.607423	2401.608213
921.912204	2402.329098
922.216946	2400.078223
922.521647	2403.506207
922.826310	2400.224416
923.130932	2400.176525
923.435516	2398.588562
923.740059	2397.040928
924.044564	2400.864643
924.349028	2399.987482
924.653454	2393.204609
924.957840	2396.811555
925.262186	2395.556308
925.566493	2397.164436
925.870761	2390.454660
926.174989	2396.899775
926.479178	2397.918088
926.783328	2396.088149
927.087438	2397.971020
927.391509	2397.391288
927.695541	2398.185269
927.999533	2397.071174
928.303486	2396.478839
928.607400	2396.912378
928.911275	2394.033879
929.215110	2393.073539
929.518906	2396.294837
929.822663	2395.301729
930.126381	2397.771895
930.430060	2396.824158
930.733699	2395.689898
931.037299	2398.482698
931.340861	2393.645710
931.644383	2396.826678
931.947866	2393.610422
932.251309	2395.422717
932.554714	2396.367933
932.858080	2396.919940
933.161407	2394.253169
933.464694	2395.266441
933.767943	2393.703684
934.071153	2397.106462
934.374323	2396.196534
934.677455	2395.604199
934.980548	2397.209806
935.283602	2393.975906
935.586617	2392.705535
935.889593	2395.921791
936.192530	2395.589075
936.495428	2395.851215
936.798287	2395.843653
937.101108	2397.154353
937.403890	2397.416493
937.706632	2396.534292
938.009336	2395.281565
938.312002	2400.413459
938.614628	2399.218706
938.917216	2396.839281
939.219765	2395.883983
939.522275	2398.437327
939.824747	2398.767523
940.127179	2396.188973
940.429573	2397.487070
940.731929	2396.095711
941.034246	2392.277037
941.336524	2396.181411
941.638763	2396.834240
941.940964	2395.679816
942.243126	2395.949518
942.545250	2397.030845
942.847335	2396.740979
943.149381	2397.416493
943.451389	2398.452451
943.753359	2397.232491
944.055290	2396.430948
944.357182	2398.001267
944.659036	2397.434138
944.960851	2396.405742
945.262628	2393.048334
945.564367	2399.846330
945.866067	2396.940104
946.167729	2394.507748
946.469352	2396.415824
946.770937	2395.135371
947.072484	2395.725186
947.373992	2395.717625
947.675462	2394.885834
947.976893	2396.751061
948.278286	2393.693601
948.579641	2398.671741
948.880958	2391.765360
949.182236	2394.563200
949.483476	2397.303068
949.784678	2396.020094
950.085841	2398.086967
950.386967	2396.471277
950.688054	2394.106976
950.989103	2395.538664
951.290114	2396.372975
951.591087	2397.350958
951.892021	2396.834240
952.192917	2398.149981
952.493776	2396.070505
952.794596	2394.631256
953.095378	2396.698129
953.396122	2396.655279
953.696828	2399.264076
953.997496	2397.454302
954.298126	2395.498334
954.598718	2398.926319
954.899272	2396.390619
955.199788	2394.623694
955.500266	2399.306926
955.800706	2394.152346
956.101108	2391.299053
956.401472	2390.802500
956.701798	2390.414331
957.002087	2392.007335
957.302337	2393.965824
957.602550	2392.982799
957.902724	2393.985988
958.202861	2395.342059
958.502960	2395.026987
958.803022	2395.604199
959.103045	2392.939949
959.403031	2393.791904
959.702979	2393.766698
960.002889	2394.351472
960.302762	2393.570093
960.602596	2395.848695
960.902393	2392.937428
961.202153	2391.689743
961.501875	2391.533467
961.801559	2392.145967
962.101205	2391.828374
962.400814	2391.593961
962.700385	2394.374157
962.999918	2392.622356
963.299414	2394.096894
963.598873	2394.772408
963.898293	2391.808210
964.197677	2391.611605
964.497022	2392.004815
964.796331	2394.275855
965.095601	2389.574979
965.394835	2394.326266
965.694030	2391.863662
965.993189	2393.237377
966.292309	2392.322408
966.591393	2392.219064
966.890439	2389.789228
967.189447	2393.938097
967.488419	2390.124464
967.787353	2394.225443
968.086249	2393.469270
968.385108	2390.948693
968.683930	2396.476318
968.982714	2392.375340
969.281462	2392.854249
969.580172	2391.631769
969.878844	2392.735782
970.177480	2392.834085
970.476078	2393.744013
970.774639	2393.121430
971.073162	2389.668240
971.371649	2390.174876
971.670098	2390.263096
971.968510	2389.302756
972.266885	2387.997098
972.565223	2394.177552
972.863524	2390.205123
973.161788	2393.703684
973.460014	2393.045813
973.758204	2391.662016
974.056356	2393.749054
974.354471	2393.771739
974.652550	2390.258055
974.950591	2392.040103
975.248595	2392.191338
975.546563	2393.539846
975.844493	2390.933570
976.142386	2393.711245
976.440243	2391.409959
976.738062	2394.038920
977.035845	2394.064126
977.333590	2392.473642
977.631299	2393.353323
977.928971	2392.743344
978.226606	2394.129661
978.524204	2393.043293
978.821765	2394.250649
979.119290	2394.051523
979.416777	2392.264434
979.714228	2391.972047
980.011642	2396.602347
980.309020	2395.541184
980.606360	2392.718138
980.903664	2393.786863
981.200931	2391.193189
981.498162	2395.495814
981.795356	2394.888355
982.092513	2394.734600
982.389633	2393.502037
982.686717	2396.788870
982.983764	2395.483211
983.280775	2397.169477
983.577749	2397.315670
983.874686	2397.441699
984.171587	2395.435320
984.468451	2396.045300
984.765279	2395.266441
985.062070	2396.113355
985.358824	2394.588406
985.655543	2393.965824
985.952224	2395.820968
986.248869	2391.916595
986.545478	2388.332334
986.842050	2390.817623
987.138586	2388.024824
987.435086	2392.060267
987.731549	2387.785369
988.027975	2391.876265
988.324366	2390.326111
988.620719	2390.033724
988.917037	2391.354506
989.213318	2393.731410
989.509563	2391.495658
989.805772	2392.589589
990.101944	2390.507592
990.398080	2393.577655
990.694180	2392.299722
990.990244	2390.474825
991.286271	2392.851729
991.582262	2392.892058
991.878217	2388.307128
992.174136	2393.645710
992.470019	2389.627911
992.765865	2392.829043
993.061676	2393.169321
993.357450	2392.317366
993.653188	2388.297046
993.948890	2394.167470
994.244556	2389.978271
994.540186	2392.093035
994.835780	2391.740154
995.131337	2392.763508
995.426859	2394.086811
995.722345	2395.730228
996.017795	2394.336348
996.313208	2392.617315
996.608586	2394.585886
996.903928	2396.166287
997.199234	2392.055226
997.494504	2392.256872
997.789738	2392.778632
998.084936	2397.156874
998.380099	2393.252500
998.675225	2396.511606
998.970316	2392.156049
999.265371	2393.575134
999.560390	2393.108828
999.855373	2391.909033
1000.150320	2390.177397
1000.445232	2390.842829
1000.740108	2390.878117
1001.034948	2392.526574
1001.329752	2391.495658
1001.624521	2391.475494
1001.919254	2386.635986
1002.213951	2389.544732
1002.508613	2385.428630
1002.803239	2390.628580
1003.097829	2386.194885
1003.392384	2392.410628
1003.686903	2387.941645
1003.981386	2393.721328
1004.275834	2392.455998
1004.570246	2391.639331
1004.864623	2391.178066
1005.158964	2391.510782
1005.453270	2391.967006
1005.747540	2391.619167
1006.041775	2392.708056
1006.335974	2391.145298
1006.630138	2392.461039
1006.924266	2392.715618
1007.218359	2393.365926
1007.512416	2391.674619
1007.806438	2392.040103
1008.100425	2390.255534
1008.394376	2389.867366
1008.688292	2392.718138
1008.982172	2389.171686
1009.276017	2389.073384
1009.569827	2389.595143
1009.863602	2393.131513
1010.157341	2389.688405
1010.451045	2391.528426
1010.744714	2389.335524
1011.038347	2391.072201
1011.331945	2393.053375
1011.625508	2390.507592
1011.919036	2392.324928
1012.212528	2389.998436
1012.505986	2392.720659
1012.799408	2388.342417
1013.092795	2389.915257
1013.386147	2390.694115
1013.679464	2390.437016
1013.972745	2388.841491
1014.265992	2389.320400
1014.559204	2390.898282
1014.852380	2391.052037
1015.145521	2389.771584
1015.438628	2391.790566
1015.731699	2391.722510
1016.024736	2392.312325
1016.317737	2391.152860
1016.610703	2392.768550
1016.903635	2387.054402
1017.196531	2384.591798
1017.489393	2390.316028
1017.782219	2384.942158
1018.075011	2391.475494
1018.367768	2389.181769
1018.660490	2391.447767
1018.953177	2391.447767
1019.245829	2391.447767
