Dividing Wavelength (nm)	Counts (n)	Blue Motor Position (mm): 0.000000	Red Motor Position (mm): 11.400000	
326.493990	1983.154635
326.888308	1983.154635
327.282561	1983.154635
327.676750	1956.144133
328.070874	1956.766715
328.464933	1965.225771
328.858929	1974.209107
329.252859	1984.916518
329.646726	2000.271873
330.040528	2014.974398
330.434265	2032.953673
330.827938	2052.253731
331.221547	2073.517318
331.615091	2094.062540
332.008571	2113.894439
332.401986	2133.721298
332.795338	2155.564617
333.188625	2175.618327
333.581847	2194.850329
333.975006	2211.632330
334.368100	2227.650597
334.761129	2244.238513
335.154095	2261.854825
335.546996	2275.075251
335.939833	2293.513272
336.332606	2305.682617
336.725315	2315.011272
337.117960	2325.058292
337.510540	2330.865701
337.903056	2337.477174
338.295508	2346.062259
338.687896	2352.467045
339.080220	2362.067923
339.472480	2363.547501
339.864676	2369.513707
340.256807	2371.237782
340.648875	2374.411188
341.040879	2375.656353
341.432818	2375.502598
341.824694	2378.481920
342.216506	2378.320603
342.608253	2380.004348
342.999937	2375.116949
343.391557	2372.089737
343.783113	2373.831455
344.174605	2371.774664
344.566033	2370.126207
344.957397	2369.871629
345.348697	2364.160002
345.739934	2364.016329
346.131106	2363.497090
346.522215	2361.606657
346.913260	2360.406862
347.304241	2358.342510
347.695159	2354.128105
348.086012	2355.834536
348.476802	2353.777745
348.867528	2352.570389
349.258191	2351.007631
349.648789	2350.732888
350.039324	2349.636437
350.429796	2351.277333
350.820203	2350.158197
351.210548	2348.451766
351.600828	2346.105109
351.991045	2347.272136
352.381198	2346.246261
352.771288	2350.221211
353.161314	2345.933710
353.551276	2348.252641
353.941175	2347.209122
354.331010	2347.766169
354.720782	2348.171982
355.110490	2347.551920
355.500135	2347.851869
355.889717	2346.221056
356.279235	2348.963443
356.668689	2351.017713
357.058080	2348.373628
357.447408	2347.463700
357.836672	2348.978567
358.225873	2348.068638
358.615010	2349.248268
359.004084	2352.426716
359.393095	2353.487879
359.782043	2354.657427
360.170927	2352.111644
360.559748	2355.456449
360.948505	2355.506861
361.337199	2357.498117
361.725830	2356.494927
362.114398	2358.735720
362.502903	2358.314784
362.891344	2359.207068
363.279722	2360.036338
363.668037	2360.313601
364.056289	2361.266379
364.444478	2360.313601
364.832603	2362.022552
365.220665	2362.002388
365.608665	2365.742924
365.996601	2364.369209
366.384474	2362.892151
366.772284	2366.365506
367.160031	2363.262676
367.547715	2365.954652
367.935336	2365.233767
368.322893	2365.294261
368.710388	2368.069416
369.097820	2371.199973
369.485189	2369.380116
369.872495	2374.542258
370.259738	2375.517721
370.646918	2374.910262
371.034035	2374.665766
371.421090	2379.807743
371.808081	2382.625748
372.195010	2386.086500
372.581875	2390.794938
372.968678	2394.734600
373.355418	2402.266083
373.742096	2411.894687
374.128710	2424.744588
374.515262	2433.559046
374.901751	2447.699483
375.288177	2464.975517
375.674540	2484.615852
376.060841	2505.188801
376.447079	2526.694363
376.833254	2550.128167
377.219367	2573.481312
377.605417	2609.727208
377.991404	2636.470529
378.377329	2674.775737
378.763191	2706.361086
379.148991	2755.288005
379.534727	2800.832309
379.920402	2844.667663
380.306013	2892.596433
380.691563	2952.510546
381.077049	3009.127745
381.462474	3063.539439
381.847835	3135.373361
382.233134	3201.967003
382.618371	3258.334665
383.003545	3345.433201
383.388657	3425.451436
383.773706	3512.068541
384.158693	3585.006475
384.543618	3675.974097
384.928480	3752.529059
385.313280	3854.257023
385.698017	3953.655974
386.082692	4071.513110
386.467305	4136.546515
386.851856	4258.013117
387.236344	4410.853340
387.620770	4473.603102
388.005133	4589.479064
388.389435	4731.710179
388.773674	4816.099094
389.157851	4940.164411
389.541965	5070.505964
389.926018	5084.570784
390.310008	5258.840952
390.693936	5373.622983
391.077802	5480.233305
391.461606	5607.275423
391.845348	5711.788625
392.229027	5814.822248
392.612645	6018.615933
392.996200	6120.598475
393.379694	6272.286794
393.763125	6468.468337
394.146494	6534.847731
394.529801	6641.896633
394.913047	6841.218815
395.296230	6804.592311
395.679351	6826.407905
396.062410	7028.548092
396.445408	6895.885087
396.828343	6989.133830
397.211217	7062.374234
397.594028	6910.728764
397.976778	7033.811056
398.359466	7120.407997
398.742092	7041.367746
399.124656	7102.085923
399.507158	7189.323091
399.889598	7139.181254
400.271977	7235.366469
400.654294	7189.711259
401.036549	7260.993175
401.418742	7192.735952
401.800874	7334.183167
402.182944	7303.709392
402.564952	7477.631720
402.946898	7243.787717
403.328783	7192.171342
403.710606	7220.941208
404.092367	7288.283461
404.474067	7411.494302
404.855705	7163.159502
405.237282	7018.130547
405.618797	7164.230747
406.000250	7185.975764
406.381642	7270.808301
406.762972	7110.159331
407.144240	6875.511264
407.525447	6880.360854
407.906593	6719.744651
408.287677	6716.334310
408.668700	6657.738459
409.049661	6514.552045
409.430560	6454.776564
409.811399	6308.739378
410.192176	6242.307052
410.572891	6138.560106
410.953545	6186.685482
411.334138	5853.694585
411.714669	5937.962513
412.095139	5569.497016
412.475547	5607.293067
412.855894	5426.502167
413.236180	5402.987705
413.616405	5185.227503
413.996568	5139.355523
414.376670	5012.953632
414.756711	4862.933934
415.136691	4811.781346
415.516609	4741.512703
415.896466	4644.621726
416.276262	4586.565277
416.655997	4562.498809
417.035670	4461.123726
417.415283	4469.771825
417.794834	4372.154922
418.174324	4225.137232
418.553753	4106.687761
418.933121	4073.494283
419.312428	3950.724543
419.691674	3846.511290
420.070859	3807.880928
420.449983	3685.179243
420.829045	3656.036333
421.208047	3550.086403
421.586988	3515.403264
421.965867	3458.362608
422.344686	3385.142369
422.723444	3356.501054
423.102141	3205.183259
423.480777	3217.193808
423.859352	3130.480921
424.237866	3129.417238
424.616319	3062.629511
424.994712	3039.238557
425.373044	2987.029847
425.751314	2959.817699
426.129524	2888.308932
426.507673	2882.380535
426.885762	2836.223730
427.263789	2803.957825
427.641756	2778.384051
428.019662	2746.307189
428.397508	2721.925649
428.775292	2701.249356
429.153016	2675.592404
429.530679	2660.463901
429.908282	2637.743421
430.285824	2617.609052
430.663305	2608.507249
431.040726	2586.595874
431.418086	2569.902093
431.795385	2568.046948
432.172624	2558.723334
432.549802	2547.453835
432.926920	2541.091899
433.303977	2529.542615
433.680974	2525.124044
434.057910	2520.055164
434.434786	2515.497961
434.811601	2507.374141
435.188355	2510.686179
435.565050	2504.346928
435.941683	2498.867194
436.318257	2496.518016
436.694770	2490.216574
437.071222	2489.856132
437.447614	2479.327682
437.823946	2480.303145
438.200218	2479.942702
438.576429	2475.448514
438.952580	2476.741570
439.328670	2475.327526
439.704700	2474.992289
440.080670	2471.118163
440.456580	2468.310240
440.832429	2472.141517
441.208218	2462.896041
441.583947	2464.239508
441.959616	2463.669858
442.335224	2462.885958
442.710773	2460.924950
443.086261	2461.116513
443.461689	2459.430247
443.837057	2459.175669
444.212365	2459.808334
444.587612	2460.937552
444.962800	2454.507561
445.337927	2458.069136
445.712995	2455.944290
446.088002	2459.662141
446.462949	2459.435289
446.837837	2457.953189
447.212664	2457.534774
447.587431	2465.963583
447.962139	2473.177474
448.336786	2481.495378
448.711374	2475.312403
449.085901	2466.487863
449.460369	2463.329580
449.834776	2460.720783
450.209124	2469.502473
450.583412	2467.755713
450.957640	2470.157823
451.331808	2463.654734
451.705917	2460.685495
452.079965	2459.276492
452.453954	2458.744651
452.827883	2462.961576
453.201752	2459.740278
453.575562	2461.035855
453.949311	2461.955866
454.323001	2463.846298
454.696632	2464.347893
455.070202	2467.833851
455.443713	2466.394602
455.817164	2465.547688
456.190556	2464.000053
456.563888	2466.445013
456.937160	2464.355455
457.310373	2464.267235
457.683526	2466.089612
458.056619	2467.838892
458.429653	2462.084415
458.802628	2465.552729
459.175542	2466.102215
459.548398	2469.651187
459.921194	2473.530355
460.293930	2477.956488
460.666607	2480.086375
461.039224	2484.182313
461.411782	2486.372694
461.784280	2483.113588
462.156719	2481.974287
462.529099	2479.226859
462.901419	2474.228555
463.273680	2472.741414
463.645882	2471.463482
464.018024	2470.987093
464.390106	2475.572022
464.762130	2480.938330
465.134094	2492.611122
465.505999	2507.101919
465.877845	2517.680780
466.249631	2520.723117
466.621358	2514.774555
466.993026	2512.075017
467.364634	2505.405571
467.736184	2499.313336
468.107674	2494.945176
468.479105	2494.778818
468.850477	2494.156236
469.221790	2489.709938
469.593043	2479.640233
469.964238	2480.073772
470.335373	2479.824235
470.706449	2483.859679
471.077467	2489.455360
471.448425	2503.247957
471.819324	2510.998731
472.190164	2501.556650
472.560945	2495.620691
472.931667	2488.220277
473.302330	2486.108034
473.672934	2481.056798
474.043479	2484.227683
474.413965	2478.894142
474.784393	2475.272073
475.154761	2480.323310
475.525070	2473.802577
475.895321	2479.925058
476.265513	2476.930613
476.635645	2486.513847
477.005719	2482.717858
477.375734	2485.624083
477.745691	2489.094917
478.115588	2494.516678
478.485427	2495.330825
478.855207	2502.282576
479.224928	2510.363545
479.594591	2514.106602
479.964194	2512.120387
480.333739	2510.693741
480.703226	2509.340191
481.072653	2515.099709
481.442022	2515.765142
481.811333	2513.065604
482.180584	2513.216838
482.549777	2510.066117
482.918912	2509.625016
483.287988	2508.122753
483.657005	2505.791219
484.025964	2504.616630
484.394864	2505.302227
484.763706	2505.521517
485.132489	2499.454488
485.501213	2499.865343
485.869879	2501.576814
486.238487	2501.438183
486.607036	2500.066989
486.975527	2497.392657
487.343959	2499.315857
487.712333	2502.774088
488.080648	2500.066989
488.448905	2499.683861
488.817104	2500.107318
489.185244	2502.171670
489.553326	2506.557474
489.921350	2512.248937
490.289315	2519.787983
490.657222	2522.999197
491.025070	2524.955165
491.392861	2521.945596
491.760593	2517.451408
492.128267	2514.076355
492.495883	2509.035201
492.863440	2506.302896
493.230939	2501.627226
493.598380	2499.880466
493.965763	2492.928715
494.333088	2495.595485
494.700354	2490.909733
495.067563	2493.521050
495.434713	2491.181955
495.801805	2496.878459
496.168839	2491.275216
496.535815	2493.490803
496.902733	2494.312512
497.269593	2492.832933
497.636395	2494.496514
498.003139	2494.430979
498.369825	2494.355361
498.736453	2500.364417
499.103023	2493.765546
499.469535	2497.584220
499.835989	2497.984992
500.202385	2497.029693
500.568723	2496.828047
500.935003	2498.433655
501.301226	2500.329129
501.667390	2502.847185
502.033497	2504.692247
502.399546	2503.353821
502.765537	2498.917606
503.131470	2505.435817
503.497345	2508.495798
503.863163	2508.493277
504.228923	2509.998062
504.594625	2514.053670
504.960269	2510.660973
505.325856	2514.467045
505.691385	2515.165244
506.056856	2516.153311
506.422270	2521.827129
506.787625	2520.466018
507.152924	2524.216636
507.518164	2522.580782
507.883347	2527.004394
508.248472	2529.330887
508.613540	2531.717873
508.978550	2536.149047
509.343503	2538.727597
509.708398	2540.091230
510.073236	2544.958464
510.438016	2549.140101
510.802738	2547.055584
511.167403	2551.456511
511.532010	2553.762839
511.896561	2559.562686
512.261053	2562.383212
512.625488	2561.054868
512.989866	2559.832388
513.354186	2562.708366
513.718449	2561.085115
514.082655	2569.886969
514.446803	2571.522824
514.810894	2572.417629
515.174927	2578.406519
515.538904	2574.746642
515.902822	2580.128073
516.266684	2578.068762
516.630488	2581.123701
516.994235	2582.361305
517.357925	2586.379104
517.721558	2586.293405
518.085133	2587.425144
518.448651	2589.124012
518.812112	2588.161152
519.175516	2585.481779
519.538863	2590.689291
519.902152	2591.974785
520.265385	2591.755495
520.628560	2590.711976
520.991678	2588.997984
521.354739	2586.532859
521.717743	2590.916143
522.080690	2590.661564
522.443580	2587.052098
522.806413	2591.137953
523.169189	2586.873137
523.531908	2588.902202
523.894569	2585.746439
524.257174	2582.416757
524.619722	2585.622931
524.982213	2583.283836
525.344647	2582.504977
525.707025	2579.167734
526.069345	2579.354256
526.431608	2576.178329
526.793815	2573.950139
527.155964	2569.564336
527.518057	2569.156002
527.880093	2564.180383
528.242072	2563.802297
528.603995	2561.790876
528.965860	2556.890875
529.327669	2553.107489
529.689421	2549.712272
530.051117	2549.492982
530.412755	2545.696993
530.774337	2542.722712
531.135862	2543.204142
531.497331	2537.742052
531.858743	2530.424817
532.220098	2530.069416
532.581396	2527.344672
532.942638	2522.858045
533.303824	2522.605987
533.664953	2520.523991
534.026025	2518.144566
534.387040	2515.298835
534.747999	2511.437311
535.108902	2509.466220
535.469748	2509.763648
535.830537	2505.987824
536.191270	2502.151506
536.551947	2501.687720
536.912567	2498.163953
537.273131	2497.556494
537.633638	2492.865700
537.994089	2491.199599
538.354483	2489.175576
538.714821	2486.627272
539.075103	2487.544763
539.435328	2486.498723
539.795497	2484.026037
540.155609	2482.160810
540.515665	2482.770790
540.875665	2478.705099
541.235609	2475.647639
541.595496	2475.695530
541.955328	2472.035653
542.315102	2475.637557
542.674821	2470.692185
543.034483	2471.498770
543.394090	2470.044397
543.753640	2468.869808
544.113134	2470.004068
544.472571	2468.587503
544.831953	2468.572380
545.191278	2463.926957
545.550548	2466.213120
545.909761	2464.078191
546.268918	2466.755044
546.628019	2467.077678
546.987064	2463.858901
547.346053	2462.427213
547.704986	2462.432255
548.063863	2461.807152
548.422684	2459.258848
548.781449	2461.688684
549.140158	2460.481328
549.498811	2461.270269
549.857408	2458.883282
550.215949	2459.059723
550.574434	2455.311625
550.932864	2457.731379
551.291237	2452.927159
551.649555	2458.013683
552.007817	2457.665844
552.366022	2459.407562
552.724173	2456.327417
553.082267	2459.435289
553.440305	2455.636779
553.798288	2456.385391
554.156215	2458.021245
554.514086	2458.815227
554.871902	2457.086111
555.229661	2459.606688
555.587365	2455.644341
555.945014	2458.747171
556.302606	2457.504527
556.660143	2456.526543
557.017625	2453.625359
557.375050	2458.046451
557.732421	2454.817592
558.089735	2454.386573
558.446994	2454.169803
558.804197	2458.265741
559.161345	2456.052674
559.518437	2457.396142
559.875474	2456.251800
560.232455	2452.609566
560.589381	2454.575616
560.946251	2459.256328
561.303065	2456.418158
561.659825	2456.173662
562.016528	2453.330451
562.373177	2455.724999
562.729770	2454.905812
563.086307	2455.079732
563.442789	2453.322890
563.799216	2456.178703
564.155587	2452.939762
564.511904	2454.099227
564.868164	2455.999742
565.224370	2453.506892
565.580520	2457.668364
565.936615	2453.242231
566.292654	2457.068467
566.648638	2454.845318
567.004567	2452.181068
567.360441	2453.751388
567.716260	2454.000925
568.072023	2453.297684
568.427732	2448.743001
568.783385	2452.400358
569.138982	2450.431788
569.494525	2450.424226
569.850013	2448.188474
570.205445	2454.913374
570.560823	2452.281891
570.916145	2452.980091
571.271412	2452.049998
571.626625	2452.700307
571.981782	2448.858948
572.336884	2450.434308
572.691931	2452.549073
573.046923	2453.421192
573.401860	2450.373815
573.756743	2450.827518
574.111570	2449.776438
574.466342	2454.704166
574.821059	2450.094031
575.175722	2450.449432
575.530330	2448.526232
575.884882	2449.383228
576.239380	2449.030347
576.593823	2450.890533
576.948211	2451.223249
577.302544	2447.679318
577.656823	2449.100923
578.011047	2452.924638
578.365216	2448.415326
578.719330	2448.017075
579.073389	2449.834411
579.427394	2452.188630
579.781344	2449.468927
580.135239	2447.986828
580.489080	2448.165789
580.842866	2446.885336
581.196597	2449.022785
581.550273	2448.022116
581.903895	2447.858279
582.257463	2447.762497
582.610975	2443.515325
582.964434	2445.365428
583.317837	2448.047322
583.671186	2448.160748
584.024481	2446.514811
584.377721	2447.878443
584.730906	2444.551282
585.084037	2444.354677
585.437113	2446.658484
585.790135	2444.952054
586.143103	2441.582042
586.496016	2446.603032
586.848874	2439.116918
587.201679	2442.053390
587.554428	2439.444593
587.907124	2443.999276
588.259765	2440.236054
588.612352	2443.051539
588.964884	2443.132197
589.317362	2445.259564
589.669786	2444.122784
590.022155	2444.510953
590.374470	2444.082455
590.726731	2443.434666
591.078937	2443.419543
591.431090	2444.367280
591.783188	2443.840479
592.135232	2440.278904
592.487222	2442.691096
592.839157	2442.673452
593.191038	2444.722681
593.542866	2441.564398
593.894639	2442.549944
594.246358	2442.832248
594.598022	2441.211518
594.949633	2441.327464
595.301190	2441.360232
595.652692	2440.127669
596.004141	2438.822011
596.355535	2438.358224
596.706876	2439.298400
597.058162	2437.440734
597.409395	2440.601538
597.760573	2438.040632
598.111698	2437.400405
598.462768	2440.989707
598.813785	2436.155240
599.164748	2439.426949
599.515657	2442.028184
599.866511	2437.685230
600.217312	2439.920982
600.568060	2439.079109
600.918753	2442.103802
601.269392	2436.326639
601.619978	2440.999789
601.970510	2438.602720
602.320988	2435.895621
602.671412	2437.844027
603.021783	2437.478543
603.372100	2438.910231
603.722363	2439.278235
604.072572	2438.373348
604.422728	2440.682196
604.772830	2433.743048
605.122878	2435.956115
605.472872	2434.234561
605.822813	2433.490990
606.172701	2437.861671
606.522534	2436.117432
606.872314	2435.653645
607.222041	2438.028029
607.571714	2436.896290
607.921333	2438.169181
608.270899	2437.140786
608.620411	2437.289500
608.969870	2437.342432
609.319276	2436.268666
609.668627	2437.965014
610.017926	2436.533327
610.367171	2439.167330
610.716362	2439.610951
611.065500	2436.233378
611.414585	2438.716146
611.763616	2436.185487
612.112594	2437.869233
612.461518	2439.878132
612.810389	2438.564912
613.159207	2440.508277
613.507971	2436.092226
613.856682	2438.406115
614.205340	2437.324788
614.553945	2437.932247
614.902496	2437.569284
615.250994	2440.107505
615.599439	2436.475353
615.947830	2439.379058
616.296169	2437.604572
616.644454	2440.205807
616.992686	2437.851588
617.340864	2439.615992
617.688990	2437.763368
618.037063	2440.599017
618.385082	2437.370158
618.733048	2440.062134
619.080961	2437.813780
619.428821	2439.119439
619.776628	2437.682710
620.124382	2438.171702
620.472083	2435.920827
620.819731	2440.021805
621.167326	2438.204469
621.514868	2439.043821
621.862357	2435.893100
622.209793	2434.993254
622.557176	2437.055086
622.904506	2433.939653
623.251783	2431.454364
623.599007	2432.659200
623.946179	2431.653490
624.293297	2436.576177
624.640363	2433.243974
624.987376	2433.712801
625.334336	2433.155754
625.681243	2437.135745
626.028097	2438.338060
626.374899	2434.000147
626.721647	2433.306988
627.068343	2435.436876
627.414987	2435.083995
627.761577	2435.482246
628.108115	2434.466454
628.454600	2433.274221
628.801032	2433.594334
629.147412	2434.501742
629.493739	2433.944694
629.840014	2429.619384
630.186236	2431.754313
630.532405	2433.538881
630.878521	2432.306319
631.224585	2431.550146
631.570597	2428.931267
631.916556	2432.639035
632.262462	2433.143151
632.608316	2434.194231
632.954117	2433.261618
633.299866	2434.831937
633.645562	2430.010074
633.991206	2430.998140
634.336797	2430.292378
634.682336	2431.492173
635.027823	2429.009405
635.373257	2427.146698
635.718639	2430.347831
636.063968	2433.874118
636.409245	2428.250711
636.754470	2430.587286
637.099642	2427.668458
637.444762	2428.911102
637.789829	2428.364137
638.134845	2428.391863
638.479808	2427.688622
638.824719	2428.366657
639.169577	2428.958993
639.514383	2428.540577
639.859137	2428.520413
640.203839	2428.908582
640.548489	2426.889599
640.893086	2427.124013
641.237632	2425.112593
641.582125	2426.267017
641.926566	2423.869948
642.270955	2428.011256
642.615292	2425.246183
642.959576	2429.659713
643.303809	2427.764240
643.647990	2424.074115
643.992118	2427.829775
644.336195	2423.940524
644.680219	2425.525967
645.024192	2428.958993
645.368112	2427.471853
645.711981	2426.289702
646.055797	2425.079825
646.399562	2428.553180
646.743274	2429.571493
647.086935	2429.594178
647.430544	2428.512851
647.774101	2427.986050
648.117606	2428.850608
648.461059	2430.052923
648.804460	2428.822882
649.147810	2427.489497
649.491108	2425.135278
649.834354	2428.434713
650.177548	2426.924887
650.520690	2428.492686
650.863781	2424.981523
651.206820	2429.516041
651.549807	2426.367840
651.892742	2426.340114
652.235626	2423.358271
652.578458	2429.548808
652.921238	2424.878179
653.263967	2427.484456
653.606644	2422.458425
653.949269	2424.242994
654.291843	2423.423806
654.634365	2425.901533
654.976836	2423.716193
655.319255	2425.241142
655.661622	2424.011101
656.003938	2426.849270
656.346203	2423.161666
656.688416	2422.375246
657.030577	2423.300298
657.372687	2424.553025
657.714746	2423.116296
658.056753	2421.593867
658.398708	2418.871644
658.740612	2422.924732
659.082465	2417.321489
659.424266	2420.441964
659.766016	2419.317786
660.107715	2423.670823
660.449362	2421.861048
660.790958	2422.302149
661.132503	2423.355751
661.473996	2423.605288
661.815438	2426.259455
662.156829	2422.970102
662.498168	2422.891964
662.839456	2425.588982
663.180693	2425.132757
663.521879	2423.229722
663.863013	2426.093097
664.204097	2422.846594
664.545129	2423.086049
664.886110	2427.048396
665.227040	2423.605288
665.567918	2423.799372
665.908746	2420.222673
666.249522	2422.919691
666.590248	2422.806265
666.930922	2421.782911
667.271545	2423.486821
667.612118	2424.474887
667.952639	2426.264496
668.293109	2423.857345
668.633528	2427.474373
668.973896	2426.493869
669.314213	2423.499423
669.654480	2425.785587
669.994695	2422.281985
670.334859	2421.825760
670.674973	2423.701070
671.015035	2424.255597
671.355047	2423.635535
671.695008	2425.241142
672.034918	2421.218301
672.374777	2420.643610
672.714585	2423.411203
673.054342	2421.944228
673.394049	2422.667633
673.733705	2423.413724
674.073310	2424.734506
674.412864	2424.479928
674.752368	2424.051430
675.091820	2422.057653
675.431223	2422.914650
675.770574	2422.690318
676.109875	2416.129257
676.449125	2419.766449
676.788324	2418.221335
677.127473	2421.004052
677.466571	2416.388876
677.805619	2422.213929
678.144616	2423.189392
678.483562	2422.246697
678.822458	2421.719896
679.161303	2422.649989
679.500098	2423.159146
679.838842	2421.107396
680.177535	2420.111768
680.516179	2420.807447
680.854771	2419.897519
681.193314	2422.750812
681.531805	2422.695359
681.870247	2422.841553
682.208638	2422.559248
682.546978	2423.227201
682.885268	2423.017993
683.223508	2419.718558
683.561697	2420.867941
683.899836	2423.990936
684.237925	2420.174782
684.575963	2424.674012
684.913951	2420.499937
685.251889	2423.353230
685.589776	2422.942376
685.927614	2422.440781
686.265401	2420.555390
686.603137	2423.438930
686.940824	2423.902716
687.278460	2421.566141
687.616046	2420.976326
687.953582	2424.616039
688.291068	2422.012283
688.628504	2424.278282
688.965889	2421.631676
689.303224	2425.334403
689.640510	2421.815678
689.977745	2425.251224
690.314930	2421.387180
690.652065	2420.255441
690.989150	2422.249217
691.326185	2420.968764
691.663170	2421.586306
692.000105	2416.351067
692.336990	2419.448856
692.673825	2420.482293
693.010610	2421.419948
693.347345	2415.262178
693.684030	2412.837383
694.020665	2414.316962
694.357251	2412.111457
694.693786	2417.810481
695.030272	2416.681263
695.366707	2414.987435
695.703093	2418.823753
696.039429	2415.216808
696.375716	2418.221335
696.711952	2415.907446
697.048139	2413.162537
697.384276	2417.041705
697.720363	2413.749832
698.056400	2414.871489
698.392388	2415.027764
698.728326	2415.458783
699.064214	2413.558268
699.400053	2415.529359
699.735842	2416.565316
700.071581	2415.302507
700.407270	2416.131777
700.742910	2415.365522
701.078501	2415.572209
701.414042	2414.727816
701.749533	2413.341498
702.084974	2414.690007
702.420366	2410.493247
702.755709	2413.580953
703.091002	2412.907959
703.426246	2411.337640
703.761440	2413.162538
704.096584	2413.308731
704.431679	2413.409554
704.766725	2414.500964
705.101721	2413.946437
705.436668	2411.188926
705.771565	2412.804616
706.106413	2414.294277
706.441212	2412.335788
706.775961	2411.670356
707.110661	2413.903587
707.445311	2413.855696
707.779913	2412.970974
708.114465	2414.203536
708.448967	2413.137332
708.783421	2412.199677
709.117825	2415.274781
709.452180	2419.365677
709.786485	2414.818557
710.120742	2415.516756
710.454949	2415.703279
710.789107	2414.861406
711.123216	2410.331930
711.457275	2415.753691
711.791286	2414.687487
712.125247	2415.501633
712.459159	2415.834349
712.793023	2416.620769
713.126837	2418.128074
713.460602	2417.686973
713.794318	2416.741757
714.127985	2415.393248
714.461602	2415.199164
714.795171	2415.410892
715.128691	2414.596746
715.462162	2416.782086
715.795584	2413.349060
716.128957	2414.601787
716.462281	2412.013154
716.795556	2412.325706
717.128782	2413.354101
717.461960	2412.459297
717.795088	2411.312434
718.128167	2413.066756
718.461198	2409.522824
718.794180	2413.986766
719.127113	2411.297311
719.459997	2411.897208
719.792833	2410.573905
720.125619	2412.098854
720.458357	2409.802608
720.791046	2410.919224
721.123686	2411.158679
721.456278	2410.500808
721.788821	2410.097516
722.121315	2411.340160
722.453761	2408.325550
722.786158	2410.820922
723.118506	2409.913514
723.450805	2410.432753
723.783056	2409.096847
724.115259	2411.849317
724.447412	2408.549882
724.779518	2408.887639
725.111574	2411.672877
725.443582	2410.649522
725.775542	2412.083731
726.107453	2411.448545
726.439315	2410.336971
726.771129	2415.413413
727.102895	2410.392423
727.434612	2413.502815
727.766281	2408.847310
728.097901	2409.311096
728.429473	2410.934347
728.760996	2410.042063
729.092471	2407.740777
729.423897	2411.057856
729.755276	2412.119019
730.086606	2411.806467
730.417887	2410.886457
730.749120	2413.296128
731.080305	2412.726478
731.411442	2414.445511
731.742530	2411.957702
732.073570	2416.953485
732.404562	2412.131622
732.735506	2415.607497
733.066401	2415.317631
733.397249	2413.444842
733.728048	2415.937693
734.058798	2411.357804
734.389501	2410.193298
734.720156	2413.114647
735.050762	2411.700603
735.381320	2408.035684
735.711831	2409.200191
736.042293	2408.628020
736.372707	2409.694224
736.703073	2407.768503
737.033391	2410.513411
737.363661	2408.892680
737.693883	2411.214132
738.024056	2410.284039
738.354182	2411.473751
738.684260	2412.570202
739.014290	2411.751014
739.344272	2413.228073
739.674207	2409.419481
740.004093	2411.829152
740.333931	2410.924265
740.663722	2412.073648
740.993464	2411.035171
741.323159	2412.371076
741.652806	2409.071641
741.982405	2410.679769
742.311956	2412.292938
742.641460	2409.827814
742.970915	2410.455438
743.300323	2406.140210
743.629683	2410.089954
743.958996	2411.032650
744.288260	2405.547875
744.617477	2409.424522
744.946647	2404.300189
745.275768	2409.976528
745.604842	2404.927813
745.933869	2407.014850
746.262847	2404.171640
746.591778	2408.466703
746.920662	2407.387896
747.249498	2409.200191
747.578286	2407.045097
747.907027	2411.186405
748.235720	2410.621796
748.564365	2407.907135
748.892963	2406.039387
749.221514	2409.900911
749.550017	2409.779923
749.878473	2407.644995
750.206881	2410.647002
750.535242	2408.010478
750.863555	2406.288924
751.191821	2407.244223
751.520039	2409.265726
751.848210	2407.080385
752.176334	2406.936713
752.504411	2407.405540
752.832440	2408.214645
753.160421	2405.691547
753.488356	2408.141548
753.816243	2409.338822
754.144082	2406.026784
754.471875	2409.089285
754.799620	2408.224727
755.127318	2409.916034
755.454969	2407.881929
755.782572	2408.602814
756.110129	2407.095509
756.437638	2407.599624
756.765100	2409.149779
757.092515	2408.832186
757.419882	2407.735735
757.747203	2408.905283
758.074477	2406.223389
758.401703	2409.999213
758.728882	2406.672052
759.056014	2407.730694
759.383099	2408.401168
759.710138	2410.715057
760.037129	2408.285221
760.364073	2410.604152
760.690970	2408.678431
761.017820	2410.145407
761.344623	2406.866136
761.671379	2409.278328
761.998088	2403.803635
762.324751	2408.343194
762.651366	2411.534245
762.977935	2419.053126
763.304456	2415.617579
763.630931	2420.762077
763.957359	2419.423651
764.283740	2417.991963
764.610074	2415.907446
764.936362	2413.197826
765.262602	2412.517270
765.588796	2409.777403
765.914943	2410.911662
766.241044	2406.228430
766.567097	2408.819583
766.893104	2405.668862
767.219064	2404.373286
767.544978	2404.317833
767.870845	2406.974521
768.196665	2404.615261
768.522438	2405.827659
768.848165	2406.157854
769.173846	2402.956722
769.499479	2404.832031
769.825066	2405.293296
770.150607	2406.082237
770.476101	2403.944788
770.801548	2406.488050
771.126949	2403.443193
771.452303	2404.736249
771.777611	2406.117525
772.102872	2402.669376
772.428087	2404.222051
772.753256	2402.195507
773.078378	2405.217679
773.403453	2401.456978
773.728482	2402.750034
774.053465	2405.265570
774.378401	2403.561660
774.703291	2403.455796
775.028135	2399.190980
775.352932	2407.206414
775.677683	2405.046280
776.002388	2405.532751
776.327046	2402.014026
776.651658	2401.764489
776.976224	2402.616444
777.300743	2402.850857
777.625216	2400.042935
777.949643	2405.285735
778.274024	2405.066444
778.598359	2401.595610
778.922647	2398.674261
779.246889	2402.802966
779.571086	2397.769374
779.895236	2403.854047
780.219339	2404.350601
780.543397	2404.320354
780.867409	2401.272976
781.191374	2402.792884
781.515294	2402.470250
781.839167	2402.886145
782.162995	2401.499828
782.486776	2402.860940
782.810511	2403.357493
783.134201	2404.247257
783.457844	2400.930178
783.781441	2399.685013
784.104993	2401.391443
784.428498	2403.571742
784.751958	2401.492266
785.075372	2401.391443
785.398739	2405.333626
785.722061	2403.168450
786.045337	2401.915723
786.368568	2403.274314
786.691752	2403.324726
787.014891	2404.138872
787.337983	2402.583676
787.661030	2404.839593
787.984031	2400.547050
788.306987	2402.845816
788.629897	2405.043759
788.952760	2407.614748
789.275579	2403.140724
789.598351	2406.735066
789.921078	2404.017884
790.243759	2404.141393
790.566395	2403.254150
790.888984	2402.293810
791.211529	2404.501835
791.534027	2402.074520
791.856480	2400.665517
792.178888	2403.072668
792.501249	2402.853378
792.823566	2403.291958
793.145836	2402.437483
793.468062	2400.917575
793.790241	2403.425549
794.112375	2404.932854
794.434464	2405.149623
794.756507	2402.802966
795.078505	2405.802453
795.400457	2400.804149
795.722364	2397.010681
796.044226	2399.715260
796.366042	2399.748027
796.687812	2401.033521
797.009538	2403.518810
797.331218	2402.934036
797.652852	2402.036711
797.974442	2403.385220
798.295986	2404.033008
798.617484	2402.714746
798.938938	2401.323388
799.260346	2398.875907
799.581709	2401.557801
799.903026	2403.239026
800.224299	2404.055693
800.545526	2402.250960
800.866708	2403.700292
801.187845	2401.525034
801.508936	2399.904303
801.829983	2401.063768
802.150984	2398.543191
802.471940	2399.306926
802.792851	2401.182235
803.113717	2402.117369
803.434538	2401.774571
803.755314	2400.783984
804.076045	2402.601320
804.396731	2400.718449
804.717372	2401.313305
805.037967	2400.347924
805.358518	2398.772564
805.679024	2401.310785
805.999485	2401.555281
806.319901	2401.464540
806.640272	2399.995044
806.960598	2401.509910
807.280879	2402.192987
807.601115	2400.594941
807.921306	2403.216341
808.241453	2402.422359
808.561554	2401.991341
808.881611	2402.084602
809.201623	2400.957904
809.521590	2400.983110
809.841513	2402.147616
810.161390	2401.716598
810.481223	2398.795249
810.801011	2402.755075
811.120755	2403.864129
811.440453	2403.332287
811.760107	2400.678120
812.079716	2400.804149
812.399281	2395.778118
812.718801	2398.044117
813.038276	2394.933725
813.357707	2399.332132
813.677093	2399.967317
813.996434	2402.180384
814.315731	2400.569735
814.634983	2401.464540
814.954191	2401.759448
815.273354	2399.899262
815.592473	2402.976886
815.911547	2403.665004
816.230577	2402.878584
816.549562	2401.691392
816.868502	2402.092164
817.187399	2402.288769
817.506250	2401.787174
817.825058	2400.892369
818.143821	2403.788512
818.462539	2402.361865
818.781213	2405.835220
819.099843	2401.192318
819.418429	2404.713564
819.736970	2406.049469
820.055466	2407.269429
820.373919	2409.757238
820.692327	2414.931983
821.010691	2417.276119
821.329011	2433.443099
821.647286	2452.909515
821.965517	2473.449696
822.283704	2485.253558
822.601847	2490.919815
822.919945	2483.272385
823.237999	2469.338635
823.556010	2458.313632
823.873976	2450.555296
824.191897	2440.951898
824.509775	2430.920002
824.827609	2430.340269
825.145398	2424.570669
825.463144	2423.297777
825.780845	2422.584454
826.098502	2426.952614
826.416116	2428.482604
826.733685	2434.773964
827.051210	2435.600713
827.368692	2435.222627
827.686129	2427.890268
828.003522	2422.496234
828.320872	2414.175809
828.638177	2417.397107
828.955439	2408.360838
829.272656	2407.299676
829.589830	2402.200548
829.906960	2407.531569
830.224046	2407.574418
830.541088	2405.931002
830.858086	2403.032339
831.175041	2402.906310
831.491952	2402.840775
831.808819	2403.894376
832.125642	2401.966135
832.442421	2403.254150
832.759157	2409.255643
833.075849	2413.933834
833.392497	2416.479617
833.709101	2418.705286
834.025662	2415.738567
834.342179	2419.627817
834.658653	2412.058525
834.975083	2409.326219
835.291469	2417.177817
835.607811	2406.488050
835.924110	2407.438307
836.240366	2405.971332
836.556578	2404.446382
836.872746	2399.954714
837.188871	2400.231978
837.504952	2400.093346
837.820990	2399.788356
838.136984	2400.773902
838.452935	2399.690054
838.768842	2399.276679
839.084706	2398.633932
839.400526	2401.489746
839.716303	2402.893707
840.032037	2405.482340
840.347727	2405.615930
840.663373	2405.293296
840.978977	2401.767009
841.294537	2400.131155
841.610054	2399.874056
841.925527	2400.209293
842.240957	2399.901782
842.556344	2398.611247
842.871687	2396.420866
843.186987	2400.557132
843.502244	2400.703326
843.817458	2394.757285
844.132629	2396.441030
844.447756	2397.025804
844.762840	2392.582027
845.077881	2393.925494
845.392879	2393.207130
845.707833	2393.895248
846.022745	2392.529095
846.337613	2394.729558
846.652438	2396.062944
846.967221	2396.884652
847.281960	2396.551936
847.596656	2396.493962
847.911309	2396.887172
848.225919	2396.932543
848.540485	2399.211144
848.855009	2395.702501
849.169490	2395.916750
849.483928	2394.606050
849.798323	2395.614281
850.112675	2397.623181
850.426984	2397.093860
850.741251	2395.107645
851.055474	2395.473129
851.369654	2395.578993
851.683792	2396.924981
851.997887	2397.759292
852.311938	2398.195352
852.625947	2394.227964
852.939914	2393.736451
853.253837	2398.606206
853.567718	2395.500855
853.881555	2393.907850
854.195350	2396.037738
854.509103	2396.683006
854.822812	2398.175187
855.136479	2397.913047
855.450103	2397.638304
855.763685	2396.574621
856.077224	2396.516648
856.390720	2397.716442
856.704173	2394.787532
857.017584	2398.034035
857.330953	2396.108314
857.644278	2396.062944
857.957561	2401.018398
858.270802	2396.582182
858.584000	2396.083108
858.897155	2398.759961
859.210268	2394.825340
859.523339	2397.633263
859.836367	2394.860628
860.149352	2397.640825
860.462295	2397.857594
860.775195	2393.348282
861.088054	2394.822820
861.400869	2392.856770
861.713642	2389.489279
862.026373	2396.120917
862.339062	2394.848026
862.651708	2394.061606
862.964312	2395.813407
863.276873	2395.266441
863.589392	2395.483211
863.901869	2398.318860
864.214303	2395.672254
864.526696	2394.613612
864.839045	2398.016391
865.151353	2395.465567
865.463619	2396.756102
865.775842	2396.136040
866.088023	2394.898437
866.400162	2396.904816
866.712258	2396.123438
867.024313	2397.459343
867.336325	2397.091339
867.648296	2395.803324
867.960224	2398.157543
868.272110	2393.418858
868.583954	2396.718294
868.895755	2396.788870
869.207515	2396.801473
869.519233	2397.673592
869.830909	2396.015053
870.142542	2395.067316
870.454134	2397.245094
870.765684	2398.586041
871.077191	2399.117883
871.388657	2398.850702
871.700081	2399.664848
872.011463	2398.001267
872.322803	2397.658469
872.634101	2398.656617
872.945357	2395.135371
873.256571	2400.877246
873.567744	2398.674261
873.878874	2399.407749
874.189963	2395.657131
874.501010	2397.474467
874.812015	2397.681154
875.122979	2398.270969
875.433900	2397.197203
875.744780	2397.353479
876.055618	2399.206103
876.366415	2398.094529
876.677169	2396.975393
876.987882	2397.769374
877.298554	2391.437685
877.609183	2397.088818
877.919771	2393.098745
878.230317	2394.101935
878.540822	2399.604354
878.851285	2398.719632
879.161707	2401.078892
879.472087	2400.577297
879.782425	2405.620971
880.092722	2407.743297
880.402977	2417.513053
880.713191	2426.193920
881.023363	2435.509972
881.333494	2442.237392
881.643583	2441.801333
881.953631	2440.646908
882.263637	2438.764037
882.573602	2434.005188
882.883526	2430.635177
883.193408	2427.345824
883.503248	2421.850966
883.813048	2420.585637
884.122806	2416.308217
884.432522	2415.224369
884.742197	2411.473751
885.051831	2410.284039
885.361424	2409.747156
885.670975	2404.106105
885.980485	2403.390261
886.289954	2404.559808
886.599382	2402.523182
886.908768	2401.832544
887.218113	2395.261400
887.527417	2400.627708
887.836680	2399.558984
888.145901	2399.959756
888.455082	2399.443037
888.764221	2400.017729
889.073319	2398.999416
889.382376	2401.068809
889.691392	2397.381205
890.000366	2398.722152
890.309300	2399.140568
890.618193	2399.793398
890.927044	2399.122924
891.235855	2397.328273
891.544625	2398.023953
891.853353	2400.637791
892.162041	2397.010681
892.470687	2398.028994
892.779293	2396.768705
893.087858	2395.238715
893.396381	2396.962790
893.704864	2400.007647
894.013306	2399.995044
894.321707	2407.347567
894.630068	2409.948802
894.938387	2411.723288
895.246665	2409.979049
895.554903	2408.108781
895.863100	2408.005437
896.171256	2404.537123
896.479371	2404.075858
896.787446	2403.662483
897.095480	2403.448234
897.403473	2400.473953
897.711425	2401.068809
898.019336	2400.746176
898.327207	2399.780795
898.635038	2401.023439
898.942827	2398.389436
899.250576	2399.367420
899.558284	2398.119734
899.865952	2397.882800
900.173579	2397.756771
900.481165	2398.044117
900.788711	2397.550084
901.096216	2396.161246
901.403681	2397.507234
901.711105	2396.057903
902.018489	2398.333983
902.325832	2399.690054
902.633135	2397.776936
902.940397	2398.028994
903.247619	2401.131824
903.554800	2403.856568
903.861941	2407.186250
904.169041	2415.557086
904.476101	2413.414595
904.783121	2411.511560
905.090100	2412.275294
905.397039	2408.098698
905.703938	2408.237330
906.010796	2407.080385
906.317614	2401.913203
906.624391	2401.986299
906.931129	2399.319529
907.237826	2400.511762
907.544483	2398.510424
907.851099	2397.787018
908.157675	2399.435476
908.464211	2395.732748
908.770707	2391.185627
909.077163	2395.001781
909.383578	2389.295195
909.689954	2396.027656
909.996289	2390.726882
910.302584	2397.754251
910.608839	2393.910371
910.915054	2395.815927
911.221229	2394.719476
911.527363	2395.722666
911.833458	2396.957748
912.139513	2392.992881
912.445527	2392.045144
912.751502	2395.730228
913.057436	2394.961452
913.363331	2395.722666
913.669186	2397.424055
913.975000	2396.695608
914.280775	2397.444220
914.586510	2400.320198
914.892205	2402.550909
915.197859	2403.496125
915.503475	2407.491239
915.809050	2409.905952
916.114585	2410.296642
916.420081	2414.427867
916.725536	2409.348905
917.030952	2411.647671
917.336328	2407.831517
917.641665	2407.637433
917.946961	2408.068452
918.252218	2409.532907
918.557435	2404.990827
918.862612	2402.692061
919.167750	2402.324057
919.472848	2399.692574
919.777906	2403.659962
920.082925	2398.502862
920.387904	2398.233160
920.692843	2401.575445
920.997743	2396.249466
921.302603	2399.193500
921.607423	2397.993706
921.912204	2398.155023
922.216946	2397.943294
922.521647	2399.402708
922.826310	2393.756616
923.130932	2399.629560
923.435516	2399.072512
923.740059	2395.142933
924.044564	2392.680329
924.349028	2395.493293
924.653454	2389.396018
924.957840	2391.919115
925.262186	2391.760319
925.566493	2391.969527
925.870761	2391.614125
926.174989	2394.779970
926.479178	2395.218550
926.783328	2394.719476
927.087438	2395.095042
927.391509	2393.310474
927.695541	2394.880793
927.999533	2391.193189
928.303486	2393.164280
928.607400	2394.447254
928.911275	2393.328118
929.215110	2394.832902
929.518906	2393.355844
929.822663	2393.184445
930.126381	2393.602861
930.430060	2392.052706
930.733699	2393.436502
931.037299	2389.653117
931.340861	2392.975237
931.644383	2394.497665
931.947866	2390.537839
932.251309	2392.655124
932.554714	2390.951214
932.858080	2393.958262
933.161407	2391.122613
933.464694	2392.813920
933.767943	2393.764178
934.071153	2394.076729
934.374323	2393.711245
934.677455	2393.554970
934.980548	2393.746533
935.283602	2394.558159
935.586617	2389.927859
935.889593	2393.686040
936.192530	2391.984650
936.495428	2392.574465
936.798287	2392.960113
937.101108	2394.691750
937.403890	2393.902809
937.706632	2395.039589
938.009336	2394.946328
938.312002	2394.187634
938.614628	2395.619322
938.917216	2394.212840
939.219765	2392.700494
939.522275	2392.972716
939.824747	2395.440361
940.127179	2392.483724
940.429573	2392.181255
940.731929	2393.212171
941.034246	2389.506923
941.336524	2393.653272
941.638763	2392.594630
941.940964	2392.839126
942.243126	2395.210989
942.545250	2394.114538
942.847335	2396.814076
943.149381	2393.862480
943.451389	2390.545401
943.753359	2394.265772
944.055290	2394.943807
944.357182	2391.732593
944.659036	2392.564383
944.960851	2393.774260
945.262628	2391.790566
945.564367	2393.033210
945.866067	2394.285937
946.167729	2394.996740
946.469352	2394.560680
946.770937	2392.773591
947.072484	2393.449105
947.373992	2392.163611
947.675462	2390.235370
947.976893	2394.507748
948.278286	2393.295350
948.579641	2392.234187
948.880958	2393.958262
949.182236	2394.187634
949.483476	2392.498848
949.784678	2391.616646
950.085841	2393.635628
950.386967	2393.703684
950.688054	2392.493807
950.989103	2396.410783
951.290114	2393.940618
951.591087	2391.084804
951.892021	2391.853580
952.192917	2393.917933
952.493776	2391.006666
952.794596	2391.856101
953.095378	2392.546739
953.396122	2394.074208
953.696828	2391.402397
953.997496	2393.406256
954.298126	2392.902140
954.598718	2392.718138
954.899272	2391.263765
955.199788	2393.491955
955.500266	2390.706718
955.800706	2392.274517
956.101108	2387.815616
956.401472	2391.505741
956.701798	2389.544732
957.002087	2390.787376
957.302337	2391.901471
957.602550	2393.340721
957.902724	2391.014228
958.202861	2394.903478
958.502960	2392.849208
958.803022	2391.838457
959.103045	2392.332490
959.403031	2391.399876
959.702979	2389.829557
960.002889	2392.982799
960.302762	2390.384084
960.602596	2392.866852
960.902393	2391.994732
961.202153	2394.099414
961.501875	2395.374826
961.801559	2392.259393
962.101205	2392.279558
962.400814	2391.566234
962.700385	2391.760319
962.999918	2390.628580
963.299414	2390.895761
963.598873	2393.219733
963.898293	2391.525905
964.197677	2391.982130
964.497022	2390.575648
964.796331	2391.641852
965.095601	2391.309136
965.394835	2391.873745
965.694030	2391.568755
965.993189	2392.216543
966.292309	2392.362737
966.591393	2392.093035
966.890439	2391.530946
967.189447	2390.799979
967.488419	2387.873589
967.787353	2388.554145
968.086249	2391.016749
968.385108	2391.137736
968.683930	2390.777294
968.982714	2391.011708
969.281462	2394.658982
969.580172	2388.334855
969.878844	2389.038096
970.177480	2389.000287
970.476078	2391.604043
970.774639	2393.058416
971.073162	2392.151008
971.371649	2387.772766
971.670098	2382.497199
971.968510	2386.988867
972.266885	2384.090203
972.565223	2389.738816
972.863524	2389.567417
973.161788	2390.852911
973.460014	2390.923487
973.758204	2394.321225
974.056356	2387.878630
974.354471	2391.535988
974.652550	2389.713610
974.950591	2392.075391
975.248595	2390.938611
975.546563	2390.646224
975.844493	2392.070350
976.142386	2389.746378
976.440243	2393.139074
976.738062	2392.145967
977.035845	2392.413148
977.333590	2390.668909
977.631299	2389.779145
977.928971	2392.022459
978.226606	2390.621018
978.524204	2391.281409
978.821765	2390.729403
979.119290	2390.527757
979.416777	2388.128168
979.714228	2390.084135
980.011642	2389.945503
980.309020	2392.813920
980.606360	2388.780997
980.903664	2391.031872
981.200931	2389.804351
981.498162	2392.942469
981.795356	2392.423231
982.092513	2392.365257
982.389633	2392.526574
982.686717	2393.370968
982.983764	2391.868704
983.280775	2394.583365
983.577749	2394.195196
983.874686	2392.798797
984.171587	2394.832902
984.468451	2394.560680
984.765279	2392.070350
985.062070	2391.911553
985.358824	2391.329300
985.655543	2393.824671
985.952224	2393.224774
986.248869	2391.069681
986.545478	2386.676315
986.842050	2388.612118
987.138586	2386.434340
987.435086	2389.922818
987.731549	2385.156407
988.027975	2390.205123
988.324366	2390.736965
988.620719	2389.844680
988.917037	2390.724362
989.213318	2389.779145
989.509563	2388.990205
989.805772	2388.952396
990.101944	2389.685884
990.398080	2390.386604
990.694180	2391.167983
990.990244	2391.082284
991.286271	2387.094731
991.582262	2391.949362
991.878217	2389.441388
992.174136	2393.570093
992.470019	2391.324259
992.765865	2391.263765
993.061676	2389.527088
993.357450	2388.080277
993.653188	2389.877448
993.948890	2392.082953
994.244556	2387.361912
994.540186	2390.363919
994.835780	2386.469628
995.131337	2391.135216
995.426859	2387.722355
995.722345	2394.084291
996.017795	2388.249155
996.313208	2390.774773
996.608586	2390.542880
996.903928	2391.029352
997.199234	2391.294012
997.494504	2390.847870
997.789738	2390.051368
998.084936	2391.528426
998.380099	2390.542880
998.675225	2389.101110
998.970316	2389.864845
999.265371	2391.011708
999.560390	2389.895092
999.855373	2393.819630
1000.150320	2390.454660
1000.445232	2390.298384
1000.740108	2390.991543
1001.034948	2390.810061
1001.329752	2390.865514
1001.624521	2390.986502
1001.919254	2385.862169
1002.213951	2389.948024
1002.508613	2387.074566
1002.803239	2389.660678
1003.097829	2390.074053
1003.392384	2387.316542
1003.686903	2387.979453
1003.981386	2390.699156
1004.275834	2390.590771
1004.570246	2390.043806
1004.864623	2390.845349
1005.158964	2387.775287
1005.453270	2388.307128
1005.747540	2389.522047
1006.041775	2389.519526
1006.335974	2388.823847
1006.630138	2388.647406
1006.924266	2389.043137
1007.218359	2385.594988
1007.512416	2389.907695
1007.806438	2387.760163
1008.100425	2388.201264
1008.394376	2390.013559
1008.688292	2391.271327
1008.982172	2389.199413
1009.276017	2389.085987
1009.569827	2388.629762
1009.863602	2390.832747
1010.157341	2387.482900
1010.451045	2387.651778
1010.744714	2390.789897
1011.038347	2388.682694
1011.331945	2389.300236
1011.625508	2388.314690
1011.919036	2387.820657
1012.212528	2388.556666
1012.505986	2390.353837
1012.799408	2389.217057
1013.092795	2385.370656
1013.386147	2388.919629
1013.679464	2388.168497
1013.972745	2389.375853
1014.265992	2388.289484
1014.559204	2389.627911
1014.852380	2389.280071
1015.145521	2389.302756
1015.438628	2388.624721
1015.731699	2389.925339
1016.024736	2389.330483
1016.317737	2389.612787
1016.610703	2388.982643
1016.903635	2385.353012
1017.196531	2387.079608
1017.489393	2388.412993
1017.782219	2383.518032
1018.075011	2389.204454
1018.367768	2388.428116
1018.660490	2390.149670
1018.953177	2390.149670
1019.245829	2390.149670
