Dividing Wavelength (nm)	Counts (n)	Blue Motor Position (mm): 0.000000	Red Motor Position (mm): 44.400000	
326.493990	1996.140647
326.888308	1996.140647
327.282561	1996.140647
327.676750	1973.543675
328.070874	1973.873871
328.464933	1979.277988
328.858929	1990.136633
329.252859	2003.402429
329.646726	2015.216373
330.040528	2031.799249
330.434265	2053.768598
330.827938	2070.442214
331.221547	2089.827971
331.615091	2112.455190
332.008571	2131.364558
332.401986	2154.649648
332.795338	2172.172698
333.188625	2192.508713
333.581847	2212.106199
333.975006	2228.908364
334.368100	2247.535428
334.761129	2264.771133
335.154095	2279.871909
335.546996	2317.567137
335.939833	2387.147663
336.332606	2405.147103
336.725315	2412.633216
337.117960	2423.133940
337.510540	2427.524785
337.903056	2440.253698
338.295508	2446.391303
338.687896	2454.575616
339.080220	2460.889662
339.472480	2466.939046
339.864676	2471.551702
340.256807	2473.177474
340.648875	2474.904069
341.040879	2475.380458
341.432818	2477.454893
341.824694	2480.610655
342.216506	2478.188381
342.608253	2479.166365
342.999937	2476.892804
343.391557	2478.190902
343.783113	2472.527165
344.174605	2475.650160
344.566033	2471.529017
344.957397	2471.957515
345.348697	2467.221351
345.739934	2469.688996
346.131106	2468.975672
346.522215	2464.640280
346.913260	2465.056175
347.304241	2461.902933
347.695159	2459.359671
348.086012	2458.238015
348.476802	2459.223560
348.867528	2454.943621
349.258191	2455.067129
349.648789	2456.980247
350.039324	2447.936417
350.429796	2454.144598
350.820203	2453.675770
351.210548	2450.406582
351.600828	2454.409258
351.991045	2454.086624
352.381198	2450.469597
352.771288	2450.668722
353.161314	2447.729729
353.551276	2451.074535
353.941175	2449.486572
354.331010	2448.932045
354.720782	2452.649896
355.110490	2455.929166
355.500135	2454.326079
355.889717	2452.082766
356.279235	2455.276337
356.668689	2451.813064
357.058080	2454.983950
357.447408	2453.832046
357.836672	2452.299535
358.225873	2452.622169
358.615010	2451.099741
359.004084	2457.839763
359.393095	2457.086111
359.782043	2460.617439
360.170927	2460.645166
360.559748	2461.108952
360.948505	2462.948973
361.337199	2462.780094
361.725830	2464.206741
362.114398	2466.989458
362.502903	2468.569859
362.891344	2466.886114
363.279722	2465.877883
363.668037	2468.723615
364.056289	2468.718573
364.444478	2470.833338
364.832603	2473.127062
365.220665	2471.221506
365.608665	2473.923565
365.996601	2472.275107
366.384474	2475.420788
366.772284	2477.623772
367.160031	2477.102012
367.547715	2477.601087
367.935336	2475.556899
368.322893	2478.372383
368.710388	2479.075624
369.097820	2484.774648
369.485189	2484.545276
369.872495	2486.753301
370.259738	2488.936121
370.646918	2491.068529
371.034035	2492.611122
371.421090	2496.185300
371.808081	2496.986844
372.195010	2500.777791
372.581875	2508.757938
372.968678	2515.858403
373.355418	2521.602798
373.742096	2535.365148
374.128710	2545.979297
374.515262	2560.618808
374.901751	2573.216652
375.288177	2590.759867
375.674540	2610.115377
376.060841	2629.841412
376.447079	2655.342089
376.833254	2681.672035
377.219367	2708.513659
377.605417	2742.501118
377.991404	2772.001951
378.377329	2811.738846
378.763191	2847.382324
379.148991	2895.200189
379.534727	2944.553085
379.920402	2994.707525
380.306013	3046.303734
380.691563	3107.694906
381.077049	3166.293278
381.462474	3224.773183
381.847835	3307.359886
382.233134	3376.201883
382.618371	3438.021553
383.003545	3526.476159
383.388657	3610.703757
383.773706	3705.026266
384.158693	3780.666259
384.543618	3879.760220
384.928480	3960.088486
385.313280	4067.880958
385.698017	4174.191331
386.082692	4297.510557
386.467305	4364.184858
386.851856	4494.775948
387.236344	4658.973891
387.620770	4722.137028
388.005133	4842.890307
388.389435	4998.563658
388.773674	5083.912913
389.157851	5219.257812
389.541965	5352.414849
389.926018	5380.052975
390.310008	5561.809257
390.693936	5689.511766
391.077802	5811.878214
391.461606	5948.659841
391.845348	6068.598973
392.229027	6195.124373
392.612645	6419.102838
392.996200	6541.935593
393.379694	6716.601492
393.763125	6950.848787
394.146494	7053.161525
394.529801	7192.922474
394.913047	7441.090917
395.296230	7437.715864
395.679351	7502.111563
396.062410	7772.667770
396.445408	7664.935791
396.828343	7822.824730
397.211217	7968.408212
397.594028	7843.611928
397.976778	8053.432313
398.359466	8224.503868
398.742092	8196.225516
399.124656	8347.727312
399.507158	8536.518524
399.889598	8562.840909
400.271977	8781.969784
400.654294	8811.757962
401.036549	9011.675000
401.418742	9045.601966
401.800874	9361.095017
402.182944	9436.102345
402.564952	9814.846754
402.946898	9628.777766
403.328783	9693.019710
403.710606	9886.221931
404.092367	10151.633640
404.474067	10529.301763
404.855705	10315.632457
405.237282	10265.472976
405.618797	10705.447240
406.000250	10965.908536
406.381642	11330.971253
406.762972	11286.629264
407.144240	11076.125803
407.525447	11343.183448
407.906593	11275.410176
408.287677	11542.440095
408.668700	11709.030065
409.049661	11675.738285
409.430560	11836.548572
409.811399	11812.083853
410.192176	11977.915129
410.572891	12055.690051
410.953545	12565.514542
411.334138	12017.392405
411.714669	12652.741627
412.095139	11922.694330
412.475547	12443.349740
412.855894	12283.572890
413.236180	12626.789767
413.616405	12296.195939
413.996568	12593.984458
414.376670	12553.745968
414.756711	12428.995055
415.136691	12722.513717
415.516609	12911.960278
415.896466	12982.813696
416.276262	13283.200930
416.655997	13727.190473
417.035670	13754.642076
417.415283	14427.026135
417.794834	14520.118602
418.174324	14265.847843
418.553753	14159.935722
418.933121	14670.975131
419.312428	14462.283965
419.691674	14379.341860
420.070859	14842.192880
420.449983	14492.135157
420.829045	15056.756991
421.208047	14793.381908
421.586988	15261.243835
421.965867	15525.445667
422.344686	15526.388363
422.723444	16103.983606
423.102141	14759.954017
423.480777	15971.247504
423.859352	15475.167719
424.237866	16618.498891
424.616319	16307.764688
424.994712	16995.549472
425.373044	16763.240500
425.751314	17462.740925
426.129524	16563.351188
426.507673	17704.917956
426.885762	17375.667595
427.263789	17591.081140
427.641756	17746.835150
428.019662	17818.512796
428.397508	17861.508797
428.775292	18180.818003
429.153016	18147.004463
429.530679	18217.714208
429.908282	18241.153052
430.285824	17957.424311
430.663305	18682.523716
431.040726	18278.422303
431.418086	18087.894414
431.795385	18755.534747
432.172624	19174.550413
432.549802	18730.142455
432.926920	18920.700591
433.303977	18799.975038
433.680974	19060.668227
434.057910	19350.945428
434.434786	19383.080263
434.811601	19293.927457
435.188355	20360.461691
435.565050	20003.006075
435.941683	19947.744946
436.318257	20857.234635
436.694770	20656.289202
437.071222	21257.729102
437.447614	20313.682304
437.823946	20344.435863
438.200218	20498.246508
438.576429	20266.877711
438.952580	20545.837521
439.328670	20511.749238
439.704700	20937.973755
440.080670	20492.981023
440.456580	21094.912436
440.832429	21278.291969
441.208218	20243.189329
441.583947	20696.016014
441.959616	20806.951646
442.335224	21059.760470
442.710773	21184.677742
443.086261	21741.185838
443.461689	21089.334399
443.837057	21209.707071
444.212365	21870.945138
444.587612	21877.430583
444.962800	21435.369282
445.337927	21873.173328
445.712995	20574.607386
446.088002	22481.814518
446.462949	22663.230521
446.837837	22854.290252
447.212664	22823.579542
447.587431	25732.950415
447.962139	28723.332629
448.336786	31122.566459
448.711374	29537.010148
449.085901	25776.059842
449.460369	25722.913478
449.834776	25655.172973
450.209124	28189.882771
450.583412	27691.254682
450.957640	28237.299864
451.331808	26867.814969
451.705917	25467.291689
452.079965	25510.905232
452.453954	25869.603493
452.827883	25752.293322
453.201752	25556.053806
453.575562	25717.370729
453.949311	26889.073514
454.323001	26940.185773
454.696632	26688.556579
455.070202	28286.642677
455.443713	28410.718077
455.817164	29031.455514
456.190556	29557.252902
456.563888	28991.794236
456.937160	29435.740929
457.310373	27728.344971
457.683526	28204.653351
458.056619	28187.815897
458.429653	28106.265152
458.802628	28714.535816
459.175542	28836.839249
459.548398	30143.649999
459.921194	31753.474424
460.293930	32423.378236
460.666607	34489.394316
461.039224	36262.385768
461.411782	36672.453387
461.784280	35462.173171
462.156719	34978.696270
462.529099	34422.427629
462.901419	33118.946561
463.273680	32032.403987
463.645882	32123.444705
464.018024	32108.215379
464.390106	32951.333237
464.762130	35703.888936
465.134094	39811.529475
465.505999	45150.113919
465.877845	49764.430748
466.249631	50940.630243
466.621358	49265.119583
466.993026	47163.588573
467.364634	45084.349546
467.736184	43089.350720
468.107674	41825.520848
468.479105	41002.628100
468.850477	40313.847688
469.221790	38864.964620
469.593043	37082.261386
469.964238	36195.784564
470.335373	36110.722655
470.706449	37876.681697
471.077467	40501.968426
471.448425	45099.946876
471.819324	47915.824509
472.190164	46036.436985
472.560945	42461.540544
472.931667	39303.602978
473.302330	38195.489307
473.672934	37362.587348
474.043479	37882.741164
474.413965	37065.953253
474.784393	36685.386467
475.154761	37605.606252
475.525070	37623.580486
475.895321	37155.726121
476.265513	37747.106399
476.635645	38759.143239
477.005719	38563.657375
477.375734	39053.458404
477.745691	39766.660685
478.115588	41116.069185
478.485427	43113.049184
478.855207	46522.857920
479.224928	49120.882089
479.594591	50766.435692
479.964194	49778.372059
480.333739	49956.783535
480.703226	49992.686632
481.072653	50615.201077
481.442022	51089.117429
481.811333	51360.850745
482.180584	50075.820301
482.549777	49555.106917
482.918912	49027.976144
483.287988	48733.592924
483.657005	47889.091270
484.025964	47246.167715
484.394864	47277.811037
484.763706	46849.592744
485.132489	45978.688047
485.501213	45805.448795
485.869879	45958.720037
486.238487	45531.973761
486.607036	45740.944711
486.975527	45182.079875
487.343959	45390.569395
487.712333	45480.460730
488.080648	45386.967491
488.448905	45854.574839
488.817104	45657.117884
489.185244	46626.057901
489.553326	48322.358279
489.921350	51031.217257
490.289315	53857.613257
490.657222	54443.455828
491.025070	54714.894237
491.392861	53848.052709
491.760593	52624.201708
492.128267	50989.458859
492.495883	49491.742134
492.863440	48085.577803
493.230939	46707.800210
493.598380	45620.473737
493.965763	45286.081400
494.333088	44469.361544
494.700354	43974.970546
495.067563	43655.101772
495.434713	43530.902865
495.801805	43598.935757
496.168839	43215.457704
496.535815	42872.994479
496.902733	42892.526430
497.269593	42480.840601
497.636395	42412.676639
498.003139	42824.191069
498.369825	42275.620269
498.736453	42589.454781
499.103023	42111.692028
499.469535	41982.661175
499.835989	42078.559045
500.202385	41737.666139
500.568723	41746.790628
500.935003	41924.955087
501.301226	41721.108470
501.667390	42363.245605
502.033497	42638.631237
502.399546	42038.423898
502.765537	41343.279030
503.131470	41738.591191
503.497345	42092.795263
503.863163	40758.656418
504.228923	41389.007337
504.594625	41802.455049
504.960269	41090.845772
505.325856	41784.874025
505.691385	41132.407565
506.056856	41280.110852
506.422270	41712.709907
506.787625	41296.789509
507.152924	41484.080978
507.518164	41591.134921
507.883347	40778.422783
508.248472	41067.313666
508.613540	41537.308000
508.978550	41864.408309
509.343503	41584.470515
509.708398	41806.392190
510.073236	42331.204032
510.438016	42335.967922
510.802738	41785.191617
511.167403	42422.849688
511.532010	42646.157680
511.896561	42957.204434
512.261053	43829.576107
512.625488	43358.692008
512.989866	43237.046446
513.354186	43061.450454
513.718449	43057.455340
514.082655	43748.453859
514.446803	43401.481322
514.810894	43935.631902
515.174927	43846.867265
515.538904	43745.139301
515.902822	44442.348522
516.266684	43862.000808
516.630488	44316.438143
516.994235	44172.671997
517.357925	44735.335342
517.721558	44912.151292
518.085133	45208.795470
518.448651	45362.371701
518.812112	45133.594058
519.175516	45229.542339
519.538863	45573.228043
519.902152	45518.695362
520.265385	45995.157497
520.628560	46028.272836
520.991678	45813.862481
521.354739	46077.361072
521.717743	46379.555560
522.080690	46281.182484
522.443580	46814.473546
522.806413	46867.554376
523.169189	46811.529512
523.531908	47001.638986
523.894569	46850.729525
524.257174	47023.136986
524.619722	47324.119077
524.982213	47315.125658
525.344647	47217.886842
525.707025	47262.143131
526.069345	47663.489553
526.431608	47578.770443
526.793815	47917.901465
527.155964	47428.513811
527.518057	47603.706510
527.880093	47379.362561
528.242072	47905.172551
528.603995	47593.503215
528.965860	47585.540712
529.327669	47680.193417
529.689421	47588.693954
530.051117	47546.605360
530.412755	47683.306329
530.774337	47760.985469
531.135862	47545.145946
531.497331	47751.228316
531.858743	47644.834764
532.220098	47989.425355
532.581396	47710.344558
532.942638	47377.958600
533.303824	47665.233793
533.664953	47624.395405
534.026025	47335.058380
534.387040	47816.410435
534.747999	47758.096888
535.108902	47912.923325
535.469748	47423.714633
535.830537	47543.457160
536.191270	47734.441273
536.551947	47384.930515
536.912567	47714.868993
537.273131	47816.360023
537.633638	47289.279662
537.994089	47638.220770
538.354483	47232.518791
538.714821	47812.995053
539.075103	48164.638219
539.435328	47916.552956
539.795497	47797.702713
540.155609	47779.851987
540.515665	48251.323380
540.875665	47706.634269
541.235609	48030.052014
541.595496	47999.676542
541.955328	48686.037200
542.315102	48034.783137
542.674821	47807.112027
543.034483	47866.902632
543.394090	47819.054520
543.753640	47788.119479
544.113134	48806.102361
544.472571	47790.100653
544.831953	49057.179549
545.191278	48253.717928
545.550548	47969.729567
545.909761	48442.148697
546.268918	48654.202313
546.628019	48943.317527
546.987064	48507.605559
547.346053	47768.395965
547.704986	48661.015432
548.063863	48204.828818
548.422684	48406.422040
548.781449	48250.330273
549.140158	48646.406169
549.498811	48506.549438
549.857408	47928.974359
550.215949	48756.913302
550.574434	48701.032112
550.932864	48454.408783
551.291237	49183.097489
551.649555	48779.008679
552.007817	49014.959885
552.366022	48646.491868
552.724173	48830.062965
553.082267	49235.427187
553.440305	49541.977232
553.798288	48829.331998
554.156215	49164.316671
554.514086	49385.643489
554.871902	49106.839955
555.229661	49147.801851
555.587365	48950.775914
555.945014	49041.418381
556.302606	48952.626018
556.660143	49196.017967
557.017625	49271.569739
557.375050	49082.130740
557.732421	49415.625752
558.089735	49412.321275
558.446994	49318.157563
558.804197	49812.830866
559.161345	49735.605430
559.518437	48979.820522
559.875474	49281.815885
560.232455	49441.428898
560.589381	49630.031066
560.946251	49326.160394
561.303065	50039.692872
561.659825	49842.104847
562.016528	49493.625005
562.373177	49206.513649
562.729770	49706.364217
563.086307	49211.194360
563.442789	49659.491569
563.799216	49715.161031
564.155587	49506.174957
564.511904	49539.318023
564.868164	49628.972424
565.224370	49888.773328
565.580520	49615.323500
565.936615	49817.214149
566.292654	49536.061438
566.648638	49792.129368
567.004567	49729.324153
567.360441	49771.901738
567.716260	49638.180091
568.072023	49915.786351
568.427732	49909.094219
568.783385	49458.783070
569.138982	49860.000943
569.494525	49808.397171
569.850013	49583.097924
570.205445	49548.450073
570.560823	49512.662922
570.916145	49407.834648
571.271412	49432.672413
571.626625	49195.566783
571.981782	49245.214587
572.336884	48940.048339
572.691931	49260.073388
573.046923	48860.667810
573.401860	48689.329073
573.756743	48700.081854
574.111570	48812.744081
574.466342	48664.025001
574.821059	48785.451274
575.175722	48299.380700
575.530330	48312.948965
575.884882	48020.816620
576.239380	47994.287548
576.593823	47971.032706
576.948211	47908.590453
577.302544	47407.555214
577.656823	47433.834749
578.011047	47665.523659
578.365216	47383.912202
578.719330	47186.422480
579.073389	47023.663787
579.427394	47112.867004
579.781344	47083.391377
580.135239	46742.876559
580.489080	46830.156576
580.842866	46300.757284
581.196597	46753.876356
581.550273	46681.205603
581.903895	46560.023826
582.257463	46975.873648
582.610975	46347.519027
582.964434	46625.064793
583.317837	46271.158149
583.671186	46102.897037
584.024481	46334.613673
584.377721	45873.159053
584.730906	46165.198137
585.084037	46181.675148
585.437113	45898.584113
585.790135	45940.934846
586.143103	45534.075922
586.496016	45642.120452
586.848874	45689.656012
587.201679	45709.923971
587.554428	45182.974680
587.907124	45364.425972
588.259765	45109.285614
588.612352	45378.480708
588.964884	44754.683290
589.317362	45041.958483
589.669786	44980.632847
590.022155	44758.050781
590.374470	45187.352922
590.726731	44704.503645
591.078937	44216.562802
591.431090	44313.395806
591.783188	43962.833968
592.135232	43633.918844
592.487222	43882.520825
592.839157	43979.439528
593.191038	43627.604799
593.542866	43388.583530
593.894639	42783.337558
594.246358	43062.740990
594.598022	43059.597830
594.949633	42639.765497
595.301190	42583.808689
595.652692	42407.738829
596.004141	42750.663320
596.355535	41743.970102
596.706876	41691.471526
597.058162	41526.346011
597.409395	42010.183355
597.760573	42092.056734
598.111698	41643.043682
598.462768	41661.748883
598.813785	41708.689587
599.164748	41135.586012
599.515657	41530.482278
599.866511	41007.762515
600.217312	41617.001081
600.568060	40541.604498
600.918753	41306.884420
601.269392	41255.084043
601.619978	40897.804867
601.970510	41119.368620
602.320988	41303.025417
602.671412	41603.342075
603.021783	41358.888963
603.372100	40998.814467
603.722363	41111.670778
604.072572	41186.415966
604.422728	41192.503160
604.772830	41006.678667
605.122878	41073.526888
605.472872	41027.728005
605.822813	41297.071814
606.172701	41126.211987
606.522534	41360.633202
606.872314	41639.638382
607.222041	41357.076668
607.571714	41751.471339
607.921333	41162.538541
608.270899	41480.302633
608.620411	41816.497183
608.969870	41612.529578
609.319276	41596.549120
609.668627	41635.897846
610.017926	42138.581543
610.367171	42306.409116
610.716362	42384.478945
611.065500	42298.489464
611.414585	42479.461846
611.763616	42771.049746
612.112594	42682.650592
612.461518	42909.852876
612.810389	43183.383363
613.159207	43031.783264
613.507971	43118.836429
613.856682	43593.362761
614.205340	43468.753000
614.553945	44162.584648
614.902496	43591.971403
615.250994	44059.974482
615.599439	44115.338954
615.947830	44315.558461
616.296169	44345.427298
616.644454	44455.468124
616.992686	44614.435870
617.340864	45122.576616
617.688990	44818.552189
618.037063	45416.944712
618.385082	45357.086052
618.733048	45647.862326
619.080961	45663.714234
619.428821	45661.607032
619.776628	45771.781449
620.124382	45574.574031
620.472083	45708.199896
620.819731	45845.006729
621.167326	45508.534916
621.514868	45480.274207
621.862357	45025.340320
622.209793	45055.531790
622.557176	44729.306122
622.904506	44467.302233
623.251783	44135.317047
623.599007	43886.480652
623.946179	43669.789174
624.293297	43606.507570
624.640363	42978.415089
624.987376	42976.960716
625.334336	42691.656614
625.681243	42328.912827
626.028097	42264.333126
626.374899	42123.483287
626.721647	42050.996536
627.068343	41922.139603
627.414987	41662.522700
627.761577	41437.016765
628.108115	41739.556572
628.454600	41175.285099
628.801032	41332.879130
629.147412	41281.585389
629.493739	41264.198450
629.840014	40874.935673
630.186236	41186.995699
630.532405	40796.432305
630.878521	40963.869189
631.224585	40829.832470
631.570597	40524.018433
631.916556	40659.827118
632.262462	40595.048291
632.608316	40588.333474
632.954117	40451.476229
633.299866	40436.662799
633.645562	40344.414725
633.991206	39843.969300
634.336797	39413.926109
634.682336	39404.153833
635.027823	39141.406374
635.373257	38951.193557
635.718639	38700.229795
636.063968	38549.093482
636.409245	37965.269893
636.754470	37994.861466
637.099642	37743.000379
637.444762	37222.448312
637.789829	37364.087091
638.134845	36995.608992
638.479808	36927.452592
638.824719	36815.135684
639.169577	36403.976656
639.514383	36443.761442
639.859137	36119.804293
640.203839	36351.170570
640.548489	35963.415098
640.893086	36016.274117
641.237632	35737.543679
641.582125	35818.222306
641.926566	35759.104694
642.270955	35706.311211
642.615292	35695.021547
642.959576	35627.064272
643.303809	35617.392819
643.647990	35727.113532
643.992118	35680.646697
644.336195	35650.208210
644.680219	35695.238316
645.024192	35965.963401
645.368112	36445.666998
645.711981	36400.518425
646.055797	37222.203816
646.399562	37112.309183
646.743274	38013.609518
647.086935	38403.063858
647.430544	38265.916747
647.774101	38359.510809
648.117606	38574.561391
648.461059	38889.759535
648.804460	38514.004531
649.147810	37889.259376
649.491108	37639.961715
649.834354	37267.770806
650.177548	36440.736750
650.520690	35970.046736
650.863781	35985.820506
651.206820	35818.814641
651.549807	35356.389599
651.892742	34877.850508
652.235626	34659.293804
652.578458	34498.170965
652.921238	33872.334400
653.263967	34178.647511
653.606644	33827.296732
653.949269	33745.488887
654.291843	33331.683253
654.634365	33705.467167
654.976836	33273.213430
655.319255	33237.852257
655.661622	33234.005856
656.003938	32988.065604
656.346203	32812.590601
656.688416	33009.553522
657.030577	32802.566266
657.372687	32638.945536
657.714746	32871.798952
658.056753	32958.809268
658.398708	32404.451223
658.740612	32435.035904
659.082465	32676.292924
659.424266	32456.233956
659.766016	32556.240366
660.107715	32406.969280
660.449362	32513.120856
660.790958	32467.810966
661.132503	32458.948617
661.473996	32457.610191
661.815438	32546.319375
662.156829	32711.432287
662.498168	32468.413383
662.839456	32461.174287
663.180693	32560.447209
663.521879	32688.958823
663.863013	32622.435757
664.204097	32588.755808
664.545129	32997.215298
664.886110	32928.552263
665.227040	32946.879377
665.567918	33019.842517
665.908746	33052.436098
666.249522	33180.741025
666.590248	33152.613907
666.930922	33234.537698
667.271545	33175.878832
667.612118	33220.714854
667.952639	32991.183558
668.293109	33006.680065
668.633528	32904.160640
668.973896	32819.048319
669.314213	32819.502023
669.654480	32547.451114
669.994695	32554.692732
670.334859	32408.811822
670.674973	32286.163069
671.015035	32416.454211
671.355047	32333.179390
671.695008	32251.212749
672.034918	32125.282206
672.374777	32165.961797
672.714585	31973.392240
673.054342	32144.360453
673.394049	31891.990209
673.733705	32130.734214
674.073310	31784.931224
674.412864	31833.832937
674.752368	31435.629674
675.091820	31689.776925
675.431223	31274.776538
675.770574	31014.194254
676.109875	30850.535715
676.449125	30569.405688
676.788324	30468.718723
677.127473	29944.017786
677.466571	29867.946775
677.805619	29530.824652
678.144616	29489.908127
678.483562	29381.114986
678.822458	29044.023111
679.161303	28962.321130
679.500098	28849.505148
679.838842	28695.676859
680.177535	28808.018973
680.516179	29009.105559
680.854771	29176.328193
681.193314	29914.975699
681.531805	30865.593642
681.870247	31477.128453
682.208638	32104.724380
682.546978	32265.459050
682.885268	32346.072141
683.223508	31847.716275
683.561697	31519.506913
683.899836	31325.016677
684.237925	30838.051297
684.575963	30659.483546
684.913951	30205.310872
685.251889	30313.826750
685.589776	30240.755225
685.927614	30182.928149
686.265401	30245.146070
686.603137	30258.719377
686.940824	30651.319397
687.278460	30913.955951
687.616046	30980.519346
687.953582	31460.875773
688.291068	31303.773254
688.628504	31529.306916
688.965889	31456.560545
689.303224	31108.942741
689.640510	30801.991924
689.977745	30156.411680
690.314930	29470.877772
690.652065	28990.087806
690.989150	28343.194341
691.326185	27532.896916
691.663170	26900.557263
692.000105	26224.548614
692.336990	25611.798885
692.673825	25188.059657
693.010610	24714.206319
693.347345	24177.192365
693.684030	23572.183327
694.020665	23310.650786
694.357251	22682.094519
694.693786	22628.771714
695.030272	22374.805945
695.366707	21879.603320
695.703093	21594.800813
696.039429	21558.325544
696.375716	21307.339097
696.711952	21240.442986
697.048139	21068.395967
697.384276	20876.264991
697.720363	20954.047474
698.056400	20759.458936
698.392388	20551.604601
698.728326	20497.376909
699.064214	20307.716098
699.400053	20239.889894
699.735842	19923.839795
700.071581	19656.388939
700.407270	19397.893693
700.742910	19219.136898
701.078501	18972.004413
701.414042	18704.185554
701.749533	18435.446683
702.084974	18116.409700
702.420366	18272.710675
702.755709	17867.785034
703.091002	17596.823015
703.426246	17587.043176
703.761440	17470.998335
704.096584	17228.239051
704.431679	17161.403433
704.766725	17054.031898
705.101721	16972.927294
705.436668	17031.603804
705.771565	16734.125316
706.106413	16996.661046
706.441212	16955.331147
706.775961	17031.351747
707.110661	17059.945171
707.445311	17323.461406
707.779913	17155.054100
708.114465	17313.968913
708.448967	17514.402670
708.783421	18061.869457
709.117825	18253.672758
709.452180	18391.737359
709.786485	18676.580195
710.120742	19280.616290
710.454949	19260.786912
710.789107	19594.602037
711.123216	20132.924171
711.457275	20202.469409
711.791286	20620.905343
712.125247	20672.640184
712.459159	20405.837117
712.793023	20935.841347
713.126837	20045.346726
713.460602	20243.065821
713.794318	19938.857392
714.127985	19627.258632
714.461602	18904.692407
714.795171	18866.170430
715.128691	18020.947891
715.462162	17569.600784
715.795584	17215.124489
716.128957	16981.915671
716.462281	16647.838406
716.795556	16431.961075
717.128782	16020.698703
717.461960	15577.024232
717.795088	15488.985522
718.128167	15165.744216
718.461198	14787.488799
718.794180	14651.755732
719.127113	14367.515313
719.459997	14189.285319
719.792833	13902.042894
720.125619	13856.271737
720.458357	13591.527981
720.791046	13440.590794
721.123686	13299.924958
721.456278	13099.408022
721.788821	13038.331923
722.121315	12818.030979
722.453761	12850.261596
722.786158	12768.312599
723.118506	12754.278027
723.450805	12632.254378
723.783056	12729.067217
724.115259	12637.955923
724.447412	12556.753017
724.779518	12736.260943
725.111574	12721.046741
725.443582	12862.216693
725.775542	12816.150629
726.107453	13156.529337
726.439315	13050.884396
726.771129	13324.762723
727.102895	13577.125405
727.434612	13707.043501
727.766281	13783.913536
728.097901	13954.619608
728.429473	13965.916833
728.760996	13938.379531
729.092471	13989.877438
729.423897	13894.957552
729.755276	13788.838743
730.086606	13844.213297
730.417887	14186.520246
730.749120	14521.116751
731.080305	14631.807886
731.411442	14853.923645
731.742530	14886.512184
732.073570	14943.567963
732.404562	15147.696886
732.735506	15004.757489
733.066401	14787.914777
733.397249	14405.492846
733.728048	13940.537144
734.058798	13333.801512
734.389501	12811.958909
734.720156	12447.826285
735.050762	12051.284082
735.381320	11778.673606
735.711831	11582.136661
736.042293	11305.629373
736.372707	11290.682352
736.703073	11117.916968
737.033391	11224.033257
737.363661	11178.526761
737.693883	11229.248330
738.024056	11331.409833
738.354182	11443.348655
738.684260	11623.252312
739.014290	11763.126687
739.344272	11871.806402
739.674207	12061.484857
740.004093	12126.636729
740.333931	12115.619287
740.663722	12134.707617
740.993464	12123.387706
741.323159	11991.153199
741.652806	11793.855040
741.982405	11637.095320
742.311956	11386.885211
742.641460	11297.800461
742.970915	11072.720503
743.300323	10820.017543
743.629683	10654.965125
743.958996	10452.333426
744.288260	10251.317416
744.617477	10032.163335
744.946647	9965.380649
745.275768	9762.920349
745.604842	9625.443043
745.933869	9497.632149
746.262847	9447.644067
746.591778	9392.692970
746.920662	9304.397160
747.249498	9286.372514
747.578286	9357.084779
747.907027	9432.442468
748.235720	9560.933917
748.564365	9572.667203
748.892963	9493.173248
749.221514	9510.905507
749.550017	9405.542871
749.878473	9374.277635
750.206881	9218.800888
750.535242	9141.779619
750.863555	9077.497346
751.191821	8996.077670
751.520039	9002.439606
751.848210	8926.973533
752.176334	8934.005943
752.504411	8863.709573
752.832440	8747.808405
753.160421	8771.199359
753.488356	8682.517901
753.816243	8613.920400
754.144082	8516.371553
754.471875	8463.966238
754.799620	8414.893126
755.127318	8389.831029
755.454969	8356.357768
755.782572	8317.664391
756.110129	8309.974111
756.437638	8249.742405
756.765100	8231.720280
757.092515	8222.051347
757.419882	8221.940442
757.747203	8218.502375
758.074477	8258.829085
758.401703	8223.180565
758.728882	8311.695665
759.056014	8334.312802
759.383099	8396.399653
759.710138	8449.727499
760.037129	8489.809713
760.364073	8500.875046
760.690970	8482.454669
761.017820	8466.885066
761.344623	8580.313548
761.671379	8754.581195
761.998088	9125.650448
762.324751	10073.523482
762.651366	11817.855974
762.977935	14047.235686
763.304456	15394.599998
763.630931	15674.373954
763.957359	14960.312156
764.283740	13790.101552
764.610074	12617.151081
764.936362	11332.871768
765.262602	10386.165761
765.588796	9469.913364
765.914943	8832.472063
766.241044	8302.409860
766.567097	7895.248467
766.893104	7539.524487
767.219064	7304.992366
767.544978	7056.478604
767.870845	6851.850608
768.196665	6731.939202
768.522438	6602.041270
768.848165	6493.273335
769.173846	6380.737137
769.499479	6298.397451
769.825066	6199.805084
770.150607	6077.083235
770.476101	6027.453076
770.801548	5957.423887
771.126949	5869.685125
771.452303	5806.335465
771.777611	5697.996028
772.102872	5678.544736
772.428087	5603.113951
772.753256	5524.237537
773.078378	5466.972550
773.403453	5377.025762
773.728482	5312.892203
774.053465	5266.057363
774.378401	5210.854208
774.703291	5151.991175
775.028135	5087.638326
775.352932	5059.453235
775.677683	5011.055637
776.002388	4950.639929
776.327046	4945.891162
776.651658	4888.926123
776.976224	4839.832847
777.300743	4823.754087
777.625216	4782.429228
777.949643	4753.230865
778.274024	4753.747583
778.598359	4706.741344
778.922647	4707.147157
779.246889	4677.676572
779.571086	4676.343186
779.895236	4685.888611
780.219339	4676.169267
780.543397	4675.894524
780.867409	4699.469480
781.191374	4691.146535
781.515294	4668.073173
781.839167	4692.908418
782.162995	4669.623328
782.486776	4641.889420
782.810511	4613.437148
783.134201	4569.639603
783.457844	4556.094023
783.781441	4527.896329
784.104993	4497.321731
784.428498	4478.319102
784.751958	4467.962051
785.075372	4447.724339
785.398739	4416.242333
785.722061	4429.379580
786.045337	4425.828087
786.368568	4481.474864
786.691752	4489.666739
787.014891	4626.821412
787.337983	4779.432262
787.661030	5023.086351
787.984031	5252.358028
788.306987	5385.227720
788.629897	5414.796607
788.952760	5363.054204
789.275579	5257.240385
789.598351	5089.508594
789.921078	4941.356644
790.243759	4782.933343
790.566395	4672.842105
790.888984	4564.177513
791.211529	4484.103826
791.534027	4394.414137
791.856480	4316.498063
792.178888	4281.978762
792.501249	4237.871187
792.823566	4180.218031
793.145836	4171.411135
793.468062	4159.637520
793.790241	4137.315291
794.112375	4155.017303
794.434464	4199.709652
794.756507	4216.552147
795.078505	4276.693112
795.400457	4389.831728
795.722364	4521.695710
796.044226	4623.995845
796.366042	4702.410993
796.687812	4676.207075
797.009538	4689.150238
797.331218	4626.801247
797.652852	4588.352367
797.974442	4519.989279
798.295986	4478.581242
798.617484	4411.296961
798.938938	4349.373948
799.260346	4311.179646
799.581709	4235.375815
799.903026	4203.906413
800.224299	4164.754291
800.545526	4105.379581
800.866708	4071.838264
801.187845	4043.136455
801.508936	4002.731607
801.829983	3986.625120
802.150984	3929.455915
802.471940	3914.637443
802.792851	3903.524219
803.113717	3890.699524
803.434538	3876.644787
803.755314	3855.237527
804.076045	3849.961960
804.396731	3832.015452
804.717372	3837.757326
805.037967	3836.696163
805.358518	3850.624872
805.679024	3878.694016
805.999485	3883.828431
806.319901	3892.431160
806.640272	3898.883837
806.960598	3917.924275
807.280879	3914.269439
807.601115	3929.473559
807.921306	3910.014705
808.241453	3903.501534
808.561554	3907.055548
808.881611	3891.001993
809.201623	3884.640057
809.521590	3860.026623
809.841513	3851.499512
810.161390	3854.798947
810.481223	3806.547543
810.801011	3798.910195
811.120755	3783.214562
811.440453	3752.579470
811.760107	3736.036924
812.079716	3723.373546
812.399281	3691.831046
812.718801	3692.269626
813.038276	3668.798014
813.357707	3651.332937
813.677093	3660.860717
813.996434	3628.125985
814.315731	3633.089001
814.634983	3631.193527
814.954191	3632.529433
815.273354	3655.108761
815.592473	3676.921833
815.911547	3711.592369
816.230577	3735.855443
816.549562	3777.850775
816.868502	3795.857776
817.187399	3823.349709
817.506250	3855.250130
817.825058	3864.467880
818.143821	3931.580761
818.462539	4005.531967
818.781213	4110.909727
819.099843	4277.845016
819.418429	4576.699739
819.736970	4861.028378
820.055466	5178.525288
820.373919	5600.371563
820.692327	6277.751405
821.010691	7612.984180
821.329011	10879.591379
821.647286	16260.579488
821.965517	22310.621974
822.283704	25484.282898
822.601847	25969.221734
822.919945	22938.795114
823.237999	19849.777683
823.556010	16921.081547
823.873976	14444.360142
824.191897	12276.036365
824.509775	10724.719571
824.827609	9342.306637
825.145398	8530.138944
825.463144	8122.281871
825.780845	8242.271415
826.098502	8855.595836
826.416116	9993.653961
826.733685	11035.000070
827.051210	11214.437420
827.368692	10490.147121
827.686129	9293.480541
828.003522	8147.079307
828.320872	7127.846219
828.638177	6366.879005
828.955439	5787.317712
829.272656	5293.650119
829.589830	4899.346188
829.906960	4563.902770
830.224046	4313.879184
830.541088	4123.366418
830.858086	3995.527798
831.175041	3902.435330
831.491952	3868.664641
831.808819	3875.409704
832.125642	3975.521979
832.442421	4215.213721
832.759157	4718.963622
833.075849	5524.524883
833.392497	6361.477409
833.709101	6855.762543
834.025662	6722.156843
834.342179	6229.459672
834.658653	5646.170446
834.975083	5152.419673
835.291469	4755.338067
835.607811	4428.351185
835.924110	4192.301676
836.240366	3979.010457
836.556578	3776.189714
836.872746	3617.600056
837.188871	3497.923063
837.504952	3402.042838
837.820990	3329.848473
838.136984	3275.877880
838.452935	3252.217225
838.768842	3263.191817
839.084706	3395.151580
839.400526	3729.566603
839.716303	4128.016882
840.032037	4368.585785
840.347727	4292.933189
840.663373	4024.726161
840.978977	3771.509003
841.294537	3582.526228
841.610054	3435.906789
841.925527	3332.679081
842.240957	3241.005699
842.556344	3158.633245
842.871687	3089.319900
843.186987	3022.721217
843.502244	2970.870429
843.817458	2933.538164
844.132629	2904.556570
844.447756	2882.700648
844.762840	2861.583254
845.077881	2844.034998
845.392879	2828.901454
845.707833	2818.229331
846.022745	2802.619398
846.337613	2798.609161
846.652438	2789.819909
846.967221	2785.613066
847.281960	2778.021088
847.596656	2773.816766
847.911309	2771.659152
848.225919	2759.938469
848.540485	2760.215733
848.855009	2753.858838
849.169490	2751.988570
849.483928	2747.917838
849.798323	2741.744945
850.112675	2739.471385
850.426984	2741.288721
850.741251	2739.569687
851.055474	2734.160529
851.369654	2735.778740
851.683792	2731.148440
851.997887	2730.109962
852.311938	2734.508369
852.625947	2734.825962
852.939914	2729.454612
853.253837	2732.224726
853.567718	2729.661299
853.881555	2726.238356
854.195350	2729.391598
854.509103	2727.014694
854.822812	2728.806824
855.136479	2724.673078
855.450103	2726.180383
855.763685	2722.792727
856.077224	2726.855897
856.390720	2726.394632
856.704173	2733.474932
857.017584	2734.266393
857.330953	2735.269583
857.644278	2736.557598
857.957561	2738.831158
858.270802	2735.319995
858.584000	2735.463667
858.897155	2733.396794
859.210268	2730.354458
859.523339	2724.529405
859.836367	2722.036554
860.149352	2717.706203
860.462295	2717.733929
860.775195	2714.762169
861.088054	2710.446942
861.400869	2715.004145
861.713642	2708.881663
862.026373	2715.513301
862.339062	2715.586398
862.651708	2719.364743
862.964312	2723.155690
863.276873	2728.340517
863.589392	2741.959194
863.901869	2753.342120
864.214303	2760.694642
864.526696	2768.851229
864.839045	2774.678803
865.151353	2776.450769
865.463619	2779.258692
865.775842	2782.379166
866.088023	2777.892539
866.400162	2776.511263
866.712258	2777.290121
867.024313	2776.319699
867.336325	2776.506222
867.648296	2777.700975
867.960224	2775.034205
868.272110	2776.589401
868.583954	2774.225099
868.895755	2778.421860
869.207515	2776.523866
869.519233	2783.788168
869.830909	2784.935031
870.142542	2789.698921
870.454134	2791.372584
870.765684	2792.461473
871.077191	2804.817342
871.388657	2807.925213
871.700081	2814.776141
872.011463	2823.981288
872.322803	2834.053513
872.634101	2837.753720
872.945357	2847.233610
873.256571	2860.365816
873.567744	2864.391177
873.878874	2867.529295
874.189963	2875.499360
874.501010	2875.068341
874.812015	2870.826210
875.122979	2877.800646
875.433900	2874.463403
875.744780	2878.438352
876.055618	2879.008003
876.366415	2877.979607
876.677169	2878.271994
876.987882	2882.604866
877.298554	2888.230794
877.609183	2901.274779
877.919771	2915.984866
878.230317	2946.526697
878.540822	2986.629076
878.851285	3040.357693
879.161707	3124.139150
879.472087	3270.836727
879.782425	3520.628420
880.092722	4032.703787
880.402977	4964.407320
880.713191	6237.596094
881.023363	7527.536623
881.333494	8248.623269
881.643583	8380.343578
881.953631	8030.313581
882.263637	7504.811101
882.573602	6967.908052
882.883526	6489.389126
883.193408	6037.858017
883.503248	5612.724910
883.813048	5238.562910
884.122806	4895.109099
884.432522	4554.284249
884.742197	4245.843771
885.051831	3990.562261
885.361424	3768.542284
885.670975	3597.889144
885.980485	3454.614511
886.289954	3342.927747
886.599382	3253.928697
886.908768	3181.424301
887.218113	3108.824124
887.527417	3057.472411
887.836680	3008.951305
888.145901	2968.276755
888.455082	2938.458330
888.764221	2910.195101
889.073319	2883.035885
889.382376	2871.784029
889.691392	2863.027545
890.000366	2860.015456
890.309300	2856.141329
890.618193	2858.324148
890.927044	2856.504292
891.235855	2860.617873
891.544625	2864.499562
891.853353	2875.431304
892.162041	2900.117834
892.470687	2936.315840
892.779293	2984.582367
893.087858	3050.059394
893.396381	3162.363699
893.704864	3331.088597
894.013306	3558.326169
894.321707	3784.235396
894.630068	3913.321702
894.938387	3918.478802
895.246665	3839.234384
895.554903	3711.685630
895.863100	3580.247626
896.171256	3478.486895
896.479371	3383.584653
896.787446	3297.552321
897.095480	3223.223028
897.403473	3161.796569
897.711425	3107.873867
898.019336	3060.605488
898.327207	3013.158148
898.635038	2978.054073
898.942827	2935.350459
899.250576	2902.076323
899.558284	2866.082484
899.865952	2850.008765
900.173579	2824.530774
900.481165	2805.545788
900.788711	2792.559776
901.096216	2777.872374
901.403681	2769.735952
901.711105	2765.544232
902.018489	2761.105497
902.325832	2774.333484
902.633135	2795.702935
902.940397	2860.005373
903.247619	3025.077956
903.554800	3340.850792
903.861941	3742.492122
904.169041	4031.267058
904.476101	4105.182976
904.783121	3977.147751
905.090100	3810.245229
905.397039	3647.587359
905.703938	3503.801049
906.010796	3375.385216
906.317614	3274.025256
906.624391	3178.447500
906.931129	3100.619646
907.237826	3030.265303
907.544483	2960.654530
907.851099	2891.346227
908.157675	2827.908347
908.464211	2771.439862
908.770707	2730.016701
909.077163	2700.904037
909.383578	2676.552744
909.689954	2658.969199
909.996289	2647.399751
910.302584	2640.745428
910.608839	2637.226702
910.915054	2630.131278
911.221229	2629.574231
911.527363	2633.080353
911.833458	2633.929788
912.139513	2640.299286
912.445527	2640.231230
912.751502	2657.287974
913.057436	2673.891014
913.363331	2696.924046
913.669186	2727.886813
913.975000	2773.042949
914.280775	2845.625482
914.586510	2950.395782
914.892205	3099.104780
915.197859	3301.522230
915.503475	3530.498999
915.809050	3723.166858
916.114585	3826.066891
916.420081	3843.075744
916.725536	3809.844457
917.030952	3715.768965
917.336328	3633.603198
917.641665	3551.692010
917.946961	3464.190182
918.252218	3392.194944
918.557435	3302.038948
918.862612	3225.675550
919.167750	3162.343534
919.472848	3087.069025
919.777906	3025.178779
920.082925	2959.353913
920.387904	2898.882752
920.692843	2860.746423
920.997743	2823.260403
921.302603	2784.297325
921.607423	2758.509302
921.912204	2736.706312
922.216946	2717.668394
922.521647	2700.135261
922.826310	2682.748322
923.130932	2671.544357
923.435516	2653.250010
923.740059	2641.773823
924.044564	2631.031124
924.349028	2621.878910
924.653454	2607.128493
924.957840	2600.930395
925.262186	2593.063674
925.566493	2584.894484
925.870761	2572.158009
926.174989	2571.618606
926.479178	2566.577452
926.783328	2557.445402
927.087438	2555.824671
927.391509	2547.441232
927.695541	2543.990562
927.999533	2541.245654
928.303486	2537.326157
928.607400	2535.208872
928.911275	2532.902544
929.215110	2526.951462
929.518906	2527.410207
929.822663	2529.406504
930.126381	2528.075639
930.430060	2527.594209
930.733699	2527.727800
931.037299	2533.149561
931.340861	2528.524302
931.644383	2533.084026
931.947866	2532.821886
932.251309	2528.297450
932.554714	2528.579755
932.858080	2528.567152
933.161407	2528.267203
933.464694	2525.771832
933.767943	2523.052130
934.071153	2524.166225
934.374323	2518.958713
934.677455	2520.617252
934.980548	2516.914525
935.283602	2517.995852
935.586617	2515.192971
935.889593	2519.432581
936.192530	2518.242869
936.495428	2520.670184
936.798287	2520.516429
937.101108	2528.725948
937.403890	2535.352545
937.706632	2545.709596
938.009336	2555.504558
938.312002	2572.064748
938.614628	2577.244533
938.917216	2584.423137
939.219765	2585.196954
939.522275	2590.149887
939.824747	2590.860690
940.127179	2590.205340
940.429573	2585.895153
940.731929	2587.147880
941.034246	2580.886767
941.336524	2582.426840
941.638763	2582.741912
941.940964	2577.703278
942.243126	2573.846796
942.545250	2570.804459
942.847335	2564.051834
943.149381	2557.208467
943.451389	2554.241748
943.753359	2546.208670
944.055290	2546.954761
944.357182	2543.592311
944.659036	2539.057793
944.960851	2537.205169
945.262628	2537.542926
945.564367	2536.348173
945.866067	2533.663758
946.167729	2536.491846
946.469352	2533.779705
946.770937	2533.807431
947.072484	2531.067564
947.373992	2530.903727
947.675462	2529.270393
947.976893	2525.159332
948.278286	2531.763243
948.579641	2525.423993
948.880958	2524.670340
949.182236	2525.184538
949.483476	2520.234125
949.784678	2519.082221
950.085841	2521.280164
950.386967	2524.687984
950.688054	2522.391738
950.989103	2529.270393
951.290114	2534.246012
951.591087	2533.830117
951.892021	2537.001002
952.192917	2543.128525
952.493776	2546.838814
952.794596	2549.177909
953.095378	2552.081614
953.396122	2546.425439
953.696828	2549.124977
953.997496	2545.805378
954.298126	2546.105326
954.598718	2542.949564
954.899272	2536.262473
955.199788	2534.001516
955.500266	2526.777542
955.800706	2521.101203
956.101108	2512.911849
956.401472	2512.458145
956.701798	2505.602176
957.002087	2504.135200
957.302337	2499.542709
957.602550	2495.174549
957.902724	2491.529795
958.202861	2490.440905
958.502960	2487.267499
958.803022	2483.257261
959.103045	2478.304327
959.403031	2476.797023
959.702979	2476.587815
960.002889	2475.408185
960.302762	2472.476754
960.602596	2469.923409
960.902393	2467.622123
961.202153	2466.364355
961.501875	2466.500466
961.801559	2467.145733
962.101205	2466.692030
962.400814	2464.375619
962.700385	2463.906792
962.999918	2458.563169
963.299414	2462.026442
963.598873	2463.062399
963.898293	2462.331432
964.197677	2459.878910
964.497022	2457.731379
964.796331	2458.986626
965.095601	2460.922429
965.394835	2458.333797
965.694030	2458.472428
965.993189	2457.068467
966.292309	2455.041923
966.591393	2456.103086
966.890439	2455.793055
967.189447	2458.777418
967.488419	2456.561831
967.787353	2458.487552
968.086249	2458.011163
968.385108	2458.301029
968.683930	2458.384208
968.982714	2461.476956
969.281462	2459.717593
969.580172	2455.961934
969.878844	2458.510237
970.177480	2462.838068
970.476078	2460.917388
970.774639	2463.803448
971.073162	2463.311936
971.371649	2460.957717
971.670098	2460.672892
971.968510	2463.105249
972.266885	2461.232460
972.565223	2465.928295
972.863524	2467.075157
973.161788	2465.996350
973.460014	2467.977524
973.758204	2468.300158
974.056356	2467.377627
974.354471	2467.022225
974.652550	2468.179170
974.950591	2467.367544
975.248595	2468.731176
975.546563	2464.960393
975.844493	2466.283696
976.142386	2465.429221
976.440243	2465.998871
976.738062	2465.683799
977.035845	2462.074333
977.333590	2459.599126
977.631299	2463.082563
977.928971	2460.057871
978.226606	2461.706328
978.524204	2459.291616
978.821765	2459.551235
979.119290	2459.016873
979.416777	2457.454115
979.714228	2458.243056
980.011642	2457.499486
980.309020	2461.363530
980.606360	2463.742955
980.903664	2463.150619
981.200931	2469.192442
981.498162	2476.930613
981.795356	2486.281953
982.092513	2501.770899
982.389633	2519.906450
982.686717	2535.907072
982.983764	2548.751932
983.280775	2557.342058
983.577749	2557.636966
983.874686	2553.810730
984.171587	2547.007693
984.468451	2540.373534
984.765279	2533.371372
985.062070	2525.169414
985.358824	2519.283867
985.655543	2512.684997
985.952224	2502.854747
986.248869	2489.445278
986.545478	2477.041518
986.842050	2470.268728
987.138586	2460.617439
987.435086	2461.252625
987.731549	2450.630913
988.027975	2453.590071
988.324366	2452.685184
988.620719	2448.853907
988.917037	2450.106633
989.213318	2450.283074
989.509563	2444.941971
989.805772	2449.068156
990.101944	2444.770572
990.398080	2446.056066
990.694180	2446.965995
990.990244	2444.074893
991.286271	2443.716971
991.582262	2443.190170
991.878217	2438.912751
992.174136	2444.130346
992.470019	2445.632609
992.765865	2443.976590
993.061676	2446.620676
993.357450	2450.867848
993.653188	2451.268619
993.948890	2452.566717
994.244556	2452.105451
994.540186	2457.350772
994.835780	2457.958231
995.131337	2467.244036
995.426859	2469.938533
995.722345	2479.705768
996.017795	2485.964361
996.313208	2490.773622
996.608586	2493.745382
996.903928	2494.418376
997.199234	2495.416524
997.494504	2492.452326
997.789738	2488.933600
998.084936	2486.725575
998.380099	2482.571664
998.675225	2473.643781
998.970316	2476.933134
999.265371	2468.101032
999.560390	2465.537605
999.855373	2461.295474
1000.150320	2457.262551
1000.445232	2453.133846
1000.740108	2446.686211
1001.034948	2446.550099
1001.329752	2445.188988
1001.624521	2443.064142
1001.919254	2438.532144
1002.213951	2441.118256
1002.508613	2434.385795
1002.803239	2436.198090
1003.097829	2434.620209
1003.392384	2437.690272
1003.686903	2439.696651
1003.981386	2438.368307
1004.275834	2437.624737
1004.570246	2436.162802
1004.864623	2435.779674
1005.158964	2436.974428
1005.453270	2433.231371
1005.747540	2434.688264
1006.041775	2433.627102
1006.335974	2435.860333
1006.630138	2435.905703
1006.924266	2435.252874
1007.218359	2432.684406
1007.512416	2431.565270
1007.806438	2432.946546
1008.100425	2433.710281
1008.394376	2431.950918
1008.688292	2430.236926
1008.982172	2431.784560
1009.276017	2432.386978
1009.569827	2431.847574
1009.863602	2432.833120
1010.157341	2432.134920
1010.451045	2431.159457
1010.744714	2431.333377
1011.038347	2431.595517
1011.331945	2428.316246
1011.625508	2431.308171
1011.919036	2431.345979
1012.212528	2434.133737
1012.505986	2432.054262
1012.799408	2431.809766
1013.092795	2430.458736
1013.386147	2431.194745
1013.679464	2431.116607
1013.972745	2429.422779
1014.265992	2432.112235
1014.559204	2430.846905
1014.852380	2429.974786
1015.145521	2431.829930
1015.438628	2428.107038
1015.731699	2430.761206
1016.024736	2428.769950
1016.317737	2431.691298
1016.610703	2431.842533
1016.903635	2426.819023
1017.196531	2427.287851
1017.489393	2427.310536
1017.782219	2424.784918
1018.075011	2427.365988
1018.367768	2427.650814
1018.660490	2431.877821
1018.953177	2431.877821
1019.245829	2431.877821
