Dividing Wavelength (nm)	Counts (n)	Blue Motor Position (mm): 0.000000	Red Motor Position (mm): 28.800000	
326.493990	1988.583958
326.888308	1988.583958
327.282561	1988.583958
327.676750	1960.633280
328.070874	1966.138220
328.464933	1972.805146
328.858929	1977.362349
329.252859	1993.284834
329.646726	2007.609272
330.040528	2023.982940
330.434265	2041.755528
330.827938	2060.337221
331.221547	2079.002093
331.615091	2100.681575
332.008571	2124.541356
332.401986	2144.519449
332.795338	2166.579538
333.188625	2182.537311
333.581847	2203.871474
333.975006	2220.698845
334.368100	2239.895559
334.761129	2256.637231
335.154095	2270.971752
335.546996	2288.993877
335.939833	2320.687611
336.332606	2335.478357
336.725315	2342.107474
337.117960	2352.260358
337.510540	2362.045238
337.903056	2370.466485
338.295508	2373.410519
338.687896	2383.553320
339.080220	2390.888199
339.472480	2396.531771
339.864676	2398.792728
340.256807	2402.845816
340.648875	2402.800446
341.040879	2406.931671
341.432818	2407.014850
341.824694	2407.168606
342.216506	2408.449059
342.608253	2407.360169
342.999937	2407.609707
343.391557	2408.799419
343.783113	2402.258522
344.174605	2405.247926
344.566033	2401.194838
344.957397	2402.351783
345.348697	2397.940773
345.739934	2395.979765
346.131106	2394.497665
346.522215	2393.577655
346.913260	2392.453478
347.304241	2390.341234
347.695159	2388.982643
348.086012	2389.443909
348.476802	2385.655482
348.867528	2386.688918
349.258191	2383.253372
349.648789	2380.435367
350.039324	2382.696324
350.429796	2381.877137
350.820203	2378.239944
351.210548	2382.295553
351.600828	2379.406971
351.991045	2379.774976
352.381198	2380.513505
352.771288	2379.240613
353.161314	2379.054091
353.551276	2379.729605
353.941175	2380.117774
354.331010	2379.906046
354.720782	2380.785727
355.110490	2380.677342
355.500135	2382.905532
355.889717	2383.449977
356.279235	2384.034751
356.668689	2383.749925
357.058080	2381.398227
357.447408	2381.330172
357.836672	2379.853113
358.225873	2385.652961
358.615010	2380.160624
359.004084	2386.199926
359.393095	2387.603888
359.782043	2389.524567
360.170927	2387.913918
360.559748	2386.772097
360.948505	2388.491131
361.337199	2391.205792
361.725830	2392.753426
362.114398	2392.065309
362.502903	2391.316697
362.891344	2396.645197
363.279722	2395.604199
363.668037	2396.095711
364.056289	2395.838612
364.444478	2396.975393
364.832603	2397.708880
365.220665	2397.620660
365.608665	2400.395815
365.996601	2401.391443
366.384474	2402.684499
366.772284	2401.953532
367.160031	2403.193656
367.547715	2403.415467
367.935336	2405.583163
368.322893	2406.316651
368.710388	2409.873185
369.097820	2409.560633
369.485189	2407.866805
369.872495	2412.560120
370.259738	2413.293607
370.646918	2417.056829
371.034035	2415.388207
371.421090	2420.615883
371.808081	2422.022365
372.195010	2427.441606
372.581875	2434.428645
372.968678	2442.489450
373.355418	2446.789554
373.742096	2458.033848
374.128710	2469.870477
374.515262	2479.478916
374.901751	2495.756802
375.288177	2515.374452
375.674540	2529.643438
376.060841	2555.149156
376.447079	2577.657908
376.833254	2607.136055
377.219367	2630.776546
377.605417	2663.095383
377.991404	2692.084539
378.377329	2733.192628
378.763191	2766.033224
379.148991	2816.598518
379.534727	2864.343286
379.920402	2911.243661
380.306013	2961.960189
380.691563	3024.626773
381.077049	3079.429156
381.462474	3138.345121
381.847835	3212.238354
382.233134	3285.347688
382.618371	3345.206349
383.003545	3433.431582
383.388657	3515.700692
383.773706	3605.773509
384.158693	3681.242102
384.543618	3776.613171
384.928480	3856.094523
385.313280	3958.107313
385.698017	4066.759302
386.082692	4189.128270
386.467305	4251.079010
386.851856	4382.552302
387.236344	4536.370509
387.620770	4599.606742
388.005133	4724.060228
388.389435	4875.385584
388.773674	4956.714519
389.157851	5094.368266
389.541965	5225.788626
389.926018	5247.180763
390.310008	5435.437612
390.693936	5559.689451
391.077802	5675.847718
391.461606	5806.645496
391.845348	5923.726294
392.229027	6048.144492
392.612645	6268.485764
392.996200	6392.694754
393.379694	6563.589869
393.763125	6794.699047
394.146494	6887.952831
394.529801	7029.934409
394.913047	7275.151255
395.296230	7269.424505
395.679351	7322.696898
396.062410	7589.489883
396.445408	7481.258830
396.828343	7644.776217
397.211217	7783.130684
397.594028	7666.974938
397.976778	7875.766927
398.359466	8041.608286
398.742092	8007.893049
399.124656	8155.346799
399.507158	8345.773865
399.889598	8362.369344
400.271977	8579.872447
400.654294	8610.000903
401.036549	8811.669742
401.418742	8841.462961
401.800874	9137.325760
402.182944	9218.528666
402.564952	9589.711344
402.946898	9410.863809
403.328783	9468.395977
403.710606	9668.033231
404.092367	9927.743395
404.474067	10289.244537
404.855705	10073.500797
405.237282	10029.955310
405.618797	10465.747936
406.000250	10715.416122
406.381642	11083.092677
406.762972	11031.463700
407.144240	10823.619448
407.525447	11084.773902
407.906593	11017.298058
408.287677	11285.159767
408.668700	11446.091042
409.049661	11416.297823
409.430560	11578.423851
409.811399	11545.966382
410.192176	11711.164994
410.572891	11782.454471
410.953545	12275.557455
411.334138	11743.483831
411.714669	12350.436234
412.095139	11660.186326
412.475547	12161.531596
412.855894	12004.290446
413.236180	12330.821104
413.616405	12020.885924
413.996568	12295.901031
414.376670	12269.387083
414.756711	12146.110707
415.136691	12422.202100
415.516609	12610.290070
415.896466	12678.358250
416.276262	12969.749545
416.655997	13410.182554
417.035670	13443.761680
417.415283	14094.594806
417.794834	14190.666595
418.174324	13942.586373
418.553753	13843.260519
418.933121	14337.732177
419.312428	14140.723884
419.691674	14048.435481
420.070859	14508.390358
420.449983	14156.162418
420.829045	14716.373242
421.208047	14457.131905
421.586988	14919.032668
421.965867	15170.997099
422.344686	15172.592624
422.723444	15737.466515
423.102141	14417.500874
423.480777	15610.270642
423.859352	15120.542710
424.237866	16233.410189
424.616319	15926.600525
424.994712	16596.408554
425.373044	16382.777057
425.751314	17061.081951
426.129524	16186.159454
426.507673	17284.016898
426.885762	16976.753530
427.263789	17173.950865
427.641756	17341.332297
428.019662	17402.915032
428.397508	17445.795087
428.775292	17749.159122
429.153016	17708.676136
429.530679	17797.496226
429.908282	17816.806366
430.285824	17527.368517
430.663305	18243.628259
431.040726	17837.853183
431.418086	17669.455959
431.795385	18315.701635
432.172624	18742.180730
432.549802	18293.651628
432.926920	18473.895564
433.303977	18369.901601
433.680974	18616.328324
434.057910	18914.247914
434.434786	18934.442776
434.811601	18851.775415
435.188355	19884.765811
435.565050	19539.948368
435.941683	19490.781994
436.318257	20373.235975
436.694770	20173.341622
437.071222	20777.047521
437.447614	19848.610656
437.823946	19876.916735
438.200218	20024.965341
438.576429	19801.317071
438.952580	20076.869061
439.328670	20035.773575
439.704700	20459.177566
440.080670	20024.415855
440.456580	20616.927872
440.832429	20794.956220
441.208218	19780.703793
441.583947	20229.797504
441.959616	20334.298103
442.335224	20577.448076
442.710773	20700.447189
443.086261	21237.977862
443.461689	20596.334759
443.837057	20716.906556
444.212365	21361.410513
444.587612	21357.808609
444.962800	20935.692633
445.337927	21365.846729
445.712995	20087.251317
446.088002	21946.759051
446.462949	22142.040748
446.837837	22308.171973
447.212664	22268.772835
447.587431	25110.294818
447.962139	28043.197797
448.336786	30449.108634
448.711374	28878.748882
449.085901	25183.262999
449.460369	25129.978003
449.834776	25048.702000
450.209124	27536.982771
450.583412	27073.375578
450.957640	27589.914887
451.331808	26252.763952
451.705917	24876.725558
452.079965	24904.741770
452.453954	25259.805359
452.827883	25150.036754
453.201752	24944.783655
453.575562	25111.257678
453.949311	26242.986635
454.323001	26292.407586
454.696632	26046.474896
455.070202	27603.694881
455.443713	27734.558193
455.817164	28324.148862
456.190556	28863.043167
456.563888	28298.587692
456.937160	28731.673218
457.310373	27067.686636
457.683526	27510.506631
458.056619	27491.201533
458.429653	27424.381038
458.802628	28002.311518
459.175542	28114.194887
459.548398	29413.580017
459.921194	30984.753916
460.293930	31641.888484
460.666607	33670.811755
461.039224	35420.150113
461.411782	35803.484492
461.784280	34604.839260
462.156719	34115.749034
462.529099	33561.464087
462.901419	32258.986209
463.273680	31199.025639
463.645882	31255.766346
464.018024	31253.570924
464.390106	32079.001893
464.762130	34734.911112
465.134094	38765.472408
465.505999	44029.140264
465.877845	48590.550184
466.249631	49771.402664
466.621358	48044.850321
466.993026	45941.093642
467.364634	43844.182850
467.736184	41859.135262
468.107674	40598.614907
468.479105	39790.331423
468.850477	39075.936909
469.221790	37639.540779
469.593043	35896.662659
469.964238	34992.360318
470.335373	34867.717789
470.706449	36523.288165
471.077467	39032.688850
471.448425	43508.799926
471.819324	46290.717826
472.190164	44438.570177
472.560945	40899.261761
472.931667	37780.350288
473.302330	36642.203943
473.672934	35794.130631
474.043479	36238.604125
474.413965	35419.487201
474.784393	35005.064026
475.154761	35823.883521
475.525070	35796.505015
475.895321	35290.448786
476.265513	35810.486655
476.635645	36679.614346
477.005719	36440.043591
477.375734	36810.442370
477.745691	37393.426607
478.115588	38607.621278
478.485427	40405.770608
478.855207	43515.345864
479.224928	45951.206197
479.594591	47454.745455
479.964194	46391.341778
480.333739	46421.651715
480.703226	46309.128120
481.072653	46796.993345
481.442022	47112.294833
481.811333	47249.610823
482.180584	45864.725203
482.549777	45214.643208
482.918912	44544.280652
483.287988	44112.944406
483.657005	43179.221890
484.025964	42411.489448
484.394864	42284.197793
484.763706	41724.304561
485.132489	40758.676583
485.501213	40441.494745
485.869879	40396.197457
486.238487	39840.957211
486.607036	39832.049492
486.975527	39154.256275
487.343959	39160.303139
487.712333	39023.193837
488.080648	38744.995241
488.448905	38939.041855
488.817104	38552.203874
489.185244	39165.964355
489.553326	40374.933870
489.921350	42510.694314
490.289315	44940.265807
490.657222	45272.223268
491.025070	45287.094672
491.392861	44133.552643
491.760593	42707.758059
492.128267	40948.481067
492.495883	39363.938028
492.863440	37901.143896
493.230939	36524.112393
493.598380	35354.201738
493.965763	34811.476156
494.333088	33886.260588
494.700354	33237.839654
495.067563	32739.337594
495.434713	32327.591271
495.801805	32113.498509
496.168839	31541.486343
496.535815	31004.850475
496.902733	30741.561092
497.269593	30147.423303
497.636395	29818.268724
498.003139	29809.799586
498.369825	29129.493354
498.736453	29047.793894
499.103023	28390.261074
499.469535	28014.606892
499.835989	27765.520960
500.202385	27246.408143
500.568723	26949.310262
500.935003	26764.458712
501.301226	26330.798493
501.667390	26403.439000
502.033497	26252.065753
502.399546	25581.110861
502.765537	24840.315824
503.131470	24778.513798
503.497345	24665.932230
503.863163	23566.091093
504.228923	23613.261169
504.594625	23517.176777
504.960269	22791.658956
505.325856	22865.290049
505.691385	22203.484852
506.056856	21948.362138
506.422270	21861.654292
506.787625	21329.242911
507.152924	21110.981114
507.518164	20847.908500
507.883347	20144.249123
508.248472	19962.631473
508.613540	19870.332988
508.978550	19692.324804
509.343503	19266.795967
509.708398	19041.516884
510.073236	18962.184246
510.438016	18655.760230
510.802738	18108.674050
511.167403	18058.817038
511.532010	17841.291250
511.896561	17654.350142
512.261053	17689.393723
512.625488	17191.335284
512.989866	16841.693457
513.354186	16487.612893
513.718449	16190.288159
514.082655	16133.872607
514.446803	15735.767646
514.810894	15627.793693
515.174927	15322.597198
515.538904	15008.810577
515.902822	14951.084324
516.266684	14502.124203
516.630488	14363.507596
516.994235	14049.640317
517.357925	13962.372902
517.721558	13749.474893
518.085133	13577.848810
518.448651	13353.540149
518.812112	13044.920711
519.175516	12817.897389
519.538863	12650.387408
519.902152	12397.457596
520.265385	12266.959767
520.628560	12041.910057
520.991678	11765.032243
521.354739	11593.620410
521.717743	11444.558532
522.080690	11211.276617
522.443580	11099.952816
522.806413	10910.344938
523.169189	10680.997644
523.531908	10508.378454
523.894569	10286.217324
524.257174	10115.619637
524.619722	9974.951280
524.982213	9787.203587
525.344647	9583.324202
525.707025	9406.072192
526.069345	9290.912073
526.431608	9107.134289
526.793815	8974.113363
527.155964	8730.227381
527.518057	8595.300898
527.880093	8402.486846
528.242072	8318.438208
528.603995	8125.845967
528.965860	7974.840724
529.327669	7834.389137
529.689421	7673.130187
530.051117	7527.677775
530.412755	7409.187974
530.774337	7278.773324
531.135862	7127.626929
531.497331	7014.826071
531.858743	6879.055195
532.220098	6792.780888
532.581396	6649.657489
532.942638	6500.850189
533.303824	6414.328866
533.664953	6304.703934
534.026025	6172.792062
534.387040	6109.452484
534.747999	6004.762842
535.108902	5917.419811
535.469748	5782.299243
535.830537	5698.732036
536.191270	5619.749758
536.551947	5507.100134
536.912567	5445.081339
537.273131	5369.834556
537.633638	5256.527062
537.994089	5197.931210
538.354483	5098.305407
538.714821	5054.802770
539.075103	5003.501468
539.435328	4922.558181
539.795497	4847.553374
540.155609	4778.618116
540.515665	4736.554728
540.875665	4645.924864
541.235609	4599.833594
541.595496	4540.534502
541.955328	4515.391747
542.315102	4432.038789
542.674821	4364.285681
543.034483	4314.458916
543.394090	4260.634517
543.753640	4210.792629
544.113134	4199.578582
544.472571	4119.099081
544.831953	4116.187815
545.191278	4045.092422
545.550548	3989.717868
545.909761	3967.919919
546.268918	3938.101494
546.628019	3910.007143
546.987064	3860.629041
547.346053	3797.765853
547.704986	3793.959782
548.063863	3751.140221
548.422684	3722.695510
548.781449	3689.562527
549.140158	3670.403622
549.498811	3644.108963
549.857408	3600.268569
550.215949	3592.477465
550.574434	3566.817992
550.932864	3539.356307
551.291237	3534.080739
551.649555	3505.910772
552.007817	3488.107937
552.366022	3457.803040
552.724173	3442.793005
553.082267	3435.329577
553.440305	3423.301383
553.798288	3394.085376
554.156215	3382.490723
554.514086	3374.976883
554.871902	3356.611959
555.229661	3341.387675
555.587365	3325.830674
555.945014	3312.804332
556.302606	3299.856129
556.660143	3291.853297
557.017625	3282.207049
557.375050	3267.383536
557.732421	3260.255345
558.089735	3249.371493
558.446994	3238.306161
558.804197	3239.369844
559.161345	3227.376939
559.518437	3205.649566
559.875474	3198.990202
560.232455	3192.915612
560.589381	3190.765559
560.946251	3180.627799
561.303065	3179.138138
561.659825	3167.205727
562.016528	3153.370280
562.373177	3144.681852
562.729770	3142.713281
563.086307	3127.983029
563.442789	3127.420941
563.799216	3123.917339
564.155587	3115.662449
564.511904	3107.982252
564.868164	3099.218206
565.224370	3099.066971
565.580520	3089.017431
565.936615	3086.519539
566.292654	3078.733477
566.648638	3076.666604
567.004567	3070.828948
567.360441	3063.015159
567.716260	3055.524005
568.072023	3055.584498
568.427732	3044.592263
568.783385	3036.602034
569.138982	3034.225130
569.494525	3030.824871
569.850013	3023.820188
570.205445	3018.209384
570.560823	3013.805936
570.916145	3010.763600
571.271412	3005.162878
571.626625	2999.121055
571.981782	2991.466063
572.336884	2986.046822
572.691931	2989.321052
573.046923	2975.238588
573.401860	2973.610296
573.756743	2971.553505
574.111570	2962.698718
574.466342	2961.491362
574.821059	2963.631332
575.175722	2952.618931
575.530330	2944.724484
575.884882	2941.397323
576.239380	2937.543361
576.593823	2937.850871
576.948211	2929.989192
577.302544	2923.259251
577.656823	2917.419074
578.011047	2919.362439
578.365216	2912.763569
578.719330	2907.480440
579.073389	2901.541960
579.427394	2899.006260
579.781344	2896.147926
580.135239	2890.839591
580.489080	2887.487223
580.842866	2882.728374
581.196597	2882.693086
581.550273	2880.059083
581.903895	2872.870398
582.257463	2874.692775
582.610975	2867.415869
582.964434	2868.666076
583.317837	2860.073429
583.671186	2858.755167
584.024481	2857.671319
584.377721	2853.043540
584.730906	2849.532376
585.084037	2850.558251
585.437113	2841.330419
585.790135	2840.049966
586.143103	2836.173318
586.496016	2834.769357
586.848874	2825.889365
587.201679	2826.574962
587.554428	2820.868375
587.907124	2819.265288
588.259765	2810.957467
588.612352	2816.442242
588.964884	2811.275060
589.317362	2812.003506
589.669786	2808.812456
590.022155	2805.865902
590.374470	2803.365489
590.726731	2798.828451
591.078937	2793.293264
591.431090	2789.860238
591.783188	2785.545010
592.135232	2780.491254
592.487222	2782.840431
592.839157	2780.453445
593.191038	2774.507404
593.542866	2769.982968
593.894639	2762.131371
594.246358	2762.615322
594.598022	2759.431833
594.949633	2756.114754
595.301190	2754.035278
595.652692	2751.245000
596.004141	2750.841707
596.355535	2740.885428
596.706876	2736.746641
597.058162	2736.013153
597.409395	2737.439800
597.760573	2736.928123
598.111698	2730.639283
598.462768	2731.067781
598.813785	2727.667523
599.164748	2723.609394
599.515657	2721.643344
599.866511	2718.474979
600.217312	2718.908518
600.568060	2710.961139
600.918753	2714.989021
601.269392	2713.474154
601.619978	2708.937116
601.970510	2708.329657
602.320988	2705.839327
602.671412	2708.715305
603.021783	2703.394367
603.372100	2699.462267
603.722363	2697.541588
604.072572	2699.958821
604.422728	2698.131403
604.772830	2691.963551
605.122878	2688.686801
605.472872	2690.211750
605.822813	2685.473065
606.172701	2689.238807
606.522534	2690.463808
606.872314	2688.772501
607.222041	2685.616738
607.571714	2687.466842
607.921333	2683.801923
608.270899	2683.718744
608.620411	2683.413754
608.969870	2681.097344
609.319276	2681.770338
609.668627	2683.144052
610.017926	2681.528362
610.367171	2682.523990
610.716362	2680.779751
611.065500	2676.882939
611.414585	2681.518280
611.763616	2680.812519
612.112594	2676.807322
612.461518	2677.112312
612.810389	2678.153310
613.159207	2675.592404
613.507971	2675.791529
613.856682	2677.187929
614.205340	2673.313802
614.553945	2680.096675
614.902496	2674.238854
615.250994	2674.243895
615.599439	2675.834379
615.947830	2677.324040
616.296169	2676.237672
616.644454	2675.675583
616.992686	2674.536282
617.340864	2675.302537
617.688990	2675.468896
618.037063	2675.473937
618.385082	2673.959070
618.733048	2674.546364
619.080961	2674.334636
619.428821	2673.316323
619.776628	2671.564522
620.124382	2669.623678
620.472083	2670.639470
620.819731	2670.818431
621.167326	2667.652587
621.514868	2668.209634
621.862357	2662.969355
622.209793	2666.316681
622.557176	2660.564724
622.904506	2659.624549
623.251783	2655.742861
623.599007	2651.309166
623.946179	2648.619710
624.293297	2652.929897
624.640363	2648.637354
624.987376	2646.915800
625.334336	2644.065028
625.681243	2643.913793
626.028097	2644.884215
626.374899	2642.860192
626.721647	2640.490850
627.068343	2639.671662
627.414987	2638.275262
627.761577	2634.504479
628.108115	2636.493215
628.454600	2631.568007
628.801032	2635.600930
629.147412	2634.733852
629.493739	2634.875004
629.840014	2629.536422
630.186236	2631.867956
630.532405	2628.868469
630.878521	2628.591206
631.224585	2629.178500
631.570597	2627.252780
631.916556	2627.449385
632.262462	2626.330248
632.608316	2624.112141
632.954117	2624.679271
633.299866	2626.415948
633.645562	2627.076339
633.991206	2621.163066
634.336797	2619.494444
634.682336	2619.781790
635.027823	2617.329268
635.373257	2614.354987
635.718639	2612.247785
636.063968	2614.370111
636.409245	2609.596138
636.754470	2608.958432
637.099642	2604.950715
637.444762	2605.006168
637.789829	2605.432145
638.134845	2601.066506
638.479808	2602.951898
638.824719	2603.314861
639.169577	2599.433172
639.514383	2598.177925
639.859137	2597.555342
640.203839	2599.284458
640.548489	2597.023501
640.893086	2594.419745
641.237632	2590.880855
641.582125	2593.615681
641.926566	2591.107707
642.270955	2593.381267
642.615292	2595.677512
642.959576	2591.911771
643.303809	2591.130392
643.647990	2593.703901
643.992118	2594.097111
644.336195	2593.000660
644.680219	2593.882862
645.024192	2593.842532
645.368112	2593.797162
645.711981	2593.746751
646.055797	2600.133892
646.399562	2599.778491
646.743274	2601.149685
647.086935	2607.441045
647.430544	2603.919799
647.774101	2603.350149
648.117606	2602.808225
648.461059	2607.234358
648.804460	2603.024994
649.147810	2600.892586
649.491108	2598.714808
649.834354	2595.463263
650.177548	2592.801534
650.520690	2589.703745
650.863781	2588.635021
651.206820	2591.130392
651.549807	2587.238621
651.892742	2588.410689
652.235626	2581.733681
652.578458	2585.610328
652.921238	2579.931468
653.263967	2586.192582
653.606644	2579.336612
653.949269	2580.750656
654.291843	2577.146231
654.634365	2581.915162
654.976836	2576.475758
655.319255	2574.620613
655.661622	2576.629513
656.003938	2574.963411
656.346203	2574.156827
656.688416	2576.831159
657.030577	2575.258319
657.372687	2571.905952
657.714746	2573.075499
658.056753	2572.069789
658.398708	2568.908986
658.740612	2571.762279
659.082465	2571.542988
659.424266	2569.755899
659.766016	2568.493090
660.107715	2572.712536
660.449362	2573.826631
660.790958	2572.221024
661.132503	2571.041394
661.473996	2571.369069
661.815438	2571.651373
662.156829	2570.975859
662.498168	2570.237330
662.839456	2572.072310
663.180693	2569.377813
663.521879	2573.357804
663.863013	2572.878894
664.204097	2571.487536
664.545129	2575.472568
664.886110	2573.365366
665.227040	2572.233627
665.567918	2576.284194
665.908746	2572.715057
666.249522	2575.704461
666.590248	2573.173802
666.930922	2575.354101
667.271545	2575.482650
667.612118	2578.197312
667.952639	2575.482650
668.293109	2574.469378
668.633528	2574.565160
668.973896	2572.135324
669.314213	2575.338977
669.654480	2570.882597
669.994695	2572.342011
670.334859	2570.602813
670.674973	2569.834037
671.015035	2569.536609
671.355047	2571.553071
671.695008	2571.157340
672.034918	2569.282031
672.374777	2571.207752
672.714585	2572.526013
673.054342	2572.324367
673.394049	2572.747824
673.733705	2571.666497
674.073310	2569.269428
674.412864	2572.160530
674.752368	2564.611402
675.091820	2568.893862
675.431223	2566.690878
675.770574	2568.321691
676.109875	2561.609395
676.449125	2562.070660
676.788324	2562.143757
677.127473	2560.994374
677.466571	2556.177552
677.805619	2560.192831
678.144616	2559.202244
678.483562	2557.531101
678.822458	2558.609908
679.161303	2557.773077
679.500098	2558.564538
679.838842	2556.830381
680.177535	2557.994888
680.516179	2558.146122
680.854771	2559.532439
681.193314	2564.598799
681.531805	2564.923953
681.870247	2569.382854
682.208638	2571.379151
682.546978	2575.643967
682.885268	2573.952660
683.223508	2571.270766
683.561697	2569.098029
683.899836	2570.607854
684.237925	2568.677093
684.575963	2568.407391
684.913951	2565.942267
685.251889	2567.106773
685.589776	2567.225240
685.927614	2568.813204
686.265401	2566.088460
686.603137	2570.779254
686.940824	2571.815211
687.278460	2573.962742
687.616046	2571.104408
687.953582	2575.974163
688.291068	2573.877043
688.628504	2577.562126
688.965889	2577.312589
689.303224	2574.164388
689.640510	2571.754717
689.977745	2570.007957
690.314930	2566.227092
690.652065	2564.064437
690.989150	2561.130485
691.326185	2555.902809
691.663170	2555.222253
692.000105	2550.753270
692.336990	2550.448280
692.673825	2542.831097
693.010610	2544.343443
693.347345	2538.480581
693.684030	2536.048224
694.020665	2535.337422
694.357251	2525.756709
694.693786	2532.065713
695.030272	2532.718542
695.366707	2528.809127
695.703093	2529.156967
696.039429	2528.955321
696.375716	2531.639735
696.711952	2527.044723
697.048139	2526.979188
697.384276	2526.026410
697.720363	2526.185207
698.056400	2525.590351
698.392388	2525.234949
698.728326	2523.692356
699.064214	2522.573220
699.400053	2523.589013
699.735842	2520.118178
700.071581	2517.945441
700.407270	2522.197654
700.742910	2515.999555
701.078501	2519.374608
701.414042	2514.766993
701.749533	2514.915707
702.084974	2514.169617
702.420366	2512.624503
702.755709	2512.705161
703.091002	2512.773217
703.426246	2510.129132
703.761440	2510.124091
704.096584	2508.558812
704.431679	2510.691220
704.766725	2508.914214
705.101721	2506.822135
705.436668	2509.549399
705.771565	2506.340705
706.106413	2511.273474
706.441212	2509.695592
706.775961	2509.594769
707.110661	2511.190295
707.445311	2511.008813
707.779913	2508.997393
708.114465	2514.028464
708.448967	2515.034174
708.783421	2519.296470
709.117825	2518.368898
709.452180	2521.653209
709.786485	2519.760256
710.120742	2527.979858
710.454949	2524.730834
710.789107	2527.251411
711.123216	2528.955321
711.457275	2527.695032
711.791286	2531.604447
712.125247	2532.932791
712.459159	2535.042514
712.793023	2535.516382
713.126837	2532.048069
713.460602	2534.666948
713.794318	2531.969931
714.127985	2529.668644
714.461602	2521.602798
714.795171	2525.837367
715.128691	2520.740761
715.462162	2519.326717
715.795584	2517.458969
716.128957	2518.696573
716.462281	2513.952847
716.795556	2512.884122
717.128782	2510.615603
717.461960	2507.386744
717.795088	2507.084275
718.128167	2507.308606
718.461198	2503.167298
718.794180	2503.633605
719.127113	2501.095384
719.459997	2501.319715
719.792833	2496.230671
720.125619	2498.335352
720.458357	2495.756802
720.791046	2497.571618
721.123686	2495.015752
721.456278	2495.169508
721.788821	2495.131699
722.121315	2493.488283
722.453761	2496.429796
722.786158	2494.017604
723.118506	2491.741523
723.450805	2493.019456
723.783056	2493.379898
724.115259	2496.185300
724.447412	2493.228663
724.779518	2490.584578
725.111574	2494.849394
725.443582	2494.730927
725.775542	2495.522388
726.107453	2497.838799
726.439315	2495.928201
726.771129	2504.357011
727.102895	2501.896927
727.434612	2506.852382
727.766281	2503.878101
728.097901	2506.103770
728.429473	2502.174191
728.760996	2506.030674
729.092471	2501.985148
729.423897	2505.962618
729.755276	2505.997906
730.086606	2505.685355
730.417887	2507.190139
730.749120	2510.371107
731.080305	2514.066273
731.411442	2517.070801
731.742530	2514.681294
732.073570	2518.860410
732.404562	2519.462828
732.735506	2520.269413
733.066401	2516.047446
733.397249	2513.438649
733.728048	2509.030160
734.058798	2504.357011
734.389501	2502.721156
734.720156	2497.876607
735.050762	2494.967862
735.381320	2495.192193
735.711831	2495.149343
736.042293	2492.664054
736.372707	2490.602222
736.703073	2491.668426
737.033391	2491.718838
737.363661	2491.307984
737.693883	2490.660196
738.024056	2495.439209
738.354182	2492.091883
738.684260	2496.449961
739.014290	2497.327122
739.344272	2501.697802
739.674207	2502.406084
740.004093	2502.698471
740.333931	2500.805518
740.663722	2500.760147
740.993464	2503.540344
741.323159	2499.479694
741.652806	2499.076402
741.982405	2500.707215
742.311956	2496.044148
742.641460	2496.250835
742.970915	2496.591113
743.300323	2494.231853
743.629683	2487.670791
743.958996	2493.710094
744.288260	2490.095586
744.617477	2485.873620
744.946647	2484.431850
745.275768	2485.364463
745.604842	2479.151241
745.933869	2478.747949
746.262847	2477.855665
746.591778	2486.556696
746.920662	2482.770790
747.249498	2482.906901
747.578286	2480.691314
747.907027	2487.116264
748.235720	2484.996459
748.564365	2485.465287
748.892963	2483.584936
749.221514	2488.570637
749.550017	2487.459063
749.878473	2488.099289
750.206881	2484.257930
750.535242	2483.642909
750.863555	2479.783906
751.191821	2484.121819
751.520039	2481.581077
751.848210	2482.216263
752.176334	2483.799185
752.504411	2479.241982
752.832440	2481.540748
753.160421	2480.542600
753.488356	2481.954123
753.816243	2483.030409
754.144082	2483.136273
754.471875	2480.056128
754.799620	2478.692496
755.127318	2476.053452
755.454969	2477.301138
755.782572	2480.318268
756.110129	2479.262147
756.437638	2480.524956
756.765100	2474.452886
757.092515	2477.159986
757.419882	2479.025213
757.747203	2479.456231
758.074477	2482.090234
758.401703	2478.453042
758.728882	2481.533187
759.056014	2482.765749
759.383099	2483.171562
759.710138	2482.198619
760.037129	2484.068887
760.364073	2485.666933
760.690970	2481.790285
761.017820	2483.063177
761.344623	2484.822539
761.671379	2489.369660
761.998088	2489.752788
762.324751	2498.668068
762.651366	2516.425533
762.977935	2540.426466
763.304456	2554.849207
763.630931	2563.893037
763.957359	2556.169990
764.283740	2543.428473
764.610074	2531.332225
764.936362	2519.359484
765.262602	2510.630727
765.588796	2498.428614
765.914943	2494.378047
766.241044	2487.935452
766.567097	2480.898001
766.893104	2478.185860
767.219064	2478.611838
767.544978	2469.822586
767.870845	2469.570528
768.196665	2469.351238
768.522438	2469.668831
768.848165	2465.761937
769.173846	2467.624643
769.499479	2463.105249
769.825066	2464.080712
770.150607	2462.225567
770.476101	2463.589199
770.801548	2462.714559
771.126949	2460.163735
771.452303	2458.104424
771.777611	2458.606019
772.102872	2458.711883
772.428087	2457.633076
772.753256	2458.989147
773.078378	2454.439505
773.403453	2454.694083
773.728482	2451.167796
774.053465	2451.377004
774.378401	2452.705348
774.703291	2450.938424
775.028135	2450.696448
775.352932	2451.180399
775.677683	2451.248455
776.002388	2451.515636
776.327046	2450.835080
776.651658	2447.676797
776.976224	2448.001952
777.300743	2447.848197
777.625216	2449.789041
777.949643	2447.833073
778.274024	2448.024637
778.598359	2445.403237
778.922647	2443.578339
779.246889	2445.887188
779.571086	2441.861826
779.895236	2449.864658
780.219339	2447.270984
780.543397	2448.528752
780.867409	2444.639502
781.191374	2449.171499
781.515294	2445.022630
781.839167	2448.571602
782.162995	2448.589246
782.486776	2447.568412
782.810511	2447.069338
783.134201	2448.047322
783.457844	2445.869544
783.781441	2447.865841
784.104993	2444.384924
784.428498	2445.839297
784.751958	2444.561364
785.075372	2447.679318
785.398739	2446.446756
785.722061	2444.823504
786.045337	2446.633278
786.368568	2447.303752
786.691752	2446.025819
787.014891	2448.564040
787.337983	2451.727364
787.661030	2455.911522
787.984031	2458.210288
788.306987	2462.487707
788.629897	2463.251442
788.952760	2461.292954
789.275579	2461.139199
789.598351	2458.812706
789.921078	2453.968157
790.243759	2453.814402
790.566395	2452.208795
790.888984	2450.812395
791.211529	2446.635799
791.534027	2447.974225
791.856480	2448.087651
792.178888	2446.222424
792.501249	2443.424584
792.823566	2445.826694
793.145836	2442.421394
793.468062	2445.448607
793.790241	2444.009358
794.112375	2444.611776
794.434464	2445.335181
794.756507	2444.455500
795.078505	2447.376849
795.400457	2445.657815
795.722364	2447.691921
796.044226	2450.204936
796.366042	2450.915739
796.687812	2451.203084
797.009538	2452.324741
797.331218	2452.178548
797.652852	2452.511264
797.974442	2451.200564
798.295986	2452.823815
798.617484	2450.978753
798.938938	2451.369442
799.260346	2448.251489
799.581709	2447.613783
799.903026	2448.773248
800.224299	2446.678649
800.545526	2446.625717
800.866708	2445.436004
801.187845	2446.721499
801.508936	2441.448452
801.829983	2446.686211
802.150984	2442.940633
802.471940	2443.573298
802.792851	2439.812597
803.113717	2441.667742
803.434538	2440.861157
803.755314	2443.601024
804.076045	2442.174378
804.396731	2441.367793
804.717372	2441.846703
805.037967	2443.124635
805.358518	2444.107660
805.679024	2444.838628
805.999485	2442.401230
806.319901	2442.176898
806.640272	2444.251333
806.960598	2443.658998
807.280879	2442.781837
807.601115	2443.633792
807.921306	2441.945005
808.241453	2444.846189
808.561554	2442.968360
808.881611	2442.076075
809.201623	2445.720830
809.521590	2444.447938
809.841513	2441.866867
810.161390	2442.149172
810.481223	2441.093050
810.801011	2441.145983
811.120755	2443.233020
811.440453	2442.179419
811.760107	2442.509615
812.079716	2436.901331
812.399281	2439.699171
812.718801	2438.201949
813.038276	2439.119439
813.357707	2437.533996
813.677093	2437.355035
813.996434	2440.273863
814.315731	2439.071548
814.634983	2440.485591
814.954191	2439.731939
815.273354	2441.498863
815.592473	2442.378545
815.911547	2441.960129
816.230577	2443.036415
816.549562	2444.856272
816.868502	2446.716457
817.187399	2448.974894
817.506250	2450.255347
817.825058	2446.613114
818.143821	2450.479679
818.462539	2452.276850
818.781213	2453.108641
819.099843	2459.836060
819.418429	2470.437607
819.736970	2476.408854
820.055466	2486.140801
820.373919	2493.044661
820.692327	2512.117867
821.010691	2545.671787
821.329011	2619.181892
821.647286	2721.552603
821.965517	2835.076867
822.283704	2905.295099
822.601847	2926.725044
822.919945	2878.987838
823.237999	2824.543377
823.556010	2768.367279
823.873976	2715.651933
824.191897	2667.697957
824.509775	2632.021711
824.827609	2599.463419
825.145398	2577.579770
825.463144	2567.464695
825.780845	2570.365879
826.098502	2583.702252
826.416116	2612.978752
826.733685	2635.631177
827.051210	2642.875315
827.368692	2632.140178
827.686129	2602.840992
828.003522	2569.309757
828.320872	2543.320089
828.638177	2520.934845
828.955439	2503.686537
829.272656	2493.115238
829.589830	2481.001345
829.906960	2475.970273
830.224046	2464.179014
830.541088	2463.637090
830.858086	2456.834053
831.175041	2454.905812
831.491952	2452.554114
831.808819	2456.040072
832.125642	2458.638786
832.442421	2464.715897
832.759157	2480.807260
833.075849	2502.189314
833.392497	2528.705784
833.709101	2542.735315
834.025662	2536.693492
834.342179	2526.908612
834.658653	2509.156189
834.975083	2497.851402
835.291469	2492.684219
835.607811	2474.417598
835.924110	2467.375106
836.240366	2463.259004
836.556578	2455.407407
836.872746	2448.977415
837.188871	2444.495829
837.504952	2442.522217
837.820990	2439.631116
838.136984	2439.401743
838.452935	2437.108018
838.768842	2436.926537
839.084706	2441.347629
839.400526	2454.484876
839.716303	2462.245732
840.032037	2472.938019
840.347727	2471.176136
840.663373	2464.163891
840.978977	2456.340020
841.294537	2449.695779
841.610054	2445.458690
841.925527	2440.467947
842.240957	2435.794798
842.556344	2437.821342
842.871687	2432.495362
843.186987	2431.424117
843.502244	2427.018149
843.817458	2427.761719
844.132629	2427.451688
844.447756	2425.132757
844.762840	2420.464649
845.077881	2419.438774
845.392879	2417.923907
845.707833	2422.211409
846.022745	2418.281829
846.337613	2423.201995
846.652438	2419.569844
846.967221	2420.678898
847.281960	2420.202509
847.596656	2419.302663
847.911309	2421.435071
848.225919	2420.303332
848.540485	2420.850297
848.855009	2421.319124
849.169490	2418.591860
849.483928	2419.582447
849.798323	2420.129412
850.112675	2420.172262
850.426984	2421.261151
850.741251	2419.007755
851.055474	2419.219484
851.369654	2421.321645
851.683792	2416.867786
851.997887	2418.042374
852.311938	2424.578230
852.625947	2420.154618
852.939914	2420.457087
853.253837	2421.624114
853.567718	2419.491706
853.881555	2421.460277
854.195350	2418.291912
854.509103	2419.400965
854.822812	2418.080183
855.136479	2421.669485
855.450103	2420.449525
855.763685	2418.957344
856.077224	2420.053795
856.390720	2421.268713
856.704173	2419.184196
857.017584	2422.024886
857.330953	2423.534712
857.644278	2418.168403
857.957561	2420.560431
858.270802	2419.814340
858.584000	2425.866245
858.897155	2420.648651
859.210268	2420.232756
859.523339	2421.427509
859.836367	2422.097983
860.149352	2420.343661
860.462295	2419.312745
860.775195	2417.273598
861.088054	2414.485840
861.400869	2417.933990
861.713642	2416.605646
862.026373	2421.997160
862.339062	2418.700245
862.651708	2418.332241
862.964312	2419.650502
863.276873	2420.910791
863.589392	2420.419278
863.901869	2423.232242
864.214303	2420.986408
864.526696	2424.570669
864.839045	2421.379618
865.151353	2423.176790
865.463619	2423.307860
865.775842	2421.919022
866.088023	2423.368353
866.400162	2425.029414
866.712258	2422.952458
867.024313	2423.872469
867.336325	2422.503796
867.648296	2427.658375
867.960224	2424.099321
868.272110	2421.384659
868.583954	2421.757705
868.895755	2424.593354
869.207515	2422.410534
869.519233	2425.362130
869.830909	2422.972623
870.142542	2425.150401
870.454134	2422.632345
870.765684	2425.997315
871.077191	2426.256935
871.388657	2427.227357
871.700081	2421.929104
872.011463	2426.486307
872.322803	2426.859353
872.634101	2425.031934
872.945357	2426.599733
873.256571	2430.862029
873.567744	2428.318767
873.878874	2428.016297
874.189963	2430.098294
874.501010	2432.006371
874.812015	2429.906730
875.122979	2427.678540
875.433900	2431.250197
875.744780	2432.024015
876.055618	2430.282296
876.366415	2428.727100
876.677169	2432.056782
876.987882	2430.373037
877.298554	2427.141657
877.609183	2428.994281
877.919771	2428.326328
878.230317	2435.525096
878.540822	2439.242947
878.851285	2440.349480
879.161707	2447.782662
879.472087	2457.625514
879.782425	2470.581280
880.092722	2495.628253
880.402977	2532.952956
880.713191	2579.679411
881.023363	2623.343365
881.333494	2651.785555
881.643583	2662.989519
881.953631	2661.366268
882.263637	2645.345481
882.573602	2628.482821
882.883526	2610.927003
883.193408	2592.925043
883.503248	2573.677917
883.813048	2555.723848
884.122806	2540.033256
884.432522	2520.176151
884.742197	2507.248112
885.051831	2497.826196
885.361424	2485.082159
885.670975	2476.613020
885.980485	2469.331074
886.289954	2461.174487
886.599382	2456.539146
886.908768	2450.081428
887.218113	2449.635286
887.527417	2444.352156
887.836680	2439.472319
888.145901	2440.606579
888.455082	2437.695313
888.764221	2435.600713
889.073319	2433.775816
889.382376	2434.690785
889.691392	2434.557194
890.000366	2434.058120
890.309300	2430.962852
890.618193	2434.501742
890.927044	2433.047369
891.235855	2431.787080
891.544625	2431.509817
891.853353	2434.627771
892.162041	2436.225816
892.470687	2437.644901
892.779293	2441.151024
893.087858	2442.265119
893.396381	2446.875254
893.704864	2460.241873
894.013306	2469.313430
894.321707	2485.059474
894.630068	2494.370485
894.938387	2499.338542
895.246665	2494.088180
895.554903	2488.610967
895.863100	2481.240800
896.171256	2477.132259
896.479371	2469.318471
896.787446	2463.430403
897.095480	2458.618622
897.403473	2454.225256
897.711425	2451.540842
898.019336	2447.069338
898.327207	2444.664708
898.635038	2442.219748
898.942827	2438.701023
899.250576	2439.605910
899.558284	2432.790270
899.865952	2434.131217
900.173579	2433.783377
900.481165	2431.691298
900.788711	2431.361103
901.096216	2429.884045
901.403681	2429.962183
901.711105	2429.246339
902.018489	2426.201482
902.325832	2433.216248
902.633135	2429.563932
902.940397	2435.938471
903.247619	2446.058587
903.554800	2467.196145
903.861941	2490.997953
904.169041	2507.953874
904.476101	2512.851355
904.783121	2508.387413
905.090100	2501.332318
905.397039	2486.236583
905.703938	2479.854482
906.010796	2468.141361
906.317614	2464.315126
906.624391	2456.571913
906.931129	2451.745008
907.237826	2446.103957
907.544483	2443.837959
907.851099	2439.376537
908.157675	2430.935125
908.464211	2427.297933
908.770707	2424.061512
909.077163	2422.755853
909.383578	2420.646130
909.689954	2418.576737
909.996289	2416.262847
910.302584	2421.654361
910.608839	2417.187899
910.915054	2421.382139
911.221229	2417.210584
911.527363	2421.641758
911.833458	2419.640420
912.139513	2419.988260
912.445527	2421.205698
912.751502	2423.539753
913.057436	2422.211409
913.363331	2426.148550
913.669186	2425.982192
913.975000	2432.470157
914.280775	2437.579366
914.586510	2445.405757
914.892205	2454.552931
915.197859	2467.624643
915.503475	2485.379587
915.809050	2497.198572
916.114585	2507.447238
916.420081	2509.622496
916.725536	2507.721981
917.030952	2502.675786
917.336328	2497.858963
917.641665	2494.476349
917.946961	2483.854638
918.252218	2481.893629
918.557435	2478.284163
918.862612	2468.123717
919.167750	2462.787656
919.472848	2458.220371
919.777906	2454.452108
920.082925	2444.926848
920.387904	2441.120777
920.692843	2438.527103
920.997743	2435.842689
921.302603	2431.519899
921.607423	2433.170877
921.912204	2430.909920
922.216946	2428.134764
922.521647	2425.105031
922.826310	2426.713159
923.130932	2423.378436
923.435516	2420.376429
923.740059	2421.651841
924.044564	2421.051943
924.349028	2417.089596
924.653454	2414.700089
924.957840	2417.157652
925.262186	2411.592218
925.566493	2417.321489
925.870761	2412.761766
926.174989	2414.894174
926.479178	2413.059194
926.783328	2415.378125
927.087438	2412.645819
927.391509	2413.195305
927.695541	2413.487692
927.999533	2413.762435
928.303486	2411.650191
928.607400	2412.340829
928.911275	2411.120870
929.215110	2413.805285
929.518906	2410.848648
929.822663	2411.640109
930.126381	2411.178843
930.430060	2410.039543
930.733699	2414.110274
931.037299	2410.629358
931.340861	2412.020716
931.644383	2413.102044
931.947866	2412.834863
932.251309	2413.528021
932.554714	2410.049625
932.858080	2411.264543
933.161407	2411.756056
933.464694	2410.463000
933.767943	2409.626168
934.071153	2409.938720
934.374323	2411.072979
934.677455	2409.210273
934.980548	2408.333112
935.283602	2409.331261
935.586617	2410.241189
935.889593	2408.827145
936.192530	2413.472568
936.495428	2411.088103
936.798287	2408.925448
937.101108	2413.081879
937.403890	2410.568864
937.706632	2412.650860
938.009336	2411.476272
938.312002	2416.603125
938.614628	2416.973650
938.917216	2418.271747
939.219765	2416.580440
939.522275	2417.830646
939.824747	2417.749987
940.127179	2415.564647
940.429573	2414.410223
940.731929	2414.039698
941.034246	2412.741601
941.336524	2416.056160
941.638763	2418.485996
941.940964	2418.516243
942.243126	2413.520459
942.545250	2415.337795
942.847335	2414.972312
943.149381	2413.422157
943.451389	2417.064391
943.753359	2414.004410
944.055290	2413.825449
944.357182	2415.231931
944.659036	2413.389389
944.960851	2412.166910
945.262628	2413.696900
945.564367	2412.872671
945.866067	2412.381159
946.167729	2411.572053
946.469352	2410.047104
946.770937	2413.838052
947.072484	2413.394431
947.373992	2413.810326
947.675462	2412.630696
947.976893	2411.720767
948.278286	2410.160530
948.579641	2413.001221
948.880958	2414.667322
949.182236	2411.811508
949.483476	2411.249420
949.784678	2411.080541
950.085841	2410.152969
950.386967	2411.940058
950.688054	2412.413926
950.989103	2412.144224
951.290114	2410.316806
951.591087	2413.654050
951.892021	2413.878381
952.192917	2414.458114
952.493776	2413.782599
952.794596	2414.584143
953.095378	2414.831159
953.396122	2416.643454
953.696828	2414.311921
953.997496	2413.424678
954.298126	2414.049781
954.598718	2413.971643
954.899272	2411.733370
955.199788	2412.950809
955.500266	2410.031981
955.800706	2407.632392
956.101108	2408.202042
956.401472	2408.081054
956.701798	2402.805487
957.002087	2404.761455
957.302337	2409.729512
957.602550	2408.199522
957.902724	2406.979562
958.202861	2407.191291
958.502960	2407.156003
958.803022	2405.938564
959.103045	2404.895045
959.403031	2408.466703
959.702979	2403.975035
960.002889	2408.070972
960.302762	2405.517628
960.602596	2405.512587
960.902393	2405.394119
961.202153	2405.338667
961.501875	2404.779099
961.801559	2406.732546
962.101205	2406.261198
962.400814	2404.496794
962.700385	2407.120715
962.999918	2403.561660
963.299414	2403.896897
963.598873	2403.266753
963.898293	2403.571742
964.197677	2404.217010
964.497022	2404.232133
964.796331	2405.862947
965.095601	2404.337998
965.394835	2403.357493
965.694030	2401.618295
965.993189	2404.726167
966.292309	2402.576114
966.591393	2402.684499
966.890439	2401.540157
967.189447	2403.097874
967.488419	2402.261042
967.787353	2400.504200
968.086249	2404.607699
968.385108	2405.212638
968.683930	2402.250960
968.982714	2403.919582
969.281462	2404.252298
969.580172	2405.318502
969.878844	2402.170302
970.177480	2404.007802
970.476078	2403.158368
970.774639	2403.256670
971.073162	2403.261711
971.371649	2402.465209
971.670098	2398.177708
971.968510	2404.436300
972.266885	2398.500342
972.565223	2402.306413
972.863524	2404.075858
973.161788	2403.685168
973.460014	2403.949829
973.758204	2404.824469
974.056356	2403.365055
974.354471	2403.886814
974.652550	2403.836403
974.950591	2403.811197
975.248595	2404.678276
975.546563	2403.917061
975.844493	2403.680127
976.142386	2404.925292
976.440243	2403.818759
976.738062	2403.574263
977.035845	2401.835065
977.333590	2401.593089
977.631299	2402.785322
977.928971	2401.421690
978.226606	2402.319016
978.524204	2404.211969
978.821765	2406.840931
979.119290	2404.106105
979.416777	2407.329923
979.714228	2403.009654
980.011642	2402.568553
980.309020	2402.833213
980.606360	2403.478481
980.903664	2406.513256
981.200931	2406.833369
981.498162	2408.091137
981.795356	2409.187588
982.092513	2409.424522
982.389633	2408.890160
982.686717	2412.792013
982.983764	2414.261509
983.280775	2417.087076
983.577749	2418.614545
983.874686	2414.296797
984.171587	2412.718916
984.468451	2413.533062
984.765279	2412.681107
985.062070	2412.040881
985.358824	2413.144893
985.655543	2410.551220
985.952224	2409.301014
986.248869	2408.229768
986.545478	2400.708367
986.842050	2403.536454
987.138586	2399.296844
987.435086	2402.046793
987.731549	2400.231978
988.027975	2402.497977
988.324366	2404.138872
988.620719	2403.889335
988.917037	2403.574263
989.213318	2403.954870
989.509563	2401.371279
989.805772	2402.613923
990.101944	2403.239026
990.398080	2404.408574
990.694180	2402.172822
990.990244	2402.800446
991.286271	2402.611402
991.582262	2402.339180
991.878217	2398.908675
992.174136	2400.831875
992.470019	2400.499159
992.765865	2400.804149
993.061676	2401.744324
993.357450	2401.225085
993.653188	2401.262894
993.948890	2405.494942
994.244556	2402.051834
994.540186	2402.891187
994.835780	2405.295817
995.131337	2405.590724
995.426859	2406.175498
995.722345	2410.510891
996.017795	2407.561816
996.313208	2406.472926
996.608586	2407.594583
996.903928	2409.684141
997.199234	2409.941240
997.494504	2407.070303
997.789738	2406.891342
998.084936	2407.468554
998.380099	2407.554254
998.675225	2405.810015
998.970316	2405.129459
999.265371	2407.322361
999.560390	2404.801784
999.855373	2403.551578
1000.150320	2405.094171
1000.445232	2402.024108
1000.740108	2403.516290
1001.034948	2404.267422
1001.329752	2401.386402
1001.624521	2402.175343
1001.919254	2394.540515
1002.213951	2396.708211
1002.508613	2398.817934
1002.803239	2399.407749
1003.097829	2395.851215
1003.392384	2401.706515
1003.686903	2401.419170
1003.981386	2400.758778
1004.275834	2401.540157
1004.570246	2402.223234
1004.864623	2399.891700
1005.158964	2398.850702
1005.453270	2397.562687
1005.747540	2400.451268
1006.041775	2400.718449
1006.335974	2401.358676
1006.630138	2399.821124
1006.924266	2399.740465
1007.218359	2400.370610
1007.512416	2401.434293
1007.806438	2400.378171
1008.100425	2398.137378
1008.394376	2399.480846
1008.688292	2401.504869
1008.982172	2398.994375
1009.276017	2400.060579
1009.569827	2400.668038
1009.863602	2401.832544
1010.157341	2402.704664
1010.451045	2401.729201
1010.744714	2398.454971
1011.038347	2400.468912
1011.331945	2398.550753
1011.625508	2399.803480
1011.919036	2399.047307
1012.212528	2399.700136
1012.505986	2398.664179
1012.799408	2400.194169
1013.092795	2399.463202
1013.386147	2399.861453
1013.679464	2401.267935
1013.972745	2398.943963
1014.265992	2401.830024
1014.559204	2401.802297
1014.852380	2398.946484
1015.145521	2399.692574
1015.438628	2398.258366
1015.731699	2401.222565
1016.024736	2401.076371
1016.317737	2403.339849
1016.610703	2400.267266
1016.903635	2395.614281
1017.196531	2392.163611
1017.489393	2397.918088
1017.782219	2391.420041
1018.075011	2404.083419
1018.367768	2398.399518
1018.660490	2400.567215
1018.953177	2400.567215
1019.245829	2400.567215
