Dividing Wavelength (nm)	Counts (n)	Blue Motor Position (mm): 0.000000	Red Motor Position (mm): 35.600000	
326.493990	1991.754843
326.888308	1991.754843
327.282561	1991.754843
327.676750	1966.468416
328.070874	1969.888839
328.464933	1974.987966
328.858929	1984.545993
329.252859	1998.081492
329.646726	2013.545231
330.040528	2027.809176
330.434265	2044.205529
330.827938	2063.377037
331.221547	2087.080542
331.615091	2105.576536
332.008571	2122.920625
332.401986	2146.513225
332.795338	2165.384785
333.188625	2185.604853
333.581847	2206.588656
333.975006	2223.501727
334.368100	2241.223903
334.761129	2257.978178
335.154095	2275.539038
335.546996	2298.413273
335.939833	2338.182936
336.332606	2352.046109
336.725315	2364.810310
337.117960	2371.096629
337.510540	2380.069883
337.903056	2388.702859
338.295508	2397.655948
338.687896	2403.612072
339.080220	2410.087434
339.472480	2417.122364
339.864676	2419.196799
340.256807	2419.043043
340.648875	2422.307191
341.040879	2426.355237
341.432818	2427.844898
341.824694	2426.420772
342.216506	2426.478745
342.608253	2426.007398
342.999937	2424.583272
343.391557	2426.151070
343.783113	2426.899682
344.174605	2423.673343
344.566033	2421.059505
344.957397	2423.123857
345.348697	2416.078845
345.739934	2417.465162
346.131106	2414.616910
346.522215	2412.537434
346.913260	2412.905439
347.304241	2409.948802
347.695159	2408.743966
348.086012	2408.035684
348.476802	2405.898235
348.867528	2404.980745
349.258191	2402.772719
349.648789	2405.038718
350.039324	2400.673079
350.429796	2405.396640
350.820203	2402.298851
351.210548	2399.430434
351.600828	2399.253994
351.991045	2400.007647
352.381198	2401.908162
352.771288	2397.570249
353.161314	2401.449417
353.551276	2401.293141
353.941175	2399.904303
354.331010	2399.069992
354.720782	2398.553274
355.110490	2398.865825
355.500135	2401.366237
355.889717	2403.859088
356.279235	2400.055538
356.668689	2404.650549
357.058080	2404.612741
357.447408	2401.693912
357.836672	2400.990672
358.225873	2402.853378
358.615010	2401.598131
359.004084	2406.735066
359.393095	2404.486712
359.782043	2408.796898
360.170927	2410.299162
360.559748	2406.508214
360.948505	2409.976528
361.337199	2414.178330
361.725830	2413.870820
362.114398	2412.131622
362.502903	2414.793351
362.891344	2415.917528
363.279722	2414.548855
363.668037	2416.245203
364.056289	2417.477765
364.444478	2418.153280
364.832603	2416.588002
365.220665	2418.803589
365.608665	2420.724268
365.996601	2420.641089
366.384474	2423.988415
366.772284	2425.868766
367.160031	2423.625452
367.547715	2424.137129
367.935336	2425.561255
368.322893	2425.369692
368.710388	2428.086873
369.097820	2433.541402
369.485189	2432.129879
369.872495	2432.213058
370.259738	2435.862853
370.646918	2439.759665
371.034035	2438.668255
371.421090	2441.582042
371.808081	2445.062959
372.195010	2451.316510
372.581875	2454.525205
372.968678	2463.581638
373.355418	2469.429376
373.742096	2478.468165
374.128710	2491.585247
374.515262	2503.855416
374.901751	2518.321007
375.288177	2536.267514
375.674540	2554.231666
376.060841	2578.623289
376.447079	2604.895262
376.833254	2630.847122
377.219367	2653.247489
377.605417	2691.285516
377.991404	2717.403734
378.377329	2758.158942
378.763191	2792.060702
379.148991	2842.759586
379.534727	2889.975033
379.920402	2939.469081
380.306013	2990.437667
380.691563	3054.576268
381.077049	3111.649691
381.462474	3170.858043
381.847835	3245.333529
382.233134	3319.400682
382.618371	3377.890670
383.003545	3470.849547
383.388657	3554.494892
383.773706	3645.770023
384.158693	3720.033781
384.543618	3818.235458
384.928480	3898.936769
385.313280	4005.232019
385.698017	4111.363431
386.082692	4236.333635
386.467305	4299.942914
386.851856	4428.487296
387.236344	4592.937296
387.620770	4654.494826
388.005133	4777.330101
388.389435	4926.734777
388.773674	5011.227036
389.157851	5149.591586
389.541965	5283.890445
389.926018	5306.437006
390.310008	5493.718392
390.693936	5617.085508
391.077802	5736.245783
391.461606	5872.682091
391.845348	5990.861860
392.229027	6113.505572
392.612645	6343.979564
392.996200	6455.522654
393.379694	6639.381097
393.763125	6864.019953
394.146494	6961.808256
394.529801	7100.119873
394.913047	7351.590271
395.296230	7348.389138
395.679351	7403.733446
396.062410	7677.029519
396.445408	7565.062972
396.828343	7724.275213
397.211217	7869.437759
397.594028	7741.016885
397.976778	7955.943959
398.359466	8121.797920
398.742092	8094.028724
399.124656	8249.540759
399.507158	8437.227958
399.889598	8462.635373
400.271977	8670.991303
400.654294	8706.904483
401.036549	8906.962673
401.418742	8931.802959
401.800874	9243.860464
402.182944	9323.760232
402.564952	9698.179331
402.946898	9511.021453
403.328783	9584.967618
403.710606	9781.844841
404.092367	10038.958810
404.474067	10409.208875
404.855705	10190.959681
405.237282	10144.162650
405.618797	10579.453682
406.000250	10836.613022
406.381642	11207.203364
406.762972	11151.486012
407.144240	10951.226175
407.525447	11214.384488
407.906593	11148.426031
408.287677	11412.050651
408.668700	11571.141905
409.049661	11542.185517
409.430560	11704.787934
409.811399	11673.792400
410.192176	11846.431754
410.572891	11914.615881
410.953545	12411.724062
411.334138	11883.819472
411.714669	12493.708347
412.095139	11791.704988
412.475547	12304.329841
412.855894	12140.215077
413.236180	12477.984988
413.616405	12154.761327
413.996568	12440.201540
414.376670	12410.516705
414.756711	12281.135492
415.136691	12573.764390
415.516609	12766.306220
415.896466	12832.199142
416.276262	13125.314512
416.655997	13571.232296
417.035670	13608.226803
417.415283	14260.693263
417.794834	14364.281413
418.174324	14098.163943
418.553753	14008.688503
418.933121	14496.473070
419.312428	14300.626764
419.691674	14213.772724
420.070859	14688.490620
420.449983	14323.347244
420.829045	14885.980343
421.208047	14627.227998
421.586988	15088.569192
421.965867	15351.314131
422.344686	15356.587177
422.723444	15925.380566
423.102141	14583.042284
423.480777	15800.521267
423.859352	15296.509227
424.237866	16432.447546
424.616319	16115.114473
424.994712	16796.796940
425.373044	16576.349803
425.751314	17270.725896
426.129524	16375.926129
426.507673	17492.332498
426.885762	17184.257504
427.263789	17384.718987
427.641756	17548.927012
428.019662	17622.114483
428.397508	17652.931057
428.775292	17974.657495
429.153016	17926.816945
429.530679	18017.429165
429.908282	18037.964305
430.285824	17755.700019
430.663305	18473.530080
431.040726	18068.019665
431.418086	17893.081544
431.795385	18541.968785
432.172624	18952.900961
432.549802	18513.130864
432.926920	18700.775213
433.303977	18592.859233
433.680974	18856.100725
434.057910	19139.095978
434.434786	19167.964146
434.811601	19075.267409
435.188355	20139.986828
435.565050	19776.368401
435.941683	19730.745958
436.318257	20617.404261
436.694770	20422.714900
437.071222	21031.971110
437.447614	20083.578837
437.823946	20110.914493
438.200218	20265.267062
438.576429	20045.911335
438.952580	20319.950979
439.328670	20281.469331
439.704700	20709.503622
440.080670	20258.789180
440.456580	20866.195286
440.832429	21046.194725
441.208218	20015.482930
441.583947	20463.427258
441.959616	20576.220555
442.335224	20829.525933
442.710773	20949.270981
443.086261	21503.170280
443.461689	20858.943586
443.837057	20984.677525
444.212365	21630.086369
444.587612	21629.161318
444.962800	21196.826923
445.337927	21628.190896
445.712995	20345.464258
446.088002	22225.459242
446.462949	22415.057038
446.837837	22593.755859
447.212664	22554.056773
447.587431	25441.024757
447.962139	28409.563652
448.336786	30806.130711
448.711374	29230.634023
449.085901	25498.309909
449.460369	25437.727843
449.834776	25369.601690
450.209124	27879.045224
450.583412	27398.371205
450.957640	27924.798737
451.331808	26567.992344
451.705917	25181.236456
452.079965	25221.091818
452.453954	25586.608239
452.827883	25478.152855
453.201752	25270.777430
453.575562	25451.404493
453.949311	26576.829486
454.323001	26627.122558
454.696632	26384.141463
455.070202	27964.931362
455.443713	28091.033305
455.817164	28697.332878
456.190556	29232.128725
456.563888	28673.551235
456.937160	29115.121024
457.310373	27418.339216
457.683526	27879.095636
458.056619	27867.919398
458.429653	27798.974057
458.802628	28380.670279
459.175542	28509.769188
459.548398	29817.542798
459.921194	31415.462538
460.293930	32081.106575
460.666607	34130.454080
461.039224	35901.315644
461.411782	36291.513555
461.784280	35099.275629
462.156719	34612.257318
462.529099	34045.213210
462.901419	32754.476179
463.273680	31685.315504
463.645882	31766.871291
464.018024	31735.633781
464.390106	32577.390527
464.762130	35303.848173
465.134094	39407.211293
465.505999	44737.782822
465.877845	49321.036062
466.249631	50511.761641
466.621358	48815.567127
466.993026	46712.546457
467.364634	44625.478517
467.736184	42621.912250
468.107674	41376.558207
468.479105	40588.519997
468.850477	39880.807532
469.221790	38425.396169
469.593043	36667.502973
469.964238	35769.640706
470.335373	35688.263880
470.706449	37447.447611
471.077467	40052.680631
471.448425	44631.132171
471.819324	47440.869679
472.190164	45580.792295
472.560945	42001.434432
472.931667	38882.457424
473.302330	37760.062164
473.672934	36947.760880
474.043479	37454.096893
474.413965	36643.161762
474.784393	36267.749556
475.154761	37177.582043
475.525070	37192.392953
475.895321	36731.281131
476.265513	37340.247475
476.635645	38313.744694
477.005719	38151.046495
477.375734	38596.550904
477.745691	39294.183582
478.115588	40660.157313
478.485427	42629.335349
478.855207	46017.152051
479.224928	48624.555287
479.594591	50275.646598
479.964194	49280.898395
480.333739	49433.531930
480.703226	49475.996090
481.072653	50094.364185
481.442022	50564.587892
481.811333	50834.458502
482.180584	49547.338499
482.549777	49009.812867
482.918912	48486.442795
483.287988	48193.201397
483.657005	47351.691667
484.025964	46705.919860
484.394864	46714.504945
484.763706	46272.940197
485.132489	45415.714671
485.501213	45246.122694
485.869879	45390.029992
486.238487	44971.223533
486.607036	45167.057237
486.975527	44617.029543
487.343959	44825.461090
487.712333	44900.352472
488.080648	44817.120501
488.448905	45277.206448
488.817104	45078.544658
489.185244	46045.697585
489.553326	47714.997543
489.921350	50439.347987
490.289315	53287.597389
490.657222	53875.529518
491.025070	54150.932794
491.392861	53251.283438
491.760593	52016.152854
492.128267	50336.563901
492.495883	48815.010080
492.863440	47419.522913
493.230939	46057.042701
493.598380	44962.358664
493.965763	44635.785156
494.333088	43827.647866
494.700354	43313.160307
495.067563	43013.796427
495.434713	42881.498906
495.801805	42942.844707
496.168839	42545.289232
496.535815	42221.808473
496.902733	42250.477514
497.269593	41837.985101
497.636395	41747.357758
498.003139	42154.400684
498.369825	41608.539504
498.736453	41920.405446
499.103023	41429.417226
499.469535	41306.733185
499.835989	41399.797926
500.202385	41070.018245
500.568723	41075.848339
500.935003	41271.266147
501.301226	41055.076265
501.667390	41678.223374
502.033497	41938.606532
502.399546	41343.732734
502.765537	40662.168734
503.131470	41046.100490
503.497345	41420.922882
503.863163	40045.128983
504.228923	40664.873313
504.594625	41068.737792
504.960269	40365.884999
505.325856	41044.257948
505.691385	40408.379405
506.056856	40553.761241
506.422270	40992.835659
506.787625	40561.466645
507.152924	40737.110527
507.518164	40838.465446
507.883347	40035.460049
508.248472	40301.499382
508.613540	40758.837900
508.978550	41072.465725
509.343503	40793.198405
509.708398	41008.745540
510.073236	41523.175126
510.438016	41513.801100
510.802738	40976.812351
511.167403	41576.739906
511.532010	41800.743577
511.896561	42099.641150
512.261053	42940.276239
512.625488	42476.263233
512.989866	42354.506765
513.354186	42189.852598
513.718449	42154.030159
514.082655	42821.730986
514.446803	42503.740042
514.810894	43003.015919
515.174927	42910.445211
515.538904	42797.389775
515.902822	43480.362777
516.266684	42886.759350
516.630488	43296.814366
516.994235	43148.309535
517.357925	43719.971340
517.721558	43864.624729
518.085133	44142.566226
518.448651	44263.231284
518.812112	44013.016134
519.175516	44092.157208
519.538863	44425.894195
519.902152	44353.309142
520.265385	44809.389892
520.628560	44811.260160
520.991678	44575.833234
521.354739	44813.440459
521.717743	45081.191263
522.080690	44949.337364
522.443580	45477.317571
522.806413	45501.802455
523.169189	45412.190904
523.531908	45571.216623
523.894569	45381.359207
524.257174	45525.493357
524.619722	45799.611139
524.982213	45748.266987
525.344647	45628.990767
525.707025	45646.140772
526.069345	45984.608882
526.431608	45870.391460
526.793815	46148.995868
527.155964	45646.460885
527.518057	45748.062820
527.880093	45508.250091
528.242072	45974.594630
528.603995	45645.263611
528.965860	45586.390496
529.327669	45636.519730
529.689421	45491.974726
530.051117	45392.217853
530.412755	45479.880998
530.774337	45495.458163
531.135862	45247.345173
531.497331	45379.834258
531.858743	45227.548562
532.220098	45508.141706
532.581396	45171.052351
532.942638	44760.528508
533.303824	44996.968706
533.664953	44893.932563
534.026025	44540.703954
534.387040	44943.419049
534.747999	44818.796685
535.108902	44900.284416
535.469748	44365.385226
535.830537	44394.276078
536.191270	44508.357390
536.551947	44102.357983
536.912567	44328.022714
537.273131	44370.935536
537.633638	43788.604129
537.994089	44044.538469
538.354483	43569.523145
538.714821	44025.188000
539.075103	44278.309375
539.435328	43967.542405
539.795497	43776.323878
540.155609	43663.245756
540.515665	44017.044016
540.875665	43427.647431
541.235609	43631.201662
541.595496	43511.370914
541.955328	44041.536462
542.315102	43352.529198
542.674821	43051.859659
543.034483	42995.814631
543.394090	42854.218702
543.753640	42736.664035
544.113134	43561.358996
544.472571	42536.091647
544.831953	43594.146661
545.191278	42731.028025
545.550548	42365.304917
545.909761	42682.138915
546.268918	42747.124430
546.628019	42932.999334
546.987064	42415.292998
547.346053	41624.267904
547.704986	42314.424551
548.063863	41791.561115
548.422684	41851.384488
548.781449	41593.975611
549.140158	41820.083964
549.498811	41552.799466
549.857408	40927.925762
550.215949	41542.160111
550.574434	41349.000740
550.932864	41004.266475
551.291237	41526.961032
551.649555	41020.264577
552.007817	41097.283325
552.366022	40646.102577
552.724173	40662.725781
553.082267	40879.933977
553.440305	40982.556746
553.798288	40234.681408
554.156215	40359.956602
554.514086	40406.405793
554.871902	40021.203666
555.229661	39887.126618
555.587365	39567.416641
555.945014	39501.175880
556.302606	39267.304150
556.660143	39306.932660
557.017625	39218.291532
557.375050	38874.068944
557.732421	38995.399435
558.089735	38812.085437
558.446994	38569.394208
558.804197	38792.699680
559.161345	38590.194009
559.518437	37782.316338
559.875474	37870.828917
560.232455	37806.927251
560.589381	37788.882441
560.946251	37361.634570
561.303065	37728.587720
561.659825	37393.827378
562.016528	36949.749616
562.373177	36535.270987
562.729770	36734.515032
563.086307	36161.693761
563.442789	36328.651735
563.799216	36188.369027
564.155587	35826.777144
564.511904	35662.778327
564.868164	35527.743459
565.224370	35520.171646
565.580520	35100.893840
565.936615	35077.306281
566.292654	34661.680790
566.648638	34647.810055
567.004567	34390.438987
567.360441	34218.785178
567.716260	33916.399126
568.072023	33894.981784
568.427732	33675.308464
568.783385	33155.797396
569.138982	33200.943449
569.494525	32973.390805
569.850013	32592.932404
570.205445	32356.051105
570.560823	32117.034878
570.916145	31832.560046
571.271412	31629.809879
571.626625	31264.905958
571.981782	31069.646946
572.336884	30663.455975
572.691931	30659.291982
573.046923	30168.006334
573.401860	29870.774862
573.756743	29638.763318
574.111570	29493.187398
574.466342	29193.432828
574.821059	29041.684015
575.175722	28517.056176
575.530330	28302.126582
575.884882	27920.070134
576.239380	27683.259412
576.593823	27448.268546
576.948211	27188.291201
577.302544	26682.456783
577.656823	26476.986914
578.011047	26403.678455
578.365216	26022.174014
578.719330	25696.359200
579.073389	25396.024898
579.427394	25212.108482
579.781344	24992.926674
580.135239	24584.865435
580.489080	24424.218985
580.842866	23933.906280
581.196597	23963.276042
581.550273	23710.792373
581.903895	23428.475154
582.257463	23420.537858
582.610975	22898.967478
582.964434	22826.851251
583.317837	22439.587292
583.671186	22157.209580
584.024481	22054.826266
584.377721	21633.342955
584.730906	21552.082075
585.084037	21365.057788
585.437113	21034.050586
585.790135	20834.380564
586.143103	20456.198244
586.496016	20304.562857
586.848874	20118.062849
587.201679	19931.424211
587.554428	19500.317337
587.907124	19385.437002
588.259765	19086.294933
588.612352	18996.549792
588.964884	18561.341939
589.317362	18479.753384
589.669786	18254.557480
590.022155	17971.040468
590.374470	17949.398794
590.726731	17561.229948
591.078937	17192.247733
591.431090	17038.235442
591.783188	16724.292545
592.135232	16434.123730
592.487222	16359.716299
592.839157	16200.662854
593.191038	15909.251394
593.542866	15656.571119
593.894639	15287.535973
594.246358	15204.641759
594.598022	15035.266552
594.949633	14739.522220
595.301190	14557.617225
595.652692	14349.054608
596.004141	14280.384010
596.355535	13837.679962
596.706876	13657.859484
597.058162	13453.508751
597.409395	13438.274384
597.760573	13307.892501
598.111698	13029.255325
598.462768	12876.420144
598.813785	12733.732805
599.164748	12434.610900
599.515657	12382.767674
599.866511	12108.065118
600.217312	12122.835699
600.568060	11722.487425
600.918753	11771.202616
601.269392	11627.007972
601.619978	11406.444888
601.970510	11326.063690
602.320988	11233.019113
602.671412	11170.622232
603.021783	10990.358132
603.372100	10779.171594
603.722363	10681.398415
604.072572	10567.019676
604.422728	10449.684299
604.772830	10289.978025
605.122878	10183.150934
605.472872	10052.247292
605.822813	9990.599022
606.172701	9836.987502
606.522534	9768.639538
606.872314	9712.549140
607.222041	9552.500067
607.571714	9507.943829
607.921333	9300.601171
608.270899	9243.263087
608.620411	9195.147794
608.969870	9064.418072
609.319276	8956.141649
609.668627	8865.801652
610.017926	8837.971962
610.367171	8766.322042
610.716362	8682.343981
611.065500	8572.635871
611.414585	8502.571394
611.763616	8456.054147
612.112594	8351.203188
612.461518	8293.766802
612.810389	8240.980880
613.159207	8133.521124
613.507971	8057.593785
613.856682	8032.380454
614.205340	7929.152747
614.553945	7937.100126
614.902496	7781.000797
615.250994	7752.984584
615.599439	7679.527411
615.947830	7628.422714
616.296169	7551.056126
616.644454	7494.073443
616.992686	7435.991789
617.340864	7424.049296
617.688990	7321.643297
618.037063	7321.323183
618.385082	7245.116061
618.733048	7209.802778
619.080961	7136.723691
619.428821	7069.247847
619.776628	7014.992429
620.124382	6922.325939
620.472083	6868.574636
620.819731	6810.392159
621.167326	6702.340067
621.514868	6628.797194
621.862357	6515.570358
622.209793	6444.122085
622.557176	6346.628690
622.904506	6258.068220
623.251783	6159.538868
623.599007	6077.602474
623.946179	5989.067210
624.293297	5930.211738
624.640363	5828.511501
624.987376	5768.531852
625.334336	5683.938770
625.681243	5612.873624
626.028097	5553.761054
626.374899	5497.325337
626.721647	5446.576041
627.068343	5386.082195
627.414987	5326.331919
627.761577	5266.364874
628.108115	5240.244135
628.454600	5165.700593
628.801032	5126.641733
629.147412	5084.835444
629.493739	5045.458992
629.840014	4985.827183
630.186236	4969.272033
630.532405	4907.023866
630.878521	4881.455133
631.224585	4845.385678
631.570597	4788.556750
631.916556	4773.231643
632.262462	4733.207402
632.608316	4697.236248
632.954117	4659.092358
633.299866	4624.570536
633.645562	4581.130914
633.991206	4520.327037
634.336797	4458.512408
634.682336	4423.390689
635.027823	4374.191548
635.373257	4334.565558
635.718639	4285.532776
636.063968	4245.992485
636.409245	4187.346222
636.754470	4154.838342
637.099642	4115.008185
637.444762	4065.004980
637.789829	4040.918347
638.134845	3999.495186
638.479808	3971.920074
638.824719	3942.893110
639.169577	3901.298550
639.514383	3878.426835
639.859137	3845.077082
640.203839	3829.688960
640.548489	3792.492806
640.893086	3770.142850
641.237632	3740.936926
641.582125	3720.933627
641.926566	3694.039071
642.270955	3672.760361
642.615292	3656.421981
642.959576	3636.753920
643.303809	3617.136269
643.647990	3603.530195
643.992118	3581.732246
644.336195	3565.751788
644.680219	3549.022719
645.024192	3543.434600
645.368112	3543.013664
645.711981	3529.548742
646.055797	3539.963766
646.399562	3524.265613
646.743274	3540.987120
647.086935	3544.616751
647.430544	3525.326776
647.774101	3511.511493
648.117606	3503.685102
648.461059	3494.303515
648.804460	3473.377685
649.147810	3437.189762
649.491108	3408.089702
649.834354	3383.259498
650.177548	3347.583253
650.520690	3322.586691
650.863781	3311.120587
651.206820	3293.340437
651.549807	3271.993671
651.892742	3250.762852
652.235626	3230.565469
652.578458	3216.977039
652.921238	3194.490972
653.263967	3189.764890
653.606644	3175.697551
653.949269	3159.664161
654.291843	3144.197901
654.634365	3140.704381
654.976836	3122.256279
655.319255	3115.276801
655.661622	3105.388578
656.003938	3093.186465
656.346203	3078.236923
656.688416	3074.728280
657.030577	3062.112793
657.372687	3052.280022
657.714746	3047.271636
658.056753	3039.447765
658.398708	3020.840866
658.740612	3012.659073
659.082465	3011.358456
659.424266	3006.755882
659.766016	2999.473936
660.107715	2994.578975
660.449362	2989.058912
660.790958	2985.308293
661.132503	2980.887201
661.473996	2974.207672
661.815438	2970.928402
662.156829	2964.659727
662.498168	2958.726289
662.839456	2951.625824
663.180693	2948.341512
663.521879	2943.713733
663.863013	2937.014039
664.204097	2931.809048
664.545129	2933.901127
664.886110	2929.182607
665.227040	2924.360743
665.567918	2919.967378
665.908746	2918.674322
666.249522	2919.261616
666.590248	2913.560071
666.930922	2909.829617
667.271545	2907.750141
667.612118	2906.540264
667.952639	2895.817730
668.293109	2892.256155
668.633528	2886.050495
668.973896	2886.201729
669.314213	2878.224103
669.654480	2872.227651
669.994695	2868.340921
670.334859	2860.138964
670.674973	2858.223325
671.015035	2857.326000
671.355047	2851.919362
671.695008	2849.741584
672.034918	2843.243537
672.374777	2845.128928
672.714585	2838.525017
673.054342	2841.113649
673.394049	2835.777588
673.733705	2834.285406
674.073310	2828.626711
674.412864	2826.643017
674.752368	2817.800833
675.091820	2818.012562
675.431223	2810.949905
675.770574	2806.856488
676.109875	2797.474901
676.449125	2794.561114
676.788324	2791.183541
677.127473	2784.688014
677.466571	2778.331119
677.805619	2775.152672
678.144616	2775.724843
678.483562	2771.858278
678.822458	2764.077257
679.161303	2763.623553
679.500098	2757.831267
679.838842	2758.927718
680.177535	2756.462594
680.516179	2757.795979
680.854771	2760.087183
681.193314	2765.577000
681.531805	2773.209307
681.870247	2778.905811
682.208638	2785.025772
682.546978	2783.631892
682.885268	2783.780607
683.223508	2777.564864
683.561697	2772.115377
683.899836	2770.063627
684.237925	2766.055910
684.575963	2761.692791
684.913951	2755.159456
685.251889	2757.420413
685.589776	2752.152407
685.927614	2752.197778
686.265401	2750.962695
686.603137	2752.654002
686.940824	2754.342789
687.278460	2757.972419
687.616046	2758.108531
687.953582	2762.653131
688.291068	2760.480393
688.628504	2761.216402
688.965889	2759.913264
689.303224	2754.521750
689.640510	2748.684093
689.977745	2744.285687
690.314930	2737.084398
690.652065	2730.011660
690.989150	2720.128477
691.326185	2714.197560
691.663170	2703.646425
692.000105	2695.618387
692.336990	2690.451205
692.673825	2685.221008
693.010610	2680.308403
693.347345	2670.825993
693.684030	2666.009170
694.020665	2663.667554
694.357251	2653.590288
694.693786	2656.735968
695.030272	2653.522232
695.366707	2647.041829
695.703093	2643.331540
696.039429	2642.736684
696.375716	2639.409522
696.711952	2639.638895
697.048139	2635.979017
697.384276	2634.754017
697.720363	2634.638070
698.056400	2632.561115
698.392388	2631.850312
698.728326	2633.690333
699.064214	2628.331587
699.400053	2626.703294
699.735842	2623.519805
700.071581	2618.909670
700.407270	2617.906480
700.742910	2615.774072
701.078501	2611.151334
701.414042	2608.005654
701.749533	2606.533637
702.084974	2600.325456
702.420366	2603.365272
702.755709	2600.045672
703.091002	2595.922008
703.426246	2596.453850
703.761440	2595.564087
704.096584	2593.454364
704.431679	2590.706935
704.766725	2590.827922
705.101721	2591.672316
705.436668	2592.710793
705.771565	2587.195771
706.106413	2587.558734
706.441212	2588.335072
706.775961	2592.635176
707.110661	2588.972778
707.445311	2593.693818
707.779913	2591.999991
708.114465	2591.211050
708.448967	2594.823037
708.783421	2600.564911
709.117825	2598.452668
709.452180	2603.511466
709.786485	2603.088009
710.120742	2614.286932
710.454949	2611.496653
710.789107	2614.332302
711.123216	2618.193826
711.457275	2616.729371
711.791286	2622.226749
712.125247	2623.792027
712.459159	2622.385546
712.793023	2630.043058
713.126837	2621.367232
713.460602	2624.147429
713.794318	2620.447222
714.127985	2615.093517
714.461602	2609.374327
714.795171	2608.313165
715.128691	2601.820158
715.462162	2598.372009
715.795584	2591.314394
716.128957	2589.040833
716.462281	2583.815677
716.795556	2584.082859
717.128782	2578.204873
717.461960	2577.788978
717.795088	2574.335788
718.128167	2572.447876
718.461198	2567.489901
718.794180	2569.314798
719.127113	2563.819941
719.459997	2564.185424
719.792833	2558.315001
720.125619	2556.800134
720.458357	2557.004301
720.791046	2552.852911
721.123686	2554.481203
721.456278	2552.288301
721.788821	2548.814946
722.121315	2550.637323
722.453761	2549.619010
722.786158	2550.246634
723.118506	2548.449463
723.450805	2548.146993
723.783056	2549.339226
724.115259	2547.680687
724.447412	2547.600028
724.779518	2549.218239
725.111574	2551.673281
725.443582	2549.392158
725.775542	2552.976419
726.107453	2555.572613
726.439315	2554.450956
726.771129	2562.007646
727.102895	2559.222408
727.434612	2563.237688
727.766281	2562.607543
728.097901	2564.618964
728.429473	2562.226936
728.760996	2562.199210
729.092471	2560.255845
729.423897	2567.205076
729.755276	2565.647359
730.086606	2563.986299
730.417887	2571.240519
730.749120	2571.769840
731.080305	2576.170768
731.411442	2577.468865
731.742530	2577.468865
732.073570	2581.458938
732.404562	2584.821388
732.735506	2579.369380
733.066401	2578.623289
733.397249	2577.100861
733.728048	2569.080385
734.058798	2561.690053
734.389501	2556.520350
734.720156	2552.431974
735.050762	2548.751932
735.381320	2547.877292
735.711831	2541.943854
736.042293	2545.092054
736.372707	2541.364121
736.703073	2540.804553
737.033391	2539.924872
737.363661	2541.432177
737.693883	2541.918648
738.024056	2546.566592
738.354182	2543.927548
738.684260	2550.609597
739.014290	2550.675132
739.344272	2553.213353
739.674207	2554.627397
740.004093	2555.169321
740.333931	2555.580175
740.663722	2557.425237
740.993464	2554.186296
741.323159	2554.065308
741.652806	2553.543549
741.982405	2551.844680
742.311956	2549.606408
742.641460	2547.116077
742.970915	2546.329657
743.300323	2540.297917
743.629683	2538.921682
743.958996	2539.319933
744.288260	2534.238450
744.617477	2532.557225
744.946647	2529.207378
745.275768	2529.688809
745.604842	2526.303674
745.933869	2523.606657
746.262847	2522.008611
746.591778	2530.306350
746.920662	2523.314270
747.249498	2526.991791
747.578286	2528.715866
747.907027	2528.496576
748.235720	2528.567152
748.564365	2529.406504
748.892963	2529.378778
749.221514	2532.108562
749.550017	2528.352903
749.878473	2530.371885
750.206881	2527.931967
750.535242	2526.528005
750.863555	2527.344672
751.191821	2521.703621
751.520039	2523.838550
751.848210	2524.103210
752.176334	2523.707480
752.504411	2524.703108
752.832440	2521.784279
753.160421	2524.907274
753.488356	2517.539628
753.816243	2521.922911
754.144082	2519.014165
754.471875	2519.157838
754.799620	2520.438291
755.127318	2521.378467
755.454969	2519.051974
755.782572	2520.445853
756.110129	2520.067767
756.437638	2517.685821
756.765100	2516.826305
757.092515	2520.294618
757.419882	2519.298991
757.747203	2520.889475
758.074477	2520.448374
758.401703	2519.576254
758.728882	2524.435926
759.056014	2526.848118
759.383099	2522.434588
759.710138	2525.055988
760.037129	2525.214785
760.364073	2523.052130
760.690970	2527.851308
761.017820	2525.731503
761.344623	2529.272913
761.671379	2531.707791
761.998088	2534.205682
762.324751	2550.687735
762.651366	2578.555233
762.977935	2611.642847
763.304456	2629.662451
763.630931	2642.618217
763.957359	2630.998357
764.283740	2614.251644
764.610074	2599.153388
764.936362	2577.078175
765.262602	2564.709704
765.588796	2548.348640
765.914943	2538.349511
766.241044	2532.113604
766.567097	2522.855525
766.893104	2516.801099
767.219064	2511.901097
767.544978	2508.500839
767.870845	2505.002278
768.196665	2503.101763
768.522438	2499.535147
768.848165	2499.681340
769.173846	2498.451299
769.499479	2499.404077
769.825066	2496.404590
770.150607	2493.838643
770.476101	2494.100783
770.801548	2494.836792
771.126949	2490.408138
771.452303	2490.541728
771.777611	2488.368991
772.102872	2489.548621
772.428087	2485.296408
772.753256	2486.725575
773.078378	2486.420585
773.403453	2483.534525
773.728482	2483.499237
774.053465	2481.359267
774.378401	2478.884060
774.703291	2480.436736
775.028135	2481.450007
775.352932	2477.775006
775.677683	2477.739718
776.002388	2477.084368
776.327046	2475.758545
776.651658	2480.131746
776.976224	2473.739563
777.300743	2475.645119
777.625216	2474.586477
777.949643	2475.151086
778.274024	2476.338278
778.598359	2469.893162
778.922647	2469.177318
779.246889	2472.517083
779.571086	2467.012143
779.895236	2474.147896
780.219339	2473.520272
780.543397	2472.512042
780.867409	2474.188225
781.191374	2476.597897
781.515294	2473.525314
781.839167	2478.314410
782.162995	2474.485653
782.486776	2475.579584
782.810511	2473.981538
783.134201	2476.688638
783.457844	2472.126393
783.781441	2473.162351
784.104993	2471.347535
784.428498	2474.478092
784.751958	2471.491208
785.075372	2472.247381
785.398739	2471.781074
785.722061	2476.497074
786.045337	2474.757876
786.368568	2472.731332
786.691752	2476.827269
787.014891	2479.511684
787.337983	2479.773824
787.661030	2484.583085
787.984031	2488.111892
788.306987	2494.950218
788.629897	2493.279075
788.952760	2498.131186
789.275579	2492.674137
789.598351	2490.609784
789.921078	2483.879844
790.243759	2485.198105
790.566395	2482.153248
790.888984	2475.365335
791.211529	2476.161837
791.534027	2474.503297
791.856480	2470.803091
792.178888	2473.847947
792.501249	2473.149748
792.823566	2471.269397
793.145836	2471.224027
793.468062	2472.154120
793.790241	2470.072123
794.112375	2469.031125
794.434464	2472.665797
794.756507	2471.861733
795.078505	2473.507670
795.400457	2472.849799
795.722364	2475.519090
796.044226	2479.015130
796.366042	2477.573360
796.687812	2483.209370
797.009538	2484.194916
797.331218	2484.396562
797.652852	2483.824391
797.974442	2480.524956
798.295986	2479.322641
798.617484	2477.210397
798.938938	2475.655201
799.260346	2478.130408
799.581709	2473.439614
799.903026	2477.265850
800.224299	2474.135293
800.545526	2470.782926
800.866708	2471.150930
801.187845	2472.101188
801.508936	2468.816876
801.829983	2470.039356
802.150984	2465.048613
802.471940	2468.504324
802.792851	2465.782101
803.113717	2468.963069
803.434538	2465.290589
803.755314	2466.795373
804.076045	2463.992492
804.396731	2465.600620
804.717372	2464.826803
805.037967	2468.053141
805.358518	2465.041052
805.679024	2464.983078
805.999485	2470.326702
806.319901	2468.232102
806.640272	2466.843264
806.960598	2466.437451
807.280879	2468.711012
807.601115	2468.925261
807.921306	2468.668162
808.241453	2468.242184
808.561554	2466.651700
808.881611	2468.756382
809.201623	2470.034315
809.521590	2468.920220
809.841513	2467.743110
810.161390	2469.452061
810.481223	2467.717904
810.801011	2465.653552
811.120755	2466.646659
811.440453	2465.146916
811.760107	2466.402163
812.079716	2464.466360
812.399281	2461.187090
812.718801	2464.428552
813.038276	2457.154167
813.357707	2462.074333
813.677093	2464.433593
813.996434	2463.851339
814.315731	2464.645321
814.634983	2462.916205
814.954191	2464.804117
815.273354	2464.907461
815.592473	2466.182873
815.911547	2470.485498
816.230577	2468.322843
816.549562	2472.106229
816.868502	2472.953143
817.187399	2474.906590
817.506250	2476.403812
817.825058	2476.635706
818.143821	2477.235603
818.462539	2480.429174
818.781213	2483.300111
819.099843	2493.790752
819.418429	2500.465240
819.736970	2513.733557
820.055466	2523.387366
820.373919	2540.756662
820.692327	2566.395970
821.010691	2612.020933
821.329011	2706.918134
821.647286	2850.500278
821.965517	3009.276459
822.283704	3101.096035
822.601847	3130.969913
822.919945	3068.661252
823.237999	2991.690394
823.556010	2914.482602
823.873976	2843.712364
824.191897	2775.044287
824.509775	2728.098542
824.827609	2681.427539
825.145398	2654.424599
825.463144	2644.425470
825.780845	2646.187353
826.098502	2663.886845
826.416116	2700.498224
826.733685	2731.549212
827.051210	2740.058679
827.368692	2724.186606
827.686129	2685.863755
828.003522	2647.256078
828.320872	2608.610593
828.638177	2581.156469
828.955439	2557.364743
829.272656	2538.447813
829.589830	2522.553055
829.906960	2515.576098
830.224046	2503.232833
830.541088	2496.041627
830.858086	2488.235401
831.175041	2486.687766
831.491952	2484.535194
831.808819	2487.123826
832.125642	2492.976606
832.442421	2504.152844
832.759157	2521.643127
833.075849	2553.939279
833.392497	2584.352560
833.709101	2603.403081
834.025662	2598.336721
834.342179	2586.001018
834.658653	2559.517316
834.975083	2546.690100
835.291469	2525.948273
835.607811	2512.735408
835.924110	2502.622854
836.240366	2494.977944
836.556578	2482.843887
836.872746	2478.183340
837.188871	2472.103708
837.504952	2468.335446
837.820990	2461.643314
838.136984	2463.364868
838.452935	2460.438478
838.768842	2462.016359
839.084706	2466.810497
839.400526	2479.418423
839.716303	2497.884169
840.032037	2509.017557
840.347727	2506.829697
840.663373	2497.979951
840.978977	2485.631645
841.294537	2478.095120
841.610054	2472.698564
841.925527	2467.211268
842.240957	2459.601647
842.556344	2459.266410
842.871687	2450.754422
843.186987	2453.380863
843.502244	2447.875923
843.817458	2445.504060
844.132629	2444.231169
844.447756	2444.737805
844.762840	2440.599017
845.077881	2440.561209
845.392879	2434.461413
845.707833	2437.806218
846.022745	2435.782195
846.337613	2439.217741
846.652438	2438.854778
846.967221	2440.954419
847.281960	2439.769748
847.596656	2440.679676
847.911309	2440.861157
848.225919	2438.643050
848.540485	2435.779674
848.855009	2437.665066
849.169490	2437.476022
849.483928	2435.807401
849.798323	2436.886208
850.112675	2437.004675
850.426984	2436.311516
850.741251	2434.370672
851.055474	2436.298913
851.369654	2437.929726
851.683792	2435.462082
851.997887	2436.646753
852.311938	2437.496187
852.625947	2437.251691
852.939914	2436.792946
853.253837	2437.244129
853.567718	2436.712288
853.881555	2437.932247
854.195350	2435.545261
854.509103	2434.111052
854.822812	2437.748245
855.136479	2436.886207
855.450103	2436.409818
855.763685	2432.921340
856.077224	2435.787236
856.390720	2437.118101
856.704173	2434.295054
857.017584	2436.271187
857.330953	2437.100457
857.644278	2436.853440
857.957561	2438.275045
858.270802	2439.696651
858.584000	2436.704726
858.897155	2437.665066
859.210268	2435.890580
859.523339	2436.480395
859.836367	2437.765889
860.149352	2436.011567
860.462295	2436.863522
860.775195	2432.492842
861.088054	2432.452513
861.400869	2434.100970
861.713642	2432.863367
862.026373	2437.367638
862.339062	2434.378233
862.651708	2438.998451
862.964312	2437.055086
863.276873	2440.510797
863.589392	2436.876125
863.901869	2439.111877
864.214303	2437.571804
864.526696	2439.341249
864.839045	2437.390323
865.151353	2440.064655
865.463619	2440.672114
865.775842	2440.725046
866.088023	2443.790068
866.400162	2440.823349
866.712258	2442.237392
867.024313	2442.610438
867.336325	2440.074737
867.648296	2440.402412
867.960224	2441.950047
868.272110	2441.748400
868.583954	2442.174378
868.895755	2443.099430
869.207515	2441.551795
869.519233	2442.126487
869.830909	2442.202104
870.142542	2441.574481
870.454134	2442.469285
870.765684	2442.378545
871.077191	2445.781323
871.388657	2445.035233
871.700081	2444.644543
872.011463	2444.069852
872.322803	2447.283587
872.634101	2449.957919
872.945357	2445.685542
873.256571	2449.007662
873.567744	2447.384410
873.878874	2447.666715
874.189963	2448.632096
874.501010	2447.339040
874.812015	2450.237703
875.122979	2451.634103
875.433900	2450.562858
875.744780	2454.517643
876.055618	2450.131839
876.366415	2451.399689
876.677169	2452.435647
876.987882	2450.698969
877.298554	2449.854576
877.609183	2453.927828
877.919771	2452.947324
878.230317	2460.476287
878.540822	2461.461833
878.851285	2467.284365
879.161707	2478.221148
879.472087	2490.914774
879.782425	2507.028822
880.092722	2547.068187
880.402977	2592.955289
880.713191	2656.068015
881.023363	2710.580532
881.333494	2748.537900
881.643583	2761.967534
881.953631	2758.416041
882.263637	2742.334760
882.573602	2719.808364
882.883526	2693.881710
883.193408	2672.466888
883.503248	2645.703403
883.813048	2623.348406
884.122806	2599.433172
884.432522	2579.634040
884.742197	2554.665205
885.051831	2544.910573
885.361424	2526.286030
885.670975	2513.126098
885.980485	2503.910868
886.289954	2493.785711
886.599382	2486.609628
886.908768	2481.588639
887.218113	2474.906590
887.527417	2473.515231
887.836680	2465.262862
888.145901	2466.205558
888.455082	2461.958386
888.764221	2461.585341
889.073319	2458.865638
889.382376	2458.001080
889.691392	2454.379011
890.000366	2457.711214
890.309300	2455.389763
890.618193	2456.859259
890.927044	2454.515123
891.235855	2452.843980
891.544625	2458.154836
891.853353	2454.852880
892.162041	2458.638786
892.470687	2463.163222
892.779293	2467.493573
893.087858	2469.973821
893.396381	2477.913638
893.704864	2495.673623
894.013306	2505.725684
894.321707	2532.027904
894.630068	2540.184491
894.938387	2544.446787
895.246665	2539.151054
895.554903	2531.932122
895.863100	2520.466018
896.171256	2511.129801
896.479371	2507.210304
896.787446	2498.300064
897.095480	2490.486276
897.403473	2485.379587
897.711425	2481.225676
898.019336	2475.977835
898.327207	2471.904583
898.635038	2468.436269
898.942827	2465.020887
899.250576	2463.881586
899.558284	2459.294136
899.865952	2453.471604
900.173579	2456.584516
900.481165	2452.324741
900.788711	2452.823815
901.096216	2449.166458
901.403681	2450.235183
901.711105	2447.696962
902.018489	2449.380707
902.325832	2453.690894
902.633135	2451.422375
902.940397	2459.586523
903.247619	2476.381127
903.554800	2498.763850
903.861941	2529.519930
904.169041	2559.466904
904.476101	2568.175498
904.783121	2561.148129
905.090100	2546.584236
905.397039	2533.446989
905.703938	2523.594054
906.010796	2507.240551
906.317614	2500.530775
906.624391	2490.889568
906.931129	2482.478403
907.237826	2476.822228
907.544483	2467.279324
907.851099	2462.782615
908.157675	2457.388580
908.464211	2451.457663
908.770707	2442.774275
909.077163	2443.686724
909.383578	2437.801177
909.689954	2436.215734
909.996289	2436.414860
910.302584	2438.753955
910.608839	2437.980138
910.915054	2439.653801
911.221229	2434.095929
911.527363	2439.686568
911.833458	2436.094746
912.139513	2438.209510
912.445527	2437.576846
912.751502	2439.381579
913.057436	2438.857299
913.363331	2444.992383
913.669186	2450.303238
913.975000	2452.949844
914.280775	2463.100208
914.586510	2473.134624
914.892205	2486.075266
915.197859	2508.243740
915.503475	2526.344003
915.809050	2546.024668
916.114585	2555.476831
916.420081	2564.066957
916.725536	2562.481514
917.030952	2554.191337
917.336328	2544.860161
917.641665	2535.859181
917.946961	2526.177645
918.252218	2522.853004
918.557435	2513.363032
918.862612	2502.942967
919.167750	2497.732934
919.472848	2487.890082
919.777906	2481.051756
920.082925	2475.871971
920.387904	2469.043728
920.692843	2465.298151
920.997743	2458.081739
921.302603	2456.624845
921.607423	2452.576799
921.912204	2450.303238
922.216946	2448.821139
922.521647	2446.890377
922.826310	2444.306786
923.130932	2445.322578
923.435516	2440.062134
923.740059	2440.422577
924.044564	2435.663728
924.349028	2440.946857
924.653454	2431.020825
924.957840	2435.267997
925.262186	2433.685075
925.566493	2431.943356
925.870761	2430.874632
926.174989	2431.313212
926.479178	2430.211720
926.783328	2430.998140
927.087438	2428.492686
927.391509	2432.084508
927.695541	2425.601585
927.999533	2427.716349
928.303486	2425.175607
928.607400	2425.304157
928.911275	2425.087387
929.215110	2426.362799
929.518906	2422.347520
929.822663	2425.379774
930.126381	2424.968920
930.430060	2424.404311
930.733699	2422.259300
931.037299	2426.566966
931.340861	2426.403128
931.644383	2425.987233
931.947866	2427.287851
932.251309	2427.093766
932.554714	2425.523447
932.858080	2426.244332
933.161407	2427.504620
933.464694	2428.406987
933.767943	2423.970771
934.071153	2425.019331
934.374323	2425.931780
934.677455	2423.030596
934.980548	2423.980854
935.283602	2426.922367
935.586617	2425.432706
935.889593	2426.466143
936.192530	2423.471697
936.495428	2424.426996
936.798287	2422.932294
937.101108	2427.960845
937.403890	2427.784404
937.706632	2427.219795
938.009336	2431.739189
938.312002	2432.238264
938.614628	2432.926381
938.917216	2432.492842
939.219765	2436.984510
939.522275	2432.170208
939.824747	2436.366969
940.127179	2432.044179
940.429573	2431.585434
940.731929	2432.321443
941.034246	2430.451175
941.336524	2432.782708
941.638763	2432.059303
941.940964	2434.002668
942.243126	2434.103491
942.545250	2434.892431
942.847335	2431.703901
943.149381	2429.969744
943.451389	2429.079981
943.753359	2429.163160
944.055290	2430.990578
944.357182	2429.107707
944.659036	2428.200299
944.960851	2427.645772
945.262628	2425.788107
945.564367	2429.626946
945.866067	2426.728282
946.167729	2429.629467
946.469352	2429.299271
946.770937	2428.006215
947.072484	2426.801379
947.373992	2426.304826
947.675462	2426.705597
947.976893	2424.157294
948.278286	2425.561255
948.579641	2427.267686
948.880958	2422.894485
949.182236	2430.708273
949.483476	2425.697367
949.784678	2424.926070
950.085841	2427.154260
950.386967	2427.658375
950.688054	2426.516554
950.989103	2425.962027
951.290114	2427.063519
951.591087	2426.763571
951.892021	2425.578899
952.192917	2425.485638
952.493776	2429.488314
952.794596	2428.943870
953.095378	2428.585948
953.396122	2429.551329
953.696828	2428.606112
953.997496	2427.718869
954.298126	2424.663930
954.598718	2430.640218
954.899272	2424.454722
955.199788	2428.870773
955.500266	2427.313056
955.800706	2423.756522
956.101108	2419.660585
956.401472	2419.844587
956.701798	2420.615883
957.002087	2419.340472
957.302337	2421.999680
957.602550	2422.670154
957.902724	2416.966088
958.202861	2420.081521
958.502960	2417.868455
958.803022	2420.308373
959.103045	2417.921387
959.403031	2419.232087
959.702979	2417.611356
960.002889	2415.804102
960.302762	2415.040367
960.602596	2417.248393
960.902393	2416.499781
961.202153	2416.141859
961.501875	2417.775193
961.801559	2416.802251
962.101205	2414.702610
962.400814	2415.476427
962.700385	2413.800243
962.999918	2417.785276
963.299414	2417.969278
963.598873	2416.030954
963.898293	2417.729823
964.197677	2414.160686
964.497022	2415.620100
964.796331	2413.948957
965.095601	2413.883422
965.394835	2415.473907
965.694030	2413.490213
965.993189	2413.217990
966.292309	2413.729667
966.591393	2412.857548
966.890439	2413.243196
967.189447	2411.698082
967.488419	2414.495923
967.787353	2414.957188
968.086249	2412.970974
968.385108	2413.921231
968.683930	2412.703793
968.982714	2414.611869
969.281462	2410.314286
969.580172	2415.763773
969.878844	2416.424164
970.177480	2414.493402
970.476078	2413.553227
970.774639	2415.330234
971.073162	2415.194122
971.371649	2414.511046
971.670098	2412.857548
971.968510	2412.625655
972.266885	2409.323699
972.565223	2415.393248
972.863524	2416.356108
973.161788	2417.271078
973.460014	2412.973494
973.758204	2415.005079
974.056356	2416.940882
974.354471	2414.894174
974.652550	2414.947106
974.950591	2416.547672
975.248595	2415.781417
975.546563	2413.485171
975.844493	2415.042888
976.142386	2415.988104
976.440243	2415.047929
976.738062	2416.603125
977.035845	2416.252765
977.333590	2416.411561
977.631299	2414.445511
977.928971	2411.884605
978.226606	2416.272929
978.524204	2413.399472
978.821765	2417.177817
979.119290	2412.933165
979.416777	2411.481313
979.714228	2413.691859
980.011642	2415.211767
980.309020	2416.265368
980.606360	2415.536921
980.903664	2418.105389
981.200931	2416.409041
981.498162	2419.204360
981.795356	2417.893660
982.092513	2421.387180
982.389633	2424.106882
982.686717	2424.265679
982.983764	2428.767429
983.280775	2430.962852
983.577749	2430.564601
983.874686	2430.584765
984.171587	2425.692325
984.468451	2427.605443
984.765279	2426.819023
985.062070	2423.199475
985.358824	2422.939855
985.655543	2421.888775
985.952224	2421.450194
986.248869	2417.487848
986.545478	2412.696231
986.842050	2413.875861
987.138586	2412.781930
987.435086	2412.993659
987.731549	2409.532907
988.027975	2412.779410
988.324366	2412.837383
988.620719	2413.959040
988.917037	2413.908628
989.213318	2411.083062
989.509563	2410.926786
989.805772	2411.425860
990.101944	2408.428894
990.398080	2410.253792
990.694180	2410.006775
990.990244	2411.067938
991.286271	2411.314955
991.582262	2411.866961
991.878217	2409.522824
992.174136	2412.267733
992.470019	2410.589028
992.765865	2410.309244
993.061676	2411.609862
993.357450	2414.069945
993.653188	2411.403175
993.948890	2412.081210
994.244556	2411.529204
994.540186	2415.032806
994.835780	2410.079872
995.131337	2415.952816
995.426859	2414.395100
995.722345	2420.096645
996.017795	2417.714699
996.313208	2419.993301
996.608586	2418.203691
996.903928	2420.104206
997.199234	2418.501119
997.494504	2416.892991
997.789738	2420.986408
998.084936	2418.342323
998.380099	2418.238979
998.675225	2416.451890
998.970316	2416.444329
999.265371	2415.700758
999.560390	2416.414082
999.855373	2414.664801
1000.150320	2410.936868
1000.445232	2413.686818
1000.740108	2411.955181
1001.034948	2407.725653
1001.329752	2409.847979
1001.624521	2410.011816
1001.919254	2405.449572
1002.213951	2407.952505
1002.508613	2407.581980
1002.803239	2408.156672
1003.097829	2403.029818
1003.392384	2408.935530
1003.686903	2410.452917
1003.981386	2408.471744
1004.275834	2409.963925
1004.570246	2409.079203
1004.864623	2407.650036
1005.158964	2406.871178
1005.453270	2407.234141
1005.747540	2408.217166
1006.041775	2407.667680
1006.335974	2406.798081
1006.630138	2408.849830
1006.924266	2409.328740
1007.218359	2408.897721
1007.512416	2407.690365
1007.806438	2408.005437
1008.100425	2406.508214
1008.394376	2407.098029
1008.688292	2407.236661
1008.982172	2408.406209
1009.276017	2406.460323
1009.569827	2407.566857
1009.863602	2409.033833
1010.157341	2408.620458
1010.451045	2404.955539
1010.744714	2408.043246
1011.038347	2407.455951
1011.331945	2405.769685
1011.625508	2407.224058
1011.919036	2405.936043
1012.212528	2410.158010
1012.505986	2403.465878
1012.799408	2403.065106
1013.092795	2408.020561
1013.386147	2407.708009
1013.679464	2406.412433
1013.972745	2404.569891
1014.265992	2405.404202
1014.559204	2408.688513
1014.852380	2407.279511
1015.145521	2407.753379
1015.438628	2405.237844
1015.731699	2406.372103
1016.024736	2407.723133
1016.317737	2407.355128
1016.610703	2409.512742
1016.903635	2402.301372
1017.196531	2402.192987
1017.489393	2404.166598
1017.782219	2404.133831
1018.075011	2406.029305
1018.367768	2409.023750
1018.660490	2403.181053
1018.953177	2403.181053
1019.245829	2403.181053
