Dividing Wavelength (nm)	Counts (n)	Blue Motor Position (mm): 0.000000	Red Motor Position (mm): 30.600000	
326.493990	1989.067908
326.888308	1989.067908
327.282561	1989.067908
327.676750	1962.387602
328.070874	1965.442541
328.464933	1970.677779
328.858929	1980.566002
329.252859	1992.700060
329.646726	2007.112719
330.040528	2023.602333
330.434265	2042.209232
330.827938	2062.361244
331.221547	2083.566858
331.615091	2103.973449
332.008571	2122.643362
332.401986	2142.886115
332.795338	2164.167346
333.188625	2182.257527
333.581847	2203.175795
333.975006	2221.621377
334.368100	2239.341032
334.761129	2255.898702
335.154095	2270.260949
335.546996	2291.970678
335.939833	2322.658703
336.332606	2334.833089
336.725315	2346.727692
337.117960	2353.601305
337.510540	2362.803931
337.903056	2373.380272
338.295508	2378.333206
338.687896	2385.060625
339.080220	2392.264434
339.472480	2397.716442
339.864676	2402.250960
340.256807	2404.297668
340.648875	2406.147772
341.040879	2408.068452
341.432818	2410.097516
341.824694	2410.218504
342.216506	2409.507701
342.608253	2413.598597
342.999937	2408.060890
343.391557	2410.117681
343.783113	2406.392268
344.174605	2406.586352
344.566033	2403.334808
344.957397	2404.695920
345.348697	2398.530588
345.739934	2399.881618
346.131106	2396.546894
346.522215	2397.844992
346.913260	2393.383570
347.304241	2392.703015
347.695159	2391.790566
348.086012	2390.484907
348.476802	2388.705380
348.867528	2386.961140
349.258191	2386.202447
349.648789	2387.868548
350.039324	2382.945861
350.429796	2385.113558
350.820203	2380.783206
351.210548	2379.487630
351.600828	2382.983670
351.991045	2385.796634
352.381198	2379.981663
352.771288	2379.845552
353.161314	2380.692466
353.551276	2381.720861
353.941175	2379.565768
354.331010	2383.689432
354.720782	2384.180944
355.110490	2381.027702
355.500135	2385.085831
355.889717	2384.972405
356.279235	2381.183978
356.668689	2385.131202
357.058080	2385.842004
357.447408	2384.007024
357.836672	2385.400903
358.225873	2386.310832
358.615010	2384.569113
359.004084	2388.160935
359.393095	2388.768394
359.782043	2389.204454
360.170927	2391.198230
360.559748	2392.700494
360.948505	2391.034393
361.337199	2392.992881
361.725830	2395.064795
362.114398	2397.608057
362.502903	2395.518499
362.891344	2398.679303
363.279722	2397.819786
363.668037	2399.327091
364.056289	2397.855074
364.444478	2401.792215
364.832603	2399.926988
365.220665	2401.242729
365.608665	2403.982596
365.996601	2404.882442
366.384474	2401.835065
366.772284	2407.362690
367.160031	2405.610889
367.547715	2408.333112
367.935336	2408.136507
368.322893	2410.092475
368.710388	2410.037022
369.097820	2410.352094
369.485189	2410.498288
369.872495	2415.035326
370.259738	2415.131108
370.646918	2418.433064
371.034035	2419.642941
371.421090	2423.454053
371.808081	2425.636873
372.195010	2431.961000
372.581875	2435.469643
372.968678	2444.536158
373.355418	2451.719803
373.742096	2460.708180
374.128710	2472.804429
374.515262	2482.743063
374.901751	2495.948366
375.288177	2515.991994
375.674540	2533.343645
376.060841	2556.580844
376.447079	2581.632858
376.833254	2607.657815
377.219367	2636.145375
377.605417	2667.554284
377.991404	2699.132072
378.377329	2735.201527
378.763191	2770.965993
379.148991	2819.053560
379.534727	2869.122300
379.920402	2916.166348
380.306013	2965.277268
380.691563	3029.504089
381.077049	3087.815116
381.462474	3144.379382
381.847835	3220.029457
382.233134	3291.089562
382.618371	3350.887729
383.003545	3439.992644
383.388657	3522.337371
383.773706	3616.927062
384.158693	3687.364584
384.543618	3783.953091
384.928480	3862.058208
385.313280	3970.712718
385.698017	4078.495108
386.082692	4199.074467
386.467305	4260.442953
386.851856	4389.390627
387.236344	4549.568249
387.620770	4614.251294
388.005133	4738.450202
388.389435	4885.034353
388.773674	4966.091065
389.157851	5106.388898
389.541965	5235.986881
389.926018	5260.020582
390.310008	5446.921360
390.693936	5563.407302
391.077802	5688.727866
391.461606	5822.953629
391.845348	5938.549807
392.229027	6061.289300
392.612645	6284.914885
392.996200	6402.613224
393.379694	6578.680563
393.763125	6812.030534
394.146494	6903.419091
394.529801	7038.499329
394.913047	7291.247660
395.296230	7283.436392
395.679351	7340.431677
396.062410	7613.689942
396.445408	7503.066862
396.828343	7661.563259
397.211217	7804.051473
397.594028	7679.618152
397.976778	7891.414669
398.359466	8061.122593
398.742092	8031.972121
399.124656	8178.851179
399.507158	8367.980148
399.889598	8386.123261
400.271977	8602.668545
400.654294	8639.680696
401.036549	8834.269235
401.418742	8860.871403
401.800874	9163.645624
402.182944	9252.848841
402.564952	9620.444739
402.946898	9442.318088
403.328783	9496.389504
403.710606	9690.418475
404.092367	9953.589391
404.474067	10324.363735
404.855705	10106.487587
405.237282	10065.404703
405.618797	10494.686680
406.000250	10748.748231
406.381642	11106.075298
406.762972	11069.206819
407.144240	10867.485048
407.525447	11121.218924
407.906593	11060.026878
408.287677	11322.355921
408.668700	11475.422996
409.049661	11449.093049
409.430560	11614.392484
409.811399	11578.431413
410.192176	11744.519788
410.572891	11822.360245
410.953545	12309.799493
411.334138	11784.203751
411.714669	12390.745300
412.095139	11696.049094
412.475547	12200.719006
412.855894	12050.353989
413.236180	12375.737785
413.616405	12057.676265
413.996568	12338.897033
414.376670	12313.499699
414.756711	12189.802387
415.136691	12461.041670
415.516609	12648.892706
415.896466	12721.145043
416.276262	13009.614990
416.655997	13454.615284
417.035670	13494.047189
417.415283	14149.354340
417.794834	14241.983021
418.174324	13979.207836
418.553753	13886.110327
418.933121	14380.486202
419.312428	14189.736502
419.691674	14103.373975
420.070859	14554.879878
420.449983	14213.099730
420.829045	14765.978196
421.208047	14501.476415
421.586988	14971.395133
421.965867	15228.821654
422.344686	15226.348968
422.723444	15800.533870
423.102141	14467.620026
423.480777	15664.213509
423.859352	15168.907540
424.237866	16292.132070
424.616319	15980.603886
424.994712	16663.150911
425.373044	16438.055830
425.751314	17128.721633
426.129524	16248.364772
426.507673	17344.019232
426.885762	17034.416768
427.263789	17239.458139
427.641756	17409.362668
428.019662	17463.671018
428.397508	17509.832864
428.775292	17807.117268
429.153016	17778.657434
429.530679	17861.521400
429.908282	17884.193990
430.285824	17595.966018
430.663305	18302.836611
431.040726	17904.363646
431.418086	17725.526193
431.795385	18379.613384
432.172624	18800.887487
432.549802	18350.296554
432.926920	18550.490855
433.303977	18432.192618
433.680974	18684.338531
434.057910	18981.123861
434.434786	19001.187653
434.811601	18917.012987
435.188355	19957.277768
435.565050	19598.884497
435.941683	19557.453774
436.318257	20440.200142
436.694770	20250.292315
437.071222	20844.523366
437.447614	19910.979811
437.823946	19942.897877
438.200218	20093.683829
438.576429	19863.356031
438.952580	20140.707712
439.328670	20099.650035
439.704700	20530.610716
440.080670	20084.415668
440.456580	20689.404541
440.832429	20872.786595
441.208218	19847.272229
441.583947	20298.195879
441.959616	20398.797145
442.335224	20642.615072
442.710773	20778.073396
443.086261	21321.464410
443.461689	20672.531799
443.837057	20793.809358
444.212365	21442.862957
444.587612	21438.066299
444.962800	21014.422853
445.337927	21431.253179
445.712995	20158.470218
446.088002	22036.410931
446.462949	22224.864385
446.837837	22401.329976
447.212664	22345.857119
447.587431	25203.351997
447.962139	28134.485531
448.336786	30557.430427
448.711374	28979.879469
449.085901	25280.693380
449.460369	25236.149744
449.834776	25134.668797
450.209124	27629.041802
450.583412	27156.201736
450.957640	27693.770218
451.331808	26348.301380
451.705917	24968.933302
452.079965	25004.392779
452.453954	25357.596182
452.827883	25247.015952
453.201752	25041.677152
453.575562	25201.615320
453.949311	26334.589441
454.323001	26389.512812
454.696632	26149.132953
455.070202	27712.225882
455.443713	27845.403084
455.817164	28436.435523
456.190556	28974.417379
456.563888	28407.005267
456.937160	28851.594707
457.310373	27173.296289
457.683526	27624.398900
458.056619	27609.683772
458.429653	27549.444504
458.802628	28114.058776
459.175542	28237.463701
459.548398	29529.415650
459.921194	31102.268253
460.293930	31763.823913
460.666607	33807.260666
461.039224	35572.667702
461.411782	35969.076314
461.784280	34768.971668
462.156719	34296.159328
462.529099	33745.587190
462.901419	32437.281738
463.273680	31368.121063
463.645882	31458.080453
464.018024	31416.874062
464.390106	32257.252052
464.762130	34943.703101
465.134094	38988.727468
465.505999	44287.592660
465.877845	48883.915091
466.249631	50077.887174
466.621358	48373.326865
466.993026	46273.746782
467.364634	44187.765211
467.736184	42202.515977
468.107674	40945.153905
468.479105	40148.205455
468.850477	39459.346906
469.221790	38021.501444
469.593043	36268.331809
469.964238	35395.145990
470.335373	35288.311337
470.706449	36997.070927
471.077467	39544.479391
471.448425	44096.011170
471.819324	46930.099971
472.190164	45103.770591
472.560945	41541.862683
472.931667	38428.506561
473.302330	37304.598955
473.672934	36468.493343
474.043479	36963.796791
474.413965	36155.021794
474.784393	35770.863186
475.154761	36654.043093
475.525070	36674.099323
475.895321	36188.497576
476.265513	36766.554085
476.635645	37719.100269
477.005719	37528.315281
477.375734	37970.782395
477.745691	38637.338880
478.115588	39964.324327
478.485427	41868.010213
478.855207	45162.038768
479.224928	47732.956653
479.594591	49337.079534
479.964194	48327.510338
480.333739	48448.122464
480.703226	48440.923697
481.072653	49027.494714
481.442022	49450.576071
481.811333	49665.334266
482.180584	48346.603708
482.549777	47760.332639
482.918912	47171.069646
483.287988	46832.409972
483.657005	45954.689634
484.025964	45278.076047
484.394864	45215.840482
484.763706	44722.263630
485.132489	43814.286287
485.501213	43561.782453
485.869879	43635.695851
486.238487	43153.272551
486.607036	43259.736679
486.975527	42643.679953
487.343959	42750.131478
487.712333	42741.140580
488.080648	42545.599263
488.448905	42874.733677
488.817104	42591.115842
489.185244	43394.862287
489.553326	44855.602149
489.921350	47323.766196
490.289315	50059.058464
490.657222	50545.703730
491.025070	50686.082221
491.392861	49623.038986
491.760593	48235.683200
492.128267	46445.340097
492.495883	44836.463409
492.863440	43342.585522
493.230939	41910.282809
493.598380	40738.093552
493.965763	40257.971539
494.333088	39315.099329
494.700354	38705.475115
495.067563	38255.514326
495.434713	37971.200811
495.801805	37844.534259
496.168839	37311.701941
496.535815	36842.254572
496.902733	36658.030645
497.269593	36109.845494
497.636395	35839.667374
498.003139	36004.384555
498.369825	35328.328016
498.736453	35389.807408
499.103023	34775.182369
499.469535	34451.900735
499.835989	34312.948891
500.202385	33818.588139
500.568723	33614.197077
500.935003	33540.039183
501.301226	33130.760505
501.667390	33419.137190
502.033497	33395.927718
502.399546	32695.156922
502.765537	31904.862795
503.131470	31986.872286
503.497345	32016.249610
503.863163	30733.069269
504.228923	30953.730655
504.594625	31015.265499
504.960269	30211.864373
505.325856	30489.382412
505.691385	29756.582645
506.056856	29602.497257
506.422270	29658.204528
506.787625	29078.255066
507.152924	28952.271590
507.518164	28772.337686
507.883347	27923.982070
508.248472	27836.555859
508.613540	27901.611950
508.978550	27836.535695
509.343503	27369.213171
509.708398	27222.858393
510.073236	27291.203836
510.438016	27012.218821
510.802738	26373.918003
511.167403	26499.987178
511.532010	26350.448911
511.896561	26247.279177
512.261053	26488.901681
512.625488	25899.948718
512.989866	25529.008015
513.354186	25154.911550
513.718449	24857.700243
514.082655	24950.785149
514.446803	24478.731503
514.810894	24468.944102
515.174927	24132.116888
515.538904	23787.768271
515.902822	23866.939592
516.266684	23269.000773
516.630488	23188.947250
516.994235	22827.476354
517.357925	22835.522036
517.721558	22622.578656
518.085133	22489.565292
518.448651	22251.859764
518.812112	21859.476513
519.175516	21623.517746
519.538863	21495.447232
519.902152	21190.157476
520.265385	21118.179882
520.628560	20844.210814
520.991678	20470.237857
521.354739	20284.539393
521.717743	20150.888323
522.080690	19846.904225
522.443580	19779.002403
522.806413	19525.455050
523.169189	19241.141535
523.531908	19039.689466
523.894569	18720.309684
524.257174	18520.301905
524.619722	18364.497484
524.982213	18100.577957
525.344647	17788.154968
525.707025	17537.932255
526.069345	17428.047704
526.431608	17155.094429
526.793815	17007.938107
527.155964	16601.716889
527.518057	16408.368475
527.880093	16097.835918
528.242072	16034.440888
528.603995	15702.115424
528.965860	15474.282996
529.327669	15275.704385
529.689421	15023.613925
530.051117	14795.403411
530.412755	14618.045536
530.774337	14422.809209
531.135862	14151.867355
531.497331	14002.503008
531.858743	13769.188325
532.220098	13653.072908
532.581396	13385.821178
532.942638	13094.061879
533.303824	12977.432264
533.664953	12759.878749
534.026025	12497.584994
534.387040	12426.461875
534.747999	12226.449055
535.108902	12086.625091
535.469748	11807.415744
535.830537	11656.788588
536.191270	11532.667818
536.551947	11291.501539
536.912567	11191.288442
537.273131	11054.254757
537.633638	10791.958481
537.994089	10696.186640
538.354483	10469.387649
538.714821	10422.383931
539.075103	10335.900416
539.435328	10144.870932
539.795497	9976.962700
540.155609	9838.817441
540.515665	9764.420092
540.875665	9537.691678
541.235609	9456.171179
541.595496	9318.167072
541.955328	9284.134242
542.315102	9058.028410
542.674821	8891.204026
543.034483	8766.989995
543.394090	8646.624886
543.753640	8510.985080
544.113134	8533.095580
544.472571	8279.346581
544.831953	8321.846028
545.191278	8105.467102
545.550548	7951.275850
545.909761	7894.542705
546.268918	7808.875857
546.628019	7730.536326
546.987064	7574.162255
547.346053	7386.084366
547.704986	7369.839248
548.063863	7232.316571
548.422684	7149.752553
548.781449	7035.787188
549.140158	6979.359033
549.498811	6874.651747
549.857408	6725.153809
550.215949	6707.731581
550.574434	6609.817250
550.932864	6503.085941
551.291237	6477.187013
551.649555	6363.498912
552.007817	6294.903931
552.366022	6179.809348
552.724173	6115.025480
553.082267	6068.200722
553.440305	6009.758626
553.798288	5881.725921
554.156215	5830.099464
554.514086	5766.412047
554.871902	5677.544067
555.229661	5608.697028
555.587365	5522.021950
555.945014	5460.204801
556.302606	5384.731166
556.660143	5336.333568
557.017625	5279.149240
557.375050	5199.309966
557.732421	5154.426053
558.089735	5092.634109
558.446994	5031.336199
558.804197	4991.725333
559.161345	4927.659829
559.518437	4831.842618
559.875474	4791.578922
560.232455	4743.337600
560.589381	4698.824212
560.946251	4631.930621
561.303065	4611.433289
561.659825	4554.017068
562.016528	4483.438393
562.373177	4424.071245
562.729770	4396.470928
563.086307	4333.401052
563.442789	4302.881907
563.799216	4266.701545
564.155587	4214.442424
564.511904	4174.067823
564.868164	4135.704642
565.224370	4107.035600
565.580520	4052.737332
565.936615	4029.870658
566.292654	3981.425170
566.648638	3953.396354
567.004567	3918.047784
567.360441	3888.131056
567.716260	3853.546220
568.072023	3828.214422
568.427732	3794.262251
568.783385	3755.190788
569.138982	3740.503386
569.494525	3714.377607
569.850013	3676.326977
570.205445	3657.031961
570.560823	3632.584885
570.916145	3603.207561
571.271412	3581.008840
571.626625	3553.151424
571.981782	3534.153836
572.336884	3504.809279
572.691931	3493.184379
573.046923	3463.781849
573.401860	3445.724436
573.756743	3429.123916
574.111570	3409.357552
574.466342	3388.734192
574.821059	3375.344887
575.175722	3354.673636
575.530330	3336.729648
575.884882	3320.708862
576.239380	3306.071871
576.593823	3290.338430
576.948211	3278.106070
577.302544	3258.054881
577.656823	3244.128693
578.011047	3238.593507
578.365216	3219.926114
578.719330	3206.161243
579.073389	3192.489634
579.427394	3187.128367
579.781344	3177.908097
580.135239	3159.636434
580.489080	3155.240548
580.842866	3135.731283
581.196597	3135.569966
581.550273	3126.722741
581.903895	3115.060032
582.257463	3115.639764
582.610975	3098.958586
582.964434	3097.267279
583.317837	3082.277408
583.671186	3074.055286
584.024481	3070.113104
584.377721	3053.303376
584.730906	3053.058880
585.084037	3047.901780
585.437113	3034.373844
585.790135	3032.682537
586.143103	3023.293388
586.496016	3016.215608
586.848874	3006.617251
587.201679	3003.998371
587.554428	2989.805003
587.907124	2989.429437
588.259765	2979.329485
588.612352	2982.187819
588.964884	2968.407825
589.317362	2968.347331
589.669786	2959.598409
590.022155	2956.251083
590.374470	2954.496761
590.726731	2946.577108
591.078937	2932.968513
591.431090	2928.386105
591.783188	2921.502409
592.135232	2917.000659
592.487222	2912.002355
592.839157	2912.037643
593.191038	2902.766961
593.542866	2897.307391
593.894639	2883.920607
594.246358	2884.815412
594.598022	2881.238713
594.949633	2874.760831
595.301190	2867.433513
595.652692	2863.962679
596.004141	2864.275231
596.355535	2849.814681
596.706876	2847.001717
597.058162	2840.289421
597.409395	2841.547188
597.760573	2841.393433
598.111698	2834.043431
598.462768	2829.639983
598.813785	2826.370795
599.164748	2822.055567
599.515657	2819.008190
599.866511	2810.944864
600.217312	2811.885039
600.568060	2804.179636
600.918753	2808.283135
601.269392	2801.480098
601.619978	2796.885086
601.970510	2797.109417
602.320988	2795.080353
602.671412	2794.583799
603.021783	2789.945938
603.372100	2784.879578
603.722363	2783.306738
604.072572	2781.834721
604.422728	2777.607714
604.772830	2772.614451
605.122878	2768.858791
605.472872	2767.127155
605.822813	2764.856115
606.172701	2764.135230
606.522534	2763.893255
606.872314	2763.126999
607.222041	2759.976278
607.571714	2759.593150
607.921333	2753.082500
608.270899	2752.175092
608.620411	2755.182141
608.969870	2748.910945
609.319276	2745.336767
609.668627	2746.357601
610.017926	2745.435070
610.367171	2744.925913
610.716362	2742.901890
611.065500	2739.874677
611.414585	2740.512383
611.763616	2739.786457
612.112594	2734.021897
612.461518	2737.462485
612.810389	2735.662793
613.159207	2728.484190
613.507971	2731.831516
613.856682	2730.409911
614.205340	2731.098028
614.553945	2732.814541
614.902496	2728.000239
615.250994	2727.768346
615.599439	2725.935887
615.947830	2726.077039
616.296169	2724.335320
616.644454	2725.209961
616.992686	2722.447408
617.340864	2721.197202
617.688990	2719.221070
618.037063	2723.133005
618.385082	2721.847511
618.733048	2723.785835
619.080961	2719.518498
619.428821	2719.344578
619.776628	2718.391800
620.124382	2712.972560
620.472083	2713.693445
620.819731	2712.506253
621.167326	2711.324102
621.514868	2708.233875
621.862357	2703.280941
622.209793	2702.320602
622.557176	2699.169880
622.904506	2693.238963
623.251783	2689.221163
623.599007	2687.597912
623.946179	2683.194464
624.293297	2680.613393
624.640363	2678.208763
624.987376	2682.309741
625.334336	2677.623989
625.681243	2673.117197
626.028097	2673.707012
626.374899	2672.187104
626.721647	2669.860612
627.068343	2666.823317
627.414987	2665.968841
627.761577	2664.388439
628.108115	2664.804335
628.454600	2659.412821
628.801032	2659.737975
629.147412	2659.102790
629.493739	2660.010197
629.840014	2655.659682
630.186236	2658.452481
630.532405	2653.754125
630.878521	2650.192550
631.224585	2653.872592
631.570597	2650.066521
631.916556	2652.032571
632.262462	2649.527118
632.608316	2649.970739
632.954117	2648.773465
633.299866	2648.123157
633.645562	2645.942857
633.991206	2642.464461
634.336797	2639.860705
634.682336	2637.564460
635.027823	2637.156126
635.373257	2633.859212
635.718639	2633.738224
636.063968	2631.384005
636.409245	2629.942235
636.754470	2628.674385
637.099642	2626.519292
637.444762	2625.528705
637.789829	2624.152470
638.134845	2622.443519
638.479808	2619.144084
638.824719	2619.134001
639.169577	2615.564864
639.514383	2617.578805
639.859137	2614.649895
640.203839	2616.358846
640.548489	2611.229472
640.893086	2610.579163
641.237632	2607.844337
641.582125	2610.624534
641.926566	2603.367793
642.270955	2609.815428
642.615292	2610.944647
642.959576	2607.529265
643.303809	2610.450614
643.647990	2605.842999
643.992118	2606.079933
644.336195	2607.509101
644.680219	2606.029522
645.024192	2610.014554
645.368112	2609.356683
645.711981	2606.833586
646.055797	2615.045626
646.399562	2611.703341
646.743274	2615.539659
647.086935	2619.859928
647.430544	2616.376490
647.774101	2618.952520
648.117606	2619.154166
648.461059	2620.338837
648.804460	2620.694238
649.147810	2616.031171
649.491108	2614.632251
649.834354	2610.622013
650.177548	2607.226796
650.520690	2604.307968
650.863781	2603.972731
651.206820	2601.326125
651.549807	2600.990889
651.892742	2599.649942
652.235626	2598.906372
652.578458	2595.521237
652.921238	2593.968561
653.263967	2592.330186
653.606644	2591.848756
653.949269	2591.836153
654.291843	2588.415730
654.634365	2594.001329
654.976836	2585.653178
655.319255	2590.079311
655.661622	2592.352872
656.003938	2587.694845
656.346203	2585.932962
656.688416	2588.645103
657.030577	2587.457911
657.372687	2585.179310
657.714746	2582.338619
658.056753	2584.735688
658.398708	2576.795871
658.740612	2585.953127
659.082465	2579.497929
659.424266	2580.891808
659.766016	2578.983732
660.107715	2581.307703
660.449362	2583.732498
660.790958	2581.637899
661.132503	2583.145204
661.473996	2586.132088
661.815438	2582.968764
662.156829	2585.219639
662.498168	2582.903229
662.839456	2582.053794
663.180693	2583.460276
663.521879	2583.672005
663.863013	2582.464648
664.204097	2579.318968
664.545129	2588.209043
664.886110	2583.936665
665.227040	2586.691656
665.567918	2585.819536
665.908746	2585.728795
666.249522	2587.004207
666.590248	2585.385997
666.930922	2587.515884
667.271545	2587.283991
667.612118	2587.599063
667.952639	2587.147880
668.293109	2586.144691
668.633528	2585.081007
668.973896	2587.150401
669.314213	2583.505647
669.654480	2581.975656
669.994695	2582.157138
670.334859	2582.575554
670.674973	2580.879205
671.015035	2581.441294
671.355047	2580.387693
671.695008	2582.494895
672.034918	2583.399782
672.374777	2580.349884
672.714585	2579.908783
673.054342	2584.932293
673.394049	2581.048084
673.733705	2579.659246
674.073310	2582.472210
674.412864	2581.491706
674.752368	2578.376273
675.091820	2577.733525
675.431223	2575.384348
675.770574	2574.976014
676.109875	2571.853019
676.449125	2574.812177
676.788324	2571.454768
677.127473	2571.064079
677.466571	2568.011660
677.805619	2568.172977
678.144616	2568.344376
678.483562	2570.423852
678.822458	2567.288255
679.161303	2566.998388
679.500098	2567.048800
679.838842	2565.460836
680.177535	2567.661300
680.516179	2567.197514
680.854771	2567.835220
681.193314	2572.291600
681.531805	2576.977352
681.870247	2579.523135
682.208638	2583.528332
682.546978	2585.627972
682.885268	2586.593353
683.223508	2582.757035
683.561697	2581.864751
683.899836	2582.489854
684.237925	2579.051787
684.575963	2579.177816
684.913951	2573.781261
685.251889	2574.890315
685.589776	2576.465675
685.927614	2574.953329
686.265401	2579.293762
686.603137	2577.128587
686.940824	2578.779565
687.278460	2582.953640
687.616046	2583.871130
687.953582	2586.810123
688.291068	2582.966243
688.628504	2587.828436
688.965889	2587.866245
689.303224	2584.692838
689.640510	2582.578074
689.977745	2578.257805
690.314930	2576.712692
690.652065	2575.938875
690.989150	2570.219686
691.326185	2566.461505
691.663170	2564.964283
692.000105	2557.619322
692.336990	2555.408776
692.673825	2554.733261
693.010610	2553.591440
693.347345	2548.930893
693.684030	2543.400747
694.020665	2541.278421
694.357251	2535.982689
694.693786	2543.882177
695.030272	2541.434697
695.366707	2538.185673
695.703093	2536.670807
696.039429	2535.216434
696.375716	2536.907741
696.711952	2536.338091
697.048139	2534.997144
697.384276	2531.889272
697.720363	2533.089067
698.056400	2534.112421
698.392388	2533.076464
698.728326	2534.982020
699.064214	2532.141330
699.400053	2527.143026
699.735842	2529.194776
700.071581	2526.104548
700.407270	2525.996163
700.742910	2527.165711
701.078501	2523.959537
701.414042	2523.024403
701.749533	2518.739423
702.084974	2519.833353
702.420366	2518.625997
702.755709	2519.311593
703.091002	2516.964936
703.426246	2516.319669
703.761440	2515.568537
704.096584	2517.648013
704.431679	2513.819256
704.766725	2516.526356
705.101721	2514.434277
705.436668	2516.319669
705.771565	2512.201046
706.106413	2513.909997
706.441212	2514.396468
706.775961	2517.950482
707.110661	2514.824967
707.445311	2519.762777
707.779913	2517.146418
708.114465	2518.255472
708.448967	2519.142715
708.783421	2520.771007
709.117825	2524.511544
709.452180	2527.158149
709.786485	2528.509179
710.120742	2530.928932
710.454949	2533.920857
710.789107	2534.936650
711.123216	2533.288192
711.457275	2537.391692
711.791286	2535.937319
712.125247	2538.830941
712.459159	2544.464431
712.793023	2547.526932
713.126837	2541.502753
713.460602	2539.405633
713.794318	2538.757844
714.127985	2540.618030
714.461602	2532.849612
714.795171	2530.455064
715.128691	2529.391381
715.462162	2526.311236
715.795584	2523.601615
716.128957	2521.161697
716.462281	2520.526512
716.795556	2519.518281
717.128782	2515.394617
717.461960	2515.939062
717.795088	2515.039216
718.128167	2514.038547
718.461198	2509.047804
718.794180	2513.325223
719.127113	2506.030674
719.459997	2505.350118
719.792833	2504.394819
720.125619	2507.132166
720.458357	2503.729387
720.791046	2503.318533
721.123686	2498.408449
721.456278	2498.136227
721.788821	2501.609582
722.121315	2500.235867
722.453761	2501.395333
722.786158	2497.790908
723.118506	2498.968017
723.450805	2496.089518
723.783056	2499.835096
724.115259	2496.999447
724.447412	2497.579179
724.779518	2499.938439
725.111574	2501.665034
725.443582	2503.900786
725.775542	2501.838954
726.107453	2503.603358
726.439315	2504.064624
726.771129	2509.927486
727.102895	2508.909173
727.434612	2508.904131
727.766281	2512.533762
728.097901	2509.977897
728.429473	2507.739625
728.760996	2509.912362
729.092471	2507.323730
729.423897	2511.031498
729.755276	2510.033350
730.086606	2513.037878
730.417887	2512.372445
730.749120	2517.630369
731.080305	2520.902077
731.411442	2520.639938
731.742530	2521.108765
732.073570	2526.089425
732.404562	2523.881399
732.735506	2524.962727
733.066401	2519.936697
733.397249	2519.561131
733.728048	2514.953516
734.058798	2511.414626
734.389501	2506.549913
734.720156	2504.929182
735.050762	2500.417349
735.381320	2500.886176
735.711831	2499.630929
736.042293	2498.874756
736.372707	2496.502893
736.703073	2495.673623
737.033391	2494.196565
737.363661	2495.605568
737.693883	2499.943480
738.024056	2501.975065
738.354182	2497.977430
738.684260	2501.773419
739.014290	2504.223420
739.344272	2506.083606
739.674207	2504.304078
740.004093	2505.985303
740.333931	2506.922958
740.663722	2507.464882
740.993464	2506.055879
741.323159	2505.259377
741.652806	2506.093688
741.982405	2505.541682
742.311956	2501.261742
742.641460	2504.321723
742.970915	2499.656135
743.300323	2498.491628
743.629683	2495.963489
743.958996	2499.792246
744.288260	2495.068685
744.617477	2489.215905
744.946647	2488.318580
745.275768	2485.424957
745.604842	2487.222129
745.933869	2484.351192
746.262847	2483.458907
746.591778	2487.466625
746.920662	2484.946048
747.249498	2488.109372
747.578286	2486.284474
747.907027	2491.005515
748.235720	2487.108703
748.564365	2491.570124
748.892963	2490.062819
749.221514	2490.662716
749.550017	2490.229177
749.878473	2490.579537
750.206881	2488.668940
750.535242	2489.788076
750.863555	2488.263127
751.191821	2488.137098
751.520039	2483.716006
751.848210	2486.218939
752.176334	2488.409320
752.504411	2485.737509
752.832440	2483.864720
753.160421	2488.399238
753.488356	2484.285657
753.816243	2483.390852
754.144082	2481.467652
754.471875	2485.840852
754.799620	2480.814822
755.127318	2483.443784
755.454969	2483.905049
755.782572	2485.876141
756.110129	2480.625779
756.437638	2482.642240
756.765100	2480.711478
757.092515	2478.611838
757.419882	2484.998980
757.747203	2485.760194
758.074477	2483.234576
758.401703	2482.357415
758.728882	2484.283136
759.056014	2484.540235
759.383099	2484.053763
759.710138	2488.031234
760.037129	2489.659527
760.364073	2488.565596
760.690970	2486.876810
761.017820	2487.143991
761.344623	2491.348313
761.671379	2490.463591
761.998088	2492.623725
762.324751	2505.912207
762.651366	2523.294105
762.977935	2550.355019
763.304456	2562.141237
763.630931	2574.217321
763.957359	2564.578634
764.283740	2554.203940
764.610074	2538.999820
764.936362	2528.529343
765.262602	2514.265398
765.588796	2505.403050
765.914943	2497.453150
766.241044	2492.452326
766.567097	2485.417396
766.893104	2484.590646
767.219064	2477.885912
767.544978	2474.460448
767.870845	2471.864253
768.196665	2475.317444
768.522438	2469.817545
768.848165	2473.142186
769.173846	2467.543985
769.499479	2467.599437
769.825066	2467.511217
770.150607	2464.509210
770.476101	2462.714559
770.801548	2466.039200
771.126949	2463.120372
771.452303	2462.616257
771.777611	2460.360340
772.102872	2462.981740
772.428087	2461.038376
772.753256	2461.870166
773.078378	2458.638786
773.403453	2459.402521
773.728482	2456.692901
774.053465	2456.415637
774.378401	2457.333127
774.703291	2452.347426
775.028135	2453.048147
775.352932	2452.775924
775.677683	2453.363219
776.002388	2453.607715
776.327046	2452.828857
776.651658	2455.137705
776.976224	2452.531428
777.300743	2452.980091
777.625216	2451.014041
777.949643	2449.274843
778.274024	2450.078907
778.598359	2449.418516
778.922647	2445.955243
779.246889	2447.770059
779.571086	2447.364246
779.895236	2451.208126
780.219339	2449.509257
780.543397	2450.588064
780.867409	2450.051181
781.191374	2450.167127
781.515294	2451.697118
781.839167	2449.960440
782.162995	2450.222580
782.486776	2449.410954
782.810511	2449.393310
783.134201	2449.839452
783.457844	2449.453804
783.781441	2449.642847
784.104993	2449.191664
784.428498	2449.143773
784.751958	2448.952209
785.075372	2446.940789
785.398739	2448.516149
785.722061	2446.847528
786.045337	2449.660491
786.368568	2447.581015
786.691752	2450.366253
787.014891	2451.533280
787.337983	2455.883796
787.661030	2460.085598
787.984031	2462.822944
788.306987	2465.560291
788.629897	2464.151288
788.952760	2463.677420
789.275579	2462.749847
789.598351	2462.177676
789.921078	2461.986113
790.243759	2456.645010
790.566395	2453.663167
790.888984	2450.966150
791.211529	2452.281891
791.534027	2450.562858
791.856480	2451.583692
792.178888	2450.472117
792.501249	2448.047322
792.823566	2445.350305
793.145836	2448.616973
793.468062	2449.297528
793.790241	2449.310131
794.112375	2449.766356
794.434464	2448.659822
794.756507	2452.349947
795.078505	2450.356171
795.400457	2449.398351
795.722364	2451.066973
796.044226	2454.575616
796.366042	2453.421192
796.687812	2453.501851
797.009538	2454.530246
797.331218	2455.117540
797.652852	2456.725668
797.974442	2454.265585
798.295986	2454.318517
798.617484	2451.639144
798.938938	2452.392797
799.260346	2452.158383
799.581709	2448.130501
799.903026	2450.688887
800.224299	2450.499843
800.545526	2446.638320
800.866708	2448.173351
801.187845	2448.463217
801.508936	2445.410799
801.829983	2448.705193
802.150984	2445.771241
802.471940	2444.347115
802.792851	2446.247630
803.113717	2445.746035
803.434538	2442.479368
803.755314	2445.196550
804.076045	2441.294697
804.396731	2443.858123
804.717372	2444.886519
805.037967	2443.590942
805.358518	2441.418205
805.679024	2444.369800
805.999485	2442.749069
806.319901	2445.451128
806.640272	2447.197888
806.960598	2444.490788
807.280879	2444.727722
807.601115	2447.651592
807.921306	2445.660336
808.241453	2446.411468
808.561554	2446.247630
808.881611	2446.378700
809.201623	2447.752415
809.521590	2444.279060
809.841513	2443.747218
810.161390	2445.604883
810.481223	2445.562033
810.801011	2446.081272
811.120755	2444.183278
811.440453	2446.474482
811.760107	2444.720161
812.079716	2440.919131
812.399281	2439.772268
812.718801	2440.077258
813.038276	2437.891918
813.357707	2443.779985
813.677093	2440.851075
813.996434	2441.902156
814.315731	2442.265119
814.634983	2443.522887
814.954191	2440.830910
815.273354	2445.922476
815.592473	2446.812239
815.911547	2444.145469
816.230577	2446.103957
816.549562	2448.470779
816.868502	2449.486572
817.187399	2451.442539
817.506250	2451.525718
817.825058	2449.587395
818.143821	2452.319700
818.462539	2456.105607
818.781213	2459.437809
819.099843	2466.800414
819.418429	2472.849799
819.736970	2478.100161
820.055466	2489.576347
820.373919	2500.538337
820.692327	2518.925945
821.010691	2553.135215
821.329011	2627.915691
821.647286	2741.752507
821.965517	2864.849922
822.283704	2933.616302
822.601847	2959.613532
822.919945	2909.368352
823.237999	2849.975998
823.556010	2789.950979
823.873976	2733.895869
824.191897	2684.863086
824.509775	2649.277581
824.827609	2611.438680
825.145398	2590.835484
825.463144	2578.346026
825.780845	2580.470872
826.098502	2596.867225
826.416116	2623.832357
826.733685	2652.337561
827.051210	2655.856287
827.368692	2645.932775
827.686129	2612.353649
828.003522	2581.751325
828.320872	2549.389638
828.638177	2531.034797
828.955439	2510.539986
829.272656	2500.513131
829.589830	2483.053094
829.906960	2480.277939
830.224046	2471.019860
830.541088	2467.334777
830.858086	2462.981740
831.175041	2460.229270
831.491952	2460.314970
831.808819	2459.389918
832.125642	2461.056020
832.442421	2470.722432
832.759157	2486.614670
833.075849	2510.376148
833.392497	2533.880528
833.709101	2550.944834
834.025662	2547.771428
834.342179	2535.750796
834.658653	2516.239010
834.975083	2502.035559
835.291469	2491.943169
835.607811	2479.950264
835.924110	2471.173615
836.240366	2463.397636
836.556578	2457.320525
836.872746	2452.607046
837.188871	2448.763166
837.504952	2443.744697
837.820990	2442.076075
838.136984	2441.866867
838.452935	2439.346291
838.768842	2441.095571
839.084706	2444.510953
839.400526	2453.627879
839.716303	2465.283027
840.032037	2478.289204
840.347727	2473.822742
840.663373	2467.080198
840.978977	2458.117027
841.294537	2452.163424
841.610054	2447.744853
841.925527	2441.992896
842.240957	2439.046342
842.556344	2438.116249
842.871687	2434.277410
843.186987	2435.943512
843.502244	2430.698191
843.817458	2430.395722
844.132629	2427.789445
844.447756	2425.848601
844.762840	2425.253745
845.077881	2424.058992
845.392879	2418.697724
845.707833	2420.598239
846.022745	2421.082190
846.337613	2423.176790
846.652438	2420.686460
846.967221	2424.883220
847.281960	2422.183682
847.596656	2425.674681
847.911309	2421.838363
848.225919	2423.128899
848.540485	2423.275092
848.855009	2420.265523
849.169490	2420.923394
849.483928	2422.108065
849.798323	2421.596388
850.112675	2423.174269
850.426984	2420.976326
850.741251	2421.724937
851.055474	2420.008424
851.369654	2420.449525
851.683792	2419.053126
851.997887	2420.041192
852.311938	2419.922725
852.625947	2422.786100
852.939914	2419.574885
853.253837	2425.750299
853.567718	2418.133115
853.881555	2419.879875
854.195350	2420.711665
854.509103	2423.038158
854.822812	2419.854669
855.136479	2421.490524
855.450103	2419.098496
855.763685	2419.658064
856.077224	2421.712334
856.390720	2421.349371
856.704173	2423.328024
857.017584	2420.194947
857.330953	2422.307191
857.644278	2420.941038
857.957561	2423.801893
858.270802	2423.401121
858.584000	2421.729978
858.897155	2422.559248
859.210268	2422.589495
859.523339	2421.263672
859.836367	2420.104206
860.149352	2422.465987
860.462295	2423.640576
860.775195	2417.447518
861.088054	2418.586819
861.400869	2419.920204
861.713642	2413.790161
862.026373	2419.630338
862.339062	2419.721079
862.651708	2418.977508
862.964312	2420.076480
863.276873	2419.584967
863.589392	2422.723086
863.901869	2423.151584
864.214303	2423.993457
864.526696	2422.670154
864.839045	2422.907088
865.151353	2423.106213
865.463619	2424.585792
865.775842	2425.437747
866.088023	2423.464135
866.400162	2424.338776
866.712258	2423.388518
867.024313	2425.387336
867.336325	2426.990423
867.648296	2425.510844
867.960224	2426.682912
868.272110	2424.421955
868.583954	2424.091759
868.895755	2423.443971
869.207515	2424.873138
869.519233	2425.873807
869.830909	2426.375402
870.142542	2426.609815
870.454134	2424.074115
870.765684	2426.559404
871.077191	2425.599064
871.388657	2426.410690
871.700081	2428.089394
872.011463	2425.788107
872.322803	2428.338931
872.634101	2427.204672
872.945357	2430.325146
873.256571	2428.101997
873.567744	2429.778181
873.878874	2429.581576
874.189963	2430.178952
874.501010	2428.762388
874.812015	2431.398912
875.122979	2430.736000
875.433900	2432.661721
875.744780	2433.710281
876.055618	2433.750610
876.366415	2433.034766
876.677169	2434.920157
876.987882	2431.048551
877.298554	2432.235743
877.609183	2434.511824
877.919771	2433.029725
878.230317	2436.205652
878.540822	2441.821497
878.851285	2444.725202
879.161707	2451.636624
879.472087	2462.701956
879.782425	2475.352732
880.092722	2501.884325
880.402977	2544.701365
880.713191	2594.840681
881.023363	2639.981693
881.333494	2670.553771
881.643583	2679.345543
881.953631	2676.114163
882.263637	2661.323418
882.573602	2642.469502
882.883526	2625.009466
883.193408	2603.004830
883.503248	2583.304000
883.813048	2567.026115
884.122806	2547.726057
884.432522	2529.242667
884.742197	2515.001407
885.051831	2504.069665
885.361424	2492.870742
885.670975	2481.422281
885.980485	2475.851806
886.289954	2463.884107
886.599382	2458.991667
886.908768	2453.310287
887.218113	2450.076387
887.527417	2451.243414
887.836680	2443.492640
888.145901	2440.089861
888.455082	2439.318564
888.764221	2437.012236
889.073319	2435.482246
889.382376	2438.068358
889.691392	2434.552153
890.000366	2434.305137
890.309300	2434.537030
890.618193	2438.164140
890.927044	2436.200611
891.235855	2431.933274
891.544625	2433.601896
891.853353	2434.640373
892.162041	2438.577515
892.470687	2439.212700
892.779293	2442.446600
893.087858	2444.647064
893.396381	2452.337344
893.704864	2466.301340
894.013306	2475.614872
894.321707	2492.104486
894.630068	2501.715446
894.938387	2506.461692
895.246665	2499.966166
895.554903	2492.157418
895.863100	2486.902015
896.171256	2480.514873
896.479371	2473.815180
896.787446	2468.070785
897.095480	2463.871504
897.403473	2458.603498
897.711425	2454.920935
898.019336	2452.962447
898.327207	2447.303752
898.635038	2443.711930
898.942827	2442.640685
899.250576	2440.094902
899.558284	2434.622729
899.865952	2437.095415
900.173579	2430.942687
900.481165	2434.645415
900.788711	2432.160126
901.096216	2431.522420
901.403681	2431.298088
901.711105	2430.914961
902.018489	2427.857501
902.325832	2433.778336
902.633135	2432.921340
902.940397	2441.836621
903.247619	2450.890533
903.554800	2469.739407
903.861941	2494.980464
904.169041	2514.202384
904.476101	2522.429547
904.783121	2518.268075
905.090100	2505.551764
905.397039	2494.461226
905.703938	2485.412354
906.010796	2476.502115
906.317614	2470.190590
906.624391	2462.618777
906.931129	2458.311111
907.237826	2452.181068
907.544483	2447.086982
907.851099	2441.299738
908.157675	2434.630291
908.464211	2430.980496
908.770707	2424.643765
909.077163	2425.067222
909.383578	2420.091603
909.689954	2420.691501
909.996289	2417.623959
910.302584	2423.229722
910.608839	2421.437592
910.915054	2420.822571
911.221229	2419.063208
911.527363	2421.208219
911.833458	2419.642941
912.139513	2422.803744
912.445527	2424.031265
912.751502	2421.087231
913.057436	2425.573858
913.363331	2424.918508
913.669186	2430.882193
913.975000	2433.916968
914.280775	2439.202618
914.586510	2447.845676
914.892205	2459.173149
915.197859	2472.963225
915.503475	2490.476193
915.809050	2505.962618
916.114585	2513.347908
916.420081	2516.997704
916.725536	2517.317817
917.030952	2510.270284
917.336328	2504.404902
917.641665	2499.472133
917.946961	2492.964003
918.252218	2486.501244
918.557435	2478.392548
918.862612	2472.938019
919.167750	2465.053655
919.472848	2462.162553
919.777906	2454.419341
920.082925	2450.056222
920.387904	2443.785027
920.692843	2440.891404
920.997743	2438.186825
921.302603	2436.929057
921.607423	2434.715991
921.912204	2430.350352
922.216946	2428.805238
922.521647	2427.847419
922.826310	2425.536050
923.130932	2426.559404
923.435516	2422.740730
923.740059	2418.929617
924.044564	2418.372570
924.349028	2418.175965
924.653454	2413.921231
924.957840	2415.804102
925.262186	2411.599780
925.566493	2414.669842
925.870761	2412.512229
926.174989	2418.803589
926.479178	2414.241344
926.783328	2415.368042
927.087438	2415.184040
927.391509	2412.497105
927.695541	2413.873340
927.999533	2415.872158
928.303486	2412.045922
928.607400	2412.335788
928.911275	2413.243196
929.215110	2413.636406
929.518906	2411.284708
929.822663	2412.139183
930.126381	2411.446025
930.430060	2412.865109
930.733699	2413.946437
931.037299	2412.950809
931.340861	2413.802764
931.644383	2411.680438
931.947866	2408.292783
932.251309	2412.139183
932.554714	2410.508370
932.858080	2412.232445
933.161407	2409.646333
933.464694	2412.098854
933.767943	2410.831004
934.071153	2409.288411
934.374323	2410.561302
934.677455	2411.791344
934.980548	2411.463669
935.283602	2410.674728
935.586617	2412.986097
935.889593	2410.556261
936.192530	2412.053484
936.495428	2410.367218
936.798287	2413.162537
937.101108	2410.838566
937.403890	2411.085582
937.706632	2412.119019
938.009336	2415.494071
938.312002	2417.311407
938.614628	2415.105902
938.917216	2419.148908
939.219765	2418.501119
939.522275	2419.327869
939.824747	2421.253589
940.127179	2416.242683
940.429573	2418.997673
940.731929	2417.858372
941.034246	2416.658578
941.336524	2417.296284
941.638763	2417.432395
941.940964	2418.168403
942.243126	2417.182858
942.545250	2416.517425
942.847335	2415.461304
943.149381	2417.528177
943.451389	2418.140677
943.753359	2416.824936
944.055290	2414.785789
944.357182	2414.269071
944.659036	2413.757394
944.960851	2414.758063
945.262628	2412.224883
945.564367	2413.593556
945.866067	2412.056004
946.167729	2413.838052
946.469352	2412.577764
946.770937	2415.050450
947.072484	2411.801426
947.373992	2413.041550
947.675462	2414.165727
947.976893	2414.765624
948.278286	2412.910480
948.579641	2413.112126
948.880958	2411.680438
949.182236	2412.844945
949.483476	2412.202198
949.784678	2413.102044
950.085841	2414.193453
950.386967	2412.038360
950.688054	2412.292938
950.989103	2413.417116
951.290114	2412.920562
951.591087	2410.268915
951.892021	2415.753691
952.192917	2413.530542
952.493776	2412.963412
952.794596	2416.572878
953.095378	2414.569019
953.396122	2414.853845
953.696828	2414.904256
953.997496	2415.242013
954.298126	2417.029102
954.598718	2413.986766
954.899272	2413.628844
955.199788	2413.769997
955.500266	2413.890984
955.800706	2408.975859
956.101108	2407.390416
956.401472	2405.976373
956.701798	2408.282701
957.002087	2409.048956
957.302337	2411.503998
957.602550	2404.206928
957.902724	2407.438307
958.202861	2410.208421
958.502960	2407.652556
958.803022	2405.971332
959.103045	2408.761610
959.403031	2405.847823
959.702979	2406.162895
960.002889	2407.861764
960.302762	2402.402195
960.602596	2405.278173
960.902393	2405.943605
961.202153	2404.519479
961.501875	2403.430590
961.801559	2407.985273
962.101205	2405.038718
962.400814	2405.381517
962.700385	2403.402864
962.999918	2402.931516
963.299414	2405.565519
963.598873	2404.474109
963.898293	2403.281876
964.197677	2405.419325
964.497022	2404.128790
964.796331	2402.699623
965.095601	2403.004613
965.394835	2406.480488
965.694030	2403.324726
965.993189	2403.264232
966.292309	2404.474109
966.591393	2401.018398
966.890439	2404.905128
967.189447	2402.349263
967.488419	2402.041752
967.787353	2406.122566
968.086249	2405.101733
968.385108	2403.042421
968.683930	2404.695920
968.982714	2403.375137
969.281462	2404.711043
969.580172	2403.390261
969.878844	2404.002761
970.177480	2404.945457
970.476078	2407.581980
970.774639	2405.991496
971.073162	2402.087123
971.371649	2403.780950
971.670098	2401.222565
971.968510	2400.670558
972.266885	2399.916906
972.565223	2404.159037
972.863524	2404.242216
973.161788	2405.615930
973.460014	2404.426218
973.758204	2406.205745
974.056356	2403.748183
974.354471	2406.699778
974.652550	2405.900755
974.950591	2404.960580
975.248595	2401.232647
975.546563	2403.044942
975.844493	2406.440159
976.142386	2405.905797
976.440243	2405.661301
976.738062	2405.106774
977.035845	2404.874881
977.333590	2404.204407
977.631299	2401.923285
977.928971	2405.275652
978.226606	2403.526372
978.524204	2405.275652
978.821765	2402.127452
979.119290	2404.027967
979.416777	2405.252967
979.714228	2404.673234
980.011642	2403.526372
980.309020	2405.767165
980.606360	2402.863460
980.903664	2404.181722
981.200931	2402.918913
981.498162	2407.198853
981.795356	2406.745149
982.092513	2409.124573
982.389633	2411.640109
982.686717	2415.725964
982.983764	2416.456932
983.280775	2416.398958
983.577749	2417.553382
983.874686	2413.396951
984.171587	2414.165727
984.468451	2413.399472
984.765279	2413.379307
985.062070	2412.640778
985.358824	2412.456776
985.655543	2410.077351
985.952224	2409.981569
986.248869	2404.292627
986.545478	2402.011505
986.842050	2407.403019
987.138586	2401.978738
987.435086	2400.718449
987.731549	2399.251473
988.027975	2403.773388
988.324366	2401.709036
988.620719	2402.271125
988.917037	2400.012688
989.213318	2404.476629
989.509563	2402.031670
989.805772	2403.052503
990.101944	2402.409756
990.398080	2401.469581
990.694180	2401.560322
990.990244	2401.721639
991.286271	2399.591751
991.582262	2402.455127
991.878217	2405.442010
992.174136	2405.099212
992.470019	2401.250291
992.765865	2400.771381
993.061676	2402.825652
993.357450	2402.520662
993.653188	2399.034704
993.948890	2399.758109
994.244556	2401.298182
994.540186	2404.272463
994.835780	2405.237844
995.131337	2407.473595
995.426859	2404.519479
995.722345	2407.468554
996.017795	2407.113153
996.313208	2409.127094
996.608586	2407.760941
996.903928	2408.297824
997.199234	2409.812691
997.494504	2406.624161
997.789738	2411.055335
998.084936	2409.336302
998.380099	2406.399830
998.675225	2407.531569
998.970316	2406.697258
999.265371	2406.246074
999.560390	2406.712381
999.855373	2403.143244
1000.150320	2402.903789
1000.445232	2404.184243
1000.740108	2402.823131
1001.034948	2402.029149
1001.329752	2401.393964
1001.624521	2401.121742
1001.919254	2397.476987
1002.213951	2398.427245
1002.508613	2401.779612
1002.803239	2399.478325
1003.097829	2395.465567
1003.392384	2400.093346
1003.686903	2400.925137
1003.981386	2401.426731
1004.275834	2399.226268
1004.570246	2403.317164
1004.864623	2399.984961
1005.158964	2402.155178
1005.453270	2397.882800
1005.747540	2402.066958
1006.041775	2397.560166
1006.335974	2399.806000
1006.630138	2399.548902
1006.924266	2400.327760
1007.218359	2398.134858
1007.512416	2400.947822
1007.806438	2400.821793
1008.100425	2398.835578
1008.394376	2399.720301
1008.688292	2399.032183
1008.982172	2399.833727
1009.276017	2397.582852
1009.569827	2398.916237
1009.863602	2399.949673
1010.157341	2399.846330
1010.451045	2398.961607
1010.744714	2399.266597
1011.038347	2400.136196
1011.331945	2399.921947
1011.625508	2399.942112
1011.919036	2401.081412
1012.212528	2396.957748
1012.505986	2399.279200
1012.799408	2399.929509
1013.092795	2401.956053
1013.386147	2398.560835
1013.679464	2403.821279
1013.972745	2400.378171
1014.265992	2400.158881
1014.559204	2398.616288
1014.852380	2398.850702
1015.145521	2400.390774
1015.438628	2399.034704
1015.731699	2401.489746
1016.024736	2396.473798
1016.317737	2402.109808
1016.610703	2399.402708
1016.903635	2399.412790
1017.196531	2398.013870
1017.489393	2398.820455
1017.782219	2397.630743
1018.075011	2397.870197
1018.367768	2399.405229
1018.660490	2398.051679
1018.953177	2398.051679
1019.245829	2398.051679
