Dividing Wavelength (nm)	Counts (n)	Blue Motor Position (mm): 0.000000	Red Motor Position (mm): 29.200000	
326.493990	1989.554380
326.888308	1989.554380
327.282561	1989.554380
327.676750	1962.619495
328.070874	1965.233333
328.464933	1971.411267
328.858929	1981.332258
329.252859	1994.071254
329.646726	2009.711433
330.040528	2024.542508
330.434265	2042.567154
330.827938	2059.598692
331.221547	2081.152145
331.615091	2101.072265
332.008571	2124.485904
332.401986	2143.569192
332.795338	2164.273210
333.188625	2184.926818
333.581847	2202.470033
333.975006	2218.664740
334.368100	2238.516804
334.761129	2253.642786
335.154095	2270.258429
335.546996	2290.216357
335.939833	2319.661737
336.332606	2333.217399
336.725315	2344.343226
337.117960	2352.421675
337.510540	2359.123889
337.903056	2370.388347
338.295508	2376.659543
338.687896	2384.276726
339.080220	2392.143447
339.472480	2397.396329
339.864676	2399.470764
340.256807	2402.283728
340.648875	2404.476629
341.040879	2408.282701
341.432818	2407.871847
341.824694	2409.432084
342.216506	2408.260015
342.608253	2411.216652
342.999937	2406.805643
343.391557	2408.315468
343.783113	2405.847823
344.174605	2404.703481
344.566033	2400.355486
344.957397	2402.089643
345.348697	2398.656617
345.739934	2398.336504
346.131106	2397.260218
346.522215	2392.100597
346.913260	2392.531615
347.304241	2390.426934
347.695159	2390.956255
348.086012	2388.299567
348.476802	2387.848383
348.867528	2385.320245
349.258191	2385.002652
349.648789	2383.760008
350.039324	2381.625079
350.429796	2382.892929
350.820203	2380.677342
351.210548	2382.502240
351.600828	2380.362270
351.991045	2381.627600
352.381198	2379.646426
352.771288	2380.826056
353.161314	2379.459903
353.551276	2379.598535
353.941175	2381.075593
354.331010	2382.144318
354.720782	2381.597353
355.110490	2380.274050
355.500135	2380.258926
355.889717	2382.930738
356.279235	2383.432333
356.668689	2383.152549
357.058080	2382.033413
357.447408	2383.442415
357.836672	2379.974101
358.225873	2383.119781
358.615010	2382.998793
359.004084	2385.133722
359.393095	2388.349978
359.782043	2389.537170
360.170927	2391.049516
360.559748	2389.413662
360.948505	2390.517674
361.337199	2391.412479
361.725830	2392.400545
362.114398	2392.246790
362.502903	2394.207799
362.891344	2395.175701
363.279722	2394.212840
363.668037	2399.115362
364.056289	2397.693757
364.444478	2399.904303
364.832603	2397.298026
365.220665	2400.657955
365.608665	2398.999416
365.996601	2400.995713
366.384474	2405.222720
366.772284	2407.183729
367.160031	2405.376475
367.547715	2405.187432
367.935336	2405.530231
368.322893	2408.048287
368.710388	2409.694224
369.097820	2411.214132
369.485189	2411.090623
369.872495	2413.139852
370.259738	2412.502146
370.646918	2417.434915
371.034035	2417.603794
371.421090	2420.351223
371.808081	2426.629980
372.195010	2427.509661
372.581875	2435.661207
372.968678	2439.873091
373.355418	2448.788372
373.742096	2458.585854
374.128710	2470.470374
374.515262	2482.664926
374.901751	2493.639517
375.288177	2514.696417
375.674540	2531.919519
376.060841	2552.956254
376.447079	2577.234451
376.833254	2606.342073
377.219367	2632.213275
377.605417	2667.140909
377.991404	2690.481452
378.377329	2732.842267
378.763191	2765.065323
379.148991	2814.811429
379.534727	2865.535519
379.920402	2910.061510
380.306013	2961.365333
380.691563	3022.494365
381.077049	3083.260433
381.462474	3140.900986
381.847835	3212.898745
382.233134	3286.925569
382.618371	3348.397399
383.003545	3434.573403
383.388657	3513.596011
383.773706	3609.728294
384.158693	3682.237730
384.543618	3779.421094
384.928480	3859.086448
385.313280	3963.970175
385.698017	4067.515475
386.082692	4189.806305
386.467305	4252.200666
386.851856	4381.339904
387.236344	4542.185480
387.620770	4606.172845
388.005133	4729.565168
388.389435	4876.406418
388.773674	4962.942865
389.157851	5097.768524
389.541965	5228.533535
389.926018	5256.829531
390.310008	5435.533394
390.693936	5554.870108
391.077802	5679.336197
391.461606	5818.076312
391.845348	5925.488177
392.229027	6052.517692
392.612645	6280.700480
392.996200	6397.970322
393.379694	6573.909111
393.763125	6798.517721
394.146494	6890.332256
394.529801	7030.625047
394.913047	7281.072091
395.296230	7279.917666
395.679351	7327.672517
396.062410	7596.466840
396.445408	7486.972978
396.828343	7649.262844
397.211217	7787.108155
397.594028	7665.823034
397.976778	7868.280814
398.359466	8041.101650
398.742092	8019.091973
399.124656	8164.660331
399.507158	8352.614711
399.889598	8368.688430
400.271977	8579.486799
400.654294	8620.161348
401.036549	8813.527407
401.418742	8844.149896
401.800874	9155.219335
402.182944	9228.623577
402.564952	9597.673847
402.946898	9415.960415
403.328783	9480.409047
403.710606	9675.809211
404.092367	9934.745557
404.474067	10304.133585
404.855705	10086.088558
405.237282	10043.954594
405.618797	10476.798145
406.000250	10720.643798
406.381642	11090.724984
406.762972	11043.217150
407.144240	10839.141160
407.525447	11096.597928
407.906593	11034.838753
408.287677	11296.633434
408.668700	11451.016250
409.049661	11425.868454
409.430560	11586.071282
409.811399	11565.936913
410.192176	11719.699667
410.572891	11804.121350
410.953545	12282.768826
411.334138	11757.843558
411.714669	12358.423942
412.095139	11666.674291
412.475547	12175.949296
412.855894	12017.147909
413.236180	12345.619411
413.616405	12026.279959
413.996568	12308.768577
414.376670	12283.330914
414.756711	12154.635298
415.136691	12446.064402
415.516609	12616.929270
415.896466	12692.894417
416.276262	12988.220333
416.655997	13423.854163
417.035670	13458.549905
417.415283	14114.688845
417.794834	14209.959091
418.174324	13952.661119
418.553753	13851.787631
418.933121	14346.105533
419.312428	14157.515968
419.691674	14061.308067
420.070859	14522.896278
420.449983	14175.946426
420.829045	14728.953441
421.208047	14476.963805
421.586988	14936.870791
421.965867	15189.699779
422.344686	15182.493450
422.723444	15753.847745
423.102141	14429.423203
423.480777	15629.820237
423.859352	15137.118024
424.237866	16247.074237
424.616319	15959.617562
424.994712	16607.872138
425.373044	16403.360088
425.751314	17083.434427
426.129524	16202.523040
426.507673	17305.618242
426.885762	16995.085686
427.263789	17193.359308
427.641756	17360.123197
428.019662	17424.707940
428.397508	17461.909135
428.775292	17773.601157
429.153016	17729.581801
429.530679	17816.907189
429.908282	17837.081886
430.285824	17548.246456
430.663305	18261.912524
431.040726	17858.784054
431.418086	17687.236109
431.795385	18342.419751
432.172624	18759.106404
432.549802	18312.941604
432.926920	18497.389861
433.303977	18389.642759
433.680974	18646.819743
434.057910	18940.323282
434.434786	18959.104101
434.811601	18865.487353
435.188355	19916.391490
435.565050	19560.370082
435.941683	19504.602317
436.318257	20402.562887
436.694770	20211.253619
437.071222	20795.830861
437.447614	19862.564570
437.823946	19890.674043
438.200218	20040.383710
438.576429	19820.541511
438.952580	20092.660475
439.328670	20055.862573
439.704700	20475.357149
440.080670	20043.032836
440.456580	20636.505193
440.832429	20821.218111
441.208218	19799.837492
441.583947	20249.667212
441.959616	20340.634833
442.335224	20591.795200
442.710773	20725.582382
443.086261	21258.865882
443.461689	20625.008842
443.837057	20736.748538
444.212365	21391.367570
444.587612	21380.564377
444.962800	20952.013368
445.337927	21380.639995
445.712995	20119.265165
446.088002	21968.282258
446.462949	22161.920538
446.837837	22331.328513
447.212664	22287.104991
447.587431	25128.349711
447.962139	28080.683817
448.336786	30475.834311
448.711374	28909.421782
449.085901	25223.567024
449.460369	25164.255329
449.834776	25072.123201
450.209124	27556.383652
450.583412	27105.364220
450.957640	27631.149005
451.331808	26266.634687
451.705917	24894.848506
452.079965	24939.450114
452.453954	25302.730784
452.827883	25176.487689
453.201752	24975.612831
453.575562	25139.997297
453.949311	26252.189261
454.323001	26320.426319
454.696632	26074.115543
455.070202	27644.397157
455.443713	27768.762422
455.817164	28364.185706
456.190556	28901.973478
456.563888	28332.721344
456.937160	28766.341233
457.310373	27090.906191
457.683526	27544.095839
458.056619	27524.102623
458.429653	27453.965050
458.802628	28032.412248
459.175542	28149.596390
459.548398	29451.086202
459.921194	31035.420032
460.293930	31693.920753
460.666607	33719.093406
461.039224	35495.621227
461.411782	35867.524790
461.784280	34677.593192
462.156719	34179.839744
462.529099	33617.630102
462.901419	32316.611638
463.273680	31244.635479
463.645882	31315.362867
464.018024	31309.416826
464.390106	32132.133134
464.762130	34832.684290
465.134094	38872.233964
465.505999	44160.429554
465.877845	48727.397346
466.249631	49902.742366
466.621358	48183.580355
466.993026	46065.731130
467.364634	43966.062827
467.736184	41982.893068
468.107674	40742.144119
468.479105	39919.299262
468.850477	39209.898010
469.221790	37773.063300
469.593043	36024.425662
469.964238	35126.291173
470.335373	35017.114904
470.706449	36710.425878
471.077467	39220.123991
471.448425	43733.227054
471.819324	46538.462811
472.190164	44716.705758
472.560945	41131.769859
472.931667	38030.225161
473.302330	36878.921404
473.672934	36054.833903
474.043479	36519.482094
474.413965	35692.352256
474.784393	35267.844252
475.154761	36114.349765
475.525070	36117.306402
475.895321	35616.576152
476.265513	36143.280947
476.635645	37046.196971
477.005719	36824.144226
477.375734	37222.329845
477.745691	37831.886004
478.115588	39084.610214
478.485427	40932.117481
478.855207	44087.940283
479.224928	46567.651092
479.594591	48111.615363
479.964194	47043.422589
480.333739	47104.919625
480.703226	47022.501801
481.072653	47519.065537
481.442022	47883.566166
481.811333	48033.742139
482.180584	46648.533885
482.549777	46020.645571
482.918912	45374.846037
483.287988	44958.053519
483.657005	44020.782031
484.025964	43285.489413
484.394864	43156.839167
484.763706	42600.802419
485.132489	41647.658858
485.501213	41347.120389
485.869879	41326.839827
486.238487	40774.503286
486.607036	40805.713069
486.975527	40142.382922
487.343959	40158.776755
487.712333	40056.390920
488.080648	39799.012290
488.448905	40018.012616
488.817104	39651.903859
489.185244	40320.076034
489.553326	41571.910480
489.921350	43806.396882
490.289315	46324.317117
490.657222	46674.805858
491.025070	46730.346771
491.392861	45593.223780
491.760593	44163.030790
492.128267	42350.925025
492.495883	40756.337488
492.863440	39290.130494
493.230939	37869.500573
493.598380	36691.040121
493.965763	36162.628895
494.333088	35233.161114
494.700354	34581.037452
495.067563	34084.342646
495.434713	33717.969228
495.801805	33504.229347
496.168839	32919.674791
496.535815	32392.458318
496.902733	32161.598678
497.269593	31551.397252
497.636395	31235.173233
498.003139	31255.715935
498.369825	30561.818752
498.736453	30520.156136
499.103023	29878.510513
499.469535	29495.700413
499.835989	29288.151068
500.202385	28744.840712
500.568723	28454.223234
500.935003	28303.270923
501.301226	27844.672117
501.667390	27965.589233
502.033497	27836.702053
502.399546	27148.733267
502.765537	26389.661526
503.131470	26324.875138
503.497345	26238.905821
503.863163	25111.834891
504.228923	25168.419322
504.594625	25106.332471
504.960269	24356.173491
505.325856	24461.273987
505.691385	23769.909984
506.056856	23524.108363
506.422270	23474.107679
506.787625	22917.292072
507.152924	22699.541952
507.518164	22436.834822
507.883347	21694.744209
508.248472	21528.161800
508.613540	21455.609514
508.978550	21294.695883
509.343503	20844.122594
509.708398	20637.258846
510.073236	20568.835265
510.438016	20254.088304
510.802738	19686.398928
511.167403	19653.301232
511.532010	19445.691393
511.896561	19282.110992
512.261053	19332.124280
512.625488	18813.326534
512.989866	18435.945758
513.354186	18071.248524
513.718449	17752.486284
514.082655	17713.573617
514.446803	17280.563707
514.810894	17180.360692
515.174927	16857.946137
515.538904	16529.520005
515.902822	16471.735779
516.266684	15995.961761
516.630488	15855.658888
516.994235	15531.802562
517.357925	15435.352686
517.721558	15208.011771
518.085133	15035.498445
518.448651	14806.017560
518.812112	14477.430111
519.175516	14227.880393
519.538863	14080.741715
519.902152	13819.105831
520.265385	13682.861086
520.628560	13453.022279
520.991678	13143.389569
521.354739	12959.185807
521.717743	12786.720373
522.080690	12525.104653
522.443580	12413.014597
522.806413	12196.088706
523.169189	11961.148251
523.531908	11778.769388
523.894569	11531.140349
524.257174	11354.899090
524.619722	11199.447549
524.982213	10999.832980
525.344647	10778.337283
525.707025	10585.445093
526.069345	10461.475558
526.431608	10256.043498
526.793815	10126.339651
527.155964	9861.540442
527.518057	9700.732675
527.880093	9485.858534
528.242072	9396.362930
528.603995	9179.542903
528.965860	9014.319085
529.327669	8867.624029
529.689421	8693.467287
530.051117	8525.985033
530.412755	8396.019046
530.774337	8254.728106
531.135862	8083.028927
531.497331	7958.885472
531.858743	7812.906260
532.220098	7705.761576
532.581396	7539.516925
532.942638	7369.380503
533.303824	7281.896319
533.664953	7152.348748
534.026025	7002.613876
534.387040	6934.429749
534.747999	6808.670605
535.108902	6714.658127
535.469748	6559.340177
535.830537	6465.297452
536.191270	6380.245625
536.551947	6247.365850
536.912567	6172.570251
537.273131	6087.432724
537.633638	5950.973731
537.994089	5883.659203
538.354483	5764.196460
538.714821	5720.214913
539.075103	5660.560419
539.435328	5561.380758
539.795497	5473.457994
540.155609	5391.783740
540.515665	5342.629970
540.875665	5234.270368
541.235609	5179.528478
541.595496	5101.251962
541.955328	5075.748764
542.315102	4969.075428
542.674821	4892.452411
543.034483	4822.327440
543.394090	4762.567082
543.753640	4701.082649
544.113134	4690.024878
544.472571	4585.965380
544.831953	4587.457562
545.191278	4498.829036
545.550548	4427.562244
545.909761	4391.951533
546.268918	4352.620451
546.628019	4317.430677
546.987064	4251.212600
547.346053	4169.150177
547.704986	4159.705576
548.063863	4102.947224
548.422684	4066.789548
548.781449	4024.660626
549.140158	3995.535359
549.498811	3955.609421
549.857408	3895.619690
550.215949	3886.780027
550.574434	3846.309644
550.932864	3803.517809
551.291237	3794.852066
551.649555	3751.755242
552.007817	3731.620873
552.366022	3694.550748
552.724173	3670.446471
553.082267	3651.655570
553.440305	3632.594968
553.798288	3592.200202
554.156215	3578.311823
554.514086	3560.564441
554.871902	3531.645862
555.229661	3506.603930
555.587365	3482.648367
555.945014	3468.807879
556.302606	3447.367852
556.660143	3433.300512
557.017625	3419.621341
557.375050	3397.362126
557.732421	3388.610683
558.089735	3371.818600
558.446994	3354.950899
558.804197	3350.396217
559.161345	3336.485153
559.518437	3307.029691
559.875474	3301.335707
560.232455	3289.294911
560.589381	3280.309055
560.946251	3266.982764
561.303065	3262.735592
561.659825	3251.748397
562.016528	3235.049575
562.373177	3221.551886
562.729770	3220.833522
563.086307	3199.562373
563.442789	3198.339893
563.799216	3192.401414
564.155587	3180.405988
564.511904	3171.021880
564.868164	3165.617763
565.224370	3165.756395
565.580520	3149.355001
565.936615	3145.329640
566.292654	3134.024852
566.648638	3131.305150
567.004567	3120.312914
567.360441	3115.115484
567.716260	3105.658280
568.072023	3106.490070
568.427732	3094.051023
568.783385	3085.652461
569.138982	3080.555854
569.494525	3076.159968
569.850013	3066.511199
570.205445	3064.530026
570.560823	3059.725806
570.916145	3050.278684
571.271412	3045.812222
571.626625	3039.397353
571.981782	3034.613298
572.336884	3027.535518
572.691931	3024.137781
573.046923	3017.932120
573.401860	3008.893332
573.756743	3002.564163
574.111570	2999.705829
574.466342	2994.568893
574.821059	2994.296671
575.175722	2982.644043
575.530330	2980.655308
575.884882	2972.067703
576.239380	2967.210551
576.593823	2964.014459
576.948211	2961.750981
577.302544	2950.733540
577.656823	2947.865123
578.011047	2945.682303
578.365216	2935.962959
578.719330	2931.935077
579.073389	2928.260076
579.427394	2926.805703
579.781344	2921.734302
580.135239	2913.759197
580.489080	2913.313055
580.842866	2903.472722
581.196597	2907.359452
581.550273	2898.489542
581.903895	2897.945097
582.257463	2900.662279
582.610975	2889.629714
582.964434	2889.556617
583.317837	2883.499671
583.671186	2877.160420
584.024481	2880.028836
584.377721	2870.604399
584.730906	2870.622043
585.084037	2869.548277
585.437113	2862.047041
585.790135	2859.521422
586.143103	2851.236286
586.496016	2849.557582
586.848874	2844.294617
587.201679	2844.236644
587.554428	2835.913699
587.907124	2836.281703
588.259765	2830.000426
588.612352	2832.626867
588.964884	2828.367092
589.317362	2822.665547
589.669786	2823.280567
590.022155	2819.550114
590.374470	2819.489620
590.726731	2812.242961
591.078937	2809.296407
591.431090	2803.862043
591.783188	2798.228553
592.135232	2795.092956
592.487222	2793.908285
592.839157	2793.666309
593.191038	2788.078190
593.542866	2786.195319
593.894639	2778.842796
594.246358	2776.337343
594.598022	2773.796601
594.949633	2768.417690
595.301190	2765.725714
595.652692	2763.694129
596.004141	2761.609612
596.355535	2753.412696
596.706876	2748.114443
597.058162	2747.000348
597.409395	2749.767942
597.760573	2749.082345
598.111698	2740.502301
598.462768	2739.889801
598.813785	2737.699419
599.164748	2733.338821
599.515657	2732.769171
599.866511	2728.375805
600.217312	2732.267576
600.568060	2723.196020
600.918753	2726.641648
601.269392	2726.921432
601.619978	2720.914897
601.970510	2718.169989
602.320988	2717.688559
602.671412	2720.720813
603.021783	2713.118753
603.372100	2712.528938
603.722363	2709.607589
604.072572	2708.412836
604.422728	2706.955942
604.772830	2701.256918
605.122878	2700.732638
605.472872	2696.145188
605.822813	2695.237780
606.172701	2698.259952
606.522534	2700.848585
606.872314	2699.356403
607.222041	2695.688964
607.571714	2698.239787
607.921333	2692.074456
608.270899	2692.525640
608.620411	2692.112265
608.969870	2691.681246
609.319276	2689.115299
609.668627	2687.199661
610.017926	2687.436595
610.367171	2688.974147
610.716362	2687.010617
611.065500	2688.591019
611.414585	2688.717048
611.763616	2687.885257
612.112594	2682.173630
612.461518	2683.494412
612.810389	2685.525997
613.159207	2682.319824
613.507971	2683.602797
613.856682	2684.981553
614.205340	2683.280163
614.553945	2685.306707
614.902496	2679.862261
615.250994	2684.870647
615.599439	2681.462827
615.947830	2680.646161
616.296169	2681.346881
616.644454	2681.142714
616.992686	2679.335461
617.340864	2682.092972
617.688990	2679.474092
618.037063	2679.973167
618.385082	2678.554082
618.733048	2680.915862
619.080961	2678.702796
619.428821	2679.017868
619.776628	2680.124401
620.124382	2678.314627
620.472083	2676.802281
620.819731	2676.177178
621.167326	2673.089471
621.514868	2675.849503
621.862357	2671.375479
622.209793	2670.243740
622.557176	2664.751402
622.904506	2662.871052
623.251783	2656.781338
623.599007	2658.384425
623.946179	2656.400731
624.293297	2651.790596
624.640363	2653.381080
624.987376	2652.871923
625.334336	2648.339926
625.681243	2647.787920
626.028097	2646.827580
626.374899	2644.130563
626.721647	2643.999493
627.068343	2641.836838
627.414987	2642.860192
627.761577	2640.082516
628.108115	2640.982362
628.454600	2635.747124
628.801032	2636.979686
629.147412	2637.693009
629.493739	2637.004892
629.840014	2637.267032
630.186236	2635.306023
630.532405	2634.824593
630.878521	2634.514562
631.224585	2632.349386
631.570597	2628.596247
631.916556	2630.045579
632.262462	2628.964251
632.608316	2631.154633
632.954117	2628.949128
633.299866	2632.447689
633.645562	2627.207409
633.991206	2623.844960
634.336797	2622.950155
634.682336	2622.851852
635.027823	2617.568723
635.373257	2619.781790
635.718639	2612.837600
636.063968	2617.629217
636.409245	2613.689555
636.754470	2612.399020
637.099642	2609.772579
637.444762	2606.936930
637.789829	2607.493977
638.134845	2607.216714
638.479808	2606.558843
638.824719	2605.331322
639.169577	2601.550457
639.514383	2601.303440
639.859137	2597.956114
640.203839	2601.883173
640.548489	2598.006526
640.893086	2597.162132
641.237632	2593.461925
641.582125	2594.049220
641.926566	2593.713983
642.270955	2598.064499
642.615292	2598.346803
642.959576	2597.729262
643.303809	2595.339755
643.647990	2595.967379
643.992118	2595.838829
644.336195	2595.165835
644.680219	2597.915785
645.024192	2596.252204
645.368112	2597.948552
645.711981	2597.998964
646.055797	2599.607092
646.399562	2600.005343
646.743274	2602.021805
647.086935	2609.762496
647.430544	2604.779316
647.774101	2604.436517
648.117606	2607.582197
648.461059	2610.311982
648.804460	2606.193359
649.147810	2604.819645
649.491108	2601.512648
649.834354	2600.680858
650.177548	2593.242635
650.520690	2594.971751
650.863781	2595.178438
651.206820	2596.229519
651.549807	2590.482603
651.892742	2590.480083
652.235626	2584.586974
652.578458	2586.429516
652.921238	2581.766448
653.263967	2585.222159
653.606644	2584.939855
653.949269	2581.983218
654.291843	2578.898032
654.634365	2578.613207
654.976836	2577.879719
655.319255	2579.533217
655.661622	2577.892322
656.003938	2577.862075
656.346203	2574.771848
656.688416	2576.261508
657.030577	2575.971642
657.372687	2575.160016
657.714746	2576.611869
658.056753	2575.719584
658.398708	2571.832855
658.740612	2569.932340
659.082465	2571.187587
659.424266	2571.326219
659.766016	2569.297154
660.107715	2575.036508
660.449362	2574.706312
660.790958	2573.176322
661.132503	2574.257650
661.473996	2574.940726
661.815438	2576.102712
662.156829	2575.465006
662.498168	2573.912331
662.839456	2574.527352
663.180693	2575.056673
663.521879	2575.422156
663.863013	2572.936867
664.204097	2572.881415
664.545129	2574.063565
664.886110	2575.510377
665.227040	2576.228741
665.567918	2575.097002
665.908746	2576.256467
666.249522	2577.758731
666.590248	2579.447518
666.930922	2578.335943
667.271545	2576.735377
667.612118	2578.663618
667.952639	2575.396951
668.293109	2575.154975
668.633528	2574.464337
668.973896	2577.610017
669.314213	2575.669173
669.654480	2576.138000
669.994695	2575.545665
670.334859	2572.049624
670.674973	2574.245047
671.015035	2573.945098
671.355047	2572.906621
671.695008	2572.533575
672.034918	2572.069789
672.374777	2575.699420
672.714585	2572.551219
673.054342	2573.372927
673.394049	2572.566343
673.733705	2572.704974
674.073310	2573.771178
674.412864	2572.221024
674.752368	2568.362020
675.091820	2571.091805
675.431223	2568.286403
675.770574	2568.324212
676.109875	2562.418500
676.449125	2564.137533
676.788324	2560.961607
677.127473	2560.396997
677.466571	2558.362892
677.805619	2558.486400
678.144616	2561.947152
678.483562	2561.145609
678.822458	2559.005639
679.161303	2558.962789
679.500098	2561.879097
679.838842	2557.639486
680.177535	2560.021431
680.516179	2560.081925
680.854771	2560.601164
681.193314	2565.440672
681.531805	2570.776733
681.870247	2573.440983
682.208638	2578.693865
682.546978	2578.588001
682.885268	2578.179667
683.223508	2576.621951
683.561697	2572.629357
683.899836	2573.332598
684.237925	2571.631209
684.575963	2570.897721
684.913951	2567.794891
685.251889	2568.941753
685.589776	2568.309088
685.927614	2565.831361
686.265401	2569.425704
686.603137	2570.232288
686.940824	2571.394274
687.278460	2573.498956
687.616046	2574.774368
687.953582	2580.700244
688.291068	2576.138000
688.628504	2577.310068
688.965889	2575.447362
689.303224	2578.207394
689.640510	2573.998030
689.977745	2570.567525
690.314930	2568.407391
690.652065	2565.327246
690.989150	2563.905640
691.326185	2559.174517
691.663170	2556.984136
692.000105	2553.039433
692.336990	2549.873589
692.673825	2550.090358
693.010610	2548.159596
693.347345	2538.954449
693.684030	2535.609644
694.020665	2533.005888
694.357251	2528.972965
694.693786	2535.125693
695.030272	2533.129396
695.366707	2530.608819
695.703093	2528.594878
696.039429	2530.608819
696.375716	2528.224353
696.711952	2529.003212
697.048139	2526.268386
697.384276	2525.975999
697.720363	2526.732172
698.056400	2527.236287
698.392388	2527.410207
698.728326	2528.544467
699.064214	2525.809641
699.400053	2522.550535
699.735842	2523.934332
700.071581	2522.071625
700.407270	2520.723117
700.742910	2519.044412
701.078501	2518.895698
701.414042	2517.501819
701.749533	2514.507374
702.084974	2513.836900
702.420366	2518.099196
702.755709	2510.557630
703.091002	2514.227590
703.426246	2512.309431
703.761440	2512.001920
704.096584	2510.640809
704.431679	2511.346570
704.766725	2512.132990
705.101721	2508.374810
705.436668	2509.844307
705.771565	2506.721312
706.106413	2512.972342
706.441212	2510.832373
706.775961	2511.714575
707.110661	2513.909997
707.445311	2514.635923
707.779913	2512.518639
708.114465	2511.417147
708.448967	2513.897394
708.783421	2519.009124
709.117825	2517.446367
709.452180	2522.948786
709.786485	2519.339320
710.120742	2528.302491
710.454949	2527.430372
710.789107	2528.176462
711.123216	2528.332738
711.457275	2531.004550
711.791286	2533.250384
712.125247	2537.565612
712.459159	2536.413708
712.793023	2539.163657
713.126837	2534.281300
713.460602	2538.165509
713.794318	2534.974458
714.127985	2530.757533
714.461602	2527.362316
714.795171	2530.399611
715.128691	2522.626152
715.462162	2517.690863
715.795584	2519.178003
716.128957	2515.659277
716.462281	2515.495440
716.795556	2514.111643
717.128782	2509.841786
717.461960	2510.497136
717.795088	2508.573936
718.128167	2506.557474
718.461198	2506.512104
718.794180	2505.030005
719.127113	2502.007833
719.459997	2503.404232
719.792833	2499.711587
720.125619	2498.436175
720.458357	2497.354848
720.791046	2500.283758
721.123686	2496.142450
721.456278	2498.395846
721.788821	2497.075064
722.121315	2496.961638
722.453761	2496.041627
722.786158	2494.022645
723.118506	2494.458705
723.450805	2495.950887
723.783056	2494.178921
724.115259	2496.192862
724.447412	2493.621873
724.779518	2495.156905
725.111574	2498.080774
725.443582	2497.077584
725.775542	2497.238901
726.107453	2498.763850
726.439315	2497.692605
726.771129	2504.982114
727.102895	2501.042452
727.434612	2506.549912
727.766281	2505.392968
728.097901	2504.079747
728.429473	2502.761485
728.760996	2506.302896
729.092471	2500.989520
729.423897	2508.238699
729.755276	2503.416835
730.086606	2507.497649
730.417887	2509.473782
730.749120	2513.357991
731.080305	2515.787827
731.411442	2518.096675
731.742530	2518.706655
732.073570	2518.661285
732.404562	2519.717406
732.735506	2519.979546
733.066401	2517.940400
733.397249	2514.066273
733.728048	2511.941427
734.058798	2508.261384
734.389501	2504.515807
734.720156	2500.467760
735.050762	2498.453819
735.381320	2497.445589
735.711831	2498.216885
736.042293	2493.437871
736.372707	2494.186483
736.703073	2489.289002
737.033391	2492.868221
737.363661	2491.439054
737.693883	2495.305619
738.024056	2494.015083
738.354182	2496.830568
738.684260	2496.815444
739.014290	2499.494818
739.344272	2500.054386
739.674207	2504.256187
740.004093	2502.789212
740.333931	2502.186794
740.663722	2504.903976
740.993464	2501.327277
741.323159	2501.385250
741.652806	2502.017915
741.982405	2497.498521
742.311956	2498.685713
742.641460	2500.066989
742.970915	2495.635814
743.300323	2495.698829
743.629683	2492.500217
743.958996	2490.007366
744.288260	2487.879999
744.617477	2486.196254
744.946647	2483.784062
745.275768	2486.203816
745.604842	2482.821201
745.933869	2481.591160
746.262847	2480.237610
746.591778	2483.693321
746.920662	2484.739360
747.249498	2486.642396
747.578286	2483.554689
747.907027	2484.283136
748.235720	2487.002838
748.564365	2487.360760
748.892963	2483.789103
749.221514	2487.575009
749.550017	2486.617190
749.878473	2490.511482
750.206881	2483.663074
750.535242	2483.496716
750.863555	2484.925883
751.191821	2483.466469
751.520039	2482.586788
751.848210	2482.281798
752.176334	2479.877168
752.504411	2484.978815
752.832440	2481.076962
753.160421	2483.690800
753.488356	2481.666777
753.816243	2484.472179
754.144082	2479.680562
754.471875	2478.178299
754.799620	2478.889101
755.127318	2481.565954
755.454969	2478.556385
755.782572	2481.603763
756.110129	2476.870119
756.437638	2478.238793
756.765100	2478.465644
757.092515	2477.689307
757.419882	2478.266519
757.747203	2480.398927
758.074477	2482.057467
758.401703	2478.034626
758.728882	2481.036633
759.056014	2480.900522
759.383099	2481.734833
759.710138	2484.273054
760.037129	2484.986377
760.364073	2485.427478
760.690970	2484.225163
761.017820	2485.397231
761.344623	2486.546614
761.671379	2489.528457
761.998088	2488.749598
762.324751	2501.470950
762.651366	2519.145235
762.977935	2545.119781
763.304456	2557.435319
763.630931	2568.372103
763.957359	2559.103941
764.283740	2547.272353
764.610074	2535.702905
764.936362	2521.355781
765.262602	2510.179543
765.588796	2502.534633
765.914943	2491.396204
766.241044	2487.786738
766.567097	2483.171562
766.893104	2479.531848
767.219064	2476.121508
767.544978	2474.412557
767.870845	2473.772330
768.196665	2470.959366
768.522438	2468.285034
768.848165	2469.313430
769.173846	2464.231947
769.499479	2466.634056
769.825066	2462.744806
770.150607	2465.371247
770.476101	2460.488890
770.801548	2461.872687
771.126949	2459.881431
771.452303	2460.269600
771.777611	2458.850515
772.102872	2457.335648
772.428087	2459.347068
772.753256	2457.479321
773.078378	2456.907150
773.403453	2456.186265
773.728482	2455.742643
774.053465	2452.140739
774.378401	2452.057560
774.703291	2455.170472
775.028135	2451.631583
775.352932	2452.843980
775.677683	2453.254834
776.002388	2450.462035
776.327046	2453.547221
776.651658	2452.297015
776.976224	2449.133691
777.300743	2450.162086
777.625216	2448.800975
777.949643	2447.868361
778.274024	2449.859617
778.598359	2444.473144
778.922647	2443.379214
779.246889	2448.175872
779.571086	2444.006837
779.895236	2451.059412
780.219339	2448.135542
780.543397	2448.306942
780.867409	2446.545058
781.191374	2449.988166
781.515294	2448.306942
781.839167	2450.678804
782.162995	2448.095213
782.486776	2449.683177
782.810511	2450.293156
783.134201	2448.911880
783.457844	2445.804009
783.781441	2444.092537
784.104993	2447.754935
784.428498	2446.287959
784.751958	2449.040429
785.075372	2446.845007
785.398739	2445.831735
785.722061	2445.390634
786.045337	2448.778289
786.368568	2447.787703
786.691752	2449.448763
787.014891	2452.120574
787.337983	2452.632252
787.661030	2456.801286
787.984031	2460.524178
788.306987	2461.537450
788.629897	2465.789663
788.952760	2464.216823
789.275579	2462.278499
789.598351	2460.365382
789.921078	2457.312963
790.243759	2456.206430
790.566395	2453.002776
790.888984	2452.012190
791.211529	2447.265943
791.534027	2449.486572
791.856480	2451.112344
792.178888	2445.350305
792.501249	2446.514811
792.823566	2446.976077
793.145836	2445.410799
793.468062	2444.778134
793.790241	2444.561364
794.112375	2446.935748
794.434464	2444.193360
794.756507	2446.524894
795.078505	2446.068669
795.400457	2447.321396
795.722364	2447.278546
796.044226	2452.176027
796.366042	2452.475976
796.687812	2452.586881
797.009538	2455.472942
797.331218	2453.975719
797.652852	2453.194340
797.974442	2454.620987
798.295986	2452.044957
798.617484	2453.002776
798.938938	2449.267281
799.260346	2449.426078
799.581709	2447.588577
799.903026	2448.092693
800.224299	2448.427929
800.545526	2447.528083
800.866708	2443.457352
801.187845	2445.834256
801.508936	2444.208483
801.829983	2444.311827
802.150984	2442.328133
802.471940	2441.967691
802.792851	2443.510284
803.113717	2441.992896
803.434538	2441.392999
803.755314	2443.003648
804.076045	2441.682865
804.396731	2442.754111
804.717372	2441.453493
805.037967	2444.611776
805.358518	2439.802515
805.679024	2444.515994
805.999485	2441.188832
806.319901	2443.928699
806.640272	2445.685542
806.960598	2443.175047
807.280879	2443.548092
807.601115	2444.551282
807.921306	2444.518514
808.241453	2445.173864
808.561554	2441.705551
808.881611	2445.577157
809.201623	2441.251847
809.521590	2443.817794
809.841513	2445.771241
810.161390	2441.287135
810.481223	2443.432146
810.801011	2442.809563
811.120755	2442.058431
811.440453	2445.136056
811.760107	2441.564398
812.079716	2439.303441
812.399281	2436.140117
812.718801	2441.377876
813.038276	2437.281938
813.357707	2441.700509
813.677093	2442.328133
813.996434	2439.374017
814.315731	2441.030036
814.634983	2441.173709
814.954191	2440.742690
815.273354	2441.382917
815.592473	2445.541869
815.911547	2442.398709
816.230577	2444.395006
816.549562	2443.704368
816.868502	2446.872733
817.187399	2446.739143
817.506250	2448.853907
817.825058	2447.628906
818.143821	2451.155193
818.462539	2451.165276
818.781213	2455.621656
819.099843	2460.942594
819.418429	2469.225209
819.736970	2477.273412
820.055466	2485.908908
820.373919	2495.577841
820.692327	2515.407220
821.010691	2547.531973
821.329011	2618.602160
821.647286	2729.562997
821.965517	2843.672035
822.283704	2914.235586
822.601847	2936.514965
822.919945	2887.489744
823.237999	2830.917916
823.556010	2774.209976
823.873976	2719.760473
824.191897	2672.557629
824.509775	2633.692854
824.827609	2603.776126
825.145398	2579.250913
825.463144	2569.826476
825.780845	2571.807649
826.098502	2587.268868
826.416116	2614.894391
826.733685	2638.101343
827.051210	2651.316727
827.368692	2634.474232
827.686129	2604.686054
828.003522	2577.496591
828.320872	2543.398227
828.638177	2526.039013
828.955439	2507.830366
829.272656	2493.848725
829.589830	2480.482106
829.906960	2477.656539
830.224046	2468.524489
830.541088	2462.623818
830.858086	2458.409414
831.175041	2457.741461
831.491952	2458.001080
831.808819	2457.277675
832.125642	2459.634414
832.442421	2470.059520
832.759157	2482.301963
833.075849	2503.247957
833.392497	2524.801410
833.709101	2542.231199
834.025662	2544.109029
834.342179	2527.115300
834.658653	2511.384379
834.975083	2498.554643
835.291469	2490.272027
835.607811	2475.821559
835.924110	2466.906279
836.240366	2463.995012
836.556578	2456.539146
836.872746	2451.515636
837.188871	2444.967177
837.504952	2441.952567
837.820990	2437.861671
838.136984	2440.427618
838.452935	2438.748914
838.768842	2437.481064
839.084706	2442.345777
839.400526	2453.484207
839.716303	2464.846967
840.032037	2474.619244
840.347727	2470.835858
840.663373	2464.892338
840.978977	2454.893209
841.294537	2451.301387
841.610054	2443.704368
841.925527	2442.481888
842.240957	2439.144644
842.556344	2434.814293
842.871687	2434.307657
843.186987	2431.769436
843.502244	2425.359609
843.817458	2425.934301
844.132629	2426.516554
844.447756	2423.421286
844.762840	2420.250400
845.077881	2421.379618
845.392879	2417.412230
845.707833	2421.283836
846.022745	2416.620769
846.337613	2423.650658
846.652438	2422.040009
846.967221	2420.232756
847.281960	2421.109917
847.596656	2419.516912
847.911309	2419.814340
848.225919	2421.367015
848.540485	2421.130081
848.855009	2422.647468
849.169490	2420.033630
849.483928	2421.051943
849.798323	2417.528177
850.112675	2420.504978
850.426984	2419.322828
850.741251	2418.669998
851.055474	2420.459608
851.369654	2423.955648
851.683792	2418.929618
851.997887	2420.454567
852.311938	2417.046747
852.625947	2419.995822
852.939914	2420.469690
853.253837	2419.600091
853.567718	2418.362488
853.881555	2418.899371
854.195350	2418.765780
854.509103	2421.414906
854.822812	2417.762590
855.136479	2424.200144
855.450103	2420.066398
855.763685	2419.285019
856.077224	2417.407189
856.390720	2420.507499
856.704173	2420.683939
857.017584	2420.623445
857.330953	2420.999011
857.644278	2420.396593
857.957561	2424.285843
858.270802	2421.518250
858.584000	2423.219639
858.897155	2419.098496
859.210268	2420.688980
859.523339	2420.628486
859.836367	2418.836356
860.149352	2422.135791
860.462295	2421.392221
860.775195	2418.087745
861.088054	2417.578588
861.400869	2419.227046
861.713642	2416.852662
862.026373	2420.207550
862.339062	2419.615214
862.651708	2420.842735
862.964312	2418.874165
863.276873	2421.102355
863.589392	2422.322314
863.901869	2422.692839
864.214303	2424.348858
864.526696	2420.993970
864.839045	2421.465318
865.151353	2421.588826
865.463619	2424.285843
865.775842	2422.798703
866.088023	2424.590833
866.400162	2427.013108
866.712258	2422.753333
867.024313	2425.112593
867.336325	2424.273241
867.648296	2423.471697
867.960224	2422.687798
868.272110	2425.578899
868.583954	2423.625452
868.895755	2426.506472
869.207515	2423.126378
869.519233	2423.602767
869.830909	2423.945566
870.142542	2426.428334
870.454134	2423.920360
870.765684	2425.689805
871.077191	2426.231729
871.388657	2427.429003
871.700081	2426.965217
872.011463	2423.159146
872.322803	2425.893972
872.634101	2427.217274
872.945357	2425.886410
873.256571	2430.612492
873.567744	2426.473704
873.878874	2430.509148
874.189963	2428.623756
874.501010	2431.340938
874.812015	2431.620722
875.122979	2428.207861
875.433900	2429.198448
875.744780	2432.651638
876.055618	2431.920671
876.366415	2430.856987
876.677169	2431.877821
876.987882	2428.656524
877.298554	2427.214754
877.609183	2430.511668
877.919771	2431.857657
878.230317	2433.899324
878.540822	2438.174222
878.851285	2442.295366
879.161707	2449.126129
879.472087	2459.720114
879.782425	2473.003554
880.092722	2498.310147
880.402977	2536.756506
880.713191	2586.384145
881.023363	2629.604478
881.333494	2657.224960
881.643583	2665.265600
881.953631	2661.968686
882.263637	2649.842190
882.573602	2632.750158
882.883526	2614.818774
883.193408	2594.349168
883.503248	2574.781930
883.813048	2557.460525
884.122806	2542.079965
884.432522	2526.969106
884.742197	2511.139883
885.051831	2499.509941
885.361424	2485.737509
885.670975	2476.897846
885.980485	2464.138685
886.289954	2464.902420
886.599382	2455.619135
886.908768	2453.204422
887.218113	2447.018927
887.527417	2445.337702
887.836680	2441.962649
888.145901	2439.767227
888.455082	2437.108018
888.764221	2434.700867
889.073319	2434.738676
889.382376	2435.512493
889.691392	2431.161977
890.000366	2433.818665
890.309300	2429.911771
890.618193	2433.581731
890.927044	2431.749272
891.235855	2435.469643
891.544625	2433.483429
891.853353	2434.794129
892.162041	2435.421752
892.470687	2439.689089
892.779293	2440.883843
893.087858	2441.294697
893.396381	2448.841304
893.704864	2461.756740
894.013306	2471.377782
894.321707	2490.761019
894.630068	2499.227637
894.938387	2501.922133
895.246665	2494.869559
895.554903	2489.505771
895.863100	2481.964205
896.171256	2477.759883
896.479371	2469.525158
896.787446	2466.508028
897.095480	2459.503344
897.403473	2456.831533
897.711425	2452.786007
898.019336	2449.625203
898.327207	2447.810388
898.635038	2442.877619
898.942827	2440.132711
899.250576	2439.308482
899.558284	2435.704057
899.865952	2433.909406
900.173579	2432.419745
900.481165	2433.115424
900.788711	2431.779519
901.096216	2426.819023
901.403681	2429.705084
901.711105	2426.619898
902.018489	2429.982347
902.325832	2433.826227
902.633135	2433.390167
902.940397	2437.110539
903.247619	2446.978597
903.554800	2467.312092
903.861941	2489.788076
904.169041	2509.577125
904.476101	2516.458300
904.783121	2510.164420
905.090100	2502.118738
905.397039	2491.023159
905.703938	2482.233907
906.010796	2474.825931
906.317614	2466.883593
906.624391	2461.013170
906.931129	2455.851028
907.237826	2448.914401
907.544483	2442.512135
907.851099	2438.794284
908.157675	2435.338573
908.464211	2430.912440
908.770707	2423.774166
909.077163	2422.700401
909.383578	2418.150759
909.689954	2417.162693
909.996289	2413.154976
910.302584	2420.298291
910.608839	2419.932807
910.915054	2419.605132
911.221229	2417.303845
911.527363	2416.532549
911.833458	2419.307704
912.139513	2419.080852
912.445527	2419.448856
912.751502	2423.685946
913.057436	2423.819537
913.363331	2426.294743
913.669186	2428.333890
913.975000	2431.855136
914.280775	2439.278235
914.586510	2447.870882
914.892205	2453.348095
915.197859	2470.387195
915.503475	2486.289515
915.809050	2500.966835
916.114585	2507.694254
916.420081	2512.558968
916.725536	2510.179543
917.030952	2506.128976
917.336328	2497.964828
917.641665	2492.792604
917.946961	2489.190699
918.252218	2482.115440
918.557435	2475.352732
918.862612	2469.986424
919.167750	2465.227574
919.472848	2457.106276
919.777906	2452.218877
920.082925	2452.113013
920.387904	2446.900460
920.692843	2439.797474
920.997743	2436.664397
921.302603	2434.335384
921.607423	2431.890424
921.912204	2431.928233
922.216946	2428.006215
922.521647	2425.606626
922.826310	2423.920360
923.130932	2426.327511
923.435516	2421.470359
923.740059	2420.331058
924.044564	2423.131419
924.349028	2418.841397
924.653454	2413.507857
924.957840	2419.446336
925.262186	2412.814698
925.566493	2413.646488
925.870761	2411.461148
926.174989	2415.274781
926.479178	2414.821077
926.783328	2413.822929
927.087438	2410.692372
927.391509	2412.393762
927.695541	2409.139697
927.999533	2410.949471
928.303486	2409.971487
928.607400	2412.759245
928.911275	2412.124060
929.215110	2411.377969
929.518906	2410.243709
929.822663	2411.249420
930.126381	2410.304203
930.430060	2412.086251
930.733699	2410.084913
931.037299	2410.309244
931.340861	2410.803277
931.644383	2411.057856
931.947866	2413.323854
932.251309	2412.250089
932.554714	2410.891498
932.858080	2411.642630
933.161407	2410.619275
933.464694	2408.907804
933.767943	2407.866805
934.071153	2412.391241
934.374323	2410.382341
934.677455	2410.619275
934.980548	2410.006775
935.283602	2410.805798
935.586617	2408.335633
935.889593	2414.153124
936.192530	2410.447876
936.495428	2411.645150
936.798287	2409.278328
937.101108	2412.976015
937.403890	2411.078020
937.706632	2415.297466
938.009336	2415.486509
938.312002	2415.897363
938.614628	2417.510533
938.917216	2416.179668
939.219765	2417.591191
939.522275	2417.734864
939.824747	2420.835174
940.127179	2414.286715
940.429573	2414.818557
940.731929	2417.180337
941.034246	2411.937537
941.336524	2419.143867
941.638763	2416.789648
941.940964	2418.987591
942.243126	2412.872671
942.545250	2415.052970
942.847335	2415.499112
943.149381	2415.683114
943.451389	2412.701272
943.753359	2412.633216
944.055290	2413.873340
944.357182	2411.244378
944.659036	2412.444173
944.960851	2412.902918
945.262628	2410.578946
945.564367	2411.650191
945.866067	2412.126580
946.167729	2413.964081
946.469352	2411.816549
946.770937	2412.885274
947.072484	2413.071797
947.373992	2414.924421
947.675462	2415.373083
947.976893	2410.246230
948.278286	2410.727660
948.579641	2412.426529
948.880958	2410.110119
949.182236	2413.465007
949.483476	2412.529873
949.784678	2411.282187
950.085841	2410.747825
950.386967	2412.507187
950.688054	2411.093144
950.989103	2413.664132
951.290114	2412.638257
951.591087	2411.403175
951.892021	2412.323185
952.192917	2415.723444
952.493776	2412.933165
952.794596	2417.407189
953.095378	2411.652712
953.396122	2415.173958
953.696828	2413.815367
953.997496	2412.416447
954.298126	2411.161199
954.598718	2414.160686
954.899272	2411.599780
955.199788	2413.328896
955.500266	2411.824111
955.800706	2406.989645
956.101108	2404.607699
956.401472	2407.511404
956.701798	2405.653739
957.002087	2408.953174
957.302337	2407.138359
957.602550	2409.346384
957.902724	2406.969480
958.202861	2407.329923
958.502960	2404.232133
958.803022	2405.376475
959.103045	2406.477968
959.403031	2403.796074
959.702979	2402.656773
960.002889	2407.158523
960.302762	2402.823131
960.602596	2404.522000
960.902393	2402.931516
961.202153	2405.762124
961.501875	2402.881104
961.801559	2403.939747
962.101205	2403.775909
962.400814	2405.444531
962.700385	2406.435118
962.999918	2403.785991
963.299414	2404.065775
963.598873	2403.833882
963.898293	2402.830693
964.197677	2402.913872
964.497022	2403.463358
964.796331	2402.069478
965.095601	2400.146278
965.394835	2404.781619
965.694030	2404.171640
965.993189	2405.192473
966.292309	2401.824982
966.591393	2406.248595
966.890439	2401.661145
967.189447	2403.425549
967.488419	2403.453275
967.787353	2406.586352
968.086249	2402.722308
968.385108	2404.423697
968.683930	2403.007133
968.982714	2403.518810
969.281462	2403.138203
969.580172	2402.513100
969.878844	2403.594428
970.177480	2403.475960
970.476078	2403.619633
970.774639	2404.728687
971.073162	2403.019736
971.371649	2404.217010
971.670098	2402.150137
971.968510	2400.317677
972.266885	2401.348593
972.565223	2406.692217
972.863524	2402.923954
973.161788	2403.400343
973.460014	2403.967473
973.758204	2407.007289
974.056356	2405.454613
974.354471	2405.875550
974.652550	2406.367062
974.950591	2405.207597
975.248595	2405.699109
975.546563	2405.154665
975.844493	2403.042421
976.142386	2403.571742
976.440243	2404.826990
976.738062	2405.038718
977.035845	2401.784653
977.333590	2402.200548
977.631299	2406.598955
977.928971	2402.616444
978.226606	2403.170971
978.524204	2401.736762
978.821765	2404.040570
979.119290	2402.563512
979.416777	2403.763306
979.714228	2404.206928
980.011642	2403.740621
980.309020	2404.348080
980.606360	2402.203069
980.903664	2406.573749
981.200931	2407.045097
981.498162	2406.525858
981.795356	2407.508883
982.092513	2408.665828
982.389633	2409.704306
982.686717	2411.410737
982.983764	2412.751683
983.280775	2412.913000
983.577749	2416.121695
983.874686	2415.796540
984.171587	2415.310069
984.468451	2414.732857
984.765279	2413.182702
985.062070	2412.315624
985.358824	2407.491239
985.655543	2411.292269
985.952224	2406.737587
986.248869	2410.094995
986.545478	2400.584859
986.842050	2405.643657
987.138586	2401.961094
987.435086	2402.467730
987.731549	2400.612585
988.027975	2402.102246
988.324366	2400.811711
988.620719	2403.327246
988.917037	2400.272307
989.213318	2404.776578
989.509563	2400.242060
989.805772	2401.366238
990.101944	2404.053172
990.398080	2400.673079
990.694180	2401.426731
990.990244	2399.889179
991.286271	2397.524878
991.582262	2401.419170
991.878217	2401.038563
992.174136	2402.840775
992.470019	2402.918913
992.765865	2402.510579
993.061676	2401.550240
993.357450	2401.893038
993.653188	2402.273645
993.948890	2402.036711
994.244556	2402.850857
994.540186	2401.439334
994.835780	2403.337329
995.131337	2403.100394
995.426859	2404.983265
995.722345	2410.359656
996.017795	2406.097360
996.313208	2409.268246
996.608586	2405.903276
996.903928	2410.631878
997.199234	2410.447876
997.494504	2407.907135
997.789738	2408.020561
998.084936	2408.474264
998.380099	2407.947464
998.675225	2404.743811
998.970316	2404.955539
999.265371	2404.373286
999.560390	2405.048800
999.855373	2405.147103
1000.150320	2401.580487
1000.445232	2405.837741
1000.740108	2400.128634
1001.034948	2402.540826
1001.329752	2401.978738
1001.624521	2404.073337
1001.919254	2394.664023
1002.213951	2398.036555
1002.508613	2397.524878
1002.803239	2401.444375
1003.097829	2394.981616
1003.392384	2400.962945
1003.686903	2400.068140
1003.981386	2401.401526
1004.275834	2399.538819
1004.570246	2399.420352
1004.864623	2397.739127
1005.158964	2402.346742
1005.453270	2399.558984
1005.747540	2401.545198
1006.041775	2398.926319
1006.335974	2399.538819
1006.630138	2398.056720
1006.924266	2399.546381
1007.218359	2396.168808
1007.512416	2401.991341
1007.806438	2399.944632
1008.100425	2401.396484
1008.394376	2400.983110
1008.688292	2401.802297
1008.982172	2397.860115
1009.276017	2401.832544
1009.569827	2400.466392
1009.863602	2400.209293
1010.157341	2399.165774
1010.451045	2398.770043
1010.744714	2399.329611
1011.038347	2401.608213
1011.331945	2400.297513
1011.625508	2401.217523
1011.919036	2398.921278
1012.212528	2396.650238
1012.505986	2400.347924
1012.799408	2401.545198
1013.092795	2398.843140
1013.386147	2401.530075
1013.679464	2399.556463
1013.972745	2400.262225
1014.265992	2398.218037
1014.559204	2400.113511
1014.852380	2400.269787
1015.145521	2398.966648
1015.438628	2401.048645
1015.731699	2398.533109
1016.024736	2398.273490
1016.317737	2400.960425
1016.610703	2397.935732
1016.903635	2395.563869
1017.196531	2394.691750
1017.489393	2396.677964
1017.782219	2394.502707
1018.075011	2398.649056
1018.367768	2396.993037
1018.660490	2397.847512
1018.953177	2397.847512
1019.245829	2397.847512
