Dividing Wavelength (nm)	Counts (n)	Blue Motor Position (mm): 0.000000	Red Motor Position (mm): 24.000000	
326.493990	1985.486169
326.888308	1985.486169
327.282561	1985.486169
327.676750	1961.172684
328.070874	1961.303754
328.464933	1964.656121
328.858929	1976.989304
329.252859	1990.411376
329.646726	2005.328150
330.040528	2019.529081
330.434265	2039.333253
330.827938	2060.070040
331.221547	2077.991342
331.615091	2100.215268
332.008571	2120.541201
332.401986	2139.977369
332.795338	2159.509320
333.188625	2180.682166
333.581847	2196.725638
333.975006	2218.286653
334.368100	2233.747872
334.761129	2252.027096
335.154095	2264.781215
335.546996	2285.684360
335.939833	2307.504994
336.332606	2319.202992
336.725315	2330.343942
337.117960	2338.397185
337.510540	2346.024451
337.903056	2356.351254
338.295508	2363.025742
338.687896	2370.378265
339.080220	2375.363966
339.472480	2382.071221
339.864676	2384.858979
340.256807	2389.915257
340.648875	2389.539691
341.040879	2389.829557
341.432818	2391.336862
341.824694	2392.607233
342.216506	2392.365257
342.608253	2397.595454
342.999937	2393.083622
343.391557	2390.913405
343.783113	2388.135729
344.174605	2390.275699
344.566033	2386.467107
344.957397	2387.024155
345.348697	2384.269164
345.739934	2381.153731
346.131106	2379.719523
346.522215	2377.508977
346.913260	2376.367156
347.304241	2376.722557
347.695159	2373.544109
348.086012	2372.583770
348.476802	2370.821886
348.867528	2371.542771
349.258191	2369.677544
349.648789	2369.075127
350.039324	2367.759385
350.429796	2366.683099
350.820203	2364.916175
351.210548	2364.031452
351.600828	2367.066227
351.991045	2366.680578
352.381198	2364.454909
352.771288	2366.141175
353.161314	2364.109590
353.551276	2366.743593
353.941175	2363.169415
354.331010	2365.571525
354.720782	2365.687471
355.110490	2368.132431
355.500135	2366.693181
355.889717	2365.664786
356.279235	2364.505321
356.668689	2368.886083
357.058080	2368.296268
357.447408	2366.700743
357.836672	2365.195959
358.225873	2369.551516
358.615010	2366.289889
359.004084	2369.317102
359.393095	2370.733666
359.782043	2372.142669
360.170927	2373.697865
360.559748	2376.157948
360.948505	2375.845396
361.337199	2377.319934
361.725830	2373.576877
362.114398	2376.112577
362.502903	2377.602238
362.891344	2378.658360
363.279722	2379.316231
363.668037	2381.620038
364.056289	2379.890922
364.444478	2382.446787
364.832603	2383.535676
365.220665	2384.778321
365.608665	2382.630789
365.996601	2383.838146
366.384474	2385.307642
366.772284	2388.221429
367.160031	2388.682694
367.547715	2390.810061
367.935336	2390.457181
368.322893	2392.072870
368.710388	2391.160422
369.097820	2395.097563
369.485189	2391.435164
369.872495	2392.448436
370.259738	2397.073695
370.646918	2401.227606
371.034035	2398.575959
371.421090	2401.272976
371.808081	2407.864285
372.195010	2410.115160
372.581875	2418.128074
372.968678	2422.602098
373.355418	2430.259611
373.742096	2438.781681
374.128710	2451.233331
374.515262	2459.326904
374.901751	2475.171250
375.288177	2491.660865
375.674540	2511.714575
376.060841	2532.360620
376.447079	2555.565051
376.833254	2582.026068
377.219367	2603.602206
377.605417	2642.424132
377.991404	2668.764161
378.377329	2711.094730
378.763191	2742.236458
379.148991	2787.679939
379.534727	2837.219358
379.920402	2884.013868
380.306013	2934.579162
380.691563	2993.709376
381.077049	3049.139383
381.462474	3107.727673
381.847835	3180.665608
382.233134	3251.584560
382.618371	3309.661173
383.003545	3397.525964
383.388657	3476.825834
383.773706	3571.574321
384.158693	3641.719456
384.543618	3736.525916
384.928480	3813.247236
385.313280	3918.047784
385.698017	4022.271119
386.082692	4143.813338
386.467305	4208.587124
386.851856	4331.833253
387.236344	4485.177591
387.620770	4551.390627
388.005133	4668.486548
388.389435	4816.399043
388.773674	4902.880037
389.157851	5035.419534
389.541965	5168.606818
389.926018	5190.467782
390.310008	5369.312797
390.693936	5494.381303
391.077802	5607.144353
391.461606	5739.555300
391.845348	5851.819276
392.229027	5980.890458
392.612645	6194.413570
392.996200	6313.112579
393.379694	6483.851418
393.763125	6712.661830
394.146494	6801.325644
394.529801	6940.879906
394.913047	7179.412182
395.296230	7176.435381
395.679351	7235.404278
396.062410	7491.467167
396.445408	7386.762402
396.828343	7538.559106
397.211217	7666.052407
397.594028	7553.516209
397.976778	7755.570696
398.359466	7915.171107
398.742092	7897.766523
399.124656	8046.639358
399.507158	8226.422027
399.889598	8246.566478
400.271977	8456.444836
400.654294	8490.427254
401.036549	8685.903036
401.418742	8713.657108
401.800874	9007.926902
402.182944	9090.649716
402.564952	9455.684707
402.946898	9273.734342
403.328783	9328.105707
403.710606	9533.736892
404.092367	9783.649574
404.474067	10139.260128
404.855705	9936.366288
405.237282	9890.022961
405.618797	10314.936778
406.000250	10554.625999
406.381642	10911.229660
406.762972	10867.593433
407.144240	10670.696046
407.525447	10920.028994
407.906593	10860.581188
408.287677	11111.809610
408.668700	11265.310224
409.049661	11240.215360
409.430560	11400.024978
409.811399	11375.436751
410.192176	11540.143850
410.572891	11612.113882
410.953545	12083.514699
411.334138	11567.807181
411.714669	12156.810556
412.095139	11474.916360
412.475547	11967.469858
412.855894	11823.615492
413.236180	12136.630817
413.616405	11828.744866
413.996568	12105.864655
414.376670	12073.797875
414.756711	11958.216820
415.136691	12230.963408
415.516609	12408.873289
415.896466	12472.296046
416.276262	12760.909665
416.655997	13204.473230
417.035670	13241.117377
417.415283	13882.374832
417.794834	13972.246002
418.174324	13718.186972
418.553753	13617.729378
418.933121	14099.167132
419.312428	13914.222321
419.691674	13817.341427
420.070859	14274.979893
420.449983	13934.334005
420.829045	14477.649402
421.208047	14215.489237
421.586988	14674.791284
421.965867	14931.189410
422.344686	14925.676908
422.723444	15485.527290
423.102141	14185.353219
423.480777	15354.495099
423.859352	14871.726480
424.237866	15958.989939
424.616319	15666.121585
424.994712	16310.451623
425.373044	16107.560304
425.751314	16772.140657
426.129524	15911.484625
426.507673	16981.424159
426.885762	16688.628902
427.263789	16868.048609
427.641756	17038.923560
428.019662	17088.767968
428.397508	17139.194630
428.775292	17423.853464
429.153016	17392.754586
429.530679	17468.218139
429.908282	17486.726735
430.285824	17208.550825
430.663305	17903.042864
431.040726	17514.135489
431.418086	17338.446236
431.795385	17976.631107
432.172624	18390.406494
432.549802	17946.580789
432.926920	18133.542062
433.303977	18012.940018
433.680974	18262.242719
434.057910	18546.047078
434.434786	18569.130522
434.811601	18481.888313
435.188355	19494.761985
435.565050	19149.382453
435.941683	19099.722046
436.318257	19957.975968
436.694770	19759.803169
437.071222	20330.849953
437.447614	19406.627492
437.823946	19415.522608
438.200218	19549.690397
438.576429	19314.621393
438.952580	19571.201001
439.328670	19516.464152
439.704700	19912.729092
440.080670	19466.987748
440.456580	20016.327324
440.832429	20169.671662
441.208218	19159.777312
441.583947	19565.948118
441.959616	19620.906778
442.335224	19835.617082
442.710773	19915.118598
443.086261	20392.951928
443.461689	19738.728625
443.837057	19813.246962
444.212365	20373.651870
444.587612	20315.640792
444.962800	19856.810092
445.337927	20199.608554
445.712995	18943.529456
446.088002	20616.590115
446.462949	20713.428160
446.837837	20802.114659
447.212664	20680.232162
447.587431	23209.502555
447.962139	25804.547402
448.336786	27860.266926
448.711374	26327.241959
449.085901	22864.112940
449.460369	22671.992046
449.834776	22474.716573
450.209124	24556.382916
450.583412	24016.987016
450.957640	24341.468445
451.331808	23010.944108
451.705917	21665.676916
452.079965	21550.383207
452.453954	21711.783309
452.827883	21447.092485
453.201752	21141.069241
453.575562	21106.280238
453.949311	21860.993901
454.323001	21744.404615
454.696632	21374.749407
455.070202	22436.418927
455.443713	22363.785982
455.817164	22617.194704
456.190556	22822.236075
456.563888	22195.524870
456.937160	22309.664155
457.310373	20838.204279
457.683526	20959.126437
458.056619	20729.905171
458.429653	20459.704366
458.802628	20645.712861
459.175542	20518.285094
459.548398	21186.893329
459.921194	22034.283564
460.293930	22251.980752
460.666607	23373.894582
461.039224	24289.383243
461.411782	24246.777932
461.784280	23148.897803
462.156719	22524.417309
462.529099	21853.971573
462.901419	20732.246787
463.273680	19797.495876
463.645882	19565.191945
464.018024	19274.763511
464.390106	19489.108331
464.762130	20769.188362
465.134094	22830.417868
465.505999	25586.583033
465.877845	27935.972454
466.249631	28182.189970
466.621358	26697.088732
466.993026	25026.974627
467.364634	23447.780253
467.736184	22015.028877
468.107674	21003.009681
468.479105	20248.326265
468.850477	19561.816893
469.221790	18546.586482
469.593043	17397.831028
469.964238	16680.774785
470.335373	16337.142012
470.706449	16748.606030
471.077467	17517.760078
471.448425	19161.244288
471.819324	20061.856505
472.190164	18957.939594
472.560945	17145.952297
472.931667	15633.815351
473.302330	14898.472322
473.672934	14321.965968
474.043479	14210.702661
474.413965	13680.968133
474.784393	13285.960962
475.154761	13317.301815
475.525070	13058.700705
475.895321	12652.386226
476.265513	12563.235940
476.635645	12606.322682
477.005719	12303.989563
477.375734	12180.975327
477.745691	12116.841767
478.115588	12223.651214
478.485427	12498.000889
478.855207	13143.266061
479.224928	13575.098861
479.594591	13703.552502
479.964194	13139.144918
480.333739	12839.710461
480.703226	12534.899615
481.072653	12417.654979
481.442022	12266.737956
481.811333	12049.796942
482.180584	11499.376038
482.549777	11126.053390
482.918912	10770.094997
483.287988	10470.005191
483.657005	10072.822761
484.025964	9720.330161
484.394864	9493.621911
484.763706	9189.776445
485.132489	8841.893980
485.501213	8611.520811
485.869879	8430.971886
486.238487	8184.416613
486.607036	8016.964606
486.975527	7763.699557
487.343959	7607.534693
487.712333	7444.801206
488.080648	7262.046776
488.448905	7142.427757
488.817104	6963.323123
489.185244	6902.393217
489.553326	6920.924498
489.921350	7056.846609
490.289315	7212.492234
490.657222	7120.778522
491.025070	6988.828840
491.392861	6730.255457
491.760593	6440.278205
492.128267	6130.476616
492.495883	5861.891501
492.863440	5620.510972
493.230939	5400.472169
493.598380	5210.743303
493.965763	5073.926387
494.333088	4926.341567
494.700354	4795.248882
495.067563	4686.296945
495.434713	4588.521245
495.801805	4508.094677
496.168839	4410.543309
496.535815	4315.157116
496.902733	4245.601796
497.269593	4154.427488
497.636395	4081.645829
498.003139	4033.149929
498.369825	3946.832772
498.736453	3900.902819
499.103023	3827.120492
499.469535	3768.096142
499.835989	3721.762897
500.202385	3663.567817
500.568723	3620.259264
500.935003	3582.102771
501.301226	3531.776932
501.667390	3511.493849
502.033497	3483.293635
502.399546	3434.558280
502.765537	3380.736401
503.131470	3358.981302
503.497345	3339.494721
503.863163	3284.145373
504.228923	3270.819083
504.594625	3254.072369
504.960269	3221.146073
505.325856	3210.226934
505.691385	3179.354908
506.056856	3164.339831
506.422270	3158.050992
506.787625	3132.958648
507.152924	3117.315948
507.518164	3106.230451
507.883347	3083.091554
508.248472	3071.784246
508.613540	3066.695202
508.978550	3060.424006
509.343503	3046.263405
509.708398	3041.179401
510.073236	3040.443393
510.438016	3031.618853
510.802738	3015.860206
511.167403	3015.837521
511.532010	3011.880215
511.896561	3010.277128
512.261053	3015.565299
512.625488	2999.617608
512.989866	2990.120075
513.354186	2984.920124
513.718449	2973.955615
514.082655	2982.399547
514.446803	2973.569967
514.810894	2979.052221
515.174927	2968.624595
515.538904	2965.355406
515.902822	2967.369347
516.266684	2956.278809
516.630488	2959.910960
516.994235	2946.496450
517.357925	2950.514249
517.721558	2950.005093
518.085133	2950.473920
518.448651	2949.664815
518.812112	2941.233485
519.175516	2939.038063
519.538863	2935.663010
519.902152	2934.337187
520.265385	2937.611416
520.628560	2935.889862
520.991678	2925.883172
521.354739	2929.318718
521.717743	2928.439037
522.080690	2925.772266
522.443580	2927.960127
522.806413	2927.917277
523.169189	2921.714138
523.531908	2923.004673
523.894569	2917.076276
524.257174	2917.164496
524.619722	2918.056780
524.982213	2917.514856
525.344647	2912.110739
525.707025	2909.330543
526.069345	2911.523445
526.431608	2909.474216
526.793815	2913.383631
527.155964	2904.382651
527.518057	2902.814852
527.880093	2899.061713
528.242072	2902.857702
528.603995	2897.650190
528.965860	2896.430230
529.327669	2895.200189
529.689421	2890.264899
530.051117	2891.021072
530.412755	2891.487379
530.774337	2893.140878
531.135862	2888.187944
531.497331	2887.346071
531.858743	2881.163096
532.220098	2887.656102
532.581396	2878.738301
532.942638	2876.316027
533.303824	2880.422046
533.664953	2882.078065
534.026025	2876.661346
534.387040	2879.255019
534.747999	2875.464072
535.108902	2881.092520
535.469748	2874.067672
535.830537	2873.724873
536.191270	2872.109184
536.551947	2871.499204
536.912567	2875.736294
537.273131	2875.373331
537.633638	2867.423431
537.994089	2870.377547
538.354483	2863.473687
538.714821	2870.420397
539.075103	2871.234543
539.435328	2869.840664
539.795497	2865.573328
540.155609	2868.318236
540.515665	2870.924512
540.875665	2866.367309
541.235609	2868.900489
541.595496	2865.560725
541.955328	2870.586755
542.315102	2863.413193
542.674821	2860.784232
543.034483	2859.866742
543.394090	2859.024869
543.753640	2858.036803
544.113134	2867.373020
544.472571	2854.505474
544.831953	2867.478884
545.191278	2862.268851
545.550548	2853.214939
545.909761	2858.556042
546.268918	2860.282637
546.628019	2860.771629
546.987064	2857.250383
547.346053	2850.908611
547.704986	2855.226359
548.063863	2850.744774
548.422684	2854.034127
548.781449	2849.055987
549.140158	2854.097141
549.498811	2850.187726
549.857408	2847.117663
550.215949	2848.299814
550.574434	2848.929958
550.932864	2844.881912
551.291237	2849.096316
551.649555	2847.788137
552.007817	2851.503467
552.366022	2842.643639
552.724173	2844.687827
553.082267	2849.303004
553.440305	2849.728981
553.798288	2841.567353
554.156215	2845.242354
554.514086	2845.358301
554.871902	2841.829493
555.229661	2841.927796
555.587365	2841.108608
555.945014	2840.380161
556.302606	2837.196673
556.660143	2839.853361
557.017625	2836.722804
557.375050	2835.170129
557.732421	2835.001250
558.089735	2836.294306
558.446994	2831.895899
558.804197	2838.353617
559.161345	2834.716425
559.518437	2828.851042
559.875474	2827.273161
560.232455	2826.050682
560.589381	2826.373315
560.946251	2825.528922
561.303065	2826.839622
561.659825	2824.371977
562.016528	2819.761842
562.373177	2817.616831
562.729770	2820.051708
563.086307	2810.561736
563.442789	2813.432673
563.799216	2816.187664
564.155587	2808.278094
564.511904	2810.554175
564.868164	2806.770789
565.224370	2805.034111
565.580520	2802.299285
565.936615	2800.376085
566.292654	2799.032617
566.648638	2795.284520
567.004567	2795.617236
567.360441	2791.216308
567.716260	2790.243366
568.072023	2786.875875
568.427732	2780.627365
568.783385	2777.534617
569.138982	2774.083947
569.494525	2773.854575
569.850013	2770.567742
570.205445	2771.029008
570.560823	2766.348297
570.916145	2765.647576
571.271412	2760.031731
571.626625	2755.250196
571.981782	2754.289857
572.336884	2749.268867
572.691931	2748.704258
573.046923	2742.223855
573.401860	2740.988772
573.756743	2734.410066
574.111570	2732.600292
574.466342	2729.802452
574.821059	2726.830692
575.175722	2723.138046
575.530330	2716.864330
575.884882	2716.093034
576.239380	2710.646067
576.593823	2710.280583
576.948211	2706.295551
577.302544	2700.483101
577.656823	2698.514530
578.011047	2696.714838
578.365216	2691.472038
578.719330	2689.097655
579.073389	2684.517767
579.427394	2685.415092
579.781344	2681.057015
580.135239	2675.794050
580.489080	2675.549554
580.842866	2671.446055
581.196597	2670.382371
581.550273	2665.663851
581.903895	2665.585713
582.257463	2664.743841
582.610975	2661.237718
582.964434	2661.577996
583.317837	2658.399549
583.671186	2654.858138
584.024481	2654.343940
584.377721	2653.255051
584.730906	2648.070224
585.084037	2649.912766
585.437113	2646.797333
585.790135	2642.469502
586.143103	2640.674852
586.496016	2638.192083
586.848874	2634.091105
587.201679	2634.842237
587.554428	2627.121710
587.907124	2630.274951
588.259765	2623.920577
588.612352	2629.241515
588.964884	2624.714559
589.317362	2625.730351
589.669786	2625.697584
590.022155	2623.706328
590.374470	2623.734054
590.726731	2619.091152
591.078937	2618.483692
591.431090	2615.942951
591.783188	2614.725512
592.135232	2614.717951
592.487222	2611.728546
592.839157	2612.739298
593.191038	2609.099585
593.542866	2606.205962
593.894639	2603.088009
594.246358	2602.294027
594.598022	2604.073554
594.949633	2602.077257
595.301190	2601.396702
595.652692	2598.956783
596.004141	2601.106835
596.355535	2594.351689
596.706876	2595.357399
597.058162	2590.880855
597.409395	2593.330855
597.760573	2594.762543
598.111698	2593.013263
598.462768	2589.340782
598.813785	2592.010073
599.164748	2587.178127
599.515657	2591.929415
599.866511	2587.205853
600.217312	2589.000504
600.568060	2588.612335
600.918753	2591.639548
601.269392	2586.946234
601.619978	2584.123188
601.970510	2587.457911
602.320988	2587.210895
602.671412	2588.771132
603.021783	2586.389187
603.372100	2583.001531
603.722363	2581.774010
604.072572	2586.195102
604.422728	2588.219125
604.772830	2578.819894
605.122878	2578.683783
605.472872	2578.827456
605.822813	2578.721592
606.172701	2584.279464
606.522534	2581.776531
606.872314	2584.511357
607.222041	2581.516911
607.571714	2584.251737
607.921333	2582.273084
608.270899	2585.123857
608.620411	2581.521953
608.969870	2583.513208
609.319276	2578.230079
609.668627	2581.753846
610.017926	2581.370718
610.367171	2585.935483
610.716362	2582.704103
611.065500	2582.346181
611.414585	2583.031778
611.763616	2585.701069
612.112594	2586.137129
612.461518	2585.824577
612.810389	2585.375915
613.159207	2582.215111
613.507971	2582.358784
613.856682	2586.278281
614.205340	2581.655543
614.553945	2587.062181
614.902496	2583.419947
615.250994	2583.233424
615.599439	2585.648137
615.947830	2584.662591
616.296169	2581.920204
616.644454	2585.476738
616.992686	2584.183682
617.340864	2584.801223
617.688990	2584.014803
618.037063	2587.289032
618.385082	2585.943044
618.733048	2586.830288
619.080961	2584.629824
619.428821	2585.615369
619.776628	2585.910277
620.124382	2585.325503
620.472083	2586.275761
620.819731	2584.579412
621.167326	2584.269381
621.514868	2586.570668
621.862357	2581.610173
622.209793	2577.118505
622.557176	2579.402147
622.904506	2575.908628
623.251783	2573.632547
623.599007	2573.309913
623.946179	2569.957546
624.293297	2570.922927
624.640363	2569.823955
624.987376	2570.335632
625.334336	2566.895045
625.681243	2569.702967
626.028097	2567.200034
626.374899	2565.823799
626.721647	2564.931515
627.068343	2566.194324
627.414987	2562.703325
627.761577	2561.919426
628.108115	2564.440003
628.454600	2560.149981
628.801032	2561.664847
629.147412	2561.453119
629.493739	2558.521688
629.840014	2560.444888
630.186236	2559.313149
630.532405	2555.602860
630.878521	2561.816082
631.224585	2557.616801
631.570597	2557.647048
631.916556	2557.122768
632.262462	2555.605381
632.608316	2556.263251
632.954117	2554.493806
633.299866	2557.503375
633.645562	2553.949362
633.991206	2550.564227
634.336797	2549.167827
634.682336	2551.557334
635.027823	2547.577343
635.373257	2547.166489
635.718639	2546.735470
636.063968	2545.502908
636.409245	2541.404450
636.754470	2544.852599
637.099642	2543.609955
637.444762	2539.587114
637.789829	2541.621220
638.134845	2540.509645
638.479808	2536.138965
638.824719	2535.259284
639.169577	2535.597041
639.514383	2536.028060
639.859137	2536.512010
640.203839	2536.181815
640.548489	2533.106711
640.893086	2530.606299
641.237632	2529.519930
641.582125	2531.816176
641.926566	2529.411545
642.270955	2530.928932
642.615292	2530.944056
642.959576	2529.368695
643.303809	2533.409180
643.647990	2531.937163
643.992118	2530.019004
644.336195	2531.463295
644.680219	2526.780063
645.024192	2532.148892
645.368112	2532.479087
645.711981	2533.220137
646.055797	2534.445137
646.399562	2534.656866
646.743274	2538.344470
647.086935	2539.355221
647.430544	2535.990251
647.774101	2539.350180
648.117606	2537.492515
648.461059	2542.085006
648.804460	2539.428318
649.147810	2533.835158
649.491108	2535.463450
649.834354	2535.380271
650.177548	2532.847092
650.520690	2530.001360
650.863781	2527.679909
651.206820	2531.193593
651.549807	2527.352234
651.892742	2527.382481
652.235626	2525.537418
652.578458	2524.935001
652.921238	2520.604649
653.263967	2522.132119
653.606644	2521.920391
653.949269	2521.287726
654.291843	2519.288908
654.634365	2522.079187
654.976836	2517.584998
655.319255	2520.861748
655.661622	2519.984587
656.003938	2519.135153
656.346203	2517.796727
656.688416	2515.946623
657.030577	2518.159690
657.372687	2513.756242
657.714746	2517.537107
658.056753	2511.984276
658.398708	2511.248268
658.740612	2511.573422
659.082465	2511.701972
659.424266	2511.391941
659.766016	2510.615603
660.107715	2516.501150
660.449362	2512.538803
660.790958	2516.581809
661.132503	2514.991325
661.473996	2515.568537
661.815438	2512.833711
662.156829	2516.475944
662.498168	2512.705161
662.839456	2513.655419
663.180693	2517.726151
663.521879	2512.473268
663.863013	2514.794720
664.204097	2512.742970
664.545129	2514.862775
664.886110	2516.843949
665.227040	2516.642303
665.567918	2519.639268
665.908746	2517.337982
666.249522	2517.617766
666.590248	2514.159534
666.930922	2516.511233
667.271545	2515.470234
667.612118	2513.307579
667.952639	2516.445697
668.293109	2516.964936
668.633528	2514.560306
668.973896	2515.530728
669.314213	2514.842611
669.654480	2516.128105
669.994695	2512.344719
670.334859	2514.078876
670.674973	2511.981756
671.015035	2511.447393
671.355047	2509.935047
671.695008	2514.706499
672.034918	2510.418998
672.374777	2512.669873
672.714585	2510.870181
673.054342	2514.041067
673.394049	2513.378155
673.733705	2514.293125
674.073310	2510.126611
674.412864	2511.563340
674.752368	2511.165089
675.091820	2508.200890
675.431223	2510.681138
675.770574	2508.873884
676.109875	2502.411125
676.449125	2505.541682
676.788324	2502.504387
677.127473	2505.024963
677.466571	2500.654283
677.805619	2506.242402
678.144616	2501.796104
678.483562	2506.275170
678.822458	2503.124448
679.161303	2500.641680
679.500098	2501.501197
679.838842	2503.026146
680.177535	2503.275683
680.516179	2504.160406
680.854771	2502.275014
681.193314	2506.214676
681.531805	2510.129132
681.870247	2512.818587
682.208638	2511.409585
682.546978	2514.572909
682.885268	2514.285563
683.223508	2512.100223
683.561697	2511.288597
683.899836	2511.933865
684.237925	2509.378000
684.575963	2507.472444
684.913951	2508.732732
685.251889	2510.159379
685.589776	2507.543020
685.927614	2508.347084
686.265401	2508.233658
686.603137	2508.513442
686.940824	2509.814060
687.278460	2510.396313
687.616046	2510.658453
687.953582	2517.090965
688.291068	2514.376304
688.628504	2513.927641
688.965889	2513.988135
689.303224	2511.162568
689.640510	2510.779441
689.977745	2508.032012
690.314930	2506.945643
690.652065	2506.325581
690.989150	2502.476660
691.326185	2502.285096
691.663170	2498.158912
692.000105	2496.470125
692.336990	2494.625063
692.673825	2491.302943
693.010610	2493.460557
693.347345	2487.474186
693.684030	2484.043681
694.020665	2487.171717
694.357251	2480.136787
694.693786	2487.138950
695.030272	2480.991262
695.366707	2484.101654
695.703093	2481.923876
696.039429	2482.014617
696.375716	2481.923876
696.711952	2483.078300
697.048139	2477.981694
697.384276	2478.279122
697.720363	2479.352888
698.056400	2481.429843
698.392388	2478.997486
698.728326	2478.500933
699.064214	2481.507981
699.400053	2475.698051
699.735842	2473.157309
700.071581	2476.809625
700.407270	2474.904069
700.742910	2475.798874
701.078501	2473.674028
701.414042	2470.445169
701.749533	2474.553709
702.084974	2469.862915
702.420366	2470.780405
702.755709	2472.199490
703.091002	2467.738069
703.426246	2471.813842
703.761440	2465.925774
704.096584	2467.201186
704.431679	2468.955508
704.766725	2469.298306
705.101721	2468.093470
705.436668	2467.402832
705.771565	2467.410394
706.106413	2467.987606
706.441212	2467.954839
706.775961	2469.638584
707.110661	2467.261680
707.445311	2469.545323
707.779913	2470.394757
708.114465	2471.037504
708.448967	2466.989458
708.783421	2474.629326
709.117825	2473.759727
709.452180	2476.925572
709.786485	2477.018833
710.120742	2480.782055
710.454949	2478.702579
710.789107	2479.582260
711.123216	2478.354739
711.457275	2479.766262
711.791286	2479.642754
712.125247	2481.991932
712.459159	2482.717858
712.793023	2483.005203
713.126837	2482.120481
713.460602	2484.043681
713.794318	2482.518732
714.127985	2481.145018
714.461602	2480.782055
714.795171	2481.339102
715.128691	2477.293576
715.462162	2474.863740
715.795584	2470.336784
716.128957	2470.674541
716.462281	2472.232258
716.795556	2471.985241
717.128782	2466.318984
717.461960	2469.308388
717.795088	2466.840744
718.128167	2466.180353
718.461198	2463.402677
718.794180	2462.376802
719.127113	2462.684312
719.459997	2460.463684
719.792833	2462.641462
720.125619	2461.998715
720.458357	2458.885803
720.791046	2457.839763
721.123686	2460.408231
721.456278	2456.874383
721.788821	2457.945628
722.121315	2457.985957
722.453761	2456.337500
722.786158	2457.471759
723.118506	2459.203396
723.450805	2456.413117
723.783056	2459.140381
724.115259	2456.624845
724.447412	2457.456636
724.779518	2457.552418
725.111574	2460.408231
725.443582	2460.171297
725.775542	2456.783642
726.107453	2459.657099
726.439315	2457.212140
726.771129	2467.145733
727.102895	2461.451750
727.434612	2461.837398
727.766281	2463.460650
728.097901	2460.846812
728.429473	2459.657099
728.760996	2462.623818
729.092471	2458.600978
729.423897	2464.037862
729.755276	2462.117182
730.086606	2466.157667
730.417887	2467.067596
730.749120	2467.584314
731.080305	2467.705302
731.411442	2471.891980
731.742530	2472.892649
732.073570	2470.795529
732.404562	2473.192598
732.735506	2469.557926
733.066401	2470.798049
733.397249	2469.822586
733.728048	2465.789663
734.058798	2464.284879
734.389501	2460.320011
734.720156	2459.838581
735.050762	2458.953858
735.381320	2457.885134
735.711831	2457.166769
736.042293	2457.507047
736.372707	2457.101234
736.703073	2453.322890
737.033391	2456.556790
737.363661	2456.544187
737.693883	2455.641820
738.024056	2458.679116
738.354182	2455.712397
738.684260	2458.061574
739.014290	2458.298508
739.344272	2457.416307
739.674207	2460.672892
740.004093	2461.184569
740.333931	2461.139199
740.663722	2462.389405
740.993464	2463.634570
741.323159	2460.451081
741.652806	2458.817747
741.982405	2460.009980
742.311956	2457.343210
742.641460	2456.952520
742.970915	2457.290278
743.300323	2455.026800
743.629683	2452.528908
743.958996	2453.164093
744.288260	2454.676439
744.617477	2449.559668
744.946647	2447.127312
745.275768	2448.937086
745.604842	2444.919286
745.933869	2448.024637
746.262847	2444.906683
746.591778	2450.489761
746.920662	2446.789554
747.249498	2449.312652
747.578286	2450.956068
747.907027	2449.010183
748.235720	2449.955399
748.564365	2452.090328
748.892963	2450.769545
749.221514	2449.315172
749.550017	2448.974894
749.878473	2454.074022
750.206881	2450.446911
750.535242	2447.780141
750.863555	2449.403392
751.191821	2447.084462
751.520039	2450.124278
751.848210	2447.984308
752.176334	2446.761828
752.504411	2450.567899
752.832440	2447.931376
753.160421	2447.994390
753.488356	2447.089503
753.816243	2448.695110
754.144082	2447.127312
754.471875	2448.972374
754.799620	2444.226127
755.127318	2447.316355
755.454969	2446.262754
755.782572	2446.144287
756.110129	2445.151179
756.437638	2447.565892
756.765100	2445.075562
757.092515	2448.788372
757.419882	2447.502878
757.747203	2447.253340
758.074477	2447.301231
758.401703	2445.947682
758.728882	2447.535645
759.056014	2448.672425
759.383099	2448.831222
759.710138	2449.189143
760.037129	2448.465738
760.364073	2451.671912
760.690970	2450.197374
761.017820	2447.301231
761.344623	2446.638320
761.671379	2451.031685
761.998088	2450.467076
762.324751	2461.169446
762.651366	2469.416773
762.977935	2485.543424
763.304456	2491.940649
763.630931	2499.401556
763.957359	2494.942656
764.283740	2485.840852
764.610074	2479.967908
764.936362	2473.764768
765.262602	2462.593572
765.588796	2458.517799
765.914943	2455.566203
766.241044	2451.326593
766.567097	2447.097065
766.893104	2444.324430
767.219064	2444.183278
767.544978	2442.986004
767.870845	2441.420725
768.196665	2439.963832
768.522438	2438.469130
768.848165	2437.087854
769.173846	2438.441403
769.499479	2437.637339
769.825066	2436.026691
770.150607	2435.134407
770.476101	2435.976279
770.801548	2438.602720
771.126949	2433.911927
771.452303	2433.546443
771.777611	2431.454364
772.102872	2432.371854
772.428087	2433.443099
772.753256	2433.022163
773.078378	2431.035948
773.403453	2430.385640
773.728482	2430.741041
774.053465	2431.741710
774.378401	2428.021338
774.703291	2429.909251
775.028135	2429.266503
775.352932	2428.727100
775.677683	2430.763726
776.002388	2429.369847
776.327046	2428.767429
776.651658	2427.492017
776.976224	2427.181986
777.300743	2425.127716
777.625216	2425.004208
777.949643	2428.394384
778.274024	2428.341452
778.598359	2423.685946
778.922647	2422.269382
779.246889	2427.504620
779.571086	2420.734351
779.895236	2425.657037
780.219339	2426.735844
780.543397	2427.242480
780.867409	2424.681574
781.191374	2426.382963
781.515294	2426.347675
781.839167	2430.012594
782.162995	2427.678540
782.486776	2426.519075
782.810511	2426.788776
783.134201	2425.457912
783.457844	2426.524116
783.781441	2426.388005
784.104993	2423.776687
784.428498	2425.778025
784.751958	2425.417583
785.075372	2426.798859
785.398739	2425.120154
785.722061	2424.338776
786.045337	2427.421441
786.368568	2424.553025
786.691752	2424.661409
787.014891	2426.645103
787.337983	2428.038982
787.661030	2430.551998
787.984031	2434.370672
788.306987	2433.309509
788.629897	2435.600713
788.952760	2435.147009
789.275579	2434.131217
789.598351	2434.035435
789.921078	2430.514189
790.243759	2428.356575
790.566395	2429.891607
790.888984	2430.216761
791.211529	2427.217274
791.534027	2425.374733
791.856480	2423.633014
792.178888	2427.005546
792.501249	2422.428178
792.823566	2425.899013
793.145836	2426.713159
793.468062	2425.578899
793.790241	2423.690987
794.112375	2425.183169
794.434464	2426.219126
794.756507	2428.805238
795.078505	2425.493200
795.400457	2424.550504
795.722364	2424.137129
796.044226	2426.544280
796.366042	2426.226688
796.687812	2427.817172
797.009538	2430.521751
797.331218	2430.257090
797.652852	2430.299940
797.974442	2430.975455
798.295986	2428.061668
798.617484	2427.537388
798.938938	2427.265165
799.260346	2425.384815
799.581709	2426.108221
799.903026	2426.234249
800.224299	2425.657037
800.545526	2424.779877
800.866708	2424.069074
801.187845	2423.799372
801.508936	2423.852304
801.829983	2423.779208
802.150984	2424.066553
802.471940	2425.591502
802.792851	2420.762077
803.113717	2422.281985
803.434538	2422.503796
803.755314	2422.551687
804.076045	2424.795000
804.396731	2425.422624
804.717372	2420.462128
805.037967	2422.602098
805.358518	2419.791655
805.679024	2424.285843
805.999485	2423.605288
806.319901	2426.140988
806.640272	2421.394742
806.960598	2423.028076
807.280879	2425.546132
807.601115	2423.532191
807.921306	2422.942376
808.241453	2422.700401
808.561554	2426.367840
808.881611	2423.154104
809.201623	2423.822057
809.521590	2423.201995
809.841513	2423.320462
810.161390	2421.684608
810.481223	2422.176121
810.801011	2424.744588
811.120755	2421.455236
811.440453	2425.077305
811.760107	2421.354412
812.079716	2420.026068
812.399281	2415.917528
812.718801	2420.124371
813.038276	2419.199319
813.357707	2424.031265
813.677093	2423.295257
813.996434	2420.063877
814.315731	2421.820719
814.634983	2422.566810
814.954191	2422.128230
815.273354	2421.394742
815.592473	2423.144022
815.911547	2424.472366
816.230577	2423.965730
816.549562	2424.058992
816.868502	2429.286668
817.187399	2427.290371
817.506250	2427.439085
817.825058	2426.183838
818.143821	2429.843716
818.462539	2427.207192
818.781213	2430.741041
819.099843	2434.758841
819.418429	2440.225972
819.736970	2443.790068
820.055466	2449.022785
820.373919	2453.668209
820.692327	2466.878552
821.010691	2487.796820
821.329011	2533.187369
821.647286	2602.231012
821.965517	2673.770027
822.283704	2713.650595
822.601847	2727.090311
822.919945	2698.262473
823.237999	2663.735610
823.556010	2627.099024
823.873976	2594.344127
824.191897	2561.130485
824.509775	2538.319264
824.827609	2518.875534
825.145398	2508.263905
825.463144	2501.395333
825.780845	2496.071874
826.098502	2510.918072
826.416116	2527.894158
826.733685	2544.706406
827.051210	2549.041798
827.368692	2539.882022
827.686129	2522.739578
828.003522	2501.322236
828.320872	2483.791623
828.638177	2470.742597
828.955439	2463.440485
829.272656	2453.953034
829.589830	2445.705706
829.906960	2442.522217
830.224046	2439.341249
830.541088	2435.774633
830.858086	2431.923192
831.175041	2433.201124
831.491952	2430.153747
831.808819	2431.532502
832.125642	2433.279262
832.442421	2439.910900
832.759157	2446.262754
833.075849	2461.582820
833.392497	2473.928606
833.709101	2481.913794
834.025662	2482.705255
834.342179	2475.367855
834.658653	2463.236319
834.975083	2456.690380
835.291469	2452.654937
835.607811	2443.974070
835.924110	2439.951229
836.240366	2433.163315
836.556578	2430.126020
836.872746	2428.366658
837.188871	2424.232911
837.504952	2424.064033
837.820990	2422.080339
838.136984	2421.215781
838.452935	2418.886768
838.768842	2420.396593
839.084706	2420.653692
839.400526	2427.499579
839.716303	2435.578028
840.032037	2441.266970
840.347727	2439.686568
840.663373	2433.032245
840.978977	2431.187183
841.294537	2426.289702
841.610054	2424.200144
841.925527	2421.112437
842.240957	2420.472211
842.556344	2419.340472
842.871687	2417.896181
843.186987	2416.832498
843.502244	2414.279153
843.817458	2412.383679
844.132629	2410.616755
844.447756	2413.127249
844.762840	2405.033677
845.077881	2408.096178
845.392879	2406.107443
845.707833	2408.300345
846.022745	2406.437638
846.337613	2410.223545
846.652438	2412.416447
846.967221	2410.064748
847.281960	2409.487536
847.596656	2409.056518
847.911309	2409.316137
848.225919	2409.679100
848.540485	2409.817732
848.855009	2408.600293
849.169490	2410.014337
849.483928	2410.362177
849.798323	2410.982238
850.112675	2409.343863
850.426984	2410.105078
850.741251	2408.081054
851.055474	2408.970818
851.369654	2409.583318
851.683792	2409.888308
851.997887	2405.804973
852.311938	2409.079203
852.625947	2410.316806
852.939914	2410.084913
853.253837	2409.447207
853.567718	2406.427556
853.881555	2409.825294
854.195350	2407.488719
854.509103	2407.929820
854.822812	2407.884449
855.136479	2407.680283
855.450103	2408.895201
855.763685	2408.567526
856.077224	2409.724471
856.390720	2408.164233
856.704173	2409.013668
857.017584	2409.152300
857.330953	2409.580798
857.644278	2409.089285
857.957561	2413.422157
858.270802	2409.169944
858.584000	2408.650705
858.897155	2411.022568
859.210268	2409.318658
859.523339	2408.910324
859.836367	2406.621640
860.149352	2406.777916
860.462295	2413.122208
860.775195	2407.955026
861.088054	2406.412433
861.400869	2408.068452
861.713642	2404.393450
862.026373	2407.493760
862.339062	2407.818914
862.651708	2407.521486
862.964312	2408.806981
863.276873	2408.431415
863.589392	2409.880746
863.901869	2409.452248
864.214303	2410.649522
864.526696	2414.440470
864.839045	2410.911662
865.151353	2410.399985
865.463619	2410.115160
865.775842	2412.660943
866.088023	2411.332599
866.400162	2411.443504
866.712258	2413.452404
867.024313	2410.987280
867.336325	2411.806467
867.648296	2410.732701
867.960224	2414.478279
868.272110	2411.191446
868.583954	2411.141035
868.895755	2411.171282
869.207515	2410.369738
869.519233	2411.594739
869.830909	2412.134142
870.142542	2411.367887
870.454134	2411.763617
870.765684	2415.070614
871.077191	2412.363515
871.388657	2411.544327
871.700081	2411.357804
872.011463	2413.006262
872.322803	2414.828639
872.634101	2413.139852
872.945357	2415.342837
873.256571	2414.049781
873.567744	2413.432239
873.878874	2414.846283
874.189963	2414.894174
874.501010	2415.486509
874.812015	2414.503484
875.122979	2414.984915
875.433900	2417.036664
875.744780	2413.286046
876.055618	2418.493558
876.366415	2414.793351
876.677169	2415.796540
876.987882	2415.221849
877.298554	2411.125911
877.609183	2414.674884
877.919771	2413.964081
878.230317	2419.065729
878.540822	2418.475914
878.851285	2423.557397
879.161707	2427.005546
879.472087	2432.817996
879.782425	2441.584563
880.092722	2455.619135
880.402977	2478.861375
880.713191	2508.329440
881.023363	2535.662576
881.333494	2556.643858
881.643583	2562.221895
881.953631	2557.130330
882.263637	2548.507436
882.573602	2539.609799
882.883526	2526.298633
883.193408	2515.465193
883.503248	2501.738131
883.813048	2493.142964
884.122806	2483.592498
884.432522	2474.125211
884.742197	2463.937039
885.051831	2454.114351
885.361424	2447.328958
885.670975	2442.560026
885.980485	2438.184305
886.289954	2433.738007
886.599382	2428.807758
886.908768	2430.582245
887.218113	2427.328180
887.527417	2424.558066
887.836680	2422.163518
888.145901	2423.305339
888.455082	2418.496078
888.764221	2419.529515
889.073319	2419.239648
889.382376	2418.289391
889.691392	2416.366191
890.000366	2417.815522
890.309300	2415.476427
890.618193	2419.597570
890.927044	2416.444329
891.235855	2415.390728
891.544625	2416.237641
891.853353	2418.823753
892.162041	2414.957188
892.470687	2420.754515
892.779293	2421.069587
893.087858	2424.008580
893.396381	2424.663930
893.704864	2430.310022
894.013306	2437.612134
894.321707	2447.621345
894.630068	2455.344392
894.938387	2457.517130
895.246665	2455.442695
895.554903	2449.942796
895.863100	2447.255861
896.171256	2442.580191
896.479371	2436.503080
896.787446	2436.331681
897.095480	2431.635846
897.403473	2431.373706
897.711425	2429.543767
898.019336	2427.068560
898.327207	2422.493713
898.635038	2425.581420
898.942827	2419.219484
899.250576	2420.701583
899.558284	2417.865934
899.865952	2416.938362
900.173579	2416.343506
900.481165	2420.005904
900.788711	2416.046078
901.096216	2415.851993
901.403681	2412.585325
901.711105	2413.974163
902.018489	2412.648340
902.325832	2417.195461
902.633135	2414.543814
902.940397	2419.337951
903.247619	2426.382963
903.554800	2437.670107
903.861941	2455.122582
904.169041	2462.419652
904.476101	2465.993830
904.783121	2466.087091
905.090100	2455.845987
905.397039	2450.661160
905.703938	2444.813422
906.010796	2441.125818
906.317614	2437.294541
906.624391	2433.801021
906.931129	2430.312543
907.237826	2425.972109
907.544483	2422.617222
907.851099	2420.865421
908.157675	2416.703948
908.464211	2415.191602
908.770707	2406.281362
909.077163	2407.728174
909.383578	2406.823287
909.689954	2406.278842
909.996289	2402.621485
910.302584	2408.197001
910.608839	2407.733215
910.915054	2406.553585
911.221229	2406.215828
911.527363	2408.194480
911.833458	2409.787485
912.139513	2407.445869
912.445527	2406.641805
912.751502	2411.385531
913.057436	2409.477454
913.363331	2411.987949
913.669186	2414.591705
913.975000	2415.040367
914.280775	2418.783424
914.586510	2422.370205
914.892205	2429.758016
915.197859	2437.816300
915.503475	2446.895418
915.809050	2459.203396
916.114585	2461.897892
916.420081	2466.855867
916.725536	2462.759930
917.030952	2461.875207
917.336328	2457.479321
917.641665	2453.464042
917.946961	2450.197374
918.252218	2446.353494
918.557435	2443.737136
918.862612	2438.738832
919.167750	2435.910744
919.472848	2430.138623
919.777906	2429.720207
920.082925	2425.730134
920.387904	2424.174938
920.692843	2421.102355
920.997743	2418.039854
921.302603	2417.218146
921.607423	2416.656057
921.912204	2414.695048
922.216946	2414.188412
922.521647	2414.480799
922.826310	2411.375448
923.130932	2408.973339
923.435516	2411.922414
923.740059	2407.733215
924.044564	2407.085427
924.349028	2407.947464
924.653454	2405.449572
924.957840	2405.870508
925.262186	2405.983934
925.566493	2403.405384
925.870761	2404.743811
926.174989	2405.283214
926.479178	2406.767834
926.783328	2406.014181
927.087438	2401.252812
927.391509	2405.711712
927.695541	2405.671383
927.999533	2402.946639
928.303486	2404.479150
928.607400	2402.893707
928.911275	2401.388923
929.215110	2401.698954
929.518906	2402.802966
929.822663	2402.515621
930.126381	2402.974366
930.430060	2404.395971
930.733699	2401.819941
931.037299	2404.804304
931.340861	2401.797256
931.644383	2403.924623
931.947866	2401.356155
932.251309	2404.093502
932.554714	2402.258522
932.858080	2402.981927
933.161407	2404.393450
933.464694	2402.034190
933.767943	2402.586197
934.071153	2404.688358
934.374323	2400.012688
934.677455	2402.684499
934.980548	2402.843296
935.283602	2401.696433
935.586617	2400.335322
935.889593	2402.329098
936.192530	2401.872873
936.495428	2403.181053
936.798287	2404.695920
937.101108	2403.208779
937.403890	2402.881104
937.706632	2406.848492
938.009336	2406.694737
938.312002	2404.572411
938.614628	2406.238513
938.917216	2406.835889
939.219765	2406.785478
939.522275	2407.864285
939.824747	2407.854202
940.127179	2404.632905
940.429573	2399.697616
940.731929	2403.745662
941.034246	2401.257853
941.336524	2410.092475
941.638763	2406.319171
941.940964	2406.147772
942.243126	2405.174829
942.545250	2405.517628
942.847335	2405.729356
943.149381	2406.896383
943.451389	2403.997720
943.753359	2405.452093
944.055290	2401.487225
944.357182	2403.808677
944.659036	2401.981258
944.960851	2404.295148
945.262628	2403.763306
945.564367	2402.624005
945.866067	2402.140055
946.167729	2405.389078
946.469352	2403.596948
946.770937	2405.426887
947.072484	2403.501166
947.373992	2403.914541
947.675462	2403.075189
947.976893	2403.702812
948.278286	2402.026629
948.579641	2403.662483
948.880958	2402.470250
949.182236	2402.281207
949.483476	2402.553429
949.784678	2401.532596
950.085841	2402.293810
950.386967	2402.497977
950.688054	2403.188615
950.989103	2404.910169
951.290114	2404.975704
951.591087	2402.775240
951.892021	2405.789850
952.192917	2405.247926
952.493776	2404.728687
952.794596	2405.994017
953.095378	2404.106105
953.396122	2405.910838
953.696828	2406.946795
953.997496	2403.788512
954.298126	2404.476629
954.598718	2404.332957
954.899272	2403.070148
955.199788	2402.560991
955.500266	2403.065106
955.800706	2400.297513
956.101108	2399.478325
956.401472	2401.378840
956.701798	2397.429096
957.002087	2399.422873
957.302337	2399.929509
957.602550	2402.790363
957.902724	2402.298851
958.202861	2402.402195
958.502960	2398.991854
958.803022	2401.691392
959.103045	2399.924468
959.403031	2403.024777
959.702979	2400.226937
960.002889	2403.110477
960.302762	2398.878428
960.602596	2399.407749
960.902393	2397.993706
961.202153	2398.669220
961.501875	2398.487739
961.801559	2397.653428
962.101205	2396.894734
962.400814	2398.908675
962.700385	2398.069323
962.999918	2399.677451
963.299414	2398.868346
963.598873	2400.254663
963.898293	2397.207286
964.197677	2396.345248
964.497022	2397.005639
964.796331	2401.804818
965.095601	2397.847512
965.394835	2396.118396
965.694030	2396.264590
965.993189	2399.558984
966.292309	2393.870042
966.591393	2395.883983
966.890439	2395.891544
967.189447	2397.419014
967.488419	2396.327604
967.787353	2399.546381
968.086249	2397.177039
968.385108	2399.364899
968.683930	2398.323901
968.982714	2400.489077
969.281462	2396.788870
969.580172	2396.080588
969.878844	2396.806514
970.177480	2396.985475
970.476078	2398.349107
970.774639	2397.908006
971.073162	2397.645866
971.371649	2395.279044
971.670098	2395.132851
971.968510	2394.976575
972.266885	2393.912892
972.565223	2398.593603
972.863524	2396.589744
973.161788	2397.424055
973.460014	2399.652245
973.758204	2398.223078
974.056356	2399.876577
974.354471	2399.503531
974.652550	2401.116700
974.950591	2399.616957
975.248595	2396.027656
975.546563	2398.379354
975.844493	2398.293654
976.142386	2397.729045
976.440243	2398.729714
976.738062	2398.999416
977.035845	2398.898593
977.333590	2396.819117
977.631299	2398.888510
977.928971	2399.795918
978.226606	2397.620660
978.524204	2397.983623
978.821765	2397.552605
979.119290	2398.885990
979.416777	2397.537481
979.714228	2398.785167
980.011642	2397.678633
980.309020	2401.948491
980.606360	2397.610578
980.903664	2397.061092
981.200931	2397.053530
981.498162	2399.218706
981.795356	2398.981772
982.092513	2397.618140
982.389633	2401.966135
982.686717	2405.036198
982.983764	2402.520662
983.280775	2407.216497
983.577749	2405.689027
983.874686	2404.867319
984.171587	2404.963101
984.468451	2403.027298
984.765279	2403.677607
985.062070	2403.034859
985.358824	2405.305899
985.655543	2400.148799
985.952224	2401.124262
986.248869	2399.707698
986.545478	2394.611091
986.842050	2396.332645
987.138586	2392.415669
987.435086	2396.698129
987.731549	2391.795607
988.027975	2397.587893
988.324366	2398.560835
988.620719	2395.682337
988.917037	2397.431617
989.213318	2398.061761
989.509563	2398.941442
989.805772	2395.548746
990.101944	2396.309960
990.398080	2394.601009
990.694180	2397.663510
990.990244	2401.141906
991.286271	2394.931205
991.582262	2393.844836
991.878217	2396.982954
992.174136	2399.432955
992.470019	2395.394991
992.765865	2399.551422
993.061676	2395.473129
993.357450	2397.560166
993.653188	2396.758623
993.948890	2394.860628
994.244556	2395.420197
994.540186	2394.064126
994.835780	2400.625188
995.131337	2397.703839
995.426859	2398.681823
995.722345	2403.612072
996.017795	2401.623336
996.313208	2401.265414
996.608586	2401.099056
996.903928	2400.405898
997.199234	2398.714591
997.494504	2399.495969
997.789738	2400.116031
998.084936	2399.677451
998.380099	2398.581000
998.675225	2399.448078
998.970316	2396.405742
999.265371	2398.936401
999.560390	2397.691236
999.855373	2396.405742
1000.150320	2399.508572
1000.445232	2395.306771
1000.740108	2398.381874
1001.034948	2399.682492
1001.329752	2398.638973
1001.624521	2397.038407
1001.919254	2392.461039
1002.213951	2395.205948
1002.508613	2391.344424
1002.803239	2395.074877
1003.097829	2392.640000
1003.392384	2396.254508
1003.686903	2398.621329
1003.981386	2397.512275
1004.275834	2395.926833
1004.570246	2396.998078
1004.864623	2395.629404
1005.158964	2396.874569
1005.453270	2394.795093
1005.747540	2395.689898
1006.041775	2398.064282
1006.335974	2395.490773
1006.630138	2395.251318
1006.924266	2394.769888
1007.218359	2392.844167
1007.512416	2396.950187
1007.806438	2396.756102
1008.100425	2397.666031
1008.394376	2393.285268
1008.688292	2396.655279
1008.982172	2394.011194
1009.276017	2394.056564
1009.569827	2395.112686
1009.863602	2395.929353
1010.157341	2396.884652
1010.451045	2394.807696
1010.744714	2395.324415
1011.038347	2395.339538
1011.331945	2396.551936
1011.625508	2393.121430
1011.919036	2395.006822
1012.212528	2397.209806
1012.505986	2394.074208
1012.799408	2396.015053
1013.092795	2393.731410
1013.386147	2395.286606
1013.679464	2396.912378
1013.972745	2395.631925
1014.265992	2396.020094
1014.559204	2396.471277
1014.852380	2396.735938
1015.145521	2397.673592
1015.438628	2394.497665
1015.731699	2395.339538
1016.024736	2394.250649
1016.317737	2394.293499
1016.610703	2394.154867
1016.903635	2393.320556
1017.196531	2390.303425
1017.489393	2395.740310
1017.782219	2389.355688
1018.075011	2396.776267
1018.367768	2396.458674
1018.660490	2394.177552
1018.953177	2394.177552
1019.245829	2394.177552
