Dividing Wavelength (nm)	Counts (n)	Blue Motor Position (mm): 0.000000	Red Motor Position (mm): 22.000000	
326.493990	1985.282002
326.888308	1985.282002
327.282561	1985.282002
327.676750	1960.371140
328.070874	1961.702005
328.464933	1967.441358
328.858929	1977.831177
329.252859	1988.639410
329.646726	2001.932933
330.040528	2018.162928
330.434265	2039.728984
330.827938	2054.865048
331.221547	2078.659295
331.615091	2096.837695
332.008571	2118.663371
332.401986	2141.255302
332.795338	2159.083343
333.188625	2178.499347
333.581847	2199.120186
333.975006	2215.302290
334.368100	2233.210989
334.761129	2249.181365
335.154095	2263.798190
335.546996	2283.292332
335.939833	2303.792184
336.332606	2318.267858
336.725315	2327.946873
337.117960	2336.441217
337.510540	2340.504387
337.903056	2353.192971
338.295508	2358.458457
338.687896	2368.260980
339.080220	2373.332381
339.472480	2378.819677
339.864676	2382.739174
340.256807	2385.295039
340.648875	2389.070863
341.040879	2387.959289
341.432818	2389.433826
341.824694	2390.840308
342.216506	2392.040103
342.608253	2391.377191
342.999937	2388.856614
343.391557	2387.311501
343.783113	2382.040974
344.174605	2385.289998
344.566033	2383.018958
344.957397	2383.961654
345.348697	2379.464945
345.739934	2379.769934
346.131106	2376.762886
346.522215	2377.635006
346.913260	2374.365817
347.304241	2375.331198
347.695159	2371.666280
348.086012	2369.256608
348.476802	2369.856505
348.867528	2366.867101
349.258191	2365.004395
349.648789	2364.253263
350.039324	2363.721421
350.429796	2364.492718
350.820203	2362.806452
351.210548	2362.055320
351.600828	2361.152953
351.991045	2360.490042
352.381198	2361.372243
352.771288	2363.179497
353.161314	2360.885772
353.551276	2360.399301
353.941175	2361.813344
354.331010	2361.702439
354.720782	2361.528519
355.110490	2362.491380
355.500135	2361.357120
355.889717	2362.819055
356.279235	2365.455578
356.668689	2365.306864
357.058080	2364.976668
357.447408	2364.689323
357.836672	2361.284023
358.225873	2365.755527
358.615010	2362.587162
359.004084	2367.091433
359.393095	2369.533872
359.782043	2369.485981
360.170927	2368.931454
360.559748	2369.627133
360.948505	2371.507483
361.337199	2371.504963
361.725830	2373.085364
362.114398	2372.286342
362.502903	2374.433873
362.891344	2374.519573
363.279722	2375.099305
363.668037	2376.931765
364.056289	2377.854296
364.444478	2379.696838
364.832603	2378.270191
365.220665	2381.816643
365.608665	2380.639533
365.996601	2379.117105
366.384474	2381.420912
366.772284	2383.898639
367.160031	2382.459390
367.547715	2385.428630
367.935336	2382.456869
368.322893	2387.866027
368.710388	2387.621532
369.097820	2388.849053
369.485189	2390.061450
369.872495	2392.892058
370.259738	2392.279558
370.646918	2394.243087
371.034035	2396.806514
371.421090	2398.417163
371.808081	2400.869684
372.195010	2407.526527
372.581875	2411.998031
372.968678	2416.996335
373.355418	2425.331883
373.742096	2435.547781
374.128710	2446.361056
374.515262	2457.466718
374.901751	2469.547843
375.288177	2487.650627
375.674540	2507.394306
376.060841	2527.508510
376.447079	2550.158414
376.833254	2576.017012
377.219367	2597.182297
377.605417	2636.926754
377.991404	2663.148316
378.377329	2700.775488
378.763191	2736.849985
379.148991	2782.527880
379.534727	2832.662155
379.920402	2878.340050
380.306013	2931.821651
380.691563	2994.372288
381.077049	3048.305072
381.462474	3103.102415
381.847835	3177.257788
382.233134	3252.207142
382.618371	3307.642191
383.003545	3395.053278
383.388657	3476.573777
383.773706	3568.741192
384.158693	3644.058552
384.543618	3734.766553
384.928480	3811.205569
385.313280	3919.066097
385.698017	4022.190460
386.082692	4146.752331
386.467305	4208.970252
386.851856	4337.592771
387.236344	4489.412161
387.620770	4552.161923
388.005133	4677.611037
388.389435	4821.888860
388.773674	4912.271707
389.157851	5042.414135
389.541965	5177.837171
389.926018	5200.860121
390.310008	5379.211103
390.693936	5499.175441
391.077802	5616.798163
391.461606	5749.645169
391.845348	5863.234968
392.229027	5982.859029
392.612645	6209.247166
392.996200	6320.276058
393.379694	6497.911197
393.763125	6719.911009
394.146494	6820.411452
394.529801	6950.095135
394.913047	7194.137392
395.296230	7188.869387
395.679351	7241.483909
396.062410	7498.761717
396.445408	7394.992085
396.828343	7550.678039
397.211217	7680.399531
397.594028	7561.776140
397.976778	7770.366483
398.359466	7933.150382
398.742092	7906.321361
399.124656	8053.167652
399.507158	8240.388544
399.889598	8263.610619
400.271977	8466.731311
400.654294	8499.826486
401.036549	8693.434520
401.418742	8722.905105
401.800874	9026.853914
402.182944	9100.820244
402.564952	9466.104772
402.946898	9296.716962
403.328783	9342.810752
403.710606	9546.806084
404.092367	9796.983426
404.474067	10153.234206
404.855705	9948.928844
405.237282	9907.853522
405.618797	10323.819291
406.000250	10579.927550
406.381642	10928.949316
406.762972	10888.824252
407.144240	10686.850423
407.525447	10934.870151
407.906593	10876.773374
408.287677	11133.012703
408.668700	11293.225614
409.049661	11260.526169
409.430560	11420.875191
409.811399	11391.709595
410.192176	11560.479864
410.572891	11625.979576
410.953545	12101.075559
411.334138	11574.887482
411.714669	12179.921725
412.095139	11497.059628
412.475547	11989.807211
412.855894	11840.861279
413.236180	12160.830876
413.616405	11850.729338
413.996568	12122.061882
414.376670	12093.544075
414.756711	11973.481434
415.136691	12249.058630
415.516609	12420.858632
415.896466	12497.789161
416.276262	12786.682564
416.655997	13225.512486
417.035670	13266.799536
417.415283	13903.986258
417.794834	13983.583557
418.174324	13733.197007
418.553753	13635.035660
418.933121	14123.664620
419.312428	13931.853757
419.691674	13836.666690
420.070859	14287.008087
420.449983	13948.600470
420.829045	14495.381660
421.208047	14237.259460
421.586988	14688.820816
421.965867	14939.235092
422.344686	14931.832157
422.723444	15494.997097
423.102141	14195.702708
423.480777	15366.944228
423.859352	14871.300503
424.237866	15972.217926
424.616319	15659.794937
424.994712	16310.406253
425.373044	16103.650889
425.751314	16759.943585
426.129524	15892.471914
426.507673	16958.895242
426.885762	16659.657391
427.263789	16842.285792
427.641756	17008.086822
428.019662	17051.914613
428.397508	17076.686843
428.775292	17357.680758
429.153016	17301.565154
429.530679	17365.174434
429.908282	17371.783386
430.285824	17068.106799
430.663305	17743.089573
431.040726	17324.676324
431.418086	17118.944315
431.795385	17721.243733
432.172624	18106.488710
432.549802	17630.419784
432.926920	17760.237058
433.303977	17614.036034
433.680974	17817.933063
434.057910	18043.809523
434.434786	18019.859001
434.811601	17876.765849
435.188355	18810.740422
435.565050	18409.401562
435.941683	18289.780022
436.318257	19045.943017
436.694770	18785.050703
437.071222	19242.704293
437.447614	18288.108880
437.823946	18219.110607
438.200218	18266.305889
438.576429	17941.393442
438.952580	18084.342921
439.328670	17950.976675
439.704700	18208.463690
440.080670	17702.352009
440.456580	18097.641485
440.832429	18124.530999
441.208218	17125.918752
441.583947	17378.407463
441.959616	17324.320923
442.335224	17387.103453
442.710773	17347.416969
443.086261	17644.403945
443.461689	16976.388046
443.837057	16919.254129
444.212365	17274.867204
444.587612	17104.234228
444.962800	16614.334898
445.337927	16754.451248
445.712995	15636.678726
446.088002	16846.890886
446.462949	16800.570244
446.837837	16741.666882
447.212664	16523.110177
447.587431	18331.455241
447.962139	20170.926909
448.336786	21613.722784
448.711374	20284.627614
449.085901	17533.201133
449.460369	17224.269142
449.834776	16918.240857
450.209124	18283.329866
450.583412	17744.601919
450.957640	17831.052666
451.331808	16743.643014
451.705917	15671.281206
452.079965	15439.690599
452.453954	15409.506690
452.827883	15091.906436
453.201752	14747.638478
453.575562	14610.148569
453.949311	14951.381752
454.323001	14732.169698
454.696632	14367.900962
455.070202	14891.344130
455.443713	14716.632861
455.817164	14719.123191
456.190556	14710.016347
456.563888	14201.701681
456.937160	14122.507675
457.310373	13147.498109
457.683526	13059.870253
458.056619	12790.919654
458.429653	12506.149914
458.802628	12479.446922
459.175542	12284.661779
459.548398	12521.875794
459.921194	12864.258360
460.293930	12880.621945
460.666607	13347.478162
461.039224	13689.797714
461.411782	13527.328887
461.784280	12817.690701
462.156719	12338.564316
462.529099	11879.915098
462.901419	11210.084384
463.273680	10644.590431
463.645882	10413.617364
464.018024	10167.286423
464.390106	10152.457869
464.762130	10618.210072
465.134094	11444.442585
465.505999	12568.471179
465.877845	13475.200836
466.249631	13403.563519
466.621358	12574.087024
466.993026	11716.115407
467.364634	10920.742318
467.736184	10227.379497
468.107674	9719.374862
468.479105	9322.963730
468.850477	8948.952964
469.221790	8474.315727
469.593043	7959.994526
469.964238	7608.081658
470.335373	7393.066364
470.706449	7445.940507
471.077467	7621.985161
471.448425	8074.632885
471.819324	8298.694529
472.190164	7855.282199
472.560945	7200.905142
472.931667	6631.882381
473.302330	6327.147151
473.672934	6084.037507
474.043479	5973.608511
474.413965	5755.870994
474.784393	5578.550928
475.154761	5529.848341
475.525070	5402.420575
475.895321	5240.657510
476.265513	5157.503677
476.635645	5123.974963
477.005719	4993.983770
477.375734	4915.089712
477.745691	4853.932954
478.115588	4832.439995
478.485427	4853.121328
478.855207	4957.770641
479.224928	5018.771123
479.594591	4995.135673
479.964194	4818.700330
480.333739	4707.124472
480.703226	4603.596816
481.072653	4543.566756
481.442022	4481.379082
481.811333	4403.644490
482.180584	4261.307511
482.549777	4160.350843
482.918912	4062.005493
483.287988	3976.847802
483.657005	3886.724574
484.025964	3797.919608
484.394864	3737.607243
484.763706	3667.860359
485.132489	3592.759770
485.501213	3537.780946
485.869879	3497.237466
486.238487	3447.685445
486.607036	3414.890218
486.975527	3361.587578
487.343959	3333.331911
487.712333	3300.403094
488.080648	3269.904113
488.448905	3249.863006
488.817104	3217.544169
489.185244	3209.987479
489.553326	3214.882439
489.921350	3240.499063
490.289315	3267.121396
490.657222	3258.029675
491.025070	3241.492170
491.392861	3202.254349
491.760593	3162.585509
492.128267	3116.123715
492.495883	3076.442273
492.863440	3041.804504
493.230939	3012.951460
493.598380	2983.808550
493.965763	2963.971610
494.333088	2945.712550
494.700354	2925.505085
495.067563	2915.301790
495.434713	2901.612537
495.801805	2896.236146
496.168839	2885.253992
496.535815	2875.320399
496.902733	2865.863194
497.269593	2853.194774
497.636395	2846.795030
498.003139	2848.244361
498.369825	2834.134172
498.736453	2832.246260
499.103023	2822.063129
499.469535	2814.095585
499.835989	2808.482260
500.202385	2803.063020
500.568723	2800.169398
500.935003	2797.810138
501.301226	2788.917542
501.667390	2791.727986
502.033497	2793.068932
502.399546	2781.547375
502.765537	2775.253495
503.131470	2773.368103
503.497345	2773.743669
503.863163	2761.755805
504.228923	2765.115734
504.594625	2768.367279
504.960269	2759.875455
505.325856	2765.917278
505.691385	2756.419744
506.056856	2757.470825
506.422270	2764.069695
506.787625	2759.925867
507.152924	2755.698859
507.518164	2758.302615
507.883347	2751.527304
508.248472	2753.044692
508.613540	2755.986205
508.978550	2761.503748
509.343503	2757.445619
509.708398	2759.993922
510.073236	2765.403080
510.438016	2763.222781
510.802738	2758.408479
511.167403	2767.568256
511.532010	2769.166302
511.896561	2772.959770
512.261053	2780.937396
512.625488	2775.767692
512.989866	2772.816097
513.354186	2771.994389
513.718449	2768.944491
514.082655	2781.774227
514.446803	2779.911521
514.810894	2784.388066
515.174927	2786.843107
515.538904	2782.737088
515.902822	2790.243366
516.266684	2786.303704
516.630488	2792.579941
516.994235	2789.860238
517.357925	2796.025569
517.721558	2796.489355
518.085133	2800.519758
518.448651	2803.819193
518.812112	2801.059161
519.175516	2800.091260
519.538863	2803.531847
519.902152	2801.643935
520.265385	2812.273208
520.628560	2810.879329
520.991678	2807.980666
521.354739	2809.435038
521.717743	2812.502581
522.080690	2814.088023
522.443580	2815.779331
522.806413	2818.118426
523.169189	2818.400731
523.531908	2822.262254
523.894569	2819.010710
524.257174	2819.557675
524.619722	2823.537666
524.982213	2822.799137
525.344647	2822.423571
525.707025	2821.501040
526.069345	2828.326762
526.431608	2827.845332
526.793815	2827.147132
527.155964	2821.685042
527.518057	2825.763336
527.880093	2824.402224
528.242072	2827.822647
528.603995	2824.712255
528.965860	2827.573110
529.327669	2831.157370
529.689421	2826.101093
530.051117	2827.086639
530.412755	2825.891885
530.774337	2827.189982
531.135862	2823.593119
531.497331	2826.232163
531.858743	2819.482058
532.220098	2830.197031
532.581396	2821.760660
532.942638	2821.687563
533.303824	2822.166472
533.664953	2823.399035
534.026025	2818.592294
534.387040	2823.467090
534.747999	2822.925166
535.108902	2825.095383
535.469748	2822.209322
535.830537	2821.627069
536.191270	2823.784683
536.551947	2820.765032
536.912567	2824.860969
537.273131	2822.171514
537.633638	2817.780669
537.994089	2822.811740
538.354483	2816.827891
538.714821	2821.231338
539.075103	2823.983808
539.435328	2819.565237
539.795497	2819.214877
540.155609	2817.677325
540.515665	2823.278047
540.875665	2816.787561
541.235609	2818.040288
541.595496	2817.047181
541.955328	2822.274857
542.315102	2816.074238
542.674821	2818.917449
543.034483	2817.248827
543.394090	2815.754125
543.753640	2814.251861
544.113134	2821.720330
544.472571	2813.863692
544.831953	2820.548262
545.191278	2815.212201
545.550548	2809.803043
545.909761	2814.796306
546.268918	2817.692448
546.628019	2821.506081
546.987064	2814.861841
547.346053	2808.552837
547.704986	2814.904690
548.063863	2812.424443
548.422684	2810.324802
548.781449	2807.355562
549.140158	2811.058290
549.498811	2811.179278
549.857408	2801.079326
550.215949	2805.407157
550.574434	2805.281128
550.932864	2801.086888
551.291237	2805.530665
551.649555	2802.727783
552.007817	2805.195428
552.366022	2801.691826
552.724173	2802.503452
553.082267	2805.467650
553.440305	2803.796508
553.798288	2799.710653
554.156215	2799.957669
554.514086	2799.924902
554.871902	2796.091104
555.229661	2795.642442
555.587365	2790.538273
555.945014	2791.218829
556.302606	2787.377470
556.660143	2787.498457
557.017625	2787.072480
557.375050	2782.870678
557.732421	2781.517128
558.089735	2782.439660
558.446994	2777.126283
558.804197	2779.074689
559.161345	2777.537137
559.518437	2768.654624
559.875474	2767.558173
560.232455	2767.227978
560.589381	2762.736310
560.946251	2762.406114
561.303065	2761.687750
561.659825	2758.312697
562.016528	2755.106523
562.373177	2746.531521
562.729770	2749.137797
563.086307	2741.833165
563.442789	2742.811149
563.799216	2741.089595
564.155587	2735.614902
564.511904	2732.068450
564.868164	2728.370764
565.224370	2730.757750
565.580520	2725.310784
565.936615	2724.058057
566.292654	2716.594629
566.648638	2713.267467
567.004567	2712.470965
567.360441	2708.473330
567.716260	2705.322609
568.072023	2703.031404
568.427732	2697.753316
568.783385	2693.251566
569.138982	2691.683767
569.494525	2689.327027
569.850013	2683.491892
570.205445	2684.542972
570.560823	2681.823270
570.916145	2678.607014
571.271412	2675.794050
571.626625	2670.861281
571.981782	2668.844819
572.336884	2663.276865
572.691931	2662.949190
573.046923	2661.091525
573.401860	2657.159425
573.756743	2655.566420
574.111570	2650.863024
574.466342	2649.348157
574.821059	2646.593166
575.175722	2644.221303
575.530330	2640.556385
575.884882	2638.870119
576.239380	2635.946249
576.593823	2632.387195
576.948211	2630.605147
577.302544	2626.781432
577.656823	2624.328910
578.011047	2627.880403
578.365216	2620.762294
578.719330	2620.865638
579.073389	2618.897067
579.427394	2617.162910
579.781344	2614.218876
580.135239	2611.327775
580.489080	2611.305089
580.842866	2605.716970
581.196597	2609.167640
581.550273	2606.158071
581.903895	2604.164295
582.257463	2608.401385
582.610975	2604.325612
582.964434	2602.679675
583.317837	2600.781681
583.671186	2598.508120
584.024481	2597.134406
584.377721	2594.089549
584.730906	2594.386977
585.084037	2595.271700
585.437113	2591.684919
585.790135	2589.890268
586.143103	2590.487645
586.496016	2593.497213
586.848874	2583.339288
587.201679	2587.306677
587.554428	2584.783579
587.907124	2583.079669
588.259765	2581.292580
588.612352	2585.201995
588.964884	2581.164031
589.317362	2584.276943
589.669786	2582.507498
590.022155	2581.761407
590.374470	2581.869792
590.726731	2581.249730
591.078937	2577.882239
591.431090	2579.008937
591.783188	2575.616241
592.135232	2574.509707
592.487222	2575.462486
592.839157	2571.913513
593.191038	2572.788153
593.542866	2571.946281
593.894639	2572.258832
594.246358	2568.808163
594.598022	2567.855384
594.949633	2567.333625
595.301190	2568.682134
595.652692	2565.299519
596.004141	2566.259859
596.355535	2565.851526
596.706876	2559.252655
597.058162	2563.875393
597.409395	2563.262893
597.760573	2564.724828
598.111698	2561.730382
598.462768	2562.824313
598.813785	2559.996226
599.164748	2561.533777
599.515657	2560.212995
599.866511	2558.662840
600.217312	2562.501679
600.568060	2556.422047
600.918753	2562.441185
601.269392	2557.122768
601.619978	2556.290977
601.970510	2557.929353
602.320988	2556.946328
602.671412	2559.908005
603.021783	2558.415824
603.372100	2554.801317
603.722363	2556.021276
604.072572	2557.989846
604.422728	2559.335834
604.772830	2553.107489
605.122878	2554.692932
605.472872	2554.894578
605.822813	2550.710420
606.172701	2557.110165
606.522534	2554.826522
606.872314	2556.117058
607.222041	2552.109340
607.571714	2556.169990
607.921333	2552.336192
608.270899	2555.960782
608.620411	2554.627397
608.969870	2552.537838
609.319276	2553.349464
609.668627	2554.251831
610.017926	2555.527243
610.367171	2557.394990
610.716362	2552.525236
611.065500	2551.632951
611.414585	2553.475493
611.763616	2557.011862
612.112594	2553.790565
612.461518	2554.045143
612.810389	2556.056564
613.159207	2555.118909
613.507971	2556.820299
613.856682	2555.776780
614.205340	2553.089845
614.553945	2556.225443
614.902496	2550.924669
615.250994	2554.309804
615.599439	2556.268292
615.947830	2556.434650
616.296169	2556.888354
616.644454	2555.441543
616.992686	2557.165618
617.340864	2555.529763
617.688990	2555.068498
618.037063	2559.355999
618.385082	2555.136553
618.733048	2554.506409
619.080961	2555.867521
619.428821	2557.251317
619.776628	2555.708724
620.124382	2554.609753
620.472083	2555.575134
620.819731	2554.239228
621.167326	2553.709907
621.514868	2554.128322
621.862357	2551.088507
622.209793	2552.668908
622.557176	2549.097251
622.904506	2551.514484
623.251783	2544.540048
623.599007	2544.446787
623.946179	2541.475026
624.293297	2542.596683
624.640363	2542.092568
624.987376	2540.522248
625.334336	2539.345139
625.681243	2538.914120
626.028097	2540.655839
626.374899	2539.080478
626.721647	2537.061496
627.068343	2538.707433
627.414987	2537.986548
627.761577	2537.366486
628.108115	2535.229037
628.454600	2533.948584
628.801032	2534.603934
629.147412	2530.870959
629.493739	2534.036804
629.840014	2531.468336
630.186236	2532.504293
630.532405	2530.455064
630.878521	2533.207534
631.224585	2531.523789
631.570597	2528.282327
631.916556	2531.796011
632.262462	2527.634538
632.608316	2528.718387
632.954117	2529.661082
633.299866	2527.873993
633.645562	2523.977181
633.991206	2524.193951
634.336797	2524.198992
634.682336	2526.094466
635.027823	2523.188241
635.373257	2521.491892
635.718639	2520.531553
636.063968	2521.857376
636.409245	2517.794206
636.754470	2516.884278
637.099642	2518.290760
637.444762	2516.982580
637.789829	2515.707168
638.134845	2515.472755
638.479808	2514.073835
638.824719	2514.242713
639.169577	2511.694410
639.514383	2511.044101
639.859137	2511.772548
640.203839	2515.140039
640.548489	2509.045284
640.893086	2509.297341
641.237632	2508.132835
641.582125	2506.323061
641.926566	2503.351300
642.270955	2509.869512
642.615292	2510.083761
642.959576	2508.382372
643.303809	2508.460510
643.647990	2508.831035
643.992118	2509.564523
644.336195	2506.010509
644.680219	2507.921106
645.024192	2510.817249
645.368112	2509.625016
645.711981	2508.861282
646.055797	2511.170130
646.399562	2512.387569
646.743274	2514.348577
647.086935	2513.443690
647.430544	2513.549555
647.774101	2514.404030
648.117606	2515.140039
648.461059	2514.633403
648.804460	2516.317148
649.147810	2512.299348
649.491108	2510.971004
649.834354	2510.134173
650.177548	2507.878257
650.520690	2504.959428
650.863781	2506.040756
651.206820	2504.140241
651.549807	2504.034377
651.892742	2499.666217
652.235626	2503.646208
652.578458	2504.266270
652.921238	2499.010867
653.263967	2499.557832
653.606644	2498.678151
653.949269	2499.288130
654.291843	2499.512462
654.634365	2496.873418
654.976836	2497.092708
655.319255	2497.322080
655.661622	2495.267810
656.003938	2495.532471
656.346203	2495.887872
656.688416	2497.455671
657.030577	2495.000629
657.372687	2494.430979
657.714746	2497.427945
658.056753	2494.007522
658.398708	2492.956441
658.740612	2492.399394
659.082465	2493.876452
659.424266	2490.125833
659.766016	2488.096769
660.107715	2494.307470
660.449362	2495.275372
660.790958	2494.231853
661.132503	2492.323776
661.473996	2494.080618
661.815438	2493.072388
662.156829	2492.255721
662.498168	2493.019456
662.839456	2490.680360
663.180693	2493.452995
663.521879	2494.804024
663.863013	2493.790752
664.204097	2497.604385
664.545129	2497.889210
664.886110	2499.414159
665.227040	2494.325114
665.567918	2492.790083
665.908746	2494.834271
666.249522	2495.822337
666.590248	2492.618684
666.930922	2496.195382
667.271545	2493.871411
667.612118	2497.979951
667.952639	2495.958448
668.293109	2494.080618
668.633528	2494.824189
668.973896	2495.678664
669.314213	2495.648417
669.654480	2495.328304
669.994695	2493.211019
670.334859	2493.705052
670.674973	2492.369147
671.015035	2492.956441
671.355047	2493.778149
671.695008	2493.306801
672.034918	2491.560042
672.374777	2493.831081
672.714585	2493.674806
673.054342	2493.090032
673.394049	2491.723879
673.733705	2491.998622
674.073310	2491.393683
674.412864	2493.495845
674.752368	2488.051398
675.091820	2490.524084
675.431223	2488.525267
675.770574	2490.957624
676.109875	2484.628455
676.449125	2486.102993
676.788324	2484.336068
677.127473	2482.168372
677.466571	2483.360605
677.805619	2484.625934
678.144616	2484.351192
678.483562	2482.468321
678.822458	2480.729122
679.161303	2483.892447
679.500098	2480.761890
679.838842	2483.365646
680.177535	2487.769094
680.516179	2487.075935
680.854771	2486.135760
681.193314	2487.862355
681.531805	2488.366471
681.870247	2492.711945
682.208638	2491.857470
682.546978	2493.755464
682.885268	2493.561380
683.223508	2493.105155
683.561697	2492.469970
683.899836	2490.519043
684.237925	2489.021821
684.575963	2489.442757
684.913951	2486.685246
685.251889	2487.806903
685.589776	2489.352016
685.927614	2485.651809
686.265401	2488.918477
686.603137	2485.072077
686.940824	2491.562562
687.278460	2488.449650
687.616046	2492.109527
687.953582	2494.279744
688.291068	2491.461739
688.628504	2493.029538
688.965889	2493.838643
689.303224	2490.665237
689.640510	2493.614312
689.977745	2485.742550
690.314930	2488.663899
690.652065	2486.581902
690.989150	2486.644917
691.326185	2482.861531
691.663170	2477.974132
692.000105	2477.850624
692.336990	2475.214100
692.673825	2477.500263
693.010610	2475.342650
693.347345	2472.136476
693.684030	2468.262349
694.020665	2469.293265
694.357251	2465.923254
694.693786	2469.817545
695.030272	2469.419294
695.366707	2468.597586
695.703093	2464.673048
696.039429	2464.088274
696.375716	2466.926443
696.711952	2466.288737
697.048139	2464.267235
697.384276	2464.836885
697.720363	2467.806125
698.056400	2464.126082
698.392388	2464.211782
698.728326	2465.845116
699.064214	2461.865125
699.400053	2465.333439
699.735842	2462.447378
700.071581	2461.807152
700.407270	2460.887141
700.742910	2461.739096
701.078501	2459.329424
701.414042	2459.573920
701.749533	2456.163580
702.084974	2458.623663
702.420366	2459.624332
702.755709	2457.655761
703.091002	2456.183744
703.426246	2455.548559
703.761440	2455.664506
704.096584	2457.943107
704.431679	2453.527056
704.766725	2456.748354
705.101721	2456.458487
705.436668	2455.460339
705.771565	2454.442026
706.106413	2455.551080
706.441212	2457.242387
706.775961	2456.521502
707.110661	2454.502520
707.445311	2454.656275
707.779913	2454.149639
708.114465	2461.018211
708.448967	2459.858746
708.783421	2462.470063
709.117825	2458.550566
709.452180	2463.395115
709.786485	2461.015690
710.120742	2462.643983
710.454949	2461.938222
710.789107	2464.209261
711.123216	2461.575258
711.457275	2464.978037
711.791286	2465.038531
712.125247	2467.932153
712.459159	2467.037349
712.793023	2471.594552
713.126837	2466.230764
713.460602	2467.881742
713.794318	2465.041052
714.127985	2466.689509
714.461602	2461.943263
714.795171	2467.629684
715.128691	2462.515434
715.462162	2462.586010
715.795584	2457.794393
716.128957	2457.126440
716.462281	2455.513271
716.795556	2454.913374
717.128782	2454.086624
717.461960	2455.793055
717.795088	2452.349947
718.128167	2450.744339
718.461198	2452.783486
718.794180	2451.276181
719.127113	2449.262240
719.459997	2451.276181
719.792833	2450.981274
720.125619	2447.891046
720.458357	2449.141253
720.791046	2445.793926
721.123686	2447.616303
721.456278	2447.197888
721.788821	2445.751077
722.121315	2446.666046
722.453761	2447.898608
722.786158	2448.213680
723.118506	2446.577826
723.450805	2446.245110
723.783056	2446.078752
724.115259	2449.358022
724.447412	2444.808381
724.779518	2448.627055
725.111574	2446.822322
725.443582	2448.453135
725.775542	2446.965995
726.107453	2447.288628
726.439315	2449.612600
726.771129	2452.581840
727.102895	2454.177365
727.434612	2452.939762
727.766281	2450.507405
728.097901	2450.237703
728.429473	2450.830039
728.760996	2451.878599
729.092471	2446.923145
729.423897	2452.397838
729.755276	2454.552931
730.086606	2453.471604
730.417887	2454.384052
730.749120	2455.364557
731.080305	2455.346913
731.411442	2457.801955
731.742530	2458.999229
732.073570	2459.021914
732.404562	2457.673405
732.735506	2458.122068
733.066401	2457.670885
733.397249	2458.321194
733.728048	2454.109310
734.058798	2453.721141
734.389501	2449.761314
734.720156	2445.403237
735.050762	2448.248968
735.381320	2446.978597
735.711831	2446.091354
736.042293	2446.260233
736.372707	2444.901642
736.703073	2446.603032
737.033391	2445.849379
737.363661	2444.737805
737.693883	2444.808381
738.024056	2448.216201
738.354182	2448.871551
738.684260	2447.858279
739.014290	2449.269802
739.344272	2450.036057
739.674207	2448.808536
740.004093	2452.657457
740.333931	2451.311469
740.663722	2448.803495
740.993464	2451.205605
741.323159	2448.354833
741.652806	2448.493464
741.982405	2450.222580
742.311956	2449.630244
742.641460	2446.729060
742.970915	2446.590429
743.300323	2444.029523
743.629683	2443.976590
743.958996	2442.915427
744.288260	2442.658329
744.617477	2440.606579
744.946647	2437.781012
745.275768	2439.910900
745.604842	2437.438214
745.933869	2435.799839
746.262847	2436.863522
746.591778	2440.886363
746.920662	2438.020467
747.249498	2442.121446
747.578286	2439.459717
747.907027	2440.775458
748.235720	2439.757145
748.564365	2442.204625
748.892963	2439.694130
749.221514	2442.454162
749.550017	2438.779161
749.878473	2442.741508
750.206881	2441.382917
750.535242	2441.118256
750.863555	2442.171857
751.191821	2441.410643
751.520039	2440.079778
751.848210	2439.805036
752.176334	2438.726229
752.504411	2440.286466
752.832440	2436.377051
753.160421	2443.104471
753.488356	2438.590117
753.816243	2440.175560
754.144082	2437.082812
754.471875	2437.418049
754.799620	2436.379572
755.127318	2439.038780
755.454969	2435.341094
755.782572	2439.472319
756.110129	2437.496187
756.437638	2438.002823
756.765100	2437.425611
757.092515	2436.462751
757.419882	2437.082813
757.747203	2437.599531
758.074477	2439.308482
758.401703	2437.561722
758.728882	2439.081630
759.056014	2440.041970
759.383099	2438.136414
759.710138	2440.523400
760.037129	2441.153544
760.364073	2439.603389
760.690970	2439.406784
761.017820	2441.786209
761.344623	2441.932403
761.671379	2441.171188
761.998088	2441.198915
762.324751	2447.707044
762.651366	2456.594598
762.977935	2471.085395
763.304456	2473.603452
763.630931	2481.467652
763.957359	2476.648308
764.283740	2473.628657
764.610074	2465.862760
764.936362	2459.470577
765.262602	2451.586212
765.588796	2446.845007
765.914943	2442.817125
766.241044	2442.335695
766.567097	2438.012905
766.893104	2436.601382
767.219064	2433.795980
767.544978	2432.336566
767.870845	2434.234561
768.196665	2433.811104
768.522438	2432.966710
768.848165	2433.853953
769.173846	2431.053592
769.499479	2431.789601
769.825066	2431.219951
770.150607	2429.016966
770.476101	2427.613005
770.801548	2431.136772
771.126949	2425.735175
771.452303	2425.818354
771.777611	2426.103179
772.102872	2426.445978
772.428087	2426.662747
772.753256	2425.226019
773.078378	2425.780546
773.403453	2426.952614
773.728482	2425.873807
774.053465	2425.949424
774.378401	2423.917839
774.703291	2422.556728
775.028135	2421.848446
775.352932	2426.292223
775.677683	2423.186872
776.002388	2424.056471
776.327046	2420.751995
776.651658	2424.409352
776.976224	2420.830133
777.300743	2423.096131
777.625216	2420.593198
777.949643	2421.762746
778.274024	2423.993457
778.598359	2419.577406
778.922647	2414.785789
779.246889	2418.710327
779.571086	2415.773855
779.895236	2418.624628
780.219339	2421.795513
780.543397	2422.730648
780.867409	2421.016655
781.191374	2422.776018
781.515294	2422.057653
781.839167	2425.536050
782.162995	2422.327355
782.486776	2423.307860
782.810511	2421.089752
783.134201	2420.988929
783.457844	2421.235945
783.781441	2419.509350
784.104993	2418.175965
784.428498	2419.093455
784.751958	2421.094793
785.075372	2418.881727
785.398739	2419.078332
785.722061	2419.287539
786.045337	2423.665782
786.368568	2419.320307
786.691752	2421.097314
787.014891	2422.523960
787.337983	2423.948086
787.661030	2428.802717
787.984031	2428.326328
788.306987	2429.460588
788.629897	2428.003694
788.952760	2429.001843
789.275579	2429.387491
789.598351	2427.436565
789.921078	2426.120823
790.243759	2425.730134
790.566395	2422.264341
790.888984	2425.795669
791.211529	2423.333065
791.534027	2422.571851
791.856480	2420.129412
792.178888	2422.980185
792.501249	2420.152097
792.823566	2417.654206
793.145836	2422.859197
793.468062	2419.592529
793.790241	2417.939031
794.112375	2421.450194
794.434464	2419.708476
794.756507	2422.155956
795.078505	2423.892633
795.400457	2419.887437
795.722364	2417.961716
796.044226	2422.823909
796.366042	2420.068918
796.687812	2419.600091
797.009538	2423.819537
797.331218	2423.910277
797.652852	2423.756522
797.974442	2422.367684
798.295986	2421.692170
798.617484	2423.751481
798.938938	2424.679053
799.260346	2421.266192
799.581709	2421.513209
799.903026	2423.070925
800.224299	2422.334917
800.545526	2420.993970
800.866708	2418.324679
801.187845	2421.238466
801.508936	2417.782755
801.829983	2416.963567
802.150984	2418.843918
802.471940	2419.695873
802.792851	2417.787796
803.113717	2419.365677
803.434538	2416.698907
803.755314	2417.888619
804.076045	2417.593712
804.396731	2416.129257
804.717372	2420.381470
805.037967	2419.088414
805.358518	2415.191602
805.679024	2418.120512
805.999485	2418.904412
806.319901	2419.756367
806.640272	2418.322158
806.960598	2417.802920
807.280879	2418.105389
807.601115	2420.676377
807.921306	2417.114802
808.241453	2418.032292
808.561554	2421.246028
808.881611	2420.116809
809.201623	2419.002714
809.521590	2420.794844
809.841513	2419.519433
810.161390	2419.857190
810.481223	2419.181675
810.801011	2419.400965
811.120755	2417.941551
811.440453	2418.891809
811.760107	2417.376942
812.079716	2416.625810
812.399281	2411.597259
812.718801	2415.037847
813.038276	2411.267064
813.357707	2416.378794
813.677093	2416.144380
813.996434	2418.123033
814.315731	2417.684453
814.634983	2416.683783
814.954191	2415.294946
815.273354	2417.024061
815.592473	2418.841397
815.911547	2416.575399
816.230577	2418.410379
816.549562	2420.391552
816.868502	2418.238979
817.187399	2423.794331
817.506250	2421.850966
817.825058	2419.675708
818.143821	2419.496747
818.462539	2424.142171
818.781213	2421.646799
819.099843	2425.147881
819.418429	2432.210537
819.736970	2434.373192
820.055466	2439.389140
820.373919	2446.172013
820.692327	2454.898250
821.010691	2473.159830
821.329011	2507.101919
821.647286	2569.143399
821.965517	2629.445682
822.283704	2666.972031
822.601847	2675.426046
822.919945	2653.744043
823.237999	2619.998559
823.556010	2594.407142
823.873976	2561.430434
824.191897	2535.206352
824.509775	2516.410409
824.827609	2501.168481
825.145398	2490.816471
825.463144	2484.172231
825.780845	2486.654999
826.098502	2489.316728
826.416116	2504.417504
826.733685	2520.201357
827.051210	2523.374763
827.368692	2516.163393
827.686129	2500.233347
828.003522	2484.804895
828.320872	2467.717904
828.638177	2460.191462
828.955439	2449.552107
829.272656	2442.428956
829.589830	2433.541402
829.906960	2435.653645
830.224046	2430.012594
830.541088	2428.548139
830.858086	2426.902202
831.175041	2425.752819
831.491952	2424.507654
831.808819	2425.888930
832.125642	2427.459250
832.442421	2431.071237
832.759157	2440.185643
833.075849	2450.406582
833.392497	2463.168263
833.709101	2468.514407
834.025662	2468.612709
834.342179	2460.294805
834.658653	2453.827005
834.975083	2446.950871
835.291469	2445.151179
835.607811	2436.797987
835.924110	2432.513007
836.240366	2429.006884
836.556578	2422.952458
836.872746	2422.218970
837.188871	2420.857859
837.504952	2420.073959
837.820990	2417.465162
838.136984	2419.068249
838.452935	2415.975501
838.768842	2419.441295
839.084706	2418.450708
839.400526	2425.737696
839.716303	2429.387491
840.032037	2434.927719
840.347727	2435.250353
840.663373	2427.948242
840.978977	2426.027562
841.294537	2421.810637
841.610054	2419.141346
841.925527	2418.337282
842.240957	2416.139339
842.556344	2416.446849
842.871687	2412.751683
843.186987	2413.177661
843.502244	2408.121384
843.817458	2409.071641
844.132629	2410.470561
844.447756	2408.693555
844.762840	2405.079047
845.077881	2406.006620
845.392879	2403.017215
845.707833	2407.786147
846.022745	2404.274983
846.337613	2410.762948
846.652438	2410.387382
846.967221	2406.664490
847.281960	2407.851682
847.596656	2409.220355
847.911309	2408.776734
848.225919	2406.329253
848.540485	2404.458985
848.855009	2409.537948
849.169490	2408.446538
849.483928	2405.948646
849.798323	2410.478123
850.112675	2406.099881
850.426984	2408.479306
850.741251	2407.559295
851.055474	2407.201373
851.369654	2405.656259
851.683792	2406.137690
851.997887	2406.422515
852.311938	2405.457134
852.625947	2403.949829
852.939914	2407.143400
853.253837	2406.795560
853.567718	2407.256826
853.881555	2405.971332
854.195350	2407.521486
854.509103	2406.266239
854.822812	2405.562998
855.136479	2408.325550
855.450103	2406.029305
855.763685	2406.425035
856.077224	2406.520817
856.390720	2408.353277
856.704173	2407.536610
857.017584	2405.666342
857.330953	2407.443348
857.644278	2407.297155
857.957561	2410.757907
858.270802	2406.026784
858.584000	2406.062072
858.897155	2407.718091
859.210268	2407.450910
859.523339	2408.199522
859.836367	2407.881929
860.149352	2405.565519
860.462295	2405.421846
860.775195	2404.925292
861.088054	2401.761968
861.400869	2404.829510
861.713642	2403.012174
862.026373	2408.645664
862.339062	2406.006620
862.651708	2407.292114
862.964312	2407.861764
863.276873	2404.816907
863.589392	2408.665828
863.901869	2406.155334
864.214303	2409.119532
864.526696	2404.663152
864.839045	2406.949315
865.151353	2410.583987
865.463619	2408.229768
865.775842	2408.864954
866.088023	2407.435787
866.400162	2408.265057
866.712258	2407.773544
867.024313	2408.179357
867.336325	2407.448390
867.648296	2409.391754
867.960224	2410.218504
868.272110	2408.756569
868.583954	2408.328071
868.895755	2409.860582
869.207515	2407.975190
869.519233	2408.859913
869.830909	2409.240520
870.142542	2407.619789
870.454134	2408.096178
870.765684	2410.057187
871.077191	2409.795047
871.388657	2409.318658
871.700081	2409.220355
872.011463	2410.354615
872.322803	2409.386713
872.634101	2411.914852
872.945357	2409.946281
873.256571	2412.424008
873.567744	2411.120870
873.878874	2411.730850
874.189963	2411.098185
874.501010	2412.050963
874.812015	2411.544327
875.122979	2412.164389
875.433900	2410.094995
875.744780	2414.939544
876.055618	2410.463000
876.366415	2411.060376
876.677169	2411.340160
876.987882	2407.697927
877.298554	2408.317989
877.609183	2410.362177
877.919771	2410.853689
878.230317	2410.767989
878.540822	2416.608166
878.851285	2418.594381
879.161707	2421.465318
879.472087	2425.120154
879.782425	2434.242122
880.092722	2447.815429
880.402977	2465.232616
880.713191	2493.788232
881.023363	2516.498630
881.333494	2532.688295
881.643583	2535.050076
881.953631	2534.765251
882.263637	2526.414579
882.573602	2517.761439
882.883526	2505.813904
883.193408	2498.458861
883.503248	2485.661892
883.813048	2478.511015
884.122806	2469.857874
884.432522	2463.848819
884.742197	2452.617128
885.051831	2448.216201
885.361424	2440.669593
885.670975	2434.078285
885.980485	2430.143664
886.289954	2428.296081
886.599382	2423.469177
886.908768	2422.944897
887.218113	2421.976995
887.527417	2419.930287
887.836680	2414.558937
888.145901	2415.947775
888.455082	2415.257137
888.764221	2414.201015
889.073319	2413.404513
889.382376	2417.235790
889.691392	2411.103226
890.000366	2414.679925
890.309300	2416.293094
890.618193	2408.738925
890.927044	2411.352763
891.235855	2411.682959
891.544625	2414.664801
891.853353	2413.432239
892.162041	2415.131108
892.470687	2416.081366
892.779293	2414.274112
893.087858	2418.344844
893.396381	2418.753177
893.704864	2425.223498
894.013306	2427.560073
894.321707	2441.128338
894.630068	2445.320058
894.938387	2448.730398
895.246665	2446.451797
895.554903	2442.045828
895.863100	2439.986517
896.171256	2437.405446
896.479371	2432.757502
896.787446	2426.393046
897.095480	2425.924218
897.403473	2424.265679
897.711425	2423.796852
898.019336	2423.305339
898.327207	2417.896181
898.635038	2419.514391
898.942827	2415.670512
899.250576	2415.877199
899.558284	2416.194792
899.865952	2414.306879
900.173579	2412.267733
900.481165	2414.914338
900.788711	2412.751683
901.096216	2412.582805
901.403681	2414.266550
901.711105	2411.418298
902.018489	2411.688000
902.325832	2414.518608
902.633135	2414.306879
902.940397	2415.410892
903.247619	2421.858528
903.554800	2432.197934
903.861941	2441.640016
904.169041	2451.535801
904.476101	2458.081739
904.783121	2452.453291
905.090100	2448.289297
905.397039	2440.616661
905.703938	2436.487956
906.010796	2433.911927
906.317614	2430.110897
906.624391	2425.246183
906.931129	2425.097469
907.237826	2419.713517
907.544483	2417.997004
907.851099	2416.368711
908.157675	2411.791344
908.464211	2411.408216
908.770707	2403.695251
909.077163	2406.409912
909.383578	2402.936557
909.689954	2405.343708
909.996289	2401.726680
910.302584	2405.668862
910.608839	2408.048287
910.915054	2407.932340
911.221229	2405.641136
911.527363	2402.079561
911.833458	2407.866805
912.139513	2405.580642
912.445527	2410.493247
912.751502	2408.900242
913.057436	2410.044584
913.363331	2409.101888
913.669186	2411.806467
913.975000	2412.325706
914.280775	2412.328227
914.586510	2419.882396
914.892205	2423.164187
915.197859	2434.141299
915.503475	2439.293358
915.809050	2449.337858
916.114585	2451.944134
916.420081	2455.384722
916.725536	2451.800461
917.030952	2450.827518
917.336328	2448.289298
917.641665	2444.702517
917.946961	2441.453493
918.252218	2441.445931
918.557435	2435.341094
918.862612	2431.373706
919.167750	2428.878335
919.472848	2426.569486
919.777906	2422.307191
920.082925	2419.370718
920.387904	2418.425502
920.692843	2416.051119
920.997743	2414.122877
921.302603	2414.163207
921.607423	2409.343863
921.912204	2412.514749
922.216946	2409.537948
922.521647	2409.207752
922.826310	2409.255643
923.130932	2408.738925
923.435516	2404.098543
923.740059	2408.176836
924.044564	2405.943605
924.349028	2406.117525
924.653454	2400.060579
924.957840	2403.241547
925.262186	2400.809190
925.566493	2401.809859
925.870761	2397.255177
926.174989	2404.075858
926.479178	2400.272307
926.783328	2406.369583
927.087438	2403.856568
927.391509	2402.825652
927.695541	2401.046124
927.999533	2403.957391
928.303486	2402.908831
928.607400	2401.696433
928.911275	2399.939591
929.215110	2401.157030
929.518906	2401.149468
929.822663	2401.668707
930.126381	2402.369427
930.430060	2400.481515
930.733699	2401.255332
931.037299	2400.312636
931.340861	2400.244581
931.644383	2401.257853
931.947866	2400.335322
932.251309	2400.113511
932.554714	2401.814900
932.858080	2402.931516
933.161407	2399.553943
933.464694	2402.437483
933.767943	2401.346073
934.071153	2402.954201
934.374323	2399.271638
934.677455	2400.859602
934.980548	2399.269118
935.283602	2398.848181
935.586617	2399.155692
935.889593	2402.434962
936.192530	2399.238871
936.495428	2400.733573
936.798287	2400.640311
937.101108	2402.066958
937.403890	2401.651063
937.706632	2401.046124
938.009336	2403.622154
938.312002	2405.454613
938.614628	2406.518297
938.917216	2405.925961
939.219765	2401.824983
939.522275	2406.293965
939.824747	2405.648698
940.127179	2401.330949
940.429573	2400.922616
940.731929	2403.296999
941.034246	2398.545712
941.336524	2405.656259
941.638763	2403.969993
941.940964	2399.700136
942.243126	2403.707853
942.545250	2405.240364
942.847335	2402.873542
943.149381	2404.474109
943.451389	2404.554767
943.753359	2403.128121
944.055290	2403.365055
944.357182	2404.506876
944.659036	2401.789694
944.960851	2401.194838
945.262628	2400.095867
945.564367	2403.193656
945.866067	2402.724828
946.167729	2404.673234
946.469352	2398.898593
946.770937	2402.119890
947.072484	2402.515621
947.373992	2400.196690
947.675462	2402.419839
947.976893	2400.592420
948.278286	2402.671896
948.579641	2401.963614
948.880958	2401.189797
949.182236	2401.444375
949.483476	2401.658624
949.784678	2402.140055
950.085841	2403.682648
950.386967	2401.925806
950.688054	2400.239540
950.989103	2402.329098
951.290114	2398.795249
951.591087	2401.250291
951.892021	2401.787174
952.192917	2401.754406
952.493776	2402.752555
952.794596	2403.667524
953.095378	2403.329767
953.396122	2403.672565
953.696828	2400.708367
953.997496	2404.602658
954.298126	2400.065620
954.598718	2402.646691
954.899272	2401.968655
955.199788	2402.490415
955.500266	2401.603172
955.800706	2399.006978
956.101108	2396.788870
956.401472	2399.405229
956.701798	2396.559497
957.002087	2399.125445
957.302337	2399.679972
957.602550	2400.191649
957.902724	2401.474622
958.202861	2399.803480
958.502960	2398.694426
958.803022	2396.756102
959.103045	2398.092008
959.403031	2398.621329
959.702979	2398.149981
960.002889	2399.017060
960.302762	2395.546225
960.602596	2396.491442
960.902393	2397.262738
961.202153	2397.837430
961.501875	2396.657800
961.801559	2398.989333
962.101205	2394.351472
962.400814	2395.987326
962.700385	2396.841802
962.999918	2397.436658
963.299414	2395.316853
963.598873	2397.081257
963.898293	2394.323746
964.197677	2400.060579
964.497022	2394.815258
964.796331	2398.084446
965.095601	2396.065464
965.394835	2396.509086
965.694030	2398.144940
965.993189	2398.528068
966.292309	2396.617471
966.591393	2396.642676
966.890439	2395.435320
967.189447	2398.772564
967.488419	2395.788201
967.787353	2397.560166
968.086249	2396.700650
968.385108	2397.252656
968.683930	2397.630743
968.982714	2396.312481
969.281462	2396.645197
969.580172	2395.762995
969.878844	2397.713922
970.177480	2396.733417
970.476078	2397.590413
970.774639	2400.799108
971.073162	2395.810886
971.371649	2394.522871
971.670098	2393.391132
971.968510	2394.079250
972.266885	2390.595812
972.565223	2396.995557
972.863524	2399.017060
973.161788	2396.962790
973.460014	2396.753582
973.758204	2397.585372
974.056356	2399.148130
974.354471	2398.018911
974.652550	2396.302398
974.950591	2396.919940
975.248595	2397.335835
975.546563	2397.406411
975.844493	2395.856256
976.142386	2396.103273
976.440243	2396.861967
976.738062	2396.365413
977.035845	2397.252656
977.333590	2394.699312
977.631299	2397.991185
977.928971	2395.095042
978.226606	2397.267779
978.524204	2399.531258
978.821765	2398.510424
979.119290	2397.734086
979.416777	2396.733417
979.714228	2398.228119
980.011642	2397.834909
980.309020	2399.347255
980.606360	2396.022614
980.903664	2396.967831
981.200931	2399.924468
981.498162	2398.686864
981.795356	2398.074364
982.092513	2402.760117
982.389633	2399.180897
982.686717	2401.905641
982.983764	2402.739952
983.280775	2403.445713
983.577749	2404.368245
983.874686	2402.175343
984.171587	2401.583007
984.468451	2402.074520
984.765279	2400.892369
985.062070	2400.957904
985.358824	2399.228788
985.655543	2401.683830
985.952224	2400.587379
986.248869	2397.401370
986.545478	2394.996740
986.842050	2398.074364
987.138586	2392.211502
987.435086	2393.620505
987.731549	2392.977758
988.027975	2398.659138
988.324366	2394.676626
988.620719	2394.071688
988.917037	2397.784498
989.213318	2396.519168
989.509563	2395.299209
989.805772	2395.586555
990.101944	2396.108314
990.398080	2394.603530
990.694180	2395.533622
990.990244	2397.144271
991.286271	2396.194014
991.582262	2393.408776
991.878217	2393.532284
992.174136	2397.971020
992.470019	2394.883314
992.765865	2397.600496
993.061676	2397.560166
993.357450	2397.040928
993.653188	2396.330125
993.948890	2396.130999
994.244556	2395.057233
994.540186	2398.399518
994.835780	2396.627553
995.131337	2398.172667
995.426859	2396.819117
995.722345	2401.709036
996.017795	2397.736607
996.313208	2399.251473
996.608586	2400.166443
996.903928	2398.187790
997.199234	2399.803480
997.494504	2400.221896
997.789738	2398.331463
998.084936	2396.234343
998.380099	2398.124776
998.675225	2399.107801
998.970316	2398.533109
999.265371	2397.456823
999.560390	2397.000598
999.855373	2396.166287
1000.150320	2395.566390
1000.445232	2396.335166
1000.740108	2395.770557
1001.034948	2397.257697
1001.329752	2396.163767
1001.624521	2396.751061
1001.919254	2389.821995
1002.213951	2390.610936
1002.508613	2389.393497
1002.803239	2394.212840
1003.097829	2390.182438
1003.392384	2393.451626
1003.686903	2394.207799
1003.981386	2393.605381
1004.275834	2398.028994
1004.570246	2396.791390
1004.864623	2396.257028
1005.158964	2392.148488
1005.453270	2393.076060
1005.747540	2395.634446
1006.041775	2394.774929
1006.335974	2394.696791
1006.630138	2393.620505
1006.924266	2396.665362
1007.218359	2397.232491
1007.512416	2396.914899
1007.806438	2395.808365
1008.100425	2393.481873
1008.394376	2397.214847
1008.688292	2394.353993
1008.982172	2396.269631
1009.276017	2394.669065
1009.569827	2396.372975
1009.863602	2395.440361
1010.157341	2395.304250
1010.451045	2394.472460
1010.744714	2393.504558
1011.038347	2396.183931
1011.331945	2395.596637
1011.625508	2392.357696
1011.919036	2396.892213
1012.212528	2392.967675
1012.505986	2394.235525
1012.799408	2395.614281
1013.092795	2394.646379
1013.386147	2393.796945
1013.679464	2395.490773
1013.972745	2394.147305
1014.265992	2393.368447
1014.559204	2396.962790
1014.852380	2394.666544
1015.145521	2396.289796
1015.438628	2393.055895
1015.731699	2394.099414
1016.024736	2394.686709
1016.317737	2396.526730
1016.610703	2394.628735
1016.903635	2393.393653
1017.196531	2390.333672
1017.489393	2392.271996
1017.782219	2393.554970
1018.075011	2395.165618
1018.367768	2393.461708
1018.660490	2393.960783
1018.953177	2393.960783
1019.245829	2393.960783
