Dividing Wavelength (nm)	Counts (n)	Blue Motor Position (mm): 0.000000	Red Motor Position (mm): 15.800000	
326.493990	1981.901908
326.888308	1981.901908
327.282561	1981.901908
327.676750	1955.980295
328.070874	1957.328804
328.464933	1965.576132
328.858929	1972.210290
329.252859	1988.155460
329.646726	1999.104846
330.040528	2015.561692
330.434265	2035.580114
330.827938	2055.117106
331.221547	2072.720815
331.615091	2094.155802
332.008571	2116.563730
332.401986	2137.585342
332.795338	2155.400780
333.188625	2176.563543
333.581847	2197.012984
333.975006	2210.631661
334.368100	2232.676627
334.761129	2247.739595
335.154095	2261.958169
335.546996	2278.687238
335.939833	2295.774229
336.332606	2309.040025
336.725315	2319.870944
337.117960	2325.960658
337.510540	2334.127328
337.903056	2343.687876
338.295508	2349.364215
338.687896	2355.678260
339.080220	2364.076823
339.472480	2370.058152
339.864676	2370.101001
340.256807	2377.234234
340.648875	2375.275746
341.040879	2378.915459
341.432818	2379.752290
341.824694	2378.386138
342.216506	2379.689276
342.608253	2379.772455
342.999937	2378.537372
343.391557	2380.924359
343.783113	2376.709954
344.174605	2376.404964
344.566033	2374.164171
344.957397	2371.018491
345.348697	2369.223841
345.739934	2369.307020
346.131106	2367.323326
346.522215	2365.639580
346.913260	2364.661596
347.304241	2363.464322
347.695159	2359.575072
348.086012	2358.065247
348.476802	2357.057016
348.867528	2355.781604
349.258191	2358.271934
349.648789	2352.709021
350.039324	2353.475276
350.429796	2354.969978
350.820203	2354.009638
351.210548	2355.635410
351.600828	2351.728516
351.991045	2350.483351
352.381198	2351.594926
352.771288	2350.190964
353.161314	2350.337158
353.551276	2353.230780
353.941175	2351.620131
354.331010	2354.397807
354.720782	2349.530573
355.110490	2353.528208
355.500135	2353.253465
355.889717	2351.942765
356.279235	2351.668022
356.668689	2352.492251
357.058080	2353.881089
357.447408	2352.245234
357.836672	2349.959071
358.225873	2353.601305
358.615010	2352.542663
359.004084	2359.784280
359.393095	2360.288395
359.782043	2359.358303
360.170927	2357.394773
360.559748	2360.961389
360.948505	2360.789990
361.337199	2361.921729
361.725830	2360.510206
362.114398	2365.916844
362.502903	2363.527337
362.891344	2364.555732
363.279722	2367.194776
363.668037	2365.498428
364.056289	2365.208562
364.444478	2365.805938
364.832603	2365.037162
365.220665	2368.717205
365.608665	2367.918182
365.996601	2368.991948
366.384474	2367.424149
366.772284	2371.598224
367.160031	2372.220807
367.547715	2372.180477
367.935336	2372.525796
368.322893	2374.559902
368.710388	2374.045704
369.097820	2378.252547
369.485189	2375.941178
369.872495	2378.890253
370.259738	2377.304810
370.646918	2382.908053
371.034035	2381.988042
371.421090	2388.788559
371.808081	2391.853580
372.195010	2392.869373
372.581875	2397.837430
372.968678	2405.525189
373.355418	2408.585170
373.742096	2420.792324
374.128710	2433.763213
374.515262	2442.008020
374.901751	2455.609053
375.288177	2471.566825
375.674540	2490.559373
376.060841	2511.253309
376.447079	2536.300282
376.833254	2561.082594
377.219367	2584.377766
377.605417	2619.353292
377.991404	2647.755152
378.377329	2686.198992
378.763191	2719.521018
379.148991	2763.716814
379.534727	2815.098775
379.920402	2857.245342
380.306013	2905.385840
380.691563	2967.018987
381.077049	3021.652492
381.462474	3077.316913
381.847835	3151.016061
382.233134	3221.834191
382.618371	3282.837193
383.003545	3365.393649
383.388657	3446.029426
383.773706	3533.385060
384.158693	3606.012963
384.543618	3697.409083
384.928480	3774.387502
385.313280	3877.900034
385.698017	3985.382476
386.082692	4100.035958
386.467305	4162.057274
386.851856	4287.254330
387.236344	4438.221764
387.620770	4504.175180
388.005133	4620.593066
388.389435	4767.489768
388.773674	4850.202500
389.157851	4980.286955
389.541965	5107.828147
389.926018	5134.160614
390.310008	5307.230987
390.693936	5431.946613
391.077802	5543.517430
391.461606	5672.399569
391.845348	5790.047497
392.229027	5909.207771
392.612645	6121.518486
392.996200	6238.621969
393.379694	6410.764770
393.763125	6630.859026
394.146494	6721.947635
394.529801	6856.049889
394.913047	7091.746517
395.296230	7087.950528
395.679351	7142.573950
396.062410	7397.358907
396.445408	7293.387629
396.828343	7438.988755
397.211217	7564.616830
397.594028	7454.946528
397.976778	7650.369377
398.359466	7814.998338
398.742092	7784.756457
399.124656	7930.977644
399.507158	8113.878268
399.889598	8131.045917
400.271977	8336.982093
400.654294	8364.857153
401.036549	8555.627017
401.418742	8582.203981
401.800874	8865.980613
402.182944	8947.980021
402.564952	9304.603847
402.946898	9122.613152
403.328783	9174.138786
403.710606	9362.698104
404.092367	9604.774312
404.474067	9948.139903
404.855705	9733.797603
405.237282	9678.556640
405.618797	10082.632847
406.000250	10313.681530
406.381642	10638.215892
406.762972	10568.030427
407.144240	10362.089210
407.525447	10569.134440
407.906593	10491.830866
408.287677	10705.598474
408.668700	10819.435290
409.049661	10753.275187
409.430560	10863.636127
409.811399	10796.926538
410.192176	10887.402647
410.572891	10899.070397
410.953545	11279.639704
411.334138	10745.373178
411.714669	11213.363654
412.095139	10531.046002
412.475547	10895.521425
412.855894	10679.661738
413.236180	10878.976358
413.616405	10522.082830
413.996568	10662.564665
414.376670	10545.448578
414.756711	10342.572383
415.136691	10468.213060
415.516609	10503.538946
415.896466	10450.511049
416.276262	10553.542151
416.655997	10767.284553
417.035670	10667.895685
417.415283	11023.833914
417.794834	10943.510689
418.174324	10617.768972
418.553753	10402.468852
418.933121	10594.645199
419.312428	10314.157919
419.691674	10105.179407
420.070859	10240.320139
420.449983	9859.072797
420.829045	10045.691271
421.208047	9728.721162
421.586988	9837.499179
421.965867	9813.347011
422.344686	9642.792174
422.723444	9778.270663
423.102141	8896.845077
423.480777	9352.656126
423.859352	8922.950693
424.237866	9298.224267
424.616319	8972.994227
424.994712	9095.181714
425.373044	8821.131988
425.751314	8919.910877
426.129524	8368.156588
426.507673	8618.495247
426.885762	8327.383736
427.263789	8206.461579
427.641756	8082.489523
428.019662	7922.543794
428.397508	7746.294973
428.775292	7665.639032
429.153016	7464.136551
429.530679	7311.939076
429.908282	7137.459700
430.285824	6892.021042
430.663305	6906.731129
431.040726	6643.151880
431.418086	6431.786382
431.795385	6428.406288
432.172624	6362.513366
432.549802	6104.829746
432.926920	5992.038970
433.303977	5815.056661
433.680974	5720.834975
434.057910	5628.342405
434.434786	5486.741435
434.811601	5334.052446
435.188355	5363.288618
435.565050	5184.357903
435.941683	5036.783166
436.318257	5031.928535
436.694770	4880.845154
437.071222	4831.111651
437.447614	4593.585084
437.823946	4484.600379
438.200218	4385.619844
438.576429	4262.870268
438.952580	4184.732384
439.328670	4081.905448
439.704700	4024.874875
440.080670	3902.442892
440.456580	3862.106099
440.832429	3788.243113
441.208218	3637.011018
441.583947	3593.624328
441.959616	3526.821478
442.335224	3474.501863
442.710773	3411.318561
443.086261	3375.833879
443.461689	3292.160807
443.837057	3239.707602
444.212365	3212.951678
444.587612	3162.930828
444.962800	3096.281733
445.337927	3067.650500
445.712995	2985.744353
446.088002	3001.558453
446.462949	2970.817497
446.837837	2938.347425
447.212664	2903.734862
447.587431	2933.951538
447.962139	2963.273410
448.336786	2982.875937
448.711374	2925.673964
449.085901	2829.009839
449.460369	2794.387194
449.834776	2772.967332
450.209124	2786.056687
450.583412	2763.426948
450.957640	2753.087541
451.331808	2721.643344
451.705917	2684.996676
452.079965	2674.659790
452.453954	2665.986485
452.827883	2654.490134
453.201752	2642.638381
453.575562	2633.090436
453.949311	2636.694861
454.323001	2627.061216
454.696632	2617.566202
455.070202	2622.327572
455.443713	2617.301542
455.817164	2612.406582
456.190556	2611.284925
456.563888	2600.080960
456.937160	2597.575507
457.310373	2583.029257
457.683526	2578.998855
458.056619	2580.188567
458.429653	2574.348391
458.802628	2575.638926
459.175542	2569.377813
459.548398	2577.015161
459.921194	2579.392065
460.293930	2585.948086
460.666607	2591.558890
461.039224	2596.650455
461.411782	2598.694643
461.784280	2586.502612
462.156719	2579.805440
462.529099	2575.959039
462.901419	2565.652400
463.273680	2557.271482
463.645882	2556.449774
464.018024	2553.130174
464.390106	2553.099927
464.762130	2566.431258
465.134094	2586.641244
465.505999	2608.666045
465.877845	2628.709673
466.249631	2631.618419
466.621358	2622.055350
466.993026	2612.721654
467.364634	2604.756631
467.736184	2588.723241
468.107674	2579.646643
468.479105	2575.812846
468.850477	2571.311095
469.221790	2564.034190
469.593043	2552.943651
469.964238	2547.970553
470.335373	2547.065666
470.706449	2554.312325
471.077467	2562.191648
471.448425	2583.803075
471.819324	2592.741040
472.190164	2586.661409
472.560945	2573.183884
472.931667	2559.429096
473.302330	2552.268137
473.672934	2545.734801
474.043479	2549.583722
474.413965	2545.974256
474.784393	2536.925385
475.154761	2542.493339
475.525070	2541.893442
475.895321	2540.171888
476.265513	2540.605427
476.635645	2546.667415
477.005719	2550.133208
477.375734	2547.567261
477.745691	2550.544062
478.115588	2554.972716
478.485427	2563.633418
478.855207	2576.042218
479.224928	2588.617377
479.594591	2595.037286
479.964194	2589.923035
480.333739	2594.480238
480.703226	2588.806420
481.072653	2592.781370
481.442022	2596.317739
481.811333	2598.382092
482.180584	2592.161308
482.549777	2589.053436
482.918912	2583.276274
483.287988	2584.571851
483.657005	2581.264854
484.025964	2579.200501
484.394864	2576.390058
484.763706	2579.876016
485.132489	2571.931157
485.501213	2572.082392
485.869879	2571.578277
486.238487	2576.316961
486.607036	2571.910993
486.975527	2570.126424
487.343959	2569.990313
487.712333	2571.797567
488.080648	2569.372772
488.448905	2571.094326
488.817104	2572.147927
489.185244	2574.366035
489.553326	2580.816191
489.921350	2592.370516
490.289315	2607.511621
490.657222	2610.768207
491.025070	2611.335336
491.392861	2608.295521
491.760593	2601.250508
492.128267	2596.942842
492.495883	2584.947417
492.863440	2578.633371
493.230939	2577.128587
493.598380	2572.342011
493.965763	2568.931671
494.333088	2569.380333
494.700354	2562.040413
495.067563	2564.334138
495.434713	2559.978582
495.801805	2564.089643
496.168839	2565.062585
496.535815	2563.910682
496.902733	2561.327090
497.269593	2564.714746
497.636395	2559.537481
498.003139	2565.470919
498.369825	2563.406566
498.736453	2568.551064
499.103023	2562.110990
499.469535	2565.193655
499.835989	2563.623336
500.202385	2564.379509
500.568723	2565.420507
500.935003	2568.339335
501.301226	2568.546022
501.667390	2571.737073
502.033497	2574.247568
502.399546	2571.795046
502.765537	2569.090467
503.131470	2572.515931
503.497345	2576.074986
503.863163	2573.380489
504.228923	2574.892835
504.594625	2579.961715
504.960269	2576.342167
505.325856	2582.068918
505.691385	2581.285018
506.056856	2582.305852
506.422270	2587.546131
506.787625	2586.621080
507.152924	2591.841194
507.518164	2596.458891
507.883347	2593.792121
508.248472	2594.722214
508.613540	2600.670775
508.978550	2606.223606
509.343503	2605.285952
509.708398	2611.705861
510.073236	2616.323558
510.438016	2621.528549
510.802738	2616.086624
511.167403	2624.966616
511.532010	2624.797738
511.896561	2627.933335
512.261053	2633.778553
512.625488	2630.554735
512.989866	2632.835857
513.354186	2635.689151
513.718449	2637.398102
514.082655	2646.439411
514.446803	2645.549647
514.810894	2651.790596
515.174927	2652.546769
515.538904	2649.922848
515.902822	2657.512306
516.266684	2655.682367
516.630488	2658.575989
516.994235	2660.211843
517.357925	2662.699653
517.721558	2667.203924
518.085133	2668.078564
518.448651	2668.897752
518.812112	2669.205262
519.175516	2672.207269
519.538863	2673.543175
519.902152	2672.804646
520.265385	2677.719771
520.628560	2680.809998
520.991678	2678.982580
521.354739	2678.208763
521.717743	2684.114474
522.080690	2684.880730
522.443580	2687.192099
522.806413	2687.020700
523.169189	2688.102027
523.531908	2689.513550
523.894569	2691.320804
524.257174	2691.466997
524.619722	2691.887934
524.982213	2696.581248
525.344647	2696.361958
525.707025	2695.361289
526.069345	2693.949766
526.431608	2698.073429
526.793815	2698.096115
527.155964	2694.148891
527.518057	2694.615198
527.880093	2694.053109
528.242072	2698.854808
528.603995	2695.663758
528.965860	2693.349868
529.327669	2693.659899
529.689421	2694.035465
530.051117	2694.567307
530.412755	2693.165866
530.774337	2695.139478
531.135862	2688.734692
531.497331	2689.750484
531.858743	2685.452901
532.220098	2688.908612
532.581396	2685.452901
532.942638	2681.402334
533.303824	2684.484999
533.664953	2683.678415
534.026025	2681.283867
534.387040	2680.767148
534.747999	2681.750173
535.108902	2680.631037
535.469748	2674.992507
535.830537	2673.263391
536.191270	2670.911692
536.551947	2667.249294
536.912567	2666.747699
537.273131	2668.053358
537.633638	2660.332831
537.994089	2660.214364
538.354483	2657.116575
538.714821	2658.321411
539.075103	2654.853097
539.435328	2649.915287
539.795497	2644.788433
540.155609	2644.228865
540.515665	2645.463948
540.875665	2637.206538
541.235609	2638.466826
541.595496	2635.580766
541.955328	2634.479274
542.315102	2627.940897
542.674821	2624.094497
543.034483	2622.370422
543.394090	2619.612911
543.753640	2616.512601
544.113134	2615.683332
544.472571	2610.259050
544.831953	2607.488936
545.191278	2604.260077
545.550548	2597.615836
545.909761	2598.765219
546.268918	2596.166504
546.628019	2593.144333
546.987064	2588.060329
547.346053	2583.800554
547.704986	2578.613207
548.063863	2576.067424
548.422684	2573.574573
548.781449	2571.507700
549.140158	2566.955538
549.498811	2569.972669
549.857408	2563.588048
550.215949	2560.885989
550.574434	2556.109496
550.932864	2552.860472
551.291237	2550.753270
551.649555	2551.559855
552.007817	2550.614638
552.366022	2545.321427
552.724173	2543.635161
553.082267	2543.176416
553.440305	2544.164482
553.798288	2537.810108
554.156215	2540.113915
554.514086	2541.553164
554.871902	2534.331711
555.229661	2531.722914
555.587365	2529.542615
555.945014	2531.869108
556.302606	2528.398273
556.660143	2523.402490
557.017625	2523.992305
557.375050	2522.676564
557.732421	2524.539270
558.089735	2522.477438
558.446994	2520.279495
558.804197	2521.000380
559.161345	2518.832684
559.518437	2516.894360
559.875474	2515.145080
560.232455	2513.814215
560.589381	2515.903773
560.946251	2513.557116
561.303065	2513.063083
561.659825	2514.227590
562.016528	2512.846314
562.373177	2513.685666
562.729770	2510.227434
563.086307	2511.298679
563.442789	2510.698782
563.799216	2507.951353
564.155587	2506.645694
564.511904	2507.343894
564.868164	2510.643329
565.224370	2508.044615
565.580520	2505.566887
565.936615	2507.094357
566.292654	2506.504542
566.648638	2505.665190
567.004567	2504.621671
567.360441	2504.452793
567.716260	2506.857423
568.072023	2504.639315
568.427732	2500.384581
568.783385	2501.314674
569.138982	2499.015908
569.494525	2500.505569
569.850013	2500.603872
570.205445	2502.264932
570.560823	2501.992709
570.916145	2500.165291
571.271412	2498.000116
571.626625	2501.428100
571.981782	2500.775271
572.336884	2499.482215
572.691931	2500.659324
573.046923	2497.616988
573.401860	2496.941473
573.756743	2497.337204
574.111570	2500.434993
574.466342	2497.984992
574.821059	2498.806700
575.175722	2495.068685
575.530330	2496.578510
575.884882	2496.765033
576.239380	2494.579693
576.593823	2494.834271
576.948211	2495.635814
577.302544	2493.465598
577.656823	2495.416524
578.011047	2494.557008
578.365216	2495.552635
578.719330	2489.049547
579.073389	2491.948210
579.427394	2496.490290
579.781344	2490.022490
580.135239	2488.857983
580.489080	2491.507109
580.842866	2491.376039
581.196597	2491.882675
581.550273	2491.736482
581.903895	2491.610453
582.257463	2490.637510
582.610975	2488.547952
582.964434	2489.510812
583.317837	2488.283292
583.671186	2488.147180
584.024481	2487.532160
584.377721	2490.224136
584.730906	2488.449650
585.084037	2487.708600
585.437113	2487.327993
585.790135	2488.152222
586.143103	2486.150883
586.496016	2486.191213
586.848874	2482.135604
587.201679	2485.092241
587.554428	2481.165182
587.907124	2481.749956
588.259765	2481.550831
588.612352	2485.558548
588.964884	2484.633496
589.317362	2482.559061
589.669786	2484.212560
590.022155	2484.245327
590.374470	2483.043012
590.726731	2484.474700
591.078937	2481.462610
591.431090	2483.214411
591.783188	2478.274081
592.135232	2481.523104
592.487222	2482.168372
592.839157	2478.775675
593.191038	2480.829946
593.542866	2477.732157
593.894639	2478.639564
594.246358	2477.880871
594.598022	2480.124184
594.949633	2478.740387
595.301190	2478.392548
595.652692	2478.163175
596.004141	2477.931282
596.355535	2476.539924
596.706876	2475.877012
597.058162	2473.663945
597.409395	2477.091930
597.760573	2475.599748
598.111698	2475.766107
598.462768	2476.794502
598.813785	2473.663945
599.164748	2478.195943
599.515657	2472.701085
599.866511	2473.512711
600.217312	2472.920375
600.568060	2472.476754
600.918753	2476.802064
601.269392	2472.887608
601.619978	2474.984728
601.970510	2473.290900
602.320988	2473.636219
602.671412	2476.053452
603.021783	2472.885087
603.372100	2470.719912
603.722363	2472.199490
604.072572	2469.285703
604.422728	2476.600418
604.772830	2468.826958
605.122878	2465.716566
605.472872	2466.732359
605.822813	2466.031638
606.172701	2472.171764
606.522534	2470.886270
606.872314	2471.173615
607.222041	2470.503142
607.571714	2473.179995
607.921333	2468.247226
608.270899	2472.204531
608.620411	2472.663276
608.969870	2471.886939
609.319276	2471.937350
609.668627	2471.080354
610.017926	2472.960704
610.367171	2472.176805
610.716362	2470.097329
611.065500	2470.596403
611.414585	2472.572536
611.763616	2471.919706
612.112594	2471.402988
612.461518	2471.229068
612.810389	2471.828965
613.159207	2471.004737
613.507971	2470.278811
613.856682	2473.797536
614.205340	2470.982052
614.553945	2472.373410
614.902496	2473.215283
615.250994	2472.837196
615.599439	2470.717391
615.947830	2470.823255
616.296169	2472.441466
616.644454	2472.287710
616.992686	2472.373410
617.340864	2473.169912
617.688990	2472.691003
618.037063	2471.604634
618.385082	2473.542958
618.733048	2473.936168
619.080961	2472.411219
619.428821	2472.895169
619.776628	2472.262505
620.124382	2471.211424
620.472083	2470.704788
620.819731	2473.013637
621.167326	2471.846609
621.514868	2475.143524
621.862357	2468.947946
622.209793	2471.135807
622.557176	2467.899386
622.904506	2467.997688
623.251783	2462.081894
623.599007	2466.371916
623.946179	2463.669858
624.293297	2465.066257
624.640363	2467.244036
624.987376	2465.681278
625.334336	2458.742130
625.681243	2464.385702
626.028097	2463.450568
626.374899	2465.850157
626.721647	2463.203551
627.068343	2461.643314
627.414987	2465.482153
627.761577	2462.951493
628.108115	2463.281689
628.454600	2460.733386
628.801032	2462.931329
629.147412	2460.892182
629.493739	2460.156174
629.840014	2460.274641
630.186236	2460.945114
630.532405	2460.660289
630.878521	2461.550053
631.224585	2462.034003
631.570597	2461.552573
631.916556	2460.511575
632.262462	2461.227419
632.608316	2460.330093
632.954117	2458.255659
633.299866	2461.519806
633.645562	2456.778601
633.991206	2458.611060
634.336797	2456.163580
634.682336	2458.290947
635.027823	2453.585030
635.373257	2458.666513
635.718639	2452.768363
636.063968	2455.006635
636.409245	2454.951182
636.754470	2457.315483
637.099642	2452.836418
637.444762	2454.946141
637.789829	2452.745677
638.134845	2453.806840
638.479808	2454.220215
638.824719	2450.167127
639.169577	2451.729885
639.514383	2454.195009
639.859137	2451.129988
640.203839	2452.685184
640.548489	2452.478496
640.893086	2449.521860
641.237632	2447.230655
641.582125	2449.479010
641.926566	2448.208639
642.270955	2448.715275
642.615292	2447.616303
642.959576	2451.687035
643.303809	2448.984977
643.647990	2452.455811
643.992118	2453.837087
644.336195	2447.686880
644.680219	2450.336006
645.024192	2449.380707
645.368112	2451.122426
645.711981	2450.613269
646.055797	2451.306428
646.399562	2451.500512
646.743274	2452.143260
647.086935	2452.496140
647.430544	2450.101592
647.774101	2453.678291
648.117606	2452.690225
648.461059	2453.837087
648.804460	2458.449743
649.147810	2453.080914
649.491108	2450.875409
649.834354	2452.312138
650.177548	2450.462035
650.520690	2450.943465
650.863781	2446.565223
651.206820	2450.888012
651.549807	2446.706375
651.892742	2447.084462
652.235626	2445.012547
652.578458	2449.320213
652.921238	2445.330140
653.263967	2447.328958
653.606644	2447.570933
653.949269	2445.599842
654.291843	2445.985490
654.634365	2444.823504
654.976836	2448.248968
655.319255	2444.251333
655.661622	2443.782506
656.003938	2445.493978
656.346203	2444.967177
656.688416	2444.140428
657.030577	2442.481888
657.372687	2446.010696
657.714746	2445.965326
658.056753	2443.732094
658.398708	2435.961156
658.740612	2443.490119
659.082465	2440.924172
659.424266	2440.357042
659.766016	2442.265119
660.107715	2443.474996
660.449362	2446.240068
660.790958	2444.684873
661.132503	2443.467434
661.473996	2445.531786
661.815438	2444.785696
662.156829	2445.015068
662.498168	2444.861313
662.839456	2443.240582
663.180693	2444.614296
663.521879	2443.958946
663.863013	2442.600355
664.204097	2445.332661
664.545129	2444.538679
664.886110	2446.603032
665.227040	2447.001283
665.567918	2444.934410
665.908746	2443.480037
666.249522	2445.186467
666.590248	2444.349636
666.930922	2446.592949
667.271545	2444.510953
667.612118	2444.909204
667.952639	2443.492640
668.293109	2445.115891
668.633528	2444.851231
668.973896	2445.798967
669.314213	2444.672270
669.654480	2441.854265
669.994695	2444.924327
670.334859	2444.735284
670.674973	2442.194542
671.015035	2441.203956
671.355047	2444.349636
671.695008	2442.693617
672.034918	2442.247475
672.374777	2438.476692
672.714585	2444.521035
673.054342	2442.532300
673.394049	2442.875098
673.733705	2444.077413
674.073310	2443.870726
674.412864	2444.115222
674.752368	2441.642536
675.091820	2443.643874
675.431223	2441.375355
675.770574	2441.859306
676.109875	2437.753286
676.449125	2439.643719
676.788324	2436.566094
677.127473	2439.205138
677.466571	2431.784560
677.805619	2440.843513
678.144616	2439.376537
678.483562	2440.120108
678.822458	2438.262443
679.161303	2439.066507
679.500098	2435.668769
679.838842	2437.796136
680.177535	2439.668924
680.516179	2437.859150
680.854771	2440.238575
681.193314	2441.718153
681.531805	2438.116249
681.870247	2443.538010
682.208638	2441.687907
682.546978	2447.263423
682.885268	2445.924996
683.223508	2443.790068
683.561697	2443.162444
683.899836	2442.638164
684.237925	2441.672783
684.575963	2439.429470
684.913951	2440.039449
685.251889	2441.846703
685.589776	2442.892742
685.927614	2441.035077
686.265401	2442.791919
686.603137	2442.960798
686.940824	2441.219079
687.278460	2442.784357
687.616046	2441.332505
687.953582	2441.534151
688.291068	2444.347115
688.628504	2445.103288
688.965889	2442.025664
689.303224	2443.585901
689.640510	2442.065993
689.977745	2442.436518
690.314930	2442.940633
690.652065	2442.716302
690.989150	2437.758327
691.326185	2439.258070
691.663170	2436.601382
692.000105	2437.899479
692.336990	2434.965528
692.673825	2436.573656
693.010610	2435.245312
693.347345	2433.644746
693.684030	2431.149374
694.020665	2429.707604
694.357251	2426.813982
694.693786	2431.109045
695.030272	2431.136772
695.366707	2428.860691
695.703093	2429.054775
696.039429	2431.928233
696.375716	2431.557708
696.711952	2432.175249
697.048139	2428.901020
697.384276	2429.853798
697.720363	2429.856318
698.056400	2429.962183
698.392388	2430.844385
698.728326	2428.245670
699.064214	2429.069898
699.400053	2428.812800
699.735842	2430.625094
700.071581	2428.391863
700.407270	2428.704415
700.742910	2429.236257
701.078501	2428.207861
701.414042	2425.906574
701.749533	2428.117120
702.084974	2425.934301
702.420366	2424.747109
702.755709	2427.789445
703.091002	2424.918508
703.426246	2425.536050
703.761440	2425.394897
704.096584	2424.527819
704.431679	2427.464291
704.766725	2425.435227
705.101721	2425.682243
705.436668	2424.318611
705.771565	2426.572007
706.106413	2426.385484
706.441212	2428.112079
706.775961	2428.212902
707.110661	2426.917326
707.445311	2425.830957
707.779913	2426.198961
708.114465	2427.670978
708.448967	2425.518406
708.783421	2426.801379
709.117825	2427.174425
709.452180	2429.473191
709.786485	2428.958993
710.120742	2431.983685
710.454949	2430.569642
710.789107	2428.981678
711.123216	2425.505803
711.457275	2430.529313
711.791286	2429.652152
712.125247	2429.725248
712.459159	2430.178952
712.793023	2434.232040
713.126837	2431.466967
713.460602	2433.110383
713.794318	2431.391350
714.127985	2433.211206
714.461602	2429.939497
714.795171	2430.347831
715.128691	2427.580238
715.462162	2428.084353
715.795584	2427.325659
716.128957	2429.742893
716.462281	2424.278282
716.795556	2427.161822
717.128782	2424.850453
717.461960	2425.067222
717.795088	2428.321287
718.128167	2423.895154
718.461198	2422.965061
718.794180	2424.255597
719.127113	2422.415575
719.459997	2420.489855
719.792833	2422.337437
720.125619	2424.167376
720.458357	2422.266861
720.791046	2420.512540
721.123686	2423.365833
721.456278	2422.849115
721.788821	2419.234607
722.121315	2422.072777
722.453761	2421.301480
722.786158	2420.298291
723.118506	2422.902047
723.450805	2421.654361
723.783056	2421.377098
724.115259	2421.445153
724.447412	2420.598239
724.779518	2421.787952
725.111574	2421.820719
725.443582	2421.399783
725.775542	2418.654875
726.107453	2422.574372
726.439315	2421.248548
726.771129	2424.089238
727.102895	2422.402973
727.434612	2425.785587
727.766281	2423.995977
728.097901	2421.956830
728.429473	2421.866090
728.760996	2422.765936
729.092471	2420.089083
729.423897	2423.023034
729.755276	2426.579568
730.086606	2424.502613
730.417887	2424.973961
730.749120	2423.786769
731.080305	2426.796338
731.411442	2427.265165
731.742530	2429.425300
732.073570	2428.427151
732.404562	2428.543098
732.735506	2425.737696
733.066401	2426.934970
733.397249	2425.256266
733.728048	2427.401277
734.058798	2425.520926
734.389501	2424.618560
734.720156	2421.941707
735.050762	2420.956161
735.381320	2420.532704
735.711831	2417.664288
736.042293	2422.118147
736.372707	2419.942889
736.703073	2420.376429
737.033391	2419.988260
737.363661	2419.015317
737.693883	2419.426171
738.024056	2424.295926
738.354182	2420.121850
738.684260	2422.700401
739.014290	2421.742581
739.344272	2424.621080
739.674207	2421.334248
740.004093	2421.808116
740.333931	2425.767943
740.663722	2423.862387
740.993464	2423.302818
741.323159	2424.646286
741.652806	2420.880544
741.982405	2423.136460
742.311956	2421.112437
742.641460	2420.613363
742.970915	2421.500606
743.300323	2420.956161
743.629683	2420.605801
743.958996	2421.845925
744.288260	2420.573034
744.617477	2420.147056
744.946647	2413.036509
745.275768	2416.146901
745.604842	2413.167579
745.933869	2415.461304
746.262847	2412.250089
746.591778	2416.595563
746.920662	2417.122364
747.249498	2415.514236
747.578286	2419.801737
747.907027	2418.561613
748.235720	2416.661098
748.564365	2417.508012
748.892963	2416.928279
749.221514	2418.251582
749.550017	2416.577919
749.878473	2419.068249
750.206881	2415.904925
750.535242	2419.315266
750.863555	2417.558424
751.191821	2418.097827
751.520039	2415.584812
751.848210	2418.211253
752.176334	2418.546490
752.504411	2417.767632
752.832440	2416.630851
753.160421	2415.529359
753.488356	2418.649833
753.816243	2419.733682
754.144082	2416.600604
754.471875	2417.749987
754.799620	2416.285532
755.127318	2418.516243
755.454969	2417.296284
755.782572	2416.673701
756.110129	2415.075655
756.437638	2419.015317
756.765100	2413.026426
757.092515	2416.046078
757.419882	2414.690007
757.747203	2417.238310
758.074477	2415.859555
758.401703	2417.485327
758.728882	2416.436767
759.056014	2417.634041
759.383099	2418.927097
759.710138	2417.369380
760.037129	2419.554721
760.364073	2418.581778
760.690970	2415.851993
761.017820	2419.136305
761.344623	2417.981881
761.671379	2419.131264
761.998088	2415.463824
762.324751	2421.906419
762.651366	2425.727613
762.977935	2432.639035
763.304456	2433.488470
763.630931	2440.296548
763.957359	2439.532813
764.283740	2436.084664
764.610074	2431.953438
764.936362	2431.063675
765.262602	2424.421955
765.588796	2421.394742
765.914943	2420.066398
766.241044	2416.235121
766.567097	2416.759401
766.893104	2416.416602
767.219064	2414.309400
767.544978	2416.015831
767.870845	2413.351581
768.196665	2414.037178
768.522438	2410.427712
768.848165	2412.910480
769.173846	2410.692372
769.499479	2413.384348
769.825066	2411.161199
770.150607	2413.825449
770.476101	2412.214801
770.801548	2413.971643
771.126949	2408.433935
771.452303	2410.992321
771.777611	2409.772362
772.102872	2409.716909
772.428087	2412.290418
772.753256	2411.801426
773.078378	2409.427043
773.403453	2410.962074
773.728482	2406.906466
774.053465	2408.184398
774.378401	2409.101888
774.703291	2408.565005
775.028135	2407.040056
775.352932	2413.296128
775.677683	2409.568195
776.002388	2408.746487
776.327046	2406.331774
776.651658	2407.697927
776.976224	2406.253636
777.300743	2409.159861
777.625216	2408.219686
777.949643	2406.311609
778.274024	2408.358318
778.598359	2406.593914
778.922647	2403.349932
779.246889	2404.965621
779.571086	2403.508728
779.895236	2410.233627
780.219339	2408.474264
780.543397	2406.220869
780.867409	2408.451579
781.191374	2407.662639
781.515294	2406.556105
781.839167	2411.693041
782.162995	2405.981414
782.486776	2408.164233
782.810511	2409.560633
783.134201	2407.314799
783.457844	2408.383524
783.781441	2408.789337
784.104993	2404.743811
784.428498	2408.567526
784.751958	2408.625499
785.075372	2405.419325
785.398739	2408.123904
785.722061	2409.477454
786.045337	2406.367062
786.368568	2409.485016
786.691752	2406.692217
787.014891	2407.783626
787.337983	2410.730181
787.661030	2411.516601
787.984031	2409.008627
788.306987	2412.313103
788.629897	2411.055335
788.952760	2410.190777
789.275579	2412.658422
789.598351	2408.416291
789.921078	2408.522155
790.243759	2407.743297
790.566395	2408.181878
790.888984	2407.927299
791.211529	2409.646333
791.534027	2406.926630
791.856480	2408.433935
792.178888	2406.354459
792.501249	2403.793553
792.823566	2405.774727
793.145836	2403.047462
793.468062	2409.479975
793.790241	2405.338667
794.112375	2407.297155
794.434464	2405.683986
794.756507	2408.880077
795.078505	2411.577095
795.400457	2408.204563
795.722364	2408.988462
796.044226	2407.229099
796.366042	2407.627351
796.687812	2407.566857
797.009538	2410.165572
797.331218	2408.728843
797.652852	2411.705644
797.974442	2411.002403
798.295986	2407.627351
798.617484	2409.797567
798.938938	2406.861095
799.260346	2409.515263
799.581709	2406.936712
799.903026	2409.043915
800.224299	2409.742115
800.545526	2408.653225
800.866708	2406.926630
801.187845	2407.629871
801.508936	2405.537792
801.829983	2406.150292
802.150984	2405.250447
802.471940	2410.145407
802.792851	2407.682803
803.113717	2407.425704
803.434538	2406.205745
803.755314	2406.107443
804.076045	2404.547206
804.396731	2404.511917
804.717372	2404.469068
805.037967	2405.179870
805.358518	2403.201218
805.679024	2406.281363
805.999485	2406.467885
806.319901	2405.051321
806.640272	2406.099881
806.960598	2404.247257
807.280879	2405.764644
807.601115	2405.711712
807.921306	2408.260015
808.241453	2407.423184
808.561554	2407.130797
808.881611	2407.498801
809.201623	2406.888822
809.521590	2408.028122
809.841513	2408.214645
810.161390	2408.217166
810.481223	2404.264901
810.801011	2404.431259
811.120755	2405.416805
811.440453	2407.352608
811.760107	2406.959398
812.079716	2407.541651
812.399281	2402.583676
812.718801	2402.802966
813.038276	2400.791546
813.357707	2405.336146
813.677093	2403.244067
813.996434	2408.050808
814.315731	2405.530231
814.634983	2407.725653
814.954191	2405.457134
815.273354	2407.599624
815.592473	2404.602658
815.911547	2406.510735
816.230577	2409.379152
816.549562	2410.760428
816.868502	2409.802608
817.187399	2409.830335
817.506250	2405.152144
817.825058	2410.304203
818.143821	2410.031981
818.462539	2409.986611
818.781213	2409.779923
819.099843	2409.290931
819.418429	2413.089441
819.736970	2416.353588
820.055466	2416.739236
820.373919	2420.610842
820.692327	2424.943714
821.010691	2435.129365
821.329011	2457.091152
821.647286	2489.972078
821.965517	2524.980371
822.283704	2548.567930
822.601847	2550.034906
822.919945	2536.885056
823.237999	2517.204391
823.556010	2501.972545
823.873976	2482.848928
824.191897	2472.799387
824.509775	2460.544342
824.827609	2451.288784
825.145398	2444.626899
825.463144	2442.837290
825.780845	2444.142948
826.098502	2445.519183
826.416116	2456.768518
826.733685	2464.317646
827.051210	2464.199179
827.368692	2461.116513
827.686129	2454.552931
828.003522	2441.970211
828.320872	2431.915630
828.638177	2426.259455
828.955439	2422.095462
829.272656	2417.636562
829.589830	2414.987435
829.906960	2415.068094
830.224046	2413.969122
830.541088	2413.543145
830.858086	2412.504667
831.175041	2409.346384
831.491952	2408.950653
831.808819	2411.070459
832.125642	2408.791857
832.442421	2411.806467
832.759157	2417.124884
833.075849	2426.438416
833.392497	2431.335897
833.709101	2434.484098
834.025662	2434.889911
834.342179	2432.465116
834.658653	2424.699218
834.975083	2421.712334
835.291469	2424.056471
835.607811	2414.437949
835.924110	2415.869637
836.240366	2413.631365
836.556578	2410.493247
836.872746	2408.557443
837.188871	2408.494429
837.504952	2405.258008
837.820990	2405.631054
838.136984	2406.692217
838.452935	2404.222051
838.768842	2404.915210
839.084706	2405.492422
839.400526	2411.100706
839.716303	2410.639440
840.032037	2413.923752
840.347727	2414.435429
840.663373	2410.410067
840.978977	2409.280849
841.294537	2407.176167
841.610054	2404.832031
841.925527	2404.579973
842.240957	2405.462175
842.556344	2405.883111
842.871687	2402.770199
843.186987	2403.304561
843.502244	2402.848337
843.817458	2400.710887
844.132629	2400.562173
844.447756	2399.833727
844.762840	2395.891544
845.077881	2398.230640
845.392879	2398.946484
845.707833	2399.352297
846.022745	2394.694270
846.337613	2401.935888
846.652438	2400.216854
846.967221	2398.669220
847.281960	2397.736607
847.596656	2399.954714
847.911309	2401.968655
848.225919	2398.923798
848.540485	2400.463871
848.855009	2399.627039
849.169490	2399.165774
849.483928	2401.910682
849.798323	2399.901782
850.112675	2399.669889
850.426984	2397.935732
850.741251	2402.162740
851.055474	2401.131824
851.369654	2400.224416
851.683792	2397.018242
851.997887	2399.737945
852.311938	2400.627708
852.625947	2400.715929
852.939914	2399.480846
853.253837	2400.748696
853.567718	2399.470764
853.881555	2397.570249
854.195350	2399.886659
854.509103	2398.056720
854.822812	2400.529406
855.136479	2397.303068
855.450103	2400.496638
855.763685	2398.674261
856.077224	2399.337173
856.390720	2400.274828
856.704173	2399.415311
857.017584	2398.752399
857.330953	2401.119221
857.644278	2398.578479
857.957561	2403.057545
858.270802	2399.932029
858.584000	2398.785167
858.897155	2399.490928
859.210268	2397.935732
859.523339	2402.586197
859.836367	2397.144271
860.149352	2401.469581
860.462295	2401.378840
860.775195	2395.944477
861.088054	2396.120917
861.400869	2399.087636
861.713642	2391.977088
862.026373	2400.791546
862.339062	2397.769374
862.651708	2398.127296
862.964312	2399.511093
863.276873	2396.947666
863.589392	2397.260218
863.901869	2399.437996
864.214303	2398.422204
864.526696	2398.671741
864.839045	2400.758778
865.151353	2399.299364
865.463619	2397.663510
865.775842	2398.260887
866.088023	2402.699623
866.400162	2398.787687
866.712258	2397.555125
867.024313	2400.804149
867.336325	2400.030332
867.648296	2402.487894
867.960224	2401.242729
868.272110	2399.001936
868.583954	2398.742317
868.895755	2397.570249
869.207515	2399.450599
869.519233	2401.358676
869.830909	2402.558470
870.142542	2400.768861
870.454134	2401.116700
870.765684	2399.637122
871.077191	2403.649880
871.388657	2401.540157
871.700081	2402.402195
872.011463	2402.376989
872.322803	2402.654252
872.634101	2401.139386
872.945357	2401.058727
873.256571	2400.516803
873.567744	2402.805487
873.878874	2398.298695
874.189963	2401.477143
874.501010	2401.099056
874.812015	2401.751886
875.122979	2403.274314
875.433900	2403.470919
875.744780	2403.569222
876.055618	2400.748696
876.366415	2401.646022
876.677169	2400.221896
876.987882	2400.695764
877.298554	2397.935732
877.609183	2399.077554
877.919771	2400.242060
878.230317	2400.829355
878.540822	2402.944119
878.851285	2402.445044
879.161707	2410.256312
879.472087	2411.362846
879.782425	2413.575912
880.092722	2421.548497
880.402977	2431.310691
880.713191	2448.420368
881.023363	2462.117182
881.333494	2471.957515
881.643583	2472.852320
881.953631	2470.601444
882.263637	2466.245887
882.573602	2462.091977
882.883526	2453.025462
883.193408	2450.913218
883.503248	2441.037598
883.813048	2439.079109
884.122806	2435.925868
884.432522	2430.799014
884.742197	2425.657037
885.051831	2421.462797
885.361424	2417.707138
885.670975	2416.250244
885.980485	2412.182033
886.289954	2411.325037
886.599382	2406.929151
886.908768	2410.871333
887.218113	2406.369583
887.527417	2408.743966
887.836680	2405.681465
888.145901	2405.280693
888.455082	2405.258008
888.764221	2403.460837
889.073319	2403.869170
889.382376	2402.611403
889.691392	2406.059552
890.000366	2402.747514
890.309300	2403.170971
890.618193	2403.700292
890.927044	2402.719787
891.235855	2404.363203
891.544625	2401.285579
891.853353	2403.128121
892.162041	2401.328429
892.470687	2404.131310
892.779293	2406.591393
893.087858	2404.549726
893.396381	2403.566701
893.704864	2409.318658
894.013306	2410.019378
894.321707	2419.804258
894.630068	2421.455236
894.938387	2421.498085
895.246665	2419.907601
895.554903	2418.450708
895.863100	2417.369380
896.171256	2415.554565
896.479371	2412.522311
896.787446	2412.144224
897.095480	2408.436456
897.403473	2411.294790
897.711425	2410.359656
898.019336	2407.773544
898.327207	2405.719274
898.635038	2407.276990
898.942827	2403.107956
899.250576	2405.893194
899.558284	2401.731721
899.865952	2403.869170
900.173579	2401.610733
900.481165	2401.000754
900.788711	2403.385220
901.096216	2401.081412
901.403681	2400.665517
901.711105	2400.526885
902.018489	2400.438665
902.325832	2403.405384
902.633135	2400.703326
902.940397	2405.041239
903.247619	2406.384706
903.554800	2412.865109
903.861941	2418.624628
904.169041	2426.214085
904.476101	2428.107038
904.783121	2425.467994
905.090100	2421.740061
905.397039	2421.062026
905.703938	2414.624472
906.010796	2416.257806
906.317614	2411.758576
906.624391	2408.784295
906.931129	2407.077865
907.237826	2408.607855
907.544483	2404.126269
907.851099	2402.835734
908.157675	2402.722308
908.464211	2401.449417
908.770707	2396.723335
909.077163	2398.286093
909.383578	2395.274003
909.689954	2396.302398
909.996289	2393.247459
910.302584	2396.854405
910.608839	2396.183931
910.915054	2397.207286
911.221229	2398.427245
911.527363	2398.598644
911.833458	2399.047307
912.139513	2398.628891
912.445527	2395.924312
912.751502	2399.319529
913.057436	2401.230126
913.363331	2399.253994
913.669186	2398.323901
913.975000	2401.252812
914.280775	2403.657442
914.586510	2406.372103
914.892205	2405.999058
915.197859	2412.877712
915.503475	2416.847621
915.809050	2423.882551
916.114585	2425.662078
916.420081	2426.481266
916.725536	2428.568304
917.030952	2424.817685
917.336328	2418.859041
917.641665	2420.603281
917.946961	2419.723599
918.252218	2416.451890
918.557435	2415.080697
918.862612	2413.018865
919.167750	2410.092475
919.472848	2408.597773
919.777906	2406.122566
920.082925	2407.597104
920.387904	2403.791032
920.692843	2405.308420
920.997743	2402.434962
921.302603	2403.785991
921.607423	2404.441341
921.912204	2400.133675
922.216946	2403.279355
922.521647	2400.584859
922.826310	2396.282234
923.130932	2400.340363
923.435516	2399.122924
923.740059	2397.076216
924.044564	2396.609909
924.349028	2398.031514
924.653454	2390.391646
924.957840	2395.105124
925.262186	2393.058416
925.566493	2396.206617
925.870761	2392.271996
926.174989	2393.857439
926.479178	2394.734600
926.783328	2396.493962
927.087438	2393.426420
927.391509	2394.908519
927.695541	2395.420197
927.999533	2394.674106
928.303486	2399.735424
928.607400	2395.331976
928.911275	2396.688047
929.215110	2396.922460
929.518906	2394.018756
929.822663	2393.600340
930.126381	2394.124620
930.430060	2392.851729
930.733699	2393.998591
931.037299	2393.764178
931.340861	2396.962790
931.644383	2396.859446
931.947866	2396.309960
932.251309	2395.841133
932.554714	2395.369785
932.858080	2395.352141
933.161407	2394.099414
933.464694	2393.703684
933.767943	2396.289796
934.071153	2396.320043
934.374323	2394.961452
934.677455	2395.437841
934.980548	2394.963972
935.283602	2395.352141
935.586617	2393.582696
935.889593	2394.180073
936.192530	2395.957079
936.495428	2394.394322
936.798287	2394.628735
937.101108	2395.609240
937.403890	2394.855587
937.706632	2395.190824
938.009336	2397.686195
938.312002	2397.469426
938.614628	2394.795093
938.917216	2396.370454
939.219765	2396.632594
939.522275	2396.161246
939.824747	2398.316339
940.127179	2394.827861
940.429573	2394.537995
940.731929	2392.352654
941.034246	2393.300391
941.336524	2395.425238
941.638763	2398.273490
941.940964	2395.266441
942.243126	2398.288613
942.545250	2395.019425
942.847335	2396.453633
943.149381	2396.257028
943.451389	2393.922974
943.753359	2397.713922
944.055290	2396.113355
944.357182	2398.785167
944.659036	2395.531102
944.960851	2398.502862
945.262628	2394.550598
945.564367	2395.692419
945.866067	2396.181411
946.167729	2393.907850
946.469352	2394.477501
946.770937	2393.847357
947.072484	2396.186452
947.373992	2395.032028
947.675462	2394.956410
947.976893	2394.013715
948.278286	2395.750392
948.579641	2394.956410
948.880958	2397.366082
949.182236	2396.995557
949.483476	2395.185783
949.784678	2396.156205
950.085841	2396.970351
950.386967	2396.650238
950.688054	2395.100083
950.989103	2394.918602
951.290114	2395.218550
951.591087	2394.366595
951.892021	2395.949518
952.192917	2397.608057
952.493776	2395.185783
952.794596	2394.969013
953.095378	2394.013715
953.396122	2396.670403
953.696828	2396.045300
953.997496	2395.510937
954.298126	2394.578324
954.598718	2396.010012
954.899272	2394.298540
955.199788	2395.319373
955.500266	2394.205278
955.800706	2392.617315
956.101108	2389.988353
956.401472	2393.761657
956.701798	2388.695297
957.002087	2393.411297
957.302337	2393.376009
957.602550	2393.464229
957.902724	2393.696122
958.202861	2395.805845
958.502960	2391.979609
958.803022	2392.440875
959.103045	2394.137223
959.403031	2394.686709
959.702979	2393.222253
960.002889	2394.883314
960.302762	2391.117572
960.602596	2392.198899
960.902393	2390.822664
961.202153	2391.563714
961.501875	2393.814589
961.801559	2392.440875
962.101205	2391.694784
962.400814	2393.260062
962.700385	2392.791235
962.999918	2390.646224
963.299414	2391.825854
963.598873	2393.575134
963.898293	2393.865001
964.197677	2391.876265
964.497022	2394.117058
964.796331	2387.828219
965.095601	2392.080432
965.394835	2392.869373
965.694030	2392.894578
965.993189	2393.197048
966.292309	2393.433982
966.591393	2391.563714
966.890439	2392.798797
967.189447	2392.138405
967.488419	2390.361399
967.787353	2394.051523
968.086249	2389.832078
968.385108	2393.020607
968.683930	2395.147974
968.982714	2393.469270
969.281462	2390.366440
969.580172	2391.089845
969.878844	2392.569424
970.177480	2392.544218
970.476078	2393.139074
970.774639	2393.156718
971.073162	2392.352654
971.371649	2388.697818
971.670098	2389.574979
971.968510	2390.986502
972.266885	2389.340565
972.565223	2390.200082
972.863524	2390.973899
973.161788	2394.805176
973.460014	2391.961965
973.758204	2391.977088
974.056356	2390.673950
974.354471	2395.851215
974.652550	2392.211502
974.950591	2394.394322
975.248595	2393.214692
975.546563	2390.794938
975.844493	2392.665206
976.142386	2393.484393
976.440243	2390.003477
976.738062	2392.234187
977.035845	2390.235370
977.333590	2391.520864
977.631299	2392.440875
977.928971	2390.288302
978.226606	2394.197717
978.524204	2392.844167
978.821765	2392.534136
979.119290	2391.886348
979.416777	2393.723848
979.714228	2391.795607
980.011642	2393.335679
980.309020	2395.344579
980.606360	2393.648231
980.903664	2393.088663
981.200931	2390.537839
981.498162	2394.976575
981.795356	2394.895917
982.092513	2394.976575
982.389633	2393.786863
982.686717	2393.890206
982.983764	2396.105793
983.280775	2394.031359
983.577749	2396.355331
983.874686	2395.112686
984.171587	2393.635628
984.468451	2397.519837
984.765279	2396.136040
985.062070	2394.815258
985.358824	2391.959444
985.655543	2392.730741
985.952224	2395.785680
986.248869	2392.246790
986.545478	2386.877961
986.842050	2389.191851
987.138586	2389.025493
987.435086	2387.041799
987.731549	2392.670247
988.027975	2391.793086
988.324366	2390.089176
988.620719	2390.482386
988.917037	2389.854763
989.213318	2389.932901
989.509563	2390.852911
989.805772	2393.623025
990.101944	2392.264434
990.398080	2389.910215
990.694180	2391.273848
990.990244	2390.772253
991.286271	2390.983981
991.582262	2391.997253
991.878217	2390.247973
992.174136	2390.487428
992.470019	2388.859135
992.765865	2391.336862
993.061676	2390.787376
993.357450	2392.471122
993.653188	2389.985833
993.948890	2391.626728
994.244556	2392.027500
994.540186	2391.679660
994.835780	2391.742675
995.131337	2390.913405
995.426859	2392.428272
995.722345	2393.423900
996.017795	2392.619836
996.313208	2393.628066
996.608586	2392.760988
996.903928	2396.095711
997.199234	2394.865670
997.494504	2393.796945
997.789738	2393.101266
998.084936	2394.374157
998.380099	2392.753426
998.675225	2394.979096
998.970316	2396.254508
999.265371	2395.163098
999.560390	2392.892058
999.855373	2393.885165
1000.150320	2391.442726
1000.445232	2393.925494
1000.740108	2391.069681
1001.034948	2392.103117
1001.329752	2392.551780
1001.624521	2392.763508
1001.919254	2386.797303
1002.213951	2389.307798
1002.508613	2386.671274
1002.803239	2386.507437
1003.097829	2386.363764
1003.392384	2390.225287
1003.686903	2390.401728
1003.981386	2391.737634
1004.275834	2391.316697
1004.570246	2392.977758
1004.864623	2391.190668
1005.158964	2391.757798
1005.453270	2391.412479
1005.747540	2391.639331
1006.041775	2394.664023
1006.335974	2391.825854
1006.630138	2389.980792
1006.924266	2389.063302
1007.218359	2391.788045
1007.512416	2387.495503
1007.806438	2391.541029
1008.100425	2390.696635
1008.394376	2389.716131
1008.688292	2391.903992
1008.982172	2391.863663
1009.276017	2392.861811
1009.569827	2390.626059
1009.863602	2391.977088
1010.157341	2388.934752
1010.451045	2390.374002
1010.744714	2388.133209
1011.038347	2391.977088
1011.331945	2389.595143
1011.625508	2391.288971
1011.919036	2389.993394
1012.212528	2390.363919
1012.505986	2392.836605
1012.799408	2390.807541
1013.092795	2391.876265
1013.386147	2389.421223
1013.679464	2388.400390
1013.972745	2389.940462
1014.265992	2391.072201
1014.559204	2390.063971
1014.852380	2390.774773
1015.145521	2389.451470
1015.438628	2390.310987
1015.731699	2390.661347
1016.024736	2391.167983
1016.317737	2391.258724
1016.610703	2391.094887
1016.903635	2388.241593
1017.196531	2385.698331
1017.489393	2391.152860
1017.782219	2390.805020
1018.075011	2392.430792
1018.367768	2388.481048
1018.660490	2391.142777
1018.953177	2391.142777
1019.245829	2391.142777
