Dividing Wavelength (nm)	Counts (n)	Blue Motor Position (mm): 0.000000	Red Motor Position (mm): 32.400000	
326.493990	1987.323669
326.888308	1987.323669
327.282561	1987.323669
327.676750	1966.334825
328.070874	1965.026646
328.464933	1972.220372
328.858929	1981.619604
329.252859	1993.448671
329.646726	2011.140601
330.040528	2025.376819
330.434265	2045.982535
330.827938	2063.729918
331.221547	2082.329255
331.615091	2103.890270
332.008571	2124.221243
332.401986	2147.317289
332.795338	2164.830258
333.188625	2185.955213
333.581847	2204.468851
333.975006	2223.766388
334.368100	2240.692062
334.761129	2256.833836
335.154095	2271.614499
335.546996	2294.125772
335.939833	2330.573314
336.332606	2343.327433
336.725315	2351.307580
337.117960	2361.609178
337.510540	2368.167719
337.903056	2377.267002
338.295508	2384.402755
338.687896	2391.704866
339.080220	2399.085115
339.472480	2406.540982
339.864676	2407.168606
340.256807	2411.829152
340.648875	2414.226221
341.040879	2415.597415
341.432818	2416.005748
341.824694	2416.764442
342.216506	2415.665470
342.608253	2416.396438
342.999937	2413.724626
343.391557	2416.449370
343.783113	2414.422826
344.174605	2412.355953
344.566033	2409.472413
344.957397	2407.697927
345.348697	2407.791188
345.739934	2407.294634
346.131106	2404.007802
346.522215	2401.794736
346.913260	2401.220044
347.304241	2399.019580
347.695159	2397.552605
348.086012	2399.727863
348.476802	2393.643190
348.867528	2394.265772
349.258191	2392.392984
349.648789	2393.131513
350.039324	2393.517161
350.429796	2391.803169
350.820203	2389.085987
351.210548	2388.370143
351.600828	2387.187992
351.991045	2388.249155
352.381198	2391.384753
352.771288	2389.383415
353.161314	2387.510626
353.551276	2391.336862
353.941175	2390.114382
354.331010	2389.199413
354.720782	2390.197561
355.110490	2391.062119
355.500135	2390.142108
355.889717	2389.232180
356.279235	2390.905843
356.668689	2394.195196
357.058080	2391.520864
357.447408	2390.313508
357.836672	2387.782848
358.225873	2395.165618
358.615010	2392.387943
359.004084	2397.174518
359.393095	2398.134858
359.782043	2398.838099
360.170927	2399.541340
360.559748	2398.964128
360.948505	2402.039232
361.337199	2400.247101
361.725830	2402.364386
362.114398	2407.405540
362.502903	2404.373286
362.891344	2406.384706
363.279722	2404.065775
363.668037	2406.969480
364.056289	2405.139541
364.444478	2408.454100
364.832603	2407.680283
365.220665	2408.128945
365.608665	2410.054666
365.996601	2412.930644
366.384474	2413.286046
366.772284	2413.149935
367.160031	2414.695048
367.547715	2413.800243
367.935336	2415.604977
368.322893	2416.706469
368.710388	2416.933321
369.097820	2423.239804
369.485189	2420.207550
369.872495	2420.378949
370.259738	2423.149063
370.646918	2427.348344
371.034035	2428.659044
371.421090	2431.860177
371.808081	2435.414191
372.195010	2441.108174
372.581875	2449.123608
372.968678	2451.198043
373.355418	2457.859928
373.742096	2472.131435
374.128710	2482.972436
374.515262	2492.913591
374.901751	2510.504698
375.288177	2526.283509
375.674540	2543.408309
376.060841	2567.142061
376.447079	2591.163159
376.833254	2615.259875
377.219367	2643.518062
377.605417	2680.938548
377.991404	2705.176415
378.377329	2745.782909
378.763191	2781.633075
379.148991	2830.691064
379.534727	2881.944475
379.920402	2927.327462
380.306013	2975.646922
380.691563	3041.824669
381.077049	3101.370778
381.462474	3156.089983
381.847835	3230.729307
382.233134	3305.232519
382.618371	3364.415665
383.003545	3455.597536
383.388657	3535.361192
383.773706	3628.524236
384.158693	3704.207079
384.543618	3799.719300
384.928480	3878.880539
385.313280	3986.579750
385.698017	4090.813167
386.082692	4213.504769
386.467305	4281.086478
386.851856	4408.443668
387.236344	4565.311773
387.620770	4630.945075
388.005133	4751.842027
388.389435	4903.036313
388.773674	4986.495136
389.157851	5121.197287
389.541965	5254.361886
389.926018	5276.570690
390.310008	5463.897446
390.693936	5590.032156
391.077802	5708.310228
391.461606	5840.678326
391.845348	5955.180573
392.229027	6079.351754
392.612645	6307.955478
392.996200	6423.760865
393.379694	6603.883812
393.763125	6831.597773
394.146494	6928.987824
394.529801	7068.405974
394.913047	7315.735064
395.296230	7312.861607
395.679351	7370.494598
396.062410	7643.868809
396.445408	7531.393105
396.828343	7696.871501
397.211217	7832.806214
397.594028	7716.509316
397.976778	7924.504803
398.359466	8086.759381
398.742092	8061.266266
399.124656	8210.738998
399.507158	8400.639263
399.889598	8420.203981
400.271977	8635.801528
400.654294	8673.035491
401.036549	8872.665183
401.418742	8900.031087
401.800874	9205.509886
402.182944	9287.884861
402.564952	9659.029730
402.946898	9489.654523
403.328783	9536.476760
403.710606	9735.143592
404.092367	9998.415331
404.474067	10371.493483
404.855705	10152.231017
405.237282	10099.193037
405.618797	10542.383557
406.000250	10795.666250
406.381642	11161.104533
406.762972	11113.263983
407.144240	10906.392673
407.525447	11171.118785
407.906593	11112.580907
408.287677	11369.543642
408.668700	11528.677745
409.049661	11494.221459
409.430560	11661.895277
409.811399	11635.640948
410.192176	11797.537603
410.572891	11872.557534
410.953545	12368.176054
411.334138	11832.984477
411.714669	12449.469701
412.095139	11742.589026
412.475547	12256.685896
412.855894	12100.498347
413.236180	12426.774426
413.616405	12111.835902
413.996568	12389.396791
414.376670	12361.970394
414.756711	12234.998852
415.136691	12521.858150
415.516609	12702.550747
415.896466	12782.337089
416.276262	13075.273498
416.655997	13506.864323
417.035670	13556.363413
417.415283	14204.439028
417.794834	14302.655828
418.174324	14044.941961
418.553753	13944.577629
418.933121	14450.273416
419.312428	14251.901491
419.691674	14164.354293
420.070859	14625.055261
420.449983	14273.104584
420.829045	14830.215099
421.208047	14562.978492
421.586988	15033.915523
421.965867	15298.099711
422.344686	15296.458815
422.723444	15868.584406
423.102141	14532.797104
423.480777	15742.187556
423.859352	15241.419497
424.237866	16367.850201
424.616319	16059.863427
424.994712	16729.616004
425.373044	16520.650094
425.751314	17207.658541
426.129524	16306.746375
426.507673	17427.737673
426.885762	17112.816793
427.263789	17315.660221
427.641756	17492.909710
428.019662	17549.912558
428.397508	17596.540710
428.775292	17896.000372
429.153016	17863.111884
429.530679	17954.195452
429.908282	17964.187019
430.285824	17678.046085
430.663305	18394.981341
431.040726	17981.417683
431.418086	17828.262388
431.795385	18469.789544
432.172624	18894.451303
432.549802	18441.455739
432.926920	18631.310634
433.303977	18513.433333
433.680974	18779.208005
434.057910	19063.995389
434.434786	19083.618080
434.811601	19008.520011
435.188355	20059.298119
435.565050	19698.280927
435.941683	19645.462238
436.318257	20538.011129
436.694770	20350.807881
437.071222	20946.105136
437.447614	20009.410861
437.823946	20038.924296
438.200218	20190.456339
438.576429	19969.346290
438.952580	20244.626058
439.328670	20206.628361
439.704700	20618.566247
440.080670	20179.832108
440.456580	20783.154879
440.832429	20962.945111
441.208218	19946.189750
441.583947	20393.788759
441.959616	20502.014770
442.335224	20742.384547
442.710773	20874.394723
443.086261	21413.394892
443.461689	20773.614496
443.837057	20891.842156
444.212365	21549.574101
444.587612	21547.333308
444.962800	21116.516301
445.337927	21548.835572
445.712995	20270.172105
446.088002	22124.542903
446.462949	22320.404333
446.837837	22504.146829
447.212664	22458.312658
447.587431	25321.645193
447.962139	28279.542212
448.336786	30675.083397
448.711374	29129.455545
449.085901	25399.689816
449.460369	25353.631314
449.834776	25262.882983
450.209124	27766.965251
450.583412	27292.746429
450.957640	27821.747470
451.331808	26468.986603
451.705917	25097.949032
452.079965	25126.673527
452.453954	25497.962069
452.827883	25370.562029
453.201752	25164.603168
453.575562	25327.369423
453.949311	26483.434550
454.323001	26519.521649
454.696632	26280.089527
455.070202	27848.853754
455.443713	27996.637700
455.817164	28575.614219
456.190556	29124.971439
456.563888	28552.039263
456.937160	29004.112296
457.310373	27322.416140
457.683526	27776.813145
458.056619	27761.490558
458.429653	27690.609414
458.802628	28262.921528
459.175542	28375.918992
459.548398	29681.822334
459.921194	31264.343870
460.293930	31936.438062
460.666607	33973.971624
461.039224	35727.975569
461.411782	36132.873485
461.784280	34935.468376
462.156719	34480.577338
462.529099	33921.614200
462.901419	32611.221710
463.273680	31532.984437
463.645882	31621.618004
464.018024	31602.519593
464.390106	32437.485905
464.762130	35129.167151
465.134094	39198.378974
465.505999	44484.815202
465.877845	49094.625239
466.249631	50283.808226
466.621358	48603.430332
466.993026	46507.709252
467.364634	44425.125419
467.736184	42460.431490
468.107674	41196.213449
468.479105	40390.468186
468.850477	39699.630983
469.221790	38251.219263
469.593043	36503.108426
469.964238	35602.733143
470.335373	35522.914034
470.706449	37247.989318
471.077467	39823.025826
471.448425	44384.778545
471.819324	47216.505565
472.190164	45387.839611
472.560945	41821.329129
472.931667	38690.422230
473.302330	37571.971673
473.672934	36774.047760
474.043479	37249.831860
474.413965	36436.902953
474.784393	36073.319814
475.154761	36981.161045
475.525070	36997.375917
475.895321	36537.713427
476.265513	37122.436861
476.635645	38099.840975
477.005719	37925.152391
477.375734	38389.825788
477.745691	39073.665869
478.115588	40411.837637
478.485427	42364.740307
478.855207	45724.626496
479.224928	48339.619190
479.594591	49991.801910
479.964194	48999.095374
480.333739	49152.197737
480.703226	49185.613025
481.072653	49809.050001
481.442022	50283.783020
481.811333	50545.232382
482.180584	49255.783366
482.549777	48740.937886
482.918912	48194.441521
483.287988	47902.266326
483.657005	47047.115234
484.025964	46410.709891
484.394864	46427.174299
484.763706	45997.060532
485.132489	45120.376152
485.501213	44938.435869
485.869879	45083.784937
486.238487	44656.174103
486.607036	44830.008211
486.975527	44282.226352
487.343959	44475.047966
487.712333	44542.382658
488.080648	44446.520076
488.448905	44893.436009
488.817104	44699.434765
489.185244	45638.279093
489.553326	47274.057898
489.921350	49943.069076
490.289315	52800.964726
490.657222	53405.802365
491.025070	53658.429707
491.392861	52749.139144
491.760593	51496.349399
492.128267	49803.197221
492.495883	48269.058159
492.863440	46848.468567
493.230939	45471.691643
493.598380	44361.831212
493.965763	43995.561138
494.333088	43156.801359
494.700354	42612.225673
495.067563	42303.381903
495.434713	42151.277689
495.801805	42172.717716
496.168839	41753.490321
496.535815	41389.221586
496.902733	41356.688499
497.269593	40910.057392
497.636395	40791.471809
498.003139	41137.027782
498.369825	40540.215661
498.736453	40803.585702
499.103023	40288.402464
499.469535	40082.494015
499.835989	40115.954673
500.202385	39729.882947
500.568723	39691.189571
500.935003	39793.519953
501.301226	39502.219398
501.667390	40053.157020
502.033497	40226.660933
502.399546	39579.669166
502.765537	38837.717184
503.131470	39130.015887
503.497345	39384.715143
503.863163	37994.541353
504.228923	38495.942076
504.594625	38783.234913
504.960269	38001.540995
505.325856	38550.089110
505.691385	37847.884105
506.056856	37874.811429
506.422270	38169.723970
506.787625	37669.306272
507.152924	37722.074549
507.518164	37676.585698
507.883347	36842.257092
508.248472	36959.884855
508.613540	37273.767258
508.978550	37404.623009
509.343503	37039.918214
509.708398	37086.616943
510.073236	37435.971425
510.438016	37289.478014
510.802738	36638.004662
511.167403	37056.778353
511.532010	37113.052753
511.896561	37232.286124
512.261053	37839.775409
512.625488	37264.098325
512.989866	36988.284196
513.354186	36691.236726
513.718449	36494.485532
514.082655	36922.171983
514.446803	36477.764025
514.810894	36736.798674
515.174927	36494.238516
515.538904	36244.285505
515.902822	36623.108052
516.266684	35960.967618
516.630488	36138.065873
516.994235	35817.342624
517.357925	36098.049194
517.721558	36044.544908
518.085133	36098.394513
518.448651	36016.500969
518.812112	35598.823728
519.175516	35475.539791
519.538863	35549.173404
519.902152	35311.064585
520.265385	35471.171631
520.628560	35291.270494
520.991678	34896.601080
521.354739	34868.302563
521.717743	34898.249537
522.080690	34581.899489
522.443580	34777.831495
522.806413	34579.578038
523.169189	34311.852440
523.531908	34223.912031
523.894569	33880.997623
524.257174	33771.735655
524.619722	33756.859210
524.982213	33491.346678
525.344647	33190.893909
525.707025	32979.321723
526.069345	33023.643547
526.431608	32704.750237
526.793815	32700.006512
527.155964	32098.226333
527.518057	31963.619964
527.880093	31568.673286
528.242072	31684.859279
528.603995	31218.502137
528.965860	30982.845839
529.327669	30779.347061
529.689421	30458.447372
530.051117	30160.726908
530.412755	30002.459883
530.774337	29792.352152
531.135862	29398.519570
531.497331	29263.270453
531.858743	28959.581263
532.220098	28900.856862
532.581396	28439.830740
532.942638	27977.713208
533.303824	27903.199913
533.664953	27611.518752
534.026025	27181.830962
534.387040	27204.995064
534.747999	26908.277790
535.108902	26744.185712
535.469748	26219.353705
535.830537	26023.895568
536.191270	25873.044080
536.551947	25425.790390
536.912567	25316.593957
537.273131	25132.390195
537.633638	24594.373051
537.994089	24526.007443
538.354483	24059.834303
538.714821	24102.500109
539.075103	24025.806515
539.435328	23641.993225
539.795497	23323.656963
540.155609	23068.672881
540.515665	23033.467983
540.875665	22528.344368
541.235609	22423.508532
541.595496	22155.724960
541.955328	22228.468810
542.315102	21686.060821
542.674821	21335.831699
543.034483	21104.934250
543.394090	20847.106957
543.753640	20587.762277
544.113134	20788.261568
544.472571	20113.901377
544.831953	20398.103987
545.191278	19822.242901
545.550548	19481.034923
545.909761	19421.012425
546.268918	19277.649571
546.628019	19148.245673
546.987064	18741.671574
547.346053	18234.523935
547.704986	18339.001848
548.063863	17945.302857
548.422684	17785.732693
548.781449	17509.621135
549.140158	17418.671158
549.498811	17142.758726
549.857408	16735.176396
550.215949	16795.629913
550.574434	16564.450160
550.932864	16268.864624
551.291237	16301.649768
551.649555	15966.516381
552.007817	15832.487224
552.366022	15515.290262
552.724173	15367.972623
553.082267	15286.016065
553.440305	15187.942937
553.798288	14787.962668
554.156215	14675.023177
554.514086	14549.997521
554.871902	14288.495227
555.229661	14111.223052
555.587365	13874.629099
555.945014	13719.175038
556.302606	13515.285571
556.660143	13398.877767
557.017625	13240.577974
557.375050	13009.720854
557.732421	12918.670054
558.089735	12736.540727
558.446994	12535.517156
558.804197	12477.717807
559.161345	12287.946091
559.518437	11959.540123
559.875474	11860.690658
560.232455	11737.303377
560.589381	11612.779315
560.946251	11397.030533
561.303065	11381.705425
561.659825	11193.887157
562.016528	10978.322377
562.373177	10778.060020
562.729770	10720.623633
563.086307	10486.565381
563.442789	10424.662532
563.799216	10300.380446
564.155587	10120.638106
564.511904	9993.117078
564.868164	9874.289520
565.224370	9786.863309
565.580520	9614.637329
565.936615	9512.760651
566.292654	9352.315848
566.648638	9259.341848
567.004567	9130.726889
567.360441	9020.015589
567.716260	8883.687666
568.072023	8809.474319
568.427732	8695.450981
568.783385	8517.825925
569.138982	8461.223850
569.494525	8353.814506
569.850013	8216.269143
570.205445	8104.998275
570.560823	8003.038418
570.916145	7888.410141
571.271412	7784.779142
571.626625	7662.954618
571.981782	7570.255360
572.336884	7439.066893
572.691931	7386.764922
573.046923	7256.146105
573.401860	7151.471587
573.756743	7060.985396
574.111570	6990.618450
574.466342	6894.760910
574.821059	6820.489590
575.175722	6687.839188
575.530330	6618.170442
575.884882	6510.947620
576.239380	6430.258912
576.593823	6355.065061
576.948211	6271.606239
577.302544	6157.731614
577.656823	6096.181647
578.011047	6046.342279
578.365216	5951.669410
578.719330	5872.125043
579.073389	5792.094205
579.427394	5740.606381
579.781344	5675.504920
580.135239	5589.112146
580.489080	5528.956057
580.842866	5436.884423
581.196597	5409.548766
581.550273	5351.275548
581.903895	5289.052587
582.257463	5258.024285
582.610975	5167.296118
582.964434	5129.341271
583.317837	5056.738573
583.671186	4996.453935
584.024481	4960.397082
584.377721	4885.762799
584.730906	4851.246019
585.084037	4804.751457
585.437113	4741.124534
585.790135	4696.031413
586.143103	4628.565651
586.496016	4591.737501
586.848874	4547.718146
587.201679	4505.813555
587.554428	4438.463739
587.907124	4406.684305
588.259765	4355.877036
588.612352	4334.941124
588.964884	4265.680712
589.317362	4243.829830
589.669786	4207.387329
590.022155	4155.813805
590.374470	4137.151453
590.726731	4085.383844
591.078937	4027.123229
591.431090	3999.704394
591.783188	3956.126139
592.135232	3912.051331
592.487222	3883.470509
592.839157	3863.525184
593.191038	3821.650840
593.542866	3786.488792
593.894639	3739.691761
594.246358	3720.701734
594.598022	3694.543187
594.949633	3658.446005
595.301190	3634.109834
595.652692	3603.257973
596.004141	3585.634099
596.355535	3540.253632
596.706876	3514.795805
597.058162	3487.865961
597.409395	3480.994869
597.760573	3462.108186
598.111698	3432.206582
598.462768	3413.216555
598.813785	3395.171745
599.164748	3367.818444
599.515657	3354.386290
599.866511	3330.334945
600.217312	3326.652382
600.568060	3290.754325
600.918753	3289.531846
601.269392	3274.844444
601.619978	3254.067328
601.970510	3244.899990
602.320988	3235.609143
602.671412	3227.389542
603.021783	3209.828683
603.372100	3192.814788
603.722363	3179.871626
604.072572	3173.376099
604.422728	3162.230108
604.772830	3147.393992
605.122878	3137.780512
605.472872	3128.996301
605.822813	3118.724950
606.172701	3110.412088
606.522534	3103.440172
606.872314	3099.994543
607.222041	3088.961978
607.571714	3082.042994
607.921333	3065.742423
608.270899	3067.035479
608.620411	3058.130281
608.969870	3051.339847
609.319276	3040.438352
609.668627	3036.294523
610.017926	3036.140768
610.367171	3031.144985
610.716362	3022.060825
611.065500	3015.582943
611.414585	3010.829135
611.763616	3008.227899
612.112594	3001.613905
612.461518	2995.098214
612.810389	2993.981598
613.159207	2985.741833
613.507971	2979.926862
613.856682	2979.659680
614.205340	2972.584421
614.553945	2976.975266
614.902496	2962.378605
615.250994	2962.532360
615.599439	2955.484827
615.947830	2954.743778
616.296169	2946.365380
616.644454	2945.263888
616.992686	2941.694751
617.340864	2938.531427
617.688990	2932.393822
618.037063	2934.594286
618.385082	2927.471135
618.733048	2924.373346
619.080961	2919.881678
619.428821	2914.669125
619.776628	2913.610483
620.124382	2908.733166
620.472083	2904.077661
620.819731	2899.649007
621.167326	2890.711041
621.514868	2888.228273
621.862357	2876.316027
622.209793	2877.049514
622.557176	2864.504603
622.904506	2858.535877
623.251783	2847.047087
623.599007	2844.922241
623.946179	2834.575273
624.293297	2832.878924
624.640363	2826.295177
624.987376	2824.124961
625.334336	2816.774958
625.681243	2809.997127
626.028097	2805.754996
626.374899	2800.834830
626.721647	2796.940539
627.068343	2792.932821
627.414987	2788.675567
627.761577	2782.200205
628.108115	2787.495937
628.454600	2774.235182
628.801032	2774.640995
629.147412	2769.257042
629.493739	2771.260901
629.840014	2763.973913
630.186236	2763.368975
630.532405	2758.373191
630.878521	2756.702049
631.224585	2754.463776
631.570597	2749.939341
631.916556	2748.263157
632.262462	2744.787282
632.608316	2745.982035
632.954117	2739.662949
633.299866	2738.369893
633.645562	2733.585838
633.991206	2731.826475
634.336797	2724.199209
634.682336	2725.003273
635.027823	2717.514639
635.373257	2716.501367
635.718639	2712.949874
636.063968	2710.081458
636.409245	2706.754296
636.754470	2701.806404
637.099642	2698.136444
637.444762	2694.295085
637.789829	2692.848273
638.134845	2689.261492
638.479808	2688.041533
638.824719	2685.168076
639.169577	2684.757222
639.514383	2677.936540
639.859137	2678.629699
640.203839	2679.801767
640.548489	2675.521828
640.893086	2670.894048
641.237632	2666.780467
641.582125	2667.831547
641.926566	2663.246618
642.270955	2668.179387
642.615292	2663.347441
642.959576	2664.733758
643.303809	2661.643531
643.647990	2662.316525
643.992118	2659.720331
644.336195	2660.083294
644.680219	2656.806544
645.024192	2658.444919
645.368112	2659.248983
645.711981	2662.755106
646.055797	2665.215189
646.399562	2663.339879
646.743274	2670.226096
647.086935	2671.017557
647.430544	2669.074192
647.774101	2670.536127
648.117606	2666.926660
648.461059	2667.518996
648.804460	2665.782318
649.147810	2665.346259
649.491108	2659.566576
649.834354	2657.023314
650.177548	2651.664567
650.520690	2647.921510
650.863781	2650.681542
651.206820	2648.594504
651.549807	2645.675676
651.892742	2639.928761
652.235626	2635.545478
652.578458	2637.763585
652.921238	2633.894500
653.263967	2636.997330
653.606644	2632.097328
653.949269	2632.467853
654.291843	2629.843933
654.634365	2633.337452
654.976836	2627.209930
655.319255	2627.472070
655.661622	2624.543159
656.003938	2623.388735
656.346203	2622.025103
656.688416	2622.597274
657.030577	2622.002418
657.372687	2621.256327
657.714746	2623.456791
658.056753	2620.260699
658.398708	2615.774072
658.740612	2616.726850
659.082465	2614.672580
659.424266	2616.696603
659.766016	2613.835749
660.107715	2615.338012
660.449362	2615.653085
660.790958	2617.346912
661.132503	2614.307097
661.473996	2617.598970
661.815438	2616.883126
662.156829	2618.970164
662.498168	2616.988990
662.839456	2615.887498
663.180693	2613.699637
663.521879	2619.554938
663.863013	2615.827004
664.204097	2615.053187
664.545129	2620.341358
664.886110	2619.446553
665.227040	2616.321037
665.567918	2616.492437
665.908746	2614.662498
666.249522	2620.250617
666.590248	2618.408075
666.930922	2617.956892
667.271545	2618.140894
667.612118	2620.195164
667.952639	2617.906480
668.293109	2616.134515
668.633528	2615.428753
668.973896	2617.543517
669.314213	2617.135184
669.654480	2613.964298
669.994695	2611.902466
670.334859	2612.827518
670.674973	2612.893053
671.015035	2611.731067
671.355047	2610.924482
671.695008	2611.884822
672.034918	2611.993207
672.374777	2612.588063
672.714585	2609.500356
673.054342	2610.821139
673.394049	2612.230141
673.733705	2614.738115
674.073310	2611.352980
674.412864	2610.049842
674.752368	2606.647063
675.091820	2608.834924
675.431223	2604.814604
675.770574	2603.524068
676.109875	2597.567945
676.449125	2599.244129
676.788324	2599.407966
677.127473	2597.552822
677.466571	2595.201123
677.805619	2596.413521
678.144616	2594.034096
678.483562	2596.315218
678.822458	2596.111052
679.161303	2597.237750
679.500098	2593.351020
679.838842	2592.892275
680.177535	2592.494024
680.516179	2594.966710
680.854771	2593.910588
681.193314	2598.679520
681.531805	2601.958790
681.870247	2608.149327
682.208638	2609.573453
682.546978	2613.397168
682.885268	2612.807353
683.223508	2609.903649
683.561697	2610.506067
683.899836	2611.428598
684.237925	2607.609924
684.575963	2607.481374
684.913951	2603.478698
685.251889	2604.486929
685.589776	2602.813266
685.927614	2604.759151
686.265401	2602.515838
686.603137	2607.786364
686.940824	2608.368617
687.278460	2607.030191
687.616046	2610.677466
687.953582	2614.869185
688.291068	2613.908845
688.628504	2616.484875
688.965889	2613.984463
689.303224	2612.908176
689.640510	2612.356170
689.977745	2607.224275
690.314930	2601.305961
690.652065	2598.147678
690.989150	2596.630291
691.326185	2590.979157
691.663170	2589.060998
692.000105	2584.065215
692.336990	2580.612024
692.673825	2577.443659
693.010610	2578.766962
693.347345	2569.239181
693.684030	2566.910168
694.020665	2564.876063
694.357251	2556.646379
694.693786	2563.751885
695.030272	2562.143757
695.366707	2557.132850
695.703093	2557.757953
696.039429	2557.362223
696.375716	2555.181924
696.711952	2556.401883
697.048139	2553.435164
697.384276	2555.668395
697.720363	2556.028837
698.056400	2554.123281
698.392388	2550.544062
698.728326	2549.924000
699.064214	2548.754453
699.400053	2549.757642
699.735842	2549.324103
700.071581	2543.945192
700.407270	2544.330840
700.742910	2545.177754
701.078501	2539.090561
701.414042	2539.942516
701.749533	2540.902855
702.084974	2539.836651
702.420366	2534.132586
702.755709	2539.766075
703.091002	2535.619726
703.426246	2535.173584
703.761440	2535.614685
704.096584	2533.013450
704.431679	2532.075795
704.766725	2531.211237
705.101721	2531.601927
705.436668	2532.199303
705.771565	2530.611340
706.106413	2532.443799
706.441212	2531.344828
706.775961	2533.391536
707.110661	2534.414890
707.445311	2537.212731
707.779913	2536.000333
708.114465	2537.719367
708.448967	2536.436393
708.783421	2541.918648
709.117825	2545.177754
709.452180	2545.202960
709.786485	2546.047353
710.120742	2552.515153
710.454949	2548.663712
710.789107	2553.704866
711.123216	2553.125133
711.457275	2559.242573
711.791286	2560.278530
712.125247	2561.533777
712.459159	2563.209961
712.793023	2567.492421
713.126837	2561.924467
713.460602	2562.247101
713.794318	2562.138716
714.127985	2560.092007
714.461602	2555.537325
714.795171	2554.392983
715.128691	2547.594987
715.462162	2549.762683
715.795584	2540.055942
716.128957	2541.064172
716.462281	2537.432021
716.795556	2537.328677
717.128782	2533.018491
717.461960	2531.659900
717.795088	2529.048582
718.128167	2529.318284
718.461198	2526.580937
718.794180	2529.577903
719.127113	2521.065915
719.459997	2523.107582
719.792833	2518.121881
720.125619	2520.057684
720.458357	2516.521315
720.791046	2519.311593
721.123686	2515.828156
721.456278	2513.108454
721.788821	2512.490912
722.121315	2515.472755
722.453761	2514.038547
722.786158	2515.361849
723.118506	2513.484020
723.450805	2510.199708
723.783056	2513.105933
724.115259	2512.989987
724.447412	2513.252127
724.779518	2514.028464
725.111574	2517.474093
725.443582	2515.989473
725.775542	2514.020903
726.107453	2519.740092
726.439315	2518.444515
726.771129	2526.147398
727.102895	2522.001049
727.434612	2523.097500
727.766281	2525.308046
728.097901	2523.576410
728.429473	2523.621780
728.760996	2525.330731
729.092471	2522.316121
729.423897	2527.742923
729.755276	2527.596730
730.086606	2525.383663
730.417887	2533.953625
730.749120	2529.976154
731.080305	2535.793646
731.411442	2538.800694
731.742530	2539.680376
732.073570	2539.985365
732.404562	2542.483257
732.735506	2540.292876
733.066401	2537.371527
733.397249	2538.052083
733.728048	2533.084026
734.058798	2529.189734
734.389501	2521.824609
734.720156	2520.365195
735.050762	2513.209277
735.381320	2516.042405
735.711831	2512.309431
736.042293	2508.878926
736.372707	2509.894718
736.703073	2509.902280
737.033391	2512.160717
737.363661	2507.769872
737.693883	2512.193484
738.024056	2516.927128
738.354182	2510.131652
738.684260	2516.415451
739.014290	2519.261182
739.344272	2521.819568
739.674207	2521.602798
740.004093	2524.309897
740.333931	2521.068436
740.663722	2522.411903
740.993464	2523.566327
741.323159	2517.844618
741.652806	2520.768487
741.982405	2518.888137
742.311956	2517.048115
742.641460	2516.014679
742.970915	2511.699451
743.300323	2514.552744
743.629683	2508.838596
743.958996	2508.737773
744.288260	2505.705519
744.617477	2501.428100
744.946647	2500.445075
745.275768	2499.996413
745.604842	2497.788387
745.933869	2498.242091
746.262847	2496.873418
746.591778	2500.923985
746.920662	2500.155209
747.249498	2501.312154
747.578286	2501.223933
747.907027	2501.226454
748.235720	2503.530261
748.564365	2501.871722
748.892963	2501.849037
749.221514	2501.591938
749.550017	2500.482884
749.878473	2503.174860
750.206881	2500.140085
750.535242	2501.213851
750.863555	2500.026659
751.191821	2501.770899
751.520039	2498.844509
751.848210	2498.017760
752.176334	2499.318377
752.504411	2497.909375
752.832440	2496.233191
753.160421	2495.618170
753.488356	2497.717811
753.816243	2498.022801
754.144082	2494.844353
754.471875	2495.938284
754.799620	2492.938797
755.127318	2497.490959
755.454969	2492.411997
755.782572	2494.224291
756.110129	2495.897954
756.437638	2495.328304
756.765100	2494.557008
757.092515	2494.025166
757.419882	2492.457367
757.747203	2493.223622
758.074477	2496.639004
758.401703	2497.072543
758.728882	2498.385764
759.056014	2499.759478
759.383099	2497.813593
759.710138	2501.448265
760.037129	2501.355003
760.364073	2502.131341
760.690970	2501.652432
761.017820	2501.375168
761.344623	2502.572442
761.671379	2503.648728
761.998088	2508.112670
762.324751	2518.404186
762.651366	2540.794471
762.977935	2571.689182
763.304456	2582.855338
763.630931	2592.728437
763.957359	2583.228383
764.283740	2573.854357
764.610074	2557.072356
764.936362	2541.928730
765.262602	2529.779549
765.588796	2518.547859
765.914943	2508.261384
766.241044	2504.772906
766.567097	2501.254180
766.893104	2492.238077
767.219064	2489.707418
767.544978	2487.368322
767.870845	2487.842191
768.196665	2481.704586
768.522438	2483.133753
768.848165	2480.434215
769.173846	2478.475727
769.499479	2477.820377
769.825066	2477.124698
770.150607	2474.946919
770.476101	2473.149748
770.801548	2475.196456
771.126949	2470.961887
771.452303	2469.820066
771.777611	2468.829479
772.102872	2471.211424
772.428087	2469.893162
772.753256	2470.951805
773.078378	2466.775209
773.403453	2468.605147
773.728482	2467.924592
774.053465	2464.400825
774.378401	2465.252780
774.703291	2464.688171
775.028135	2460.839250
775.352932	2462.681792
775.677683	2462.366720
776.002388	2461.970989
776.327046	2461.703808
776.651658	2461.469394
776.976224	2457.076029
777.300743	2459.962089
777.625216	2460.700618
777.949643	2459.773046
778.274024	2460.574589
778.598359	2456.798765
778.922647	2451.412292
779.246889	2458.598457
779.571086	2454.147118
779.895236	2459.205916
780.219339	2458.046451
780.543397	2459.959569
780.867409	2456.864300
781.191374	2460.471246
781.515294	2459.180710
781.839167	2462.487707
782.162995	2457.675926
782.486776	2458.515278
782.810511	2458.573251
783.134201	2459.405042
783.457844	2457.824640
783.781441	2456.710545
784.104993	2460.506534
784.428498	2458.013683
784.751958	2457.575103
785.075372	2455.661985
785.398739	2456.808848
785.722061	2457.411265
786.045337	2457.338169
786.368568	2460.561987
786.691752	2457.476800
787.014891	2461.111472
787.337983	2462.081894
787.661030	2469.787298
787.984031	2471.997844
788.306987	2474.294090
788.629897	2473.081692
788.952760	2476.096302
789.275579	2474.760396
789.598351	2472.050776
789.921078	2468.438789
790.243759	2465.527523
790.566395	2464.327728
790.888984	2461.729014
791.211529	2462.475104
791.534027	2457.318004
791.856480	2458.396811
792.178888	2458.646348
792.501249	2456.776080
792.823566	2458.669033
793.145836	2453.406069
793.468062	2454.938579
793.790241	2454.401697
794.112375	2457.151646
794.434464	2452.947324
794.756507	2459.871348
795.078505	2458.018724
795.400457	2457.267593
795.722364	2457.116358
796.044226	2464.151288
796.366042	2458.996708
796.687812	2462.797738
797.009538	2465.220013
797.331218	2466.104735
797.652852	2465.320836
797.974442	2465.270424
798.295986	2463.054837
798.617484	2464.859570
798.938938	2460.763633
799.260346	2461.981071
799.581709	2459.636935
799.903026	2458.152315
800.224299	2455.099896
800.545526	2457.857408
800.866708	2455.104937
801.187845	2454.860442
801.508936	2455.036882
801.829983	2454.114351
802.150984	2451.618980
802.471940	2454.391614
802.792851	2451.772735
803.113717	2452.629731
803.434538	2449.017744
803.755314	2452.672581
804.076045	2452.092848
804.396731	2449.728547
804.717372	2450.552776
805.037967	2450.333485
805.358518	2449.673094
805.679024	2454.474793
805.999485	2451.659309
806.319901	2453.781635
806.640272	2455.616615
806.960598	2452.274330
807.280879	2452.672581
807.601115	2455.052005
807.921306	2453.673250
808.241453	2454.172324
808.561554	2453.920266
808.881611	2455.220884
809.201623	2453.887499
809.521590	2453.922787
809.841513	2451.717282
810.161390	2453.446398
810.481223	2452.334823
810.801011	2454.016048
811.120755	2452.609566
811.440453	2454.547890
811.760107	2448.823660
812.079716	2449.844493
812.399281	2448.770728
812.718801	2450.348609
813.038276	2446.240068
813.357707	2452.123095
813.677093	2452.307097
813.996434	2450.978753
814.315731	2449.511777
814.634983	2449.930193
814.954191	2449.262240
815.273354	2449.292487
815.592473	2451.440019
815.911547	2453.217025
816.230577	2452.337344
816.549562	2455.790534
816.868502	2457.915381
817.187399	2459.737758
817.506250	2458.283385
817.825058	2460.022583
818.143821	2461.439147
818.462539	2463.112810
818.781213	2465.915692
819.099843	2473.333750
819.418429	2482.546458
819.736970	2490.821513
820.055466	2500.003974
820.373919	2512.153155
820.692327	2531.357431
821.010691	2571.048955
821.329011	2653.602891
821.647286	2774.436828
821.965517	2904.937178
822.283704	2983.422902
822.601847	3009.788136
822.919945	2955.242852
823.237999	2892.014180
823.556010	2825.632266
823.873976	2765.703029
824.191897	2711.803012
824.509775	2674.324554
824.827609	2636.473050
825.145398	2611.073196
825.463144	2599.012236
825.780845	2600.690940
826.098502	2615.711058
826.416116	2647.976963
826.733685	2677.429904
827.051210	2683.348219
827.368692	2669.038904
827.686129	2635.752165
828.003522	2604.890221
828.320872	2570.272618
828.638177	2544.754297
828.955439	2526.860721
829.272656	2509.569564
829.589830	2496.898623
829.906960	2492.104486
830.224046	2482.125522
830.541088	2477.356591
830.858086	2471.443317
831.175041	2469.005919
831.491952	2466.079529
831.808819	2467.664972
832.125642	2471.367700
832.442421	2482.115440
832.759157	2495.653458
833.075849	2522.089269
833.392497	2549.371994
833.709101	2566.534602
834.025662	2564.117369
834.342179	2549.523228
834.658653	2530.863398
834.975083	2514.903104
835.291469	2502.176712
835.607811	2488.671460
835.924110	2481.702065
836.240366	2474.236116
836.556578	2467.942236
836.872746	2461.078705
837.188871	2454.583178
837.504952	2451.530759
837.820990	2447.810388
838.136984	2452.478496
838.452935	2445.962805
838.768842	2446.479523
839.084706	2452.160904
839.400526	2463.102728
839.716303	2479.793988
840.032037	2487.832108
840.347727	2481.722230
840.663373	2477.149903
840.978977	2468.441310
841.294537	2462.124744
841.610054	2456.624845
841.925527	2452.120574
842.240957	2443.608586
842.556344	2443.520366
842.871687	2441.062803
843.186987	2439.159768
843.502244	2435.255394
843.817458	2435.376382
844.132629	2435.298244
844.447756	2433.337235
844.762840	2427.804569
845.077881	2430.640218
845.392879	2427.207192
845.707833	2428.026380
846.022745	2423.262489
846.337613	2430.345310
846.652438	2429.490835
846.967221	2428.112079
847.281960	2429.566452
847.596656	2428.119641
847.911309	2428.069229
848.225919	2427.086204
848.540485	2428.724579
848.855009	2429.304312
849.169490	2428.217943
849.483928	2427.192069
849.798323	2424.540422
850.112675	2426.188879
850.426984	2428.159970
850.741251	2422.632345
851.055474	2424.754671
851.369654	2425.558735
851.683792	2425.052099
851.997887	2426.176276
852.311938	2425.667120
852.625947	2427.063519
852.939914	2425.830957
853.253837	2424.873138
853.567718	2426.501431
853.881555	2424.250555
854.195350	2425.064702
854.509103	2425.808272
854.822812	2425.704928
855.136479	2425.757860
855.450103	2427.305495
855.763685	2426.413210
856.077224	2425.795669
856.390720	2427.557552
856.704173	2424.865576
857.017584	2428.033941
857.330953	2424.704259
857.644278	2428.815320
857.957561	2426.753488
858.270802	2429.377409
858.584000	2427.839857
858.897155	2429.145516
859.210268	2426.728282
859.523339	2427.723910
859.836367	2425.709969
860.149352	2426.410690
860.462295	2426.753488
860.775195	2422.851635
861.088054	2422.471028
861.400869	2425.609146
861.713642	2416.867786
862.026373	2430.060485
862.339062	2426.917326
862.651708	2426.340114
862.964312	2426.425813
863.276873	2428.701894
863.589392	2427.224836
863.901869	2429.952100
864.214303	2429.190886
864.526696	2431.184663
864.839045	2429.649631
865.151353	2427.552511
865.463619	2431.058634
865.775842	2429.546288
866.088023	2428.563263
866.400162	2430.431010
866.712258	2430.413366
867.024313	2432.523089
867.336325	2430.872111
867.648296	2432.240784
867.960224	2430.211720
868.272110	2431.953438
868.583954	2429.614343
868.895755	2429.697522
869.207515	2431.255239
869.519233	2432.694488
869.830909	2430.809097
870.142542	2434.902513
870.454134	2433.266659
870.765684	2433.261618
871.077191	2432.502924
871.388657	2435.262956
871.700081	2431.580393
872.011463	2434.816814
872.322803	2433.944694
872.634101	2435.444438
872.945357	2435.494849
873.256571	2437.692792
873.567744	2436.384613
873.878874	2437.239088
874.189963	2436.185487
874.501010	2438.927875
874.812015	2435.993923
875.122979	2437.072730
875.433900	2439.313523
875.744780	2438.396033
876.055618	2440.031888
876.366415	2441.264450
876.677169	2441.065324
876.987882	2437.894438
877.298554	2438.580035
877.609183	2442.391147
877.919771	2440.800663
878.230317	2446.280398
878.540822	2449.453804
878.851285	2453.590071
879.161707	2457.912860
879.472087	2472.315437
879.782425	2484.262971
880.092722	2514.585512
880.402977	2561.851370
880.713191	2615.063270
881.023363	2667.491270
881.333494	2695.744416
881.643583	2709.453834
881.953631	2705.320088
882.263637	2688.591019
882.573602	2669.999244
882.883526	2650.578198
883.193408	2627.620784
883.503248	2605.956425
883.813048	2587.523446
884.122806	2565.612071
884.432522	2547.622713
884.742197	2530.228212
885.051831	2516.879237
885.361424	2499.444406
885.670975	2492.991729
885.980485	2481.238279
886.289954	2477.167547
886.599382	2469.658749
886.908768	2464.030300
887.218113	2459.306739
887.527417	2456.284568
887.836680	2450.078907
888.145901	2450.267950
888.455082	2444.672270
888.764221	2446.391303
889.073319	2444.248813
889.382376	2444.331992
889.691392	2440.906528
890.000366	2444.054728
890.309300	2443.825356
890.618193	2440.871240
890.927044	2441.856785
891.235855	2440.546085
891.544625	2442.930551
891.853353	2442.408792
892.162041	2446.406427
892.470687	2447.553289
892.779293	2449.390790
893.087858	2454.457149
893.396381	2459.284054
893.704864	2472.295272
894.013306	2485.051912
894.321707	2504.949346
894.630068	2513.415964
894.938387	2516.201202
895.246665	2514.585512
895.554903	2505.859274
895.863100	2496.172697
896.171256	2492.974085
896.479371	2483.549648
896.787446	2479.000007
897.095480	2471.765951
897.403473	2466.671865
897.711425	2464.670527
898.019336	2460.735906
898.327207	2457.922943
898.635038	2453.002776
898.942827	2450.376335
899.250576	2449.400872
899.558284	2444.999945
899.865952	2440.573812
900.173579	2443.164965
900.481165	2439.305961
900.788711	2438.774120
901.096216	2435.237750
901.403681	2436.908893
901.711105	2436.918975
902.018489	2437.198759
902.325832	2442.212187
902.633135	2438.078440
902.940397	2448.942127
903.247619	2458.543004
903.554800	2483.012765
903.861941	2507.192660
904.169041	2526.217974
904.476101	2535.597041
904.783121	2531.838861
905.090100	2521.491893
905.397039	2511.026457
905.703938	2498.809221
906.010796	2490.140957
906.317614	2478.258957
906.624391	2475.758545
906.931129	2467.196145
907.237826	2461.663479
907.544483	2458.142233
907.851099	2448.475820
908.157675	2444.473144
908.464211	2439.661363
908.770707	2431.172060
909.077163	2432.593665
909.383578	2424.507654
909.689954	2427.933118
909.996289	2424.122006
910.302584	2424.338776
910.608839	2427.693663
910.915054	2425.619229
911.221229	2425.596543
911.527363	2425.868766
911.833458	2425.513364
912.139513	2426.579568
912.445527	2428.152408
912.751502	2426.629980
913.057436	2428.505289
913.363331	2431.250197
913.669186	2436.987031
913.975000	2439.928544
914.280775	2449.433639
914.586510	2458.628704
914.892205	2468.395940
915.197859	2482.450677
915.503475	2503.222751
915.809050	2520.211439
916.114585	2528.204189
916.420081	2534.447658
916.725536	2530.323994
917.030952	2522.404341
917.336328	2519.162879
917.641665	2513.801612
917.946961	2503.278204
918.252218	2497.311998
918.557435	2489.200782
918.862612	2483.312714
919.167750	2477.308700
919.472848	2470.576239
919.777906	2464.040383
920.082925	2458.714404
920.387904	2453.118723
920.692843	2450.383897
920.997743	2445.453648
921.302603	2440.291507
921.607423	2441.133380
921.912204	2437.168512
922.216946	2438.174222
922.521647	2433.075095
922.826310	2431.081319
923.130932	2431.066195
923.435516	2426.468663
923.740059	2428.180135
924.044564	2427.008067
924.349028	2425.730134
924.653454	2421.876172
924.957840	2419.489186
925.262186	2419.259813
925.566493	2422.972623
925.870761	2418.523805
926.174989	2419.912643
926.479178	2419.496747
926.783328	2421.621594
927.087438	2417.596232
927.391509	2418.150759
927.695541	2419.242169
927.999533	2419.111099
928.303486	2417.757549
928.607400	2420.608322
928.911275	2416.613207
929.215110	2418.022210
929.518906	2416.257806
929.822663	2415.509195
930.126381	2416.393917
930.430060	2416.429205
930.733699	2415.433577
931.037299	2419.322827
931.340861	2414.810995
931.644383	2418.990111
931.947866	2418.485996
932.251309	2415.315110
932.554714	2415.854514
932.858080	2415.844431
933.161407	2416.409041
933.464694	2417.099679
933.767943	2416.580440
934.071153	2416.189750
934.374323	2415.720923
934.677455	2416.449370
934.980548	2413.719585
935.283602	2415.317631
935.586617	2415.310069
935.889593	2414.649678
936.192530	2413.074317
936.495428	2414.712692
936.798287	2417.661767
937.101108	2417.717220
937.403890	2415.983063
937.706632	2419.169072
938.009336	2420.293250
938.312002	2423.622932
938.614628	2421.896337
938.917216	2421.866090
939.219765	2422.657551
939.522275	2426.952614
939.824747	2425.218457
940.127179	2423.554876
940.429573	2421.845925
940.731929	2424.197623
941.034246	2421.132602
941.336524	2425.853642
941.638763	2422.138312
941.940964	2423.207037
942.243126	2423.272572
942.545250	2424.177459
942.847335	2421.195616
943.149381	2422.806265
943.451389	2418.874165
943.753359	2421.523291
944.055290	2423.761563
944.357182	2422.486152
944.659036	2419.058167
944.960851	2418.516243
945.262628	2419.093455
945.564367	2417.263516
945.866067	2420.104206
946.167729	2419.058167
946.469352	2418.629669
946.770937	2418.054977
947.072484	2416.759401
947.373992	2416.403999
947.675462	2415.451221
947.976893	2417.475245
948.278286	2416.333423
948.579641	2419.065729
948.880958	2416.840059
949.182236	2416.701428
949.483476	2415.005079
949.784678	2414.332085
950.085841	2415.599935
950.386967	2418.266706
950.688054	2418.178486
950.989103	2417.059349
951.290114	2419.174113
951.591087	2419.584967
951.892021	2418.221335
952.192917	2422.153435
952.493776	2419.622776
952.794596	2421.462797
953.095378	2420.046233
953.396122	2420.784762
953.696828	2418.065060
953.997496	2420.189906
954.298126	2419.242169
954.598718	2419.128743
954.899272	2418.604463
955.199788	2414.269071
955.500266	2417.404668
955.800706	2414.117836
956.101108	2411.952661
956.401472	2414.362332
956.701798	2411.630027
957.002087	2412.091292
957.302337	2412.166910
957.602550	2411.105747
957.902724	2414.742939
958.202861	2411.526683
958.502960	2410.909142
958.803022	2410.296642
959.103045	2409.069121
959.403031	2410.568864
959.702979	2411.415778
960.002889	2411.438463
960.302762	2409.122053
960.602596	2410.566343
960.902393	2408.587690
961.202153	2409.550551
961.501875	2405.439490
961.801559	2408.438976
962.101205	2408.365880
962.400814	2407.397978
962.700385	2410.611714
962.999918	2409.079203
963.299414	2405.197514
963.598873	2409.537948
963.898293	2406.210786
964.197677	2407.529048
964.497022	2406.419994
964.796331	2407.261867
965.095601	2407.982752
965.394835	2407.236661
965.694030	2408.776734
965.993189	2406.200704
966.292309	2407.024933
966.591393	2408.582649
966.890439	2407.997875
967.189447	2408.771692
967.488419	2406.351939
967.787353	2407.856723
968.086249	2409.132135
968.385108	2410.500808
968.683930	2409.943761
968.982714	2409.401837
969.281462	2407.675242
969.580172	2406.447721
969.878844	2407.178688
970.177480	2407.377813
970.476078	2406.868657
970.774639	2409.931158
971.073162	2407.143400
971.371649	2405.968811
971.670098	2403.627195
971.968510	2403.168450
972.266885	2402.142575
972.565223	2407.576939
972.863524	2407.690365
973.161788	2407.324881
973.460014	2409.537948
973.758204	2407.718091
974.056356	2408.524676
974.354471	2409.308575
974.652550	2409.674059
974.950591	2411.027609
975.248595	2407.463513
975.546563	2409.492577
975.844493	2405.212638
976.142386	2407.919738
976.440243	2409.006106
976.738062	2409.026271
977.035845	2408.363359
977.333590	2406.606517
977.631299	2407.798750
977.928971	2407.788667
978.226606	2404.884963
978.524204	2407.365211
978.821765	2409.227917
979.119290	2408.111301
979.416777	2406.314130
979.714228	2408.885118
980.011642	2407.801270
980.309020	2407.183729
980.606360	2407.604665
980.903664	2410.379821
981.200931	2408.476785
981.498162	2412.723957
981.795356	2411.556930
982.092513	2413.593556
982.389633	2415.224369
982.686717	2417.296284
982.983764	2417.860893
983.280775	2420.552869
983.577749	2418.589340
983.874686	2419.642941
984.171587	2420.184865
984.468451	2418.170924
984.765279	2416.615728
985.062070	2417.863413
985.358824	2415.794020
985.655543	2413.311252
985.952224	2414.478279
986.248869	2412.424008
986.545478	2406.523338
986.842050	2409.396796
987.138586	2404.464027
987.435086	2404.411094
987.731549	2401.547719
988.027975	2404.985786
988.324366	2404.305230
988.620719	2404.796743
988.917037	2406.097360
989.213318	2405.414284
989.509563	2408.101219
989.805772	2403.183573
990.101944	2405.661301
990.398080	2402.571073
990.694180	2404.247257
990.990244	2404.882442
991.286271	2405.389078
991.582262	2407.375293
991.878217	2406.447721
992.174136	2406.563667
992.470019	2405.706671
992.765865	2405.459654
993.061676	2405.983934
993.357450	2406.984603
993.653188	2404.075858
993.948890	2407.695406
994.244556	2404.096022
994.540186	2408.418812
994.835780	2408.824625
995.131337	2410.147927
995.426859	2408.852351
995.722345	2410.064748
996.017795	2410.773031
996.313208	2413.316293
996.608586	2413.321334
996.903928	2411.798905
997.199234	2413.427198
997.494504	2410.526014
997.789738	2414.269071
998.084936	2413.192784
998.380099	2412.285377
998.675225	2409.691703
998.970316	2412.887795
999.265371	2410.886457
999.560390	2410.805798
999.855373	2407.768503
1000.150320	2405.837741
1000.445232	2405.010992
1000.740108	2404.010323
1001.034948	2404.763975
1001.329752	2406.999727
1001.624521	2404.854716
1001.919254	2401.767009
1002.213951	2399.226268
1002.508613	2400.174005
1002.803239	2403.619633
1003.097829	2400.471433
1003.392384	2404.516959
1003.686903	2401.600651
1003.981386	2404.839592
1004.275834	2402.518141
1004.570246	2406.195663
1004.864623	2404.973183
1005.158964	2402.155178
1005.453270	2402.213151
1005.747540	2406.730025
1006.041775	2402.911351
1006.335974	2402.934036
1006.630138	2403.307082
1006.924266	2405.862947
1007.218359	2402.898748
1007.512416	2404.353121
1007.806438	2406.503173
1008.100425	2402.863460
1008.394376	2400.993192
1008.688292	2404.247257
1008.982172	2401.134344
1009.276017	2401.088974
1009.569827	2401.686351
1009.863602	2404.819428
1010.157341	2398.039076
1010.451045	2403.730539
1010.744714	2402.505538
1011.038347	2401.250291
1011.331945	2402.248439
1011.625508	2405.880591
1011.919036	2400.743655
1012.212528	2401.225085
1012.505986	2401.227606
1012.799408	2401.323388
1013.092795	2403.818759
1013.386147	2403.549057
1013.679464	2400.053017
1013.972745	2402.041752
1014.265992	2398.878428
1014.559204	2403.102915
1014.852380	2400.458830
1015.145521	2403.251629
1015.438628	2403.793553
1015.731699	2403.319685
1016.024736	2401.308264
1016.317737	2402.165260
1016.610703	2405.799932
1016.903635	2398.160064
1017.196531	2397.320712
1017.489393	2400.894890
1017.782219	2400.743655
1018.075011	2404.511918
1018.367768	2403.619633
1018.660490	2402.129972
1018.953177	2402.129972
1019.245829	2402.129972
