Dividing Wavelength (nm)	Counts (n)	Blue Motor Position (mm): 0.000000	Red Motor Position (mm): 16.600000	
326.493990	1983.240335
326.888308	1983.240335
327.282561	1983.240335
327.676750	1956.716304
328.070874	1958.838629
328.464933	1963.834413
328.858929	1975.401340
329.252859	1987.797538
329.646726	2000.448313
330.040528	2016.406086
330.434265	2037.296627
330.827938	2054.605429
331.221547	2075.024623
331.615091	2096.053796
332.008571	2115.573144
332.401986	2135.901597
332.795338	2158.024700
333.188625	2175.671259
333.581847	2196.440813
333.975006	2214.790613
334.368100	2230.327449
334.761129	2248.959554
335.154095	2265.169384
335.546996	2280.202105
335.939833	2294.869342
336.332606	2311.134625
336.725315	2318.255255
337.117960	2328.720690
337.510540	2334.092039
337.903056	2346.861282
338.295508	2351.557117
338.687896	2358.055164
339.080220	2364.538088
339.472480	2369.095291
339.864676	2372.311547
340.256807	2377.844214
340.648875	2377.559388
341.040879	2378.970912
341.432818	2380.165665
341.824694	2385.325286
342.216506	2381.678011
342.608253	2381.357898
342.999937	2380.271529
343.391557	2380.992414
343.783113	2376.735160
344.174605	2377.456045
344.566033	2376.450335
344.957397	2374.640560
345.348697	2370.685775
345.739934	2369.296937
346.131106	2367.719056
346.522215	2367.373737
346.913260	2366.524303
347.304241	2365.538757
347.695159	2362.579600
348.086012	2361.402490
348.476802	2359.461646
348.867528	2358.244208
349.258191	2357.848477
349.648789	2355.020390
350.039324	2354.775894
350.429796	2354.780935
350.820203	2352.378825
351.210548	2355.305215
351.600828	2350.117868
351.991045	2353.946624
352.381198	2351.874710
352.771288	2352.164576
353.161314	2351.597446
353.551276	2351.831860
353.941175	2351.587364
354.331010	2352.792200
354.720782	2353.215657
355.110490	2353.099710
355.500135	2355.262365
355.889717	2354.226408
356.279235	2355.806810
356.668689	2357.888806
357.058080	2355.955524
357.447408	2354.430575
357.836672	2353.336644
358.225873	2357.727489
358.615010	2355.705987
359.004084	2359.645648
359.393095	2360.923581
359.782043	2362.078005
360.170927	2362.153622
360.559748	2361.795700
360.948505	2362.604806
361.337199	2360.611029
361.725830	2362.501462
362.114398	2364.132275
362.502903	2365.558922
362.891344	2365.763088
363.279722	2366.914992
363.668037	2369.014633
364.056289	2369.947246
364.444478	2368.966742
364.832603	2369.100332
365.220665	2373.042515
365.608665	2370.431197
365.996601	2370.224510
366.384474	2372.951774
366.772284	2374.617875
367.160031	2372.982021
367.547715	2374.844727
367.935336	2375.174923
368.322893	2374.958153
368.710388	2374.547299
369.097820	2379.137270
369.485189	2377.526621
369.872495	2378.860006
370.259738	2381.310007
370.646918	2382.383773
371.034035	2386.666233
371.421090	2386.129350
371.808081	2386.875441
372.195010	2396.441030
372.581875	2403.677607
372.968678	2407.614748
373.355418	2412.933165
373.742096	2422.985226
374.128710	2435.116762
374.515262	2443.185129
374.901751	2459.427727
375.288177	2474.210911
375.674540	2493.082470
376.060841	2515.155162
376.447079	2535.672658
376.833254	2563.487225
377.219367	2590.724579
377.605417	2621.435288
377.991404	2650.328661
378.377329	2685.818384
378.763191	2721.229970
379.148991	2767.963986
379.534727	2815.975936
379.920402	2862.896475
380.306013	2910.560585
380.691563	2974.184987
381.077049	3025.357740
381.462474	3079.721543
381.847835	3156.657112
382.233134	3227.281157
382.618371	3287.293573
383.003545	3369.471943
383.388657	3447.997996
383.773706	3537.770864
384.158693	3611.775002
384.543618	3701.903271
384.928480	3780.462092
385.313280	3883.483112
385.698017	3987.595542
386.082692	4106.062657
386.467305	4166.309487
386.851856	4291.380514
387.236344	4443.812403
387.620770	4507.633411
388.005133	4623.559785
388.389435	4772.309112
388.773674	4851.442624
389.157851	4984.398016
389.541965	5116.443479
389.926018	5138.740502
390.310008	5313.454292
390.693936	5439.853663
391.077802	5551.185025
391.461606	5684.382392
391.845348	5793.178053
392.229027	5911.561990
392.612645	6133.455938
392.996200	6251.416417
393.379694	6424.108704
393.763125	6639.068545
394.146494	6734.633699
394.529801	6866.427104
394.913047	7100.623989
395.296230	7095.343380
395.679351	7150.173490
396.062410	7409.026658
396.445408	7301.534134
396.828343	7450.240611
397.211217	7586.818071
397.594028	7471.042932
397.976778	7666.359917
398.359466	7829.554670
398.742092	7807.905435
399.124656	7944.782844
399.507158	8126.881924
399.889598	8152.372518
400.271977	8361.867749
400.654294	8387.401193
401.036549	8578.211387
401.418742	8603.548226
401.800874	8902.120645
402.182944	8980.361873
402.564952	9336.859670
402.946898	9161.790479
403.328783	9217.202843
403.710606	9400.118589
404.092367	9657.217435
404.474067	10001.714766
404.855705	9796.749012
405.237282	9742.148275
405.618797	10160.022120
406.000250	10400.858204
406.381642	10744.896789
406.762972	10692.317555
407.144240	10482.492129
407.525447	10720.356452
407.906593	10647.673096
408.287677	10884.955167
408.668700	11026.026816
409.049661	10983.749179
409.430560	11117.375044
409.811399	11062.517208
410.192176	11197.090810
410.572891	11239.486914
410.953545	11668.073211
411.334138	11128.987342
411.714669	11653.930254
412.095139	10976.797428
412.475547	11392.899307
412.855894	11205.610360
413.236180	11447.958790
413.616405	11103.411048
413.996568	11294.221242
414.376670	11210.570855
414.756711	11026.578822
415.136691	11196.019565
415.516609	11272.461101
415.896466	11249.042421
416.276262	11405.519836
416.655997	11687.721108
417.035670	11617.137392
417.415283	12049.696119
417.794834	12019.398784
418.174324	11688.467199
418.553753	11491.491674
418.933121	11757.316757
419.312428	11478.624129
419.691674	11282.492997
420.070859	11491.451345
420.449983	11099.857034
420.829045	11368.661440
421.208047	11038.135667
421.586988	11206.812675
421.965867	11235.451470
422.344686	11074.177397
422.723444	11290.193360
423.102141	10267.222257
423.480777	10873.869669
423.859352	10400.354088
424.237866	10902.258927
424.616319	10548.211131
424.994712	10751.258725
425.373044	10457.324168
425.751314	10649.475309
426.129524	9983.470830
426.507673	10368.466270
426.885762	10024.982211
427.263789	9937.099776
427.641756	9818.988062
428.019662	9660.088373
428.397508	9484.169747
428.775292	9427.451725
429.153016	9211.740752
429.530679	9053.226711
429.908282	8872.166109
430.285824	8576.129390
430.663305	8652.699476
431.040726	8310.700037
431.418086	8064.137203
431.795385	8102.386958
432.172624	8063.617964
432.549802	7733.802994
432.926920	7602.271728
433.303977	7388.960345
433.680974	7288.709439
434.057910	7194.671755
434.434786	7025.578852
434.811601	6836.462486
435.188355	6928.960097
435.565050	6681.946079
435.941683	6503.302711
436.318257	6531.555857
436.694770	6331.424570
437.071222	6289.711543
437.447614	5945.710766
437.823946	5798.612417
438.200218	5677.965003
438.576429	5495.631509
438.952580	5400.777159
439.328670	5259.962608
439.704700	5191.201270
440.080670	5007.978013
440.456580	4958.252071
440.832429	4863.128019
441.208218	4618.455617
441.583947	4556.668715
441.959616	4460.458293
442.335224	4383.063979
442.710773	4289.437149
443.086261	4240.941249
443.461689	4085.620779
443.837057	4007.422400
444.212365	3970.811020
444.587612	3887.122825
444.962800	3771.433386
445.337927	3718.917166
445.712995	3569.336049
446.088002	3607.648818
446.462949	3548.470713
446.837837	3489.022906
447.212664	3420.324582
447.587431	3484.385045
447.962139	3554.900705
448.336786	3589.283894
448.711374	3469.919454
449.085901	3272.833023
449.460369	3205.208465
449.834776	3150.181750
450.209124	3175.198476
450.583412	3121.356433
450.957640	3095.550766
451.331808	3022.620393
451.705917	2951.832511
452.079965	2913.718868
452.453954	2895.663975
452.827883	2862.218440
453.201752	2832.878924
453.575562	2810.299596
453.949311	2807.960501
454.323001	2787.836215
454.696632	2766.494490
455.070202	2767.782505
455.443713	2752.570823
455.817164	2742.556571
456.190556	2732.990982
456.563888	2712.619679
456.937160	2704.148020
457.310373	2680.210101
457.683526	2670.979748
458.056619	2664.232164
458.429653	2651.755308
458.802628	2648.811274
459.175542	2639.588483
459.548398	2648.009731
459.921194	2651.097437
460.293930	2651.820843
460.666607	2662.757626
461.039224	2666.233502
461.411782	2666.104952
461.784280	2652.435864
462.156719	2637.294758
462.529099	2632.218316
462.901419	2614.854062
463.273680	2604.048348
463.645882	2603.743359
464.018024	2601.898296
464.390106	2600.471650
464.762130	2614.569237
465.134094	2632.561115
465.505999	2662.465239
465.877845	2686.491378
466.249631	2688.961544
466.621358	2673.523010
466.993026	2659.448109
467.364634	2644.425470
467.736184	2629.405352
468.107674	2619.809516
468.479105	2612.217538
468.850477	2603.395519
469.221790	2596.106011
469.593043	2585.237283
469.964238	2576.405181
470.335373	2575.885942
470.706449	2581.423650
471.077467	2593.693818
471.448425	2613.354318
471.819324	2627.330918
472.190164	2617.009155
472.560945	2596.685743
472.931667	2580.932137
473.302330	2574.005592
473.672934	2568.087277
474.043479	2566.995868
474.413965	2563.618295
474.784393	2557.243756
475.154761	2563.187276
475.525070	2561.594271
475.895321	2560.187789
476.265513	2559.761812
476.635645	2569.768502
477.005719	2565.849005
477.375734	2567.545353
477.745691	2566.799263
478.115588	2574.290417
478.485427	2581.247210
478.855207	2595.758171
479.224928	2611.511777
479.594591	2615.917745
479.964194	2611.360542
480.333739	2610.894235
480.703226	2609.384410
481.072653	2613.913887
481.442022	2615.942951
481.811333	2619.343209
482.180584	2607.534306
482.549777	2609.465068
482.918912	2606.644543
483.287988	2604.025663
483.657005	2599.680189
484.025964	2596.108531
484.394864	2598.989551
484.763706	2594.608788
485.132489	2593.260279
485.501213	2590.477562
485.869879	2588.224167
486.238487	2591.357244
486.607036	2588.304825
486.975527	2589.633169
487.343959	2585.761563
487.712333	2590.661564
488.080648	2588.017479
488.448905	2590.041502
488.817104	2588.839187
489.185244	2593.913109
489.553326	2601.137082
489.921350	2613.941613
490.289315	2623.585340
490.657222	2629.521299
491.025070	2631.139509
491.392861	2627.444343
491.760593	2621.596605
492.128267	2612.094030
492.495883	2603.841661
492.863440	2599.934767
493.230939	2593.053592
493.598380	2589.764239
493.965763	2583.992118
494.333088	2582.111767
494.700354	2576.760583
495.067563	2581.632858
495.434713	2579.094637
495.801805	2582.999011
496.168839	2579.828125
496.535815	2578.887950
496.902733	2578.804771
497.269593	2577.882239
497.636395	2579.961715
498.003139	2580.029771
498.369825	2578.111612
498.736453	2581.900039
499.103023	2576.374934
499.469535	2579.626479
499.835989	2579.608835
500.202385	2579.326530
500.568723	2579.245872
500.935003	2581.952971
501.301226	2582.109247
501.667390	2585.801892
502.033497	2589.769280
502.399546	2587.168045
502.765537	2586.719382
503.131470	2591.390011
503.497345	2591.695001
503.863163	2585.701069
504.228923	2589.791965
504.594625	2597.479725
504.960269	2589.086204
505.325856	2598.901330
505.691385	2596.542070
506.056856	2602.097422
506.422270	2605.417022
506.787625	2605.422063
507.152924	2607.153699
507.518164	2606.899121
507.883347	2609.318875
508.248472	2609.177722
508.613540	2615.322889
508.978550	2620.467387
509.343503	2619.207098
509.708398	2627.078860
510.073236	2631.036166
510.438016	2633.506331
510.802738	2633.140847
511.167403	2637.327526
511.532010	2641.322640
511.896561	2644.216262
512.261053	2652.529125
512.625488	2647.162817
512.989866	2649.597694
513.354186	2652.040133
513.718449	2651.364618
514.082655	2657.666061
514.446803	2657.376194
514.810894	2664.796773
515.174927	2667.511434
515.538904	2667.662669
515.902822	2671.892197
516.266684	2671.456137
516.630488	2672.819769
516.994235	2673.336488
517.357925	2682.697910
517.721558	2681.510718
518.085133	2683.575071
518.448651	2686.443487
518.812112	2687.713858
519.175516	2687.852490
519.538863	2690.607481
519.902152	2690.322655
520.265385	2693.712831
520.628560	2693.924560
520.991678	2694.267358
521.354739	2696.084694
521.717743	2698.814479
522.080690	2700.397401
522.443580	2704.939481
522.806413	2702.600386
523.169189	2706.025850
523.531908	2707.702033
523.894569	2704.979810
524.257174	2706.643391
524.619722	2707.175233
524.982213	2711.563557
525.344647	2708.324616
525.707025	2708.511138
526.069345	2711.465255
526.431608	2710.310830
526.793815	2711.356870
527.155964	2713.675801
527.518057	2712.639843
527.880093	2711.124977
528.242072	2715.087324
528.603995	2711.535831
528.965860	2713.585060
529.327669	2711.114894
529.689421	2712.539020
530.051117	2712.685214
530.412755	2712.108002
530.774337	2713.612786
531.135862	2711.855944
531.497331	2713.149000
531.858743	2708.732949
532.220098	2713.978270
532.581396	2707.076930
532.942638	2706.877805
533.303824	2708.463247
533.664953	2707.729760
534.026025	2703.890921
534.387040	2705.481405
534.747999	2704.677341
535.108902	2708.604400
535.469748	2699.941177
535.830537	2700.571321
536.191270	2699.573173
536.551947	2697.965045
536.912567	2698.075950
537.273131	2698.514530
537.633638	2692.520598
537.994089	2690.647810
538.354483	2687.166893
538.714821	2691.376257
539.075103	2689.059846
539.435328	2686.236800
539.795497	2680.008455
540.155609	2682.690348
540.515665	2678.055007
540.875665	2676.192301
541.235609	2671.398164
541.595496	2668.880107
541.955328	2673.089471
542.315102	2663.420538
542.674821	2659.317039
543.034483	2659.082625
543.394090	2654.590957
543.753640	2653.998621
544.113134	2652.274547
544.472571	2648.072745
544.831953	2651.631800
545.191278	2638.202166
545.550548	2635.626136
545.909761	2635.416928
546.268918	2634.219654
546.628019	2631.729324
546.987064	2625.906792
547.346053	2619.229783
547.704986	2619.484362
548.063863	2615.816922
548.422684	2613.818105
548.781449	2608.106477
549.140158	2605.691765
549.498811	2603.846702
549.857408	2595.133068
550.215949	2596.947883
550.574434	2591.218612
550.932864	2591.165680
551.291237	2585.126377
551.649555	2586.389187
552.007817	2582.736871
552.366022	2583.530852
552.724173	2579.016499
553.082267	2578.310737
553.440305	2575.399471
553.798288	2569.619788
554.156215	2568.402350
554.514086	2565.654921
554.871902	2564.644169
555.229661	2561.145609
555.587365	2558.148643
555.945014	2555.181924
556.302606	2552.651264
556.660143	2552.164793
557.017625	2551.764021
557.375050	2549.558517
557.732421	2548.083979
558.089735	2548.578012
558.446994	2545.444935
558.804197	2543.282280
559.161345	2542.228679
559.518437	2537.242978
559.875474	2539.219110
560.232455	2534.654345
560.589381	2534.881197
560.946251	2536.738862
561.303065	2533.764582
561.659825	2531.803573
562.016528	2527.611853
562.373177	2529.096473
562.729770	2528.143695
563.086307	2527.082532
563.442789	2525.698735
563.799216	2527.095135
564.155587	2526.293592
564.511904	2528.476411
564.868164	2522.744619
565.224370	2524.541791
565.580520	2520.130781
565.936615	2523.026924
566.292654	2520.869310
566.648638	2520.690349
567.004567	2520.418127
567.360441	2519.286388
567.716260	2521.993487
568.072023	2517.958044
568.427732	2514.414112
568.783385	2515.823115
569.138982	2515.780265
569.494525	2513.657939
569.850013	2513.698269
570.205445	2519.185565
570.560823	2513.171468
570.916145	2515.445028
571.271412	2512.460665
571.626625	2516.912004
571.981782	2511.772548
572.336884	2514.482168
572.691931	2512.758093
573.046923	2511.510408
573.401860	2511.117198
573.756743	2508.609224
574.111570	2511.641478
574.466342	2509.345232
574.821059	2510.976046
575.175722	2509.057887
575.530330	2508.919255
575.884882	2507.883298
576.239380	2507.941271
576.593823	2505.922289
576.948211	2505.518997
577.302544	2506.426404
577.656823	2507.477485
578.011047	2509.055366
578.365216	2506.691065
578.719330	2506.348266
579.073389	2504.561177
579.427394	2505.206445
579.781344	2504.477998
580.135239	2503.174860
580.489080	2504.878770
580.842866	2500.850888
581.196597	2500.913903
581.550273	2504.692247
581.903895	2503.583193
582.257463	2503.615961
582.610975	2498.539519
582.964434	2499.754437
583.317837	2501.181084
583.671186	2501.493635
584.024481	2498.574807
584.377721	2498.932729
584.730906	2498.960455
585.084037	2501.705364
585.437113	2498.242091
585.790135	2499.280569
586.143103	2498.811741
586.496016	2498.128665
586.848874	2492.263283
587.201679	2495.136740
587.554428	2490.466111
587.907124	2494.771257
588.259765	2491.045844
588.612352	2494.683036
588.964884	2491.991060
589.317362	2496.712101
589.669786	2493.374857
590.022155	2494.705722
590.374470	2494.183962
590.726731	2496.265959
591.078937	2494.892244
591.431090	2492.386791
591.783188	2492.326297
592.135232	2491.625577
592.487222	2495.570279
592.839157	2490.022490
593.191038	2489.861173
593.542866	2490.745895
593.894639	2490.390494
594.246358	2490.519043
594.598022	2490.405617
594.949633	2490.163642
595.301190	2486.176089
595.652692	2486.007211
596.004141	2487.479228
596.355535	2486.723054
596.706876	2485.508136
597.058162	2486.866727
597.409395	2488.099289
597.760573	2486.007211
598.111698	2486.612149
598.462768	2484.494864
598.813785	2485.888743
599.164748	2482.201139
599.515657	2480.330871
599.866511	2481.850779
600.217312	2484.141984
600.568060	2482.183495
600.918753	2485.596357
601.269392	2483.463948
601.619978	2481.472693
601.970510	2483.733650
602.320988	2484.757004
602.671412	2484.699031
603.021783	2483.108547
603.372100	2482.140646
603.722363	2483.032930
604.072572	2482.896819
604.422728	2481.190388
604.772830	2479.302476
605.122878	2475.725777
605.472872	2481.185347
605.822813	2474.125211
606.172701	2480.010758
606.522534	2479.806591
606.872314	2480.605614
607.222041	2481.739874
607.571714	2482.188537
607.921333	2478.044708
608.270899	2480.058649
608.620411	2482.380100
608.969870	2480.976139
609.319276	2479.995635
609.668627	2481.238279
610.017926	2479.458752
610.367171	2478.906745
610.716362	2483.620224
611.065500	2479.385655
611.414585	2479.736015
611.763616	2483.010245
612.112594	2480.361118
612.461518	2479.662918
612.810389	2477.699389
613.159207	2478.513535
613.507971	2479.557054
613.856682	2482.899339
614.205340	2480.033443
614.553945	2485.261120
614.902496	2481.225676
615.250994	2480.729123
615.599439	2480.731643
615.947830	2482.019658
616.296169	2479.814153
616.644454	2482.110399
616.992686	2481.006386
617.340864	2481.581077
617.688990	2479.703248
618.037063	2479.552013
618.385082	2482.634679
618.733048	2482.165851
619.080961	2481.752477
619.428821	2482.995121
619.776628	2480.325830
620.124382	2481.404637
620.472083	2478.778196
620.819731	2480.855151
621.167326	2480.595532
621.514868	2483.350523
621.862357	2476.645788
622.209793	2482.503609
622.557176	2475.468678
622.904506	2478.700058
623.251783	2469.946094
623.599007	2473.676548
623.946179	2473.575725
624.293297	2476.418936
624.640363	2473.532875
624.987376	2474.331898
625.334336	2471.332412
625.681243	2473.328709
626.028097	2472.166723
626.374899	2471.251753
626.721647	2471.932309
627.068343	2473.752166
627.414987	2469.459623
627.761577	2470.639253
628.108115	2469.920889
628.454600	2469.288224
628.801032	2466.296299
629.147412	2470.614047
629.493739	2469.444500
629.840014	2466.956690
630.186236	2468.801753
630.532405	2467.672534
630.878521	2467.720425
631.224585	2466.008953
631.570597	2467.198666
631.916556	2466.384519
632.262462	2465.782101
632.608316	2466.934005
632.954117	2466.535754
633.299866	2464.920064
633.645562	2468.761423
633.991206	2466.016515
634.336797	2463.838737
634.682336	2464.763788
635.027823	2466.427369
635.373257	2465.388891
635.718639	2464.534416
636.063968	2461.534929
636.409245	2460.539301
636.754470	2458.744651
637.099642	2463.833695
637.444762	2463.616926
637.789829	2461.204734
638.134845	2462.207923
638.479808	2460.877059
638.824719	2459.599126
639.169577	2458.555607
639.514383	2460.183900
639.859137	2457.411265
640.203839	2459.425206
640.548489	2456.251800
640.893086	2454.124433
641.237632	2453.708538
641.582125	2455.364557
641.926566	2452.382714
642.270955	2454.910853
642.615292	2454.938579
642.959576	2453.320369
643.303809	2455.170472
643.647990	2456.622325
643.992118	2454.835236
644.336195	2455.498147
644.680219	2453.025462
645.024192	2456.173662
645.368112	2457.532253
645.711981	2455.724999
646.055797	2457.943107
646.399562	2456.859259
646.743274	2457.202058
647.086935	2462.510392
647.430544	2460.340176
647.774101	2457.469239
648.117606	2456.987808
648.461059	2462.487707
648.804460	2461.792028
649.147810	2460.904785
649.491108	2454.938579
649.834354	2453.895061
650.177548	2457.045782
650.520690	2454.764660
650.863781	2453.007818
651.206820	2457.476800
651.549807	2454.958744
651.892742	2455.702314
652.235626	2451.918928
652.578458	2454.898250
652.921238	2452.821295
653.263967	2453.446398
653.606644	2450.968671
653.949269	2453.990842
654.291843	2450.988835
654.634365	2451.306428
654.976836	2448.203598
655.319255	2448.881633
655.661622	2452.977571
656.003938	2450.232662
656.346203	2450.446911
656.688416	2449.042950
657.030577	2452.806171
657.372687	2448.884154
657.714746	2449.151335
658.056753	2448.188474
658.398708	2444.153031
658.740612	2447.165120
659.082465	2443.888370
659.424266	2448.279215
659.766016	2445.199070
660.107715	2450.162086
660.449362	2449.781479
660.790958	2451.109823
661.132503	2448.248968
661.473996	2449.889864
661.815438	2450.220059
662.156829	2450.761983
662.498168	2448.256530
662.839456	2450.293156
663.180693	2451.061932
663.521879	2449.282405
663.863013	2449.095882
664.204097	2449.105964
664.545129	2449.640327
664.886110	2451.160235
665.227040	2449.806685
665.567918	2448.685028
665.908746	2449.937755
666.249522	2450.600667
666.590248	2447.938937
666.930922	2447.568413
667.271545	2450.580502
667.612118	2452.165945
667.952639	2449.965481
668.293109	2448.329627
668.633528	2451.102261
668.973896	2452.281891
669.314213	2447.462548
669.654480	2450.033537
669.994695	2447.006324
670.334859	2450.436829
670.674973	2446.686211
671.015035	2448.450614
671.355047	2449.302569
671.695008	2449.410954
672.034918	2444.284101
672.374777	2447.981787
672.714585	2447.535645
673.054342	2447.583536
673.394049	2446.928186
673.733705	2447.770059
674.073310	2447.102106
674.412864	2448.216201
674.752368	2444.596652
675.091820	2447.896087
675.431223	2444.473144
675.770574	2448.037240
676.109875	2442.872578
676.449125	2443.495160
676.788324	2440.780499
677.127473	2446.184616
677.466571	2440.888884
677.805619	2444.858792
678.144616	2445.378031
678.483562	2445.239399
678.822458	2443.699327
679.161303	2443.222938
679.500098	2445.032712
679.838842	2441.345108
680.177535	2445.337702
680.516179	2443.711930
680.854771	2443.638833
681.193314	2445.859461
681.531805	2446.711416
681.870247	2448.062446
682.208638	2449.660491
682.546978	2450.290636
682.885268	2447.306272
683.223508	2450.668722
683.561697	2451.429936
683.899836	2449.839452
684.237925	2444.972218
684.575963	2446.522373
684.913951	2446.537497
685.251889	2447.112188
685.589776	2444.062290
685.927614	2445.020109
686.265401	2445.504060
686.603137	2448.506067
686.940824	2443.311158
687.278460	2446.673608
687.616046	2446.343412
687.953582	2447.434822
688.291068	2449.652930
688.628504	2450.915739
688.965889	2450.116716
689.303224	2450.058743
689.640510	2445.867023
689.977745	2448.115378
690.314930	2446.577826
690.652065	2448.901798
690.989150	2445.988011
691.326185	2445.269646
691.663170	2439.303441
692.000105	2442.769234
692.336990	2439.943667
692.673825	2438.988369
693.010610	2440.437700
693.347345	2435.547781
693.684030	2436.198090
694.020665	2435.656166
694.357251	2430.189035
694.693786	2435.472164
695.030272	2436.369489
695.366707	2432.896134
695.703093	2432.593665
696.039429	2432.518048
696.375716	2434.005188
696.711952	2433.523758
697.048139	2434.012750
697.384276	2436.994592
697.720363	2431.436720
698.056400	2435.008378
698.392388	2432.059303
698.728326	2432.339087
699.064214	2433.732966
699.400053	2432.792791
699.735842	2431.406473
700.071581	2433.211206
700.407270	2430.761206
700.742910	2431.761875
701.078501	2431.376226
701.414042	2431.088881
701.749533	2429.720207
702.084974	2429.730290
702.420366	2429.914292
702.755709	2429.639549
703.091002	2427.255083
703.426246	2429.654672
703.761440	2428.298602
704.096584	2427.484456
704.431679	2429.344641
704.766725	2430.557039
705.101721	2429.326997
705.436668	2428.452357
705.771565	2425.157963
706.106413	2429.997471
706.441212	2427.633170
706.775961	2428.734662
707.110661	2427.330700
707.445311	2430.937646
707.779913	2434.080805
708.114465	2429.773139
708.448967	2429.216092
708.783421	2429.362285
709.117825	2432.296237
709.452180	2435.031063
709.786485	2430.209199
710.120742	2433.611978
710.454949	2434.403439
710.789107	2429.581576
711.123216	2431.837492
711.457275	2435.177256
711.791286	2433.180959
712.125247	2433.974941
712.459159	2436.074582
712.793023	2440.271342
713.126837	2435.124324
713.460602	2435.436876
713.794318	2434.320260
714.127985	2432.152564
714.461602	2431.293047
714.795171	2435.449479
715.128691	2433.226330
715.462162	2434.647935
715.795584	2430.166349
716.128957	2430.032759
716.462281	2428.533016
716.795556	2427.812131
717.128782	2429.997471
717.461960	2426.710638
717.795088	2426.067891
718.128167	2429.258942
718.461198	2426.045206
718.794180	2428.608633
719.127113	2426.009918
719.459997	2426.403128
719.792833	2422.566810
720.125619	2425.185689
720.458357	2423.227201
720.791046	2420.633528
721.123686	2421.767787
721.456278	2427.015628
721.788821	2422.924732
722.121315	2422.894485
722.453761	2424.547983
722.786158	2424.515216
723.118506	2424.230391
723.450805	2423.789290
723.783056	2425.465473
724.115259	2426.261976
724.447412	2423.756522
724.779518	2424.545463
725.111574	2425.893972
725.443582	2425.220978
725.775542	2426.272058
726.107453	2424.179979
726.439315	2425.125196
726.771129	2429.291709
727.102895	2425.049578
727.434612	2429.813469
727.766281	2423.842222
728.097901	2426.108221
728.429473	2425.178128
728.760996	2426.536719
729.092471	2424.560586
729.423897	2427.161822
729.755276	2426.108221
730.086606	2429.808427
730.417887	2427.486976
730.749120	2429.884045
731.080305	2429.702563
731.411442	2430.299940
731.742530	2431.477049
732.073570	2432.127358
732.404562	2428.943870
732.735506	2431.154416
733.066401	2430.206679
733.397249	2428.475042
733.728048	2427.597882
734.058798	2429.301792
734.389501	2423.733837
734.720156	2424.457243
735.050762	2423.781728
735.381320	2423.580082
735.711831	2424.560586
736.042293	2422.604619
736.372707	2425.949424
736.703073	2422.458425
737.033391	2423.191913
737.363661	2427.038313
737.693883	2425.578899
738.024056	2424.558066
738.354182	2425.183169
738.684260	2426.075453
739.014290	2423.998498
739.344272	2425.087387
739.674207	2423.328024
740.004093	2423.554876
740.333931	2423.121337
740.663722	2425.359609
740.993464	2425.941862
741.323159	2425.740216
741.652806	2424.026224
741.982405	2429.200968
742.311956	2424.326173
742.641460	2425.982192
742.970915	2424.696698
743.300323	2422.997829
743.629683	2423.534712
743.958996	2423.595205
744.288260	2420.154618
744.617477	2419.799217
744.946647	2419.713517
745.275768	2421.266192
745.604842	2415.796540
745.933869	2417.376942
746.262847	2417.828125
746.591778	2421.578744
746.920662	2421.049423
747.249498	2419.582447
747.578286	2420.237797
747.907027	2420.862900
748.235720	2418.823753
748.564365	2422.765936
748.892963	2420.930956
749.221514	2423.285174
749.550017	2420.013466
749.878473	2422.929773
750.206881	2419.065729
750.535242	2421.903898
750.863555	2420.608322
751.191821	2420.956161
751.520039	2420.555390
751.848210	2419.169072
752.176334	2418.428023
752.504411	2419.010276
752.832440	2419.038002
753.160421	2421.092273
753.488356	2418.160842
753.816243	2419.022879
754.144082	2420.452046
754.471875	2420.202509
754.799620	2418.705286
755.127318	2421.235945
755.454969	2421.137643
755.782572	2421.540935
756.110129	2421.243507
756.437638	2417.132446
756.765100	2419.688311
757.092515	2418.183527
757.419882	2416.154462
757.747203	2418.049936
758.074477	2420.502458
758.401703	2418.579257
758.728882	2420.149577
759.056014	2419.438774
759.383099	2421.067067
759.710138	2419.741243
760.037129	2420.399114
760.364073	2418.682601
760.690970	2421.545976
761.017820	2420.283167
761.344623	2420.620925
761.671379	2422.652510
761.998088	2418.927097
762.324751	2424.273241
762.651366	2426.975299
762.977935	2438.534665
763.304456	2437.748245
763.630931	2444.276539
763.957359	2442.814604
764.283740	2437.614654
764.610074	2433.823707
764.936362	2433.218768
765.262602	2427.486976
765.588796	2425.848601
765.914943	2420.905750
766.241044	2421.079670
766.567097	2418.460790
766.893104	2419.532035
767.219064	2417.886099
767.544978	2417.076993
767.870845	2416.910635
768.196665	2417.626479
768.522438	2413.434760
768.848165	2413.439801
769.173846	2415.080697
769.499479	2417.109761
769.825066	2413.565830
770.150607	2414.947106
770.476101	2415.196643
770.801548	2415.363001
771.126949	2414.672363
771.452303	2411.519121
771.777611	2414.654719
772.102872	2410.465520
772.428087	2414.269071
772.753256	2413.901067
773.078378	2410.178174
773.403453	2412.111457
773.728482	2413.374266
774.053465	2411.413257
774.378401	2409.190108
774.703291	2411.730850
775.028135	2409.399316
775.352932	2410.117681
775.677683	2410.657084
776.002388	2412.880233
776.327046	2410.926786
776.651658	2411.758576
776.976224	2411.763617
777.300743	2408.917886
777.625216	2409.890829
777.949643	2411.156158
778.274024	2411.796385
778.598359	2408.580129
778.922647	2406.382186
779.246889	2406.447721
779.571086	2405.328584
779.895236	2408.620458
780.219339	2410.145407
780.543397	2409.227917
780.867409	2408.968298
781.191374	2408.844789
781.515294	2411.443504
781.839167	2413.008782
782.162995	2410.268915
782.486776	2407.826476
782.810511	2410.992321
783.134201	2408.333112
783.457844	2411.478792
783.781441	2411.216652
784.104993	2410.974677
784.428498	2412.517270
784.751958	2409.996693
785.075372	2408.675911
785.398739	2405.089130
785.722061	2410.805798
786.045337	2409.258164
786.368568	2411.758576
786.691752	2408.451579
787.014891	2412.050963
787.337983	2413.328896
787.661030	2411.579615
787.984031	2414.899215
788.306987	2411.708165
788.629897	2411.796385
788.952760	2416.066242
789.275579	2414.654719
789.598351	2412.446694
789.921078	2413.427198
790.243759	2411.446025
790.566395	2408.262536
790.888984	2411.151117
791.211529	2410.316806
791.534027	2410.962074
791.856480	2406.505694
792.178888	2409.207752
792.501249	2407.345046
792.823566	2408.933009
793.145836	2407.188770
793.468062	2405.905797
793.790241	2408.154151
794.112375	2409.454769
794.434464	2408.943092
794.756507	2411.821591
795.078505	2407.549213
795.400457	2409.003586
795.722364	2408.925448
796.044226	2408.020561
796.366042	2406.493091
796.687812	2407.473595
797.009538	2411.020047
797.331218	2410.682290
797.652852	2411.541807
797.974442	2413.555747
798.295986	2410.306724
798.617484	2410.561302
798.938938	2411.050294
799.260346	2412.308062
799.581709	2410.899059
799.903026	2411.388051
800.224299	2409.462331
800.545526	2408.454100
800.866708	2407.173647
801.187845	2410.299162
801.508936	2410.042063
801.829983	2411.861920
802.150984	2409.681621
802.471940	2407.211455
802.792851	2406.891342
803.113717	2407.627351
803.434538	2406.510735
803.755314	2409.061559
804.076045	2407.735735
804.396731	2408.602814
804.717372	2406.848492
805.037967	2408.441497
805.358518	2409.689182
805.679024	2409.976528
805.999485	2405.683986
806.319901	2409.091806
806.640272	2409.918555
806.960598	2408.920407
807.280879	2407.118194
807.601115	2410.498288
807.921306	2407.927299
808.241453	2410.820922
808.561554	2407.070303
808.881611	2409.984090
809.201623	2407.052659
809.521590	2410.949471
809.841513	2408.985942
810.161390	2409.053997
810.481223	2408.567526
810.801011	2407.874367
811.120755	2405.938564
811.440453	2410.089954
811.760107	2409.399316
812.079716	2404.625343
812.399281	2403.538975
812.718801	2402.717267
813.038276	2401.998902
813.357707	2406.120046
813.677093	2404.481671
813.996434	2404.458985
814.315731	2406.155334
814.634983	2405.618451
814.954191	2406.162895
815.273354	2411.282187
815.592473	2407.564336
815.911547	2409.001065
816.230577	2411.267064
816.549562	2407.581980
816.868502	2407.549213
817.187399	2410.957033
817.506250	2408.670869
817.825058	2408.968298
818.143821	2412.000552
818.462539	2408.784295
818.781213	2412.774369
819.099843	2415.163876
819.418429	2416.504822
819.736970	2416.555234
820.055466	2420.585637
820.373919	2422.244176
820.692327	2431.030907
821.010691	2439.530293
821.329011	2462.356637
821.647286	2499.436844
821.965517	2539.410674
822.283704	2560.941442
822.601847	2564.717266
822.919945	2549.009031
823.237999	2529.519930
823.556010	2510.734070
823.873976	2495.340907
824.191897	2476.141672
824.509775	2469.535240
824.827609	2455.730041
825.145398	2449.647888
825.463144	2447.875923
825.780845	2447.016406
826.098502	2452.740636
826.416116	2459.939404
826.733685	2468.542133
827.051210	2470.041876
827.368692	2467.738069
827.686129	2457.549897
828.003522	2447.863320
828.320872	2436.273707
828.638177	2430.191555
828.955439	2426.256935
829.272656	2420.217632
829.589830	2417.870975
829.906960	2418.453228
830.224046	2414.490882
830.541088	2412.134142
830.858086	2411.980387
831.175041	2410.964594
831.491952	2414.800912
831.808819	2413.782599
832.125642	2413.883423
832.442421	2417.810481
832.759157	2419.731161
833.075849	2428.785073
833.392497	2434.040476
833.709101	2437.735642
834.025662	2438.370827
834.342179	2436.924016
834.658653	2428.759867
834.975083	2424.963879
835.291469	2430.090732
835.607811	2419.189237
835.924110	2415.141190
836.240366	2415.161355
836.556578	2410.780592
836.872746	2407.892011
837.188871	2409.616086
837.504952	2406.848492
837.820990	2407.337484
838.136984	2407.274470
838.452935	2404.610220
838.768842	2408.781775
839.084706	2409.258164
839.400526	2408.784295
839.716303	2413.487692
840.032037	2417.470203
840.347727	2416.403999
840.663373	2414.256468
840.978977	2409.477454
841.294537	2408.572567
841.610054	2407.188770
841.925527	2407.879408
842.240957	2407.007289
842.556344	2406.523338
842.871687	2403.932185
843.186987	2404.884963
843.502244	2405.230282
843.817458	2403.370096
844.132629	2402.538306
844.447756	2401.877915
844.762840	2398.313819
845.077881	2398.855743
845.392879	2396.720814
845.707833	2397.242574
846.022745	2398.568397
846.337613	2402.039232
846.652438	2402.041752
846.967221	2400.335322
847.281960	2404.189284
847.596656	2403.584345
847.911309	2401.951011
848.225919	2400.312636
848.540485	2400.723490
848.855009	2401.903120
849.169490	2398.825496
849.483928	2402.447565
849.798323	2400.708367
850.112675	2398.344066
850.426984	2398.205434
850.741251	2403.367576
851.055474	2399.637122
851.369654	2401.202400
851.683792	2399.785836
851.997887	2400.937739
852.311938	2397.769374
852.625947	2400.116031
852.939914	2401.363717
853.253837	2400.955383
853.567718	2397.214847
853.881555	2399.455640
854.195350	2402.102246
854.509103	2401.968655
854.822812	2401.945970
855.136479	2401.157030
855.450103	2400.746176
855.763685	2399.596793
856.077224	2401.812380
856.390720	2400.970507
856.704173	2402.256001
857.017584	2401.583007
857.330953	2400.892369
857.644278	2399.939591
857.957561	2403.080230
858.270802	2400.156361
858.584000	2400.181566
858.897155	2402.346742
859.210268	2399.962276
859.523339	2400.831875
859.836367	2398.800290
860.149352	2401.267935
860.462295	2402.687020
860.775195	2396.753582
861.088054	2394.207799
861.400869	2398.853222
861.713642	2394.527912
862.026373	2399.677451
862.339062	2402.152658
862.651708	2399.478325
862.964312	2400.426062
863.276873	2400.922616
863.589392	2401.562842
863.901869	2401.910682
864.214303	2401.623336
864.526696	2399.954714
864.839045	2402.865981
865.151353	2402.765158
865.463619	2398.581000
865.775842	2403.286917
866.088023	2399.828686
866.400162	2400.053017
866.712258	2400.967986
867.024313	2403.239026
867.336325	2401.141906
867.648296	2400.592420
867.960224	2401.643501
868.272110	2400.640311
868.583954	2400.852040
868.895755	2402.508059
869.207515	2401.956053
869.519233	2403.465878
869.830909	2401.598131
870.142542	2401.676268
870.454134	2402.389592
870.765684	2402.071999
871.077191	2402.170302
871.388657	2405.663821
871.700081	2403.458316
872.011463	2400.922616
872.322803	2404.416136
872.634101	2403.594428
872.945357	2403.145765
873.256571	2402.190466
873.567744	2405.416805
873.878874	2403.997720
874.189963	2403.864129
874.501010	2404.043090
874.812015	2403.675086
875.122979	2402.384551
875.433900	2402.475291
875.744780	2403.690209
876.055618	2402.780281
876.366415	2403.891856
876.677169	2405.368914
876.987882	2404.209448
877.298554	2397.479508
877.609183	2401.998902
877.919771	2399.448078
878.230317	2404.451424
878.540822	2405.608368
878.851285	2405.515107
879.161707	2409.230437
879.472087	2411.849317
879.782425	2416.467014
880.092722	2426.148550
880.402977	2436.734973
880.713191	2450.681325
881.023363	2467.886783
881.333494	2477.613689
881.643583	2481.341623
881.953631	2481.127374
882.263637	2473.230406
882.573602	2467.221351
882.883526	2463.039714
883.193408	2456.332458
883.503248	2450.545214
883.813048	2445.667898
884.122806	2440.205807
884.432522	2430.700712
884.742197	2428.966555
885.051831	2423.438930
885.361424	2421.220822
885.670975	2417.255954
885.980485	2418.256623
886.289954	2414.662281
886.599382	2410.682290
886.908768	2407.644995
887.218113	2409.971487
887.527417	2409.374110
887.836680	2408.963256
888.145901	2405.119377
888.455082	2405.371434
888.764221	2406.765313
889.073319	2404.869839
889.382376	2407.579460
889.691392	2401.514952
890.000366	2404.937895
890.309300	2404.978224
890.618193	2402.976886
890.927044	2406.087278
891.235855	2404.350601
891.544625	2405.467216
891.853353	2404.660632
892.162041	2405.575601
892.470687	2403.153327
892.779293	2404.403533
893.087858	2404.585014
893.396381	2405.830179
893.704864	2414.385017
894.013306	2411.776220
894.321707	2421.334248
894.630068	2424.903385
894.938387	2428.139806
895.246665	2427.103848
895.554903	2423.055802
895.863100	2421.142684
896.171256	2418.140677
896.479371	2416.459452
896.787446	2414.705131
897.095480	2413.170099
897.403473	2410.906621
897.711425	2407.725653
898.019336	2411.690521
898.327207	2409.802608
898.635038	2407.856723
898.942827	2404.378327
899.250576	2405.225241
899.558284	2407.831517
899.865952	2407.017371
900.173579	2405.769685
900.481165	2404.287586
900.788711	2403.574263
901.096216	2401.456978
901.403681	2403.523851
901.711105	2407.045097
902.018489	2402.505538
902.325832	2405.968811
902.633135	2402.860940
902.940397	2402.427400
903.247619	2408.469223
903.554800	2416.320820
903.861941	2422.450863
904.169041	2428.497727
904.476101	2428.780032
904.783121	2428.124682
905.090100	2425.767943
905.397039	2423.055802
905.703938	2416.535069
906.010796	2419.224525
906.317614	2413.371745
906.624391	2411.377969
906.931129	2410.750345
907.237826	2407.297155
907.544483	2409.011147
907.851099	2405.091650
908.157675	2405.016033
908.464211	2400.090826
908.770707	2398.177708
909.077163	2400.471433
909.383578	2393.993550
909.689954	2395.921791
909.996289	2396.499003
910.302584	2399.921947
910.608839	2398.429765
910.915054	2399.669889
911.221229	2401.754406
911.527363	2399.803480
911.833458	2399.616957
912.139513	2400.100908
912.445527	2399.337173
912.751502	2399.846330
913.057436	2402.896228
913.363331	2400.179046
913.669186	2399.115362
913.975000	2404.766496
914.280775	2407.748338
914.586510	2409.916034
914.892205	2409.900911
915.197859	2415.738567
915.503475	2419.509350
915.809050	2425.190731
916.114585	2427.302974
916.420081	2432.056782
916.725536	2427.865063
917.030952	2428.409507
917.336328	2423.446491
917.641665	2421.901378
917.946961	2420.058836
918.252218	2421.152766
918.557435	2415.572209
918.862612	2417.515574
919.167750	2413.243196
919.472848	2410.470561
919.777906	2407.985273
920.082925	2409.157341
920.387904	2407.211455
920.692843	2405.366393
920.997743	2404.506876
921.302603	2403.957391
921.607423	2403.896897
921.912204	2403.707853
922.216946	2401.222565
922.521647	2402.825652
922.826310	2401.948491
923.130932	2402.891187
923.435516	2401.144427
923.740059	2399.475805
924.044564	2399.019580
924.349028	2397.577810
924.653454	2395.427758
924.957840	2396.186452
925.262186	2394.051523
925.566493	2395.876421
925.870761	2393.554970
926.174989	2396.302398
926.479178	2396.057903
926.783328	2396.315001
927.087438	2396.970351
927.391509	2398.210475
927.695541	2398.044117
927.999533	2398.659138
928.303486	2396.446071
928.607400	2395.200906
928.911275	2399.556463
929.215110	2396.133520
929.518906	2395.783160
929.822663	2395.379867
930.126381	2395.684857
930.430060	2395.352141
930.733699	2397.577810
931.037299	2398.870866
931.340861	2394.951369
931.644383	2397.209806
931.947866	2397.635784
932.251309	2396.302398
932.554714	2398.248284
932.858080	2396.345248
933.161407	2397.955897
933.464694	2395.311812
933.767943	2397.686195
934.071153	2399.226268
934.374323	2394.472460
934.677455	2397.870197
934.980548	2393.247459
935.283602	2395.596637
935.586617	2396.181411
935.889593	2396.861967
936.192530	2395.962121
936.495428	2400.574776
936.798287	2394.482542
937.101108	2396.430948
937.403890	2395.460526
937.706632	2399.069992
938.009336	2399.269117
938.312002	2399.765671
938.614628	2398.817934
938.917216	2396.761143
939.219765	2400.214334
939.522275	2398.661658
939.824747	2400.773902
940.127179	2394.943807
940.429573	2391.533467
940.731929	2398.772564
941.034246	2396.067985
941.336524	2398.820455
941.638763	2397.950856
941.940964	2397.885321
942.243126	2398.777605
942.545250	2400.542009
942.847335	2398.805331
943.149381	2398.391957
943.451389	2397.532440
943.753359	2396.262069
944.055290	2396.279713
944.357182	2396.539333
944.659036	2397.018242
944.960851	2396.443551
945.262628	2395.147974
945.564367	2399.052348
945.866067	2394.810217
946.167729	2397.487070
946.469352	2398.036555
946.770937	2395.548746
947.072484	2396.589744
947.373992	2397.945815
947.675462	2397.678633
947.976893	2395.019425
948.278286	2397.184600
948.579641	2396.325084
948.880958	2396.420866
949.182236	2393.812068
949.483476	2396.269631
949.784678	2396.753582
950.085841	2395.752913
950.386967	2398.754920
950.688054	2395.838612
950.989103	2396.619991
951.290114	2398.762482
951.591087	2397.676113
951.892021	2397.603016
952.192917	2400.312636
952.493776	2395.742830
952.794596	2395.667213
953.095378	2397.792059
953.396122	2397.051010
953.696828	2399.715260
953.997496	2396.100752
954.298126	2397.746689
954.598718	2398.875908
954.899272	2394.477501
955.199788	2396.935063
955.500266	2394.578324
955.800706	2393.146636
956.101108	2393.186965
956.401472	2395.692419
956.701798	2391.341903
957.002087	2392.027500
957.302337	2396.582183
957.602550	2392.718138
957.902724	2392.821482
958.202861	2395.412635
958.502960	2393.393653
958.803022	2393.668396
959.103045	2393.915412
959.403031	2393.449105
959.702979	2391.740154
960.002889	2395.412635
960.302762	2396.428427
960.602596	2394.182593
960.902393	2394.966493
961.202153	2394.661503
961.501875	2395.077398
961.801559	2395.006822
962.101205	2395.195865
962.400814	2393.615463
962.700385	2396.829199
962.999918	2393.746533
963.299414	2390.918446
963.598873	2395.868859
963.898293	2395.064795
964.197677	2396.060423
964.497022	2392.942469
964.796331	2394.144785
965.095601	2396.297357
965.394835	2393.489435
965.694030	2394.855587
965.993189	2394.790052
966.292309	2392.735782
966.591393	2394.734600
966.890439	2393.151677
967.189447	2396.350289
967.488419	2392.423231
967.787353	2394.167470
968.086249	2395.110166
968.385108	2394.018756
968.683930	2394.033879
968.982714	2392.224105
969.281462	2396.753582
969.580172	2393.683519
969.878844	2394.593447
970.177480	2394.948849
970.476078	2395.886503
970.774639	2393.121430
971.073162	2394.222923
971.371649	2389.534649
971.670098	2390.676471
971.968510	2394.147305
972.266885	2387.893754
972.565223	2391.200751
972.863524	2394.101935
973.161788	2393.585217
973.460014	2394.845505
973.758204	2391.387273
974.056356	2392.241749
974.354471	2394.106976
974.652550	2392.410628
974.950591	2395.316853
975.248595	2393.839795
975.546563	2395.846174
975.844493	2393.053375
976.142386	2395.614281
976.440243	2394.840464
976.738062	2394.895917
977.035845	2393.610422
977.333590	2394.169990
977.631299	2395.415155
977.928971	2397.673592
978.226606	2396.060423
978.524204	2393.948180
978.821765	2394.147305
979.119290	2397.108983
979.416777	2394.396842
979.714228	2389.945503
980.011642	2392.521533
980.309020	2395.805845
980.606360	2392.826523
980.903664	2394.984137
981.200931	2394.865670
981.498162	2394.215361
981.795356	2394.537995
982.092513	2393.592778
982.389633	2396.342728
982.686717	2396.388098
982.983764	2397.978582
983.280775	2396.526730
983.577749	2399.017060
983.874686	2396.650238
984.171587	2397.613098
984.468451	2399.342214
984.765279	2397.678633
985.062070	2394.376678
985.358824	2396.909858
985.655543	2399.533778
985.952224	2397.703839
986.248869	2393.950700
986.545478	2390.908364
986.842050	2391.984650
987.138586	2388.687736
987.435086	2391.530946
987.731549	2390.280740
988.027975	2393.713766
988.324366	2391.278889
988.620719	2393.184445
988.917037	2394.447254
989.213318	2392.687891
989.509563	2390.399207
989.805772	2394.202758
990.101944	2392.468601
990.398080	2390.290823
990.694180	2393.945659
990.990244	2393.018087
991.286271	2394.986657
991.582262	2393.060937
991.878217	2392.241749
992.174136	2392.536657
992.470019	2391.876265
992.765865	2391.725031
993.061676	2391.372150
993.357450	2393.214692
993.653188	2391.790566
993.948890	2395.276524
994.244556	2391.367109
994.540186	2393.469270
994.835780	2392.899620
995.131337	2393.565052
995.426859	2392.881976
995.722345	2395.755433
996.017795	2394.268293
996.313208	2395.024466
996.608586	2392.992881
996.903928	2393.920453
997.199234	2393.302912
997.494504	2394.850546
997.789738	2395.543705
998.084936	2393.865001
998.380099	2394.905999
998.675225	2394.482542
998.970316	2392.284599
999.265371	2393.164280
999.560390	2393.867521
999.855373	2394.041441
1000.150320	2391.493138
1000.445232	2392.892058
1000.740108	2391.455329
1001.034948	2391.568755
1001.329752	2392.347613
1001.624521	2393.045813
1001.919254	2388.349978
1002.213951	2388.707900
1002.508613	2390.527757
1002.803239	2393.630587
1003.097829	2385.842004
1003.392384	2392.607233
1003.686903	2390.482386
1003.981386	2392.645041
1004.275834	2391.321738
1004.570246	2395.190824
1004.864623	2392.415669
1005.158964	2390.426934
1005.453270	2390.835267
1005.747540	2391.213354
1006.041775	2392.390463
1006.335974	2393.028169
1006.630138	2393.870042
1006.924266	2389.685884
1007.218359	2389.406100
1007.512416	2392.335010
1007.806438	2394.522871
1008.100425	2391.939280
1008.394376	2391.682181
1008.688292	2392.627397
1008.982172	2391.692263
1009.276017	2391.974568
1009.569827	2391.092366
1009.863602	2396.375495
1010.157341	2394.565721
1010.451045	2390.270658
1010.744714	2390.973899
1011.038347	2392.924825
1011.331945	2391.793086
1011.625508	2390.744526
1011.919036	2389.819475
1012.212528	2390.855432
1012.505986	2390.855432
1012.799408	2392.234187
1013.092795	2389.239742
1013.386147	2391.415000
1013.679464	2388.783518
1013.972745	2391.415000
1014.265992	2389.605226
1014.559204	2391.732593
1014.852380	2391.662016
1015.145521	2394.462377
1015.438628	2390.323590
1015.731699	2391.644372
1016.024736	2391.152860
1016.317737	2394.099414
1016.610703	2391.992212
1016.903635	2389.874927
1017.196531	2390.200082
1017.489393	2388.808723
1017.782219	2388.574310
1018.075011	2389.706049
1018.367768	2389.703528
1018.660490	2392.405587
1018.953177	2392.405587
1019.245829	2392.405587
