Dividing Wavelength (nm)	Counts (n)	Blue Motor Position (mm): 0.000000	Red Motor Position (mm): 44.800000	
326.493990	1997.315236
326.888308	1997.315236
327.282561	1997.315236
327.676750	1973.770527
328.070874	1976.792699
328.464933	1980.563482
328.858929	1991.414566
329.252859	2002.152223
329.646726	2016.219563
330.040528	2032.225227
330.434265	2051.832794
330.827938	2071.228634
331.221547	2090.536253
331.615091	2112.573657
332.008571	2132.821452
332.401986	2153.938845
332.795338	2170.912410
333.188625	2190.446881
333.581847	2212.958154
333.975006	2230.730742
334.368100	2247.243041
334.761129	2265.978489
335.154095	2278.568771
335.546996	2314.486992
335.939833	2392.652603
336.332606	2406.649367
336.725315	2419.771490
337.117960	2426.629980
337.510540	2433.289344
337.903056	2444.579008
338.295508	2450.298197
338.687896	2462.097018
339.080220	2464.927626
339.472480	2470.150261
339.864676	2475.267032
340.256807	2476.013123
340.648875	2477.364152
341.040879	2480.333392
341.432818	2480.880357
341.824694	2483.156438
342.216506	2483.022847
342.608253	2479.920017
342.999937	2484.641058
343.391557	2482.221304
343.783113	2479.534369
344.174605	2481.770121
344.566033	2477.580922
344.957397	2477.641416
345.348697	2471.057669
345.739934	2472.307875
346.131106	2468.837041
346.522215	2469.847792
346.913260	2466.485342
347.304241	2467.097843
347.695159	2463.090125
348.086012	2464.236988
348.476802	2462.102059
348.867528	2461.161884
349.258191	2457.915381
349.648789	2459.584003
350.039324	2456.032510
350.429796	2459.790690
350.820203	2455.881275
351.210548	2457.549897
351.600828	2456.960082
351.991045	2456.856738
352.381198	2453.557303
352.771288	2457.065946
353.161314	2455.180555
353.551276	2454.928497
353.941175	2454.749536
354.331010	2452.516305
354.720782	2459.374795
355.110490	2459.790690
355.500135	2454.245421
355.889717	2460.536781
356.279235	2453.274999
356.668689	2460.335135
357.058080	2457.960751
357.447408	2459.213478
357.836672	2453.569906
358.225873	2457.282716
358.615010	2454.318517
359.004084	2462.139868
359.393095	2463.821093
359.782043	2462.028962
360.170927	2465.091463
360.559748	2467.753193
360.948505	2466.923923
361.337199	2468.169088
361.725830	2469.341156
362.114398	2470.377113
362.502903	2471.019860
362.891344	2468.458954
363.279722	2469.515076
363.668037	2471.103039
364.056289	2474.490695
364.444478	2473.293421
364.832603	2475.667804
365.220665	2477.434728
365.608665	2478.014461
365.996601	2477.681745
366.384474	2478.372383
366.772284	2480.920686
367.160031	2481.528145
367.547715	2481.225676
367.935336	2479.400778
368.322893	2484.157107
368.710388	2485.760194
369.097820	2486.614670
369.485189	2488.374032
369.872495	2490.317397
370.259738	2491.444095
370.646918	2495.603047
371.034035	2496.351658
371.421090	2497.710249
371.808081	2501.294510
372.195010	2507.709378
372.581875	2513.058042
372.968678	2522.510206
373.355418	2527.097656
373.742096	2539.808925
374.128710	2549.379556
374.515262	2563.363716
374.901751	2578.625810
375.288177	2594.452512
375.674540	2614.922117
376.060841	2640.828607
376.447079	2660.945331
376.833254	2685.178158
377.219367	2712.228989
377.605417	2746.319792
377.991404	2774.769544
378.377329	2816.583395
378.763191	2852.305011
379.148991	2899.817886
379.534727	2952.008952
379.920402	3001.976868
380.306013	3054.062070
380.691563	3118.190588
381.077049	3173.807118
381.462474	3231.714852
381.847835	3310.465237
382.233134	3384.718913
382.618371	3443.496246
383.003545	3533.006973
383.388657	3615.828090
383.773706	3710.354766
384.158693	3785.339409
384.543618	3885.050911
384.928480	3965.084270
385.313280	4070.376329
385.698017	4179.991179
386.082692	4303.454078
386.467305	4365.679560
386.851856	4500.638810
387.236344	4656.458355
387.620770	4721.033015
388.005133	4843.838043
388.389435	4997.779758
388.773674	5085.077420
389.157851	5219.514910
389.541965	5356.369634
389.926018	5382.235795
390.310008	5569.023148
390.693936	5695.268763
391.077802	5813.183873
391.461606	5952.418021
391.845348	6069.229118
392.229027	6188.893507
392.612645	6422.729949
392.996200	6542.732095
393.379694	6718.789352
393.763125	6949.442305
394.146494	7049.461318
394.529801	7188.934922
394.913047	7445.731299
395.296230	7439.800381
395.679351	7498.512179
396.062410	7769.761544
396.445408	7668.051224
396.828343	7825.458733
397.211217	7961.970658
397.594028	7844.332813
397.976778	8056.981285
398.359466	8227.911688
398.742092	8195.665948
399.124656	8351.046912
399.507158	8547.820791
399.889598	8561.789828
400.271977	8777.558774
400.654294	8812.937592
401.036549	9014.649281
401.418742	9041.700113
401.800874	9359.582671
402.182944	9434.572355
402.564952	9818.914966
402.946898	9629.952355
403.328783	9688.717085
403.710606	9891.583198
404.092367	10154.607921
404.474067	10529.437874
404.855705	10314.137755
405.237282	10261.835784
405.618797	10710.087622
406.000250	10963.700510
406.381642	11332.017293
406.762972	11286.815787
407.144240	11081.106463
407.525447	11338.280926
407.906593	11276.040320
408.287677	11537.068746
408.668700	11709.667771
409.049661	11675.597133
409.430560	11842.585354
409.811399	11815.572331
410.192176	11973.368008
410.572891	12056.388250
410.953545	12567.253740
411.334138	12011.418637
411.714669	12651.627532
412.095139	11925.968559
412.475547	12444.932663
412.855894	12283.968620
413.236180	12632.813946
413.616405	12288.591358
413.996568	12584.917943
414.376670	12560.841392
414.756711	12429.912545
415.136691	12725.818193
415.516609	12911.042788
415.896466	12979.239517
416.276262	13272.846400
416.655997	13716.546076
417.035670	13752.635697
417.415283	14421.591771
417.794834	14510.046377
418.174324	14257.744188
418.553753	14152.978929
418.933121	14664.088915
419.312428	14467.904851
419.691674	14380.415626
420.070859	14850.472975
420.449983	14490.665661
420.829045	15053.389500
421.208047	14794.417865
421.586988	15261.352220
421.965867	15525.569175
422.344686	15524.250913
422.723444	16098.239211
423.102141	14755.036371
423.480777	15979.373844
423.859352	15466.801924
424.237866	16621.019468
424.616319	16303.678833
424.994712	16984.411043
425.373044	16766.562620
425.751314	17457.493084
426.129524	16556.573357
426.507673	17699.314713
426.885762	17368.554527
427.263789	17605.090507
427.641756	17743.202999
428.019662	17820.529258
428.397508	17861.113067
428.775292	18177.251386
429.153016	18133.892422
429.530679	18218.828303
429.908282	18248.800483
430.285824	17954.860884
430.663305	18680.676133
431.040726	18268.546682
431.418086	18081.824864
431.795385	18758.892155
432.172624	19177.680970
432.549802	18729.565243
432.926920	18904.364732
433.303977	18798.054359
433.680974	19063.612261
434.057910	19356.861222
434.434786	19379.248986
434.811601	19282.521846
435.188355	20357.815085
435.565050	19990.521657
435.941683	19940.914183
436.318257	20843.673931
436.694770	20656.256434
437.071222	21258.071901
437.447614	20309.331788
437.823946	20340.677683
438.200218	20492.991105
438.576429	20272.133114
438.952580	20535.858557
439.328670	20509.647077
439.704700	20932.441089
440.080670	20495.902371
440.456580	21082.304510
440.832429	21276.212493
441.208218	20233.911085
441.583947	20694.039882
441.959616	20803.027108
442.335224	21051.346784
442.710773	21195.370029
443.086261	21728.812326
443.461689	21086.206363
443.837057	21213.293852
444.212365	21862.952389
444.587612	21863.632945
444.962800	21421.682549
445.337927	21868.732072
445.712995	20572.827858
446.088002	22467.487558
446.462949	22665.168845
446.837837	22854.136497
447.212664	22805.905257
447.587431	25717.935338
447.962139	28697.204329
448.336786	31123.141150
448.711374	29516.532981
449.085901	25763.562822
449.460369	25703.817587
449.834776	25639.651260
450.209124	28189.575260
450.583412	27696.011011
450.957640	28219.439056
451.331808	26839.841606
451.705917	25453.834329
452.079965	25510.292732
452.453954	25873.873350
452.827883	25751.469093
453.201752	25537.378851
453.575562	25709.493926
453.949311	26864.593671
454.323001	26924.104492
454.696632	26679.777410
455.070202	28269.112065
455.443713	28405.233301
455.817164	29007.721762
456.190556	29553.131758
456.563888	28982.936929
456.937160	29418.422045
457.310373	27713.523979
457.683526	28197.101703
458.056619	28177.133693
458.429653	28091.585312
458.802628	28686.953143
459.175542	28818.776795
459.548398	30127.190632
459.921194	31742.429256
460.293930	32406.865936
460.666607	34461.975481
461.039224	36252.121979
461.411782	36649.682495
461.784280	35448.216737
462.156719	34964.482737
462.529099	34404.614712
462.901419	33094.335648
463.273680	32015.624507
463.645882	32093.979161
464.018024	32086.500609
464.390106	32931.289609
464.762130	35681.012180
465.134094	39797.351230
465.505999	45138.395757
465.877845	49739.416543
466.249631	50917.503950
466.621358	49247.944372
466.993026	47136.071435
467.364634	45068.414459
467.736184	43070.491764
468.107674	41793.683441
468.479105	40991.771975
468.850477	40294.968567
469.221790	38834.616874
469.593043	37064.715650
469.964238	36174.765473
470.335373	36076.102531
470.706449	37849.663633
471.077467	40468.497685
471.448425	45065.500672
471.819324	47883.881238
472.190164	46001.222005
472.560945	42428.780605
472.931667	39288.202253
473.302330	38165.181890
473.672934	37335.407967
474.043479	37845.658436
474.413965	37021.001284
474.784393	36654.048134
475.154761	37568.914213
475.525070	37580.612211
475.895321	37126.406770
476.265513	37735.305058
476.635645	38703.945125
477.005719	38533.697798
477.375734	39013.444245
477.745691	39714.827541
478.115588	41066.794427
478.485427	43076.694903
478.855207	46463.573950
479.224928	49081.409855
479.594591	50705.067206
479.964194	49724.381301
480.333739	49894.283309
480.703226	49943.895825
481.072653	50571.234654
481.442022	51057.562327
481.811333	51306.098773
482.180584	50024.244256
482.549777	49492.026959
482.918912	48969.181167
483.287988	48682.382363
483.657005	47831.029781
484.025964	47183.987602
484.394864	47237.338134
484.763706	46806.682443
485.132489	45918.622699
485.501213	45743.934115
485.869879	45912.086843
486.238487	45492.947668
486.607036	45688.204160
486.975527	45148.959494
487.343959	45352.526328
487.712333	45426.419561
488.080648	45330.556979
488.448905	45802.217416
488.817104	45631.765922
489.185244	46587.712364
489.553326	48284.325294
489.921350	50998.280878
490.289315	53824.878525
490.657222	54396.273149
491.025070	54680.054822
491.392861	53803.032685
491.760593	52597.148356
492.128267	50957.626493
492.495883	49443.941913
492.863440	48058.625274
493.230939	46683.579987
493.598380	45566.165387
493.965763	45265.198420
494.333088	44434.570021
494.700354	43935.127786
495.067563	43634.722908
495.434713	43501.255839
495.801805	43571.577415
496.168839	43184.464690
496.535815	42842.427443
496.902733	42877.871796
497.269593	42470.402892
497.636395	42406.286977
498.003139	42814.791838
498.369825	42253.902978
498.736453	42572.476175
499.103023	42090.214193
499.469535	41952.535240
499.835989	42081.084663
500.202385	41715.779970
500.568723	41743.954979
500.935003	41927.042125
501.301226	41723.966804
501.667390	42353.551467
502.033497	42635.939261
502.399546	42035.182437
502.765537	41357.119518
503.131470	41749.172573
503.497345	42101.897067
503.863163	40758.588363
504.228923	41365.573533
504.594625	41800.143680
504.960269	41084.705646
505.325856	41778.504527
505.691385	41116.971552
506.056856	41266.708944
506.422270	41713.256873
506.787625	41298.490899
507.152924	41493.523059
507.518164	41609.973712
507.883347	40776.204675
508.248472	41051.892776
508.613540	41535.430171
508.978550	41858.353883
509.343503	41590.890425
509.708398	41804.090903
510.073236	42335.927593
510.438016	42341.457738
510.802738	41781.554425
511.167403	42416.724686
511.532010	42639.122750
511.896561	42956.836430
512.261053	43801.403619
512.625488	43351.639434
512.989866	43217.393507
513.354186	43067.928337
513.718449	43055.678333
514.082655	43755.513995
514.446803	43404.500973
514.810894	43938.815390
515.174927	43861.418555
515.538904	43767.711067
515.902822	44457.751767
516.266684	43871.906676
516.630488	44323.019369
516.994235	44173.846585
517.357925	44748.999389
517.721558	44915.357466
518.085133	45226.857924
518.448651	45361.441608
518.812112	45133.226053
519.175516	45233.575262
519.538863	45575.897334
519.902152	45529.112906
520.265385	45993.244379
520.628560	46052.735035
520.991678	45825.247927
521.354739	46078.845692
521.717743	46388.869092
522.080690	46278.283820
522.443580	46840.863987
522.806413	46870.296763
523.169189	46820.729618
523.531908	47001.162597
523.894569	46848.516458
524.257174	47023.552881
524.619722	47335.164245
524.982213	47318.813262
525.344647	47244.723424
525.707025	47271.784338
526.069345	47648.476997
526.431608	47593.974562
526.793815	47902.969567
527.155964	47441.580482
527.518057	47586.460723
527.880093	47380.524547
528.242072	47892.652846
528.603995	47607.552910
528.965860	47618.484653
529.327669	47689.388481
529.689421	47579.241790
530.051117	47538.466418
530.412755	47692.236733
530.774337	47768.217004
531.135862	47544.283909
531.497331	47747.807893
531.858743	47648.454312
532.220098	47988.475098
532.581396	47685.015280
532.942638	47355.170064
533.303824	47662.617434
533.664953	47611.916029
534.026025	47320.285279
534.387040	47798.899987
534.747999	47730.831807
535.108902	47899.150893
535.469748	47419.343952
535.830537	47525.603913
536.191270	47721.654387
536.551947	47366.863020
536.912567	47673.841563
537.273131	47804.324268
537.633638	47269.498175
537.994089	47626.709295
538.354483	47201.397227
538.714821	47782.150753
539.075103	48135.880957
539.435328	47887.974655
539.795497	47774.334444
540.155609	47740.417561
540.515665	48213.953307
540.875665	47679.742233
541.235609	47990.184049
541.595496	47962.684555
541.955328	48637.591711
542.315102	48005.829270
542.674821	47790.098132
543.034483	47830.331581
543.394090	47790.629974
543.753640	47753.900127
544.113134	48771.275549
544.472571	47762.505377
544.831953	49014.244041
545.191278	48217.688802
545.550548	47933.851675
545.909761	48416.751364
546.268918	48611.816292
546.628019	48920.029917
546.987064	48470.880753
547.346053	47740.576358
547.704986	48642.499274
548.063863	48176.951237
548.422684	48397.317716
548.781449	48232.318230
549.140158	48640.266043
549.498811	48479.150766
549.857408	47903.362777
550.215949	48740.605169
550.574434	48679.869348
550.932864	48449.597002
551.291237	49156.495321
551.649555	48760.704250
552.007817	49006.299183
552.366022	48644.750150
552.724173	48824.563066
553.082267	49239.190408
553.440305	49541.311799
553.798288	48838.970684
554.156215	49143.471500
554.514086	49364.936950
554.871902	49118.353951
555.229661	49136.456734
555.587365	48967.081527
555.945014	49051.324248
556.302606	48968.573708
556.660143	49218.067974
557.017625	49294.567483
557.375050	49069.825283
557.732421	49434.083937
558.089735	49408.338764
558.446994	49326.359520
558.804197	49821.678091
559.161345	49760.327249
559.518437	48998.160240
559.875474	49306.383948
560.232455	49452.915167
560.589381	49640.652777
560.946251	49335.539461
561.303065	50034.341687
561.659825	49836.519248
562.016528	49515.939672
562.373177	49215.554958
562.729770	49717.343851
563.086307	49223.966124
563.442789	49669.326860
563.799216	49726.019676
564.155587	49532.479698
564.511904	49542.834228
564.868164	49638.616151
565.224370	49900.975441
565.580520	49616.203181
565.936615	49843.473520
566.292654	49556.664633
566.648638	49806.297531
567.004567	49752.634448
567.360441	49796.346293
567.716260	49657.449902
568.072023	49940.934147
568.427732	49930.882086
568.783385	49479.376183
569.138982	49868.928826
569.494525	49839.440597
569.850013	49615.825094
570.205445	49578.293704
570.560823	49547.472089
570.916145	49431.412125
571.271412	49439.198187
571.626625	49205.744873
571.981782	49272.782137
572.336884	48958.451071
572.691931	49276.305903
573.046923	48863.321977
573.401860	48725.247294
573.756743	48724.677644
574.111570	48833.531279
574.466342	48687.219350
574.821059	48790.603333
575.175722	48306.181216
575.530330	48326.166871
575.884882	48048.358964
576.239380	48018.399387
576.593823	47989.536261
576.948211	47914.087832
577.302544	47440.322714
577.656823	47459.474057
578.011047	47667.041046
578.365216	47396.898215
578.719330	47210.539360
579.073389	47050.656645
579.427394	47142.231725
579.781344	47110.666540
580.135239	46762.511853
580.489080	46846.404215
580.842866	46335.516040
581.196597	46788.778785
581.550273	46709.471353
581.903895	46582.527537
582.257463	47019.192283
582.610975	46386.986221
582.964434	46665.462080
583.317837	46310.438820
583.671186	46143.521175
584.024481	46368.701956
584.377721	45914.090702
584.730906	46192.319544
585.084037	46239.567759
585.437113	45938.285720
585.790135	45981.558984
586.143103	45578.473364
586.496016	45709.823148
586.848874	45733.950110
587.201679	45735.296098
587.554428	45227.510754
587.907124	45423.651967
588.259765	45159.550959
588.612352	45422.648778
588.964884	44799.889837
589.317362	45106.696981
589.669786	45048.360749
590.022155	44806.765971
590.374470	45255.806750
590.726731	44752.276139
591.078937	44274.626812
591.431090	44375.374272
591.783188	44031.582703
592.135232	43700.590624
592.487222	43955.756188
592.839157	44044.011668
593.191038	43700.429307
593.542866	43449.125267
593.894639	42835.140455
594.246358	43129.342194
594.598022	43108.002989
594.949633	42717.197620
595.301190	42652.859894
595.652692	42485.302022
596.004141	42804.613748
596.355535	41812.560042
596.706876	41759.567432
597.058162	41607.669905
597.409395	42099.454627
597.760573	42162.642970
598.111698	41733.829821
598.462768	41749.764909
598.813785	41793.489357
599.164748	41228.229817
599.515657	41629.934161
599.866511	41086.487694
600.217312	41706.965512
600.568060	40641.452112
600.918753	41404.866807
601.269392	41366.513708
601.619978	40994.095947
601.970510	41237.092165
602.320988	41410.107086
602.671412	41715.769888
603.021783	41439.512136
603.372100	41119.746707
603.722363	41220.252191
604.072572	41300.056177
604.422728	41319.620895
604.772830	41120.175205
605.122878	41214.117107
605.472872	41168.109016
605.822813	41430.722885
606.172701	41237.263565
606.522534	41486.447799
606.872314	41756.867894
607.222041	41502.314831
607.571714	41874.011707
607.921333	41313.856336
608.270899	41600.027516
608.620411	41966.411016
608.969870	41753.787749
609.319276	41737.633372
609.668627	41802.926397
610.017926	42290.025366
610.367171	42446.568317
610.716362	42536.719271
611.065500	42448.027731
611.414585	42640.188954
611.763616	42950.376191
612.112594	42852.159391
612.461518	43076.457969
612.810389	43357.913150
613.159207	43208.309348
613.507971	43304.698730
613.856682	43783.991473
614.205340	43651.013397
614.553945	44354.392990
614.902496	43789.042709
615.250994	44244.326957
615.599439	44321.975850
615.947830	44506.643398
616.296169	44548.374069
616.644454	44669.860836
616.992686	44841.328122
617.340864	45345.138517
617.688990	45059.582357
618.037063	45668.445357
618.385082	45604.997395
618.733048	45903.015287
619.080961	45910.544250
619.428821	45909.828406
619.776628	46031.610080
620.124382	45839.738724
620.472083	45969.440050
620.819731	46102.987777
621.167326	45766.173166
621.514868	45745.325474
621.862357	45305.328525
622.209793	45334.078225
622.557176	45006.393143
622.904506	44742.513945
623.251783	44406.856278
623.599007	44180.493347
623.946179	43938.701964
624.293297	43894.964913
624.640363	43279.195533
624.987376	43265.143317
625.334336	43004.803008
625.681243	42622.602888
626.028097	42555.663927
626.374899	42406.470979
626.721647	42360.944319
627.068343	42234.960843
627.414987	41984.851557
627.761577	41745.530339
628.108115	42066.805595
628.454600	41493.762513
628.801032	41670.787672
629.147412	41609.693928
629.493739	41607.165790
629.840014	41223.241595
630.186236	41538.689277
630.532405	41140.231435
630.878521	41340.897085
631.224585	41187.409074
631.570597	40897.076421
631.916556	41058.042984
632.262462	40968.267595
632.608316	40961.154527
632.954117	40858.970339
633.299866	40833.938489
633.645562	40748.682496
633.991206	40257.946333
634.336797	39813.130041
634.682336	39810.455709
635.027823	39548.550123
635.373257	39369.344665
635.718639	39091.090617
636.063968	38961.066657
636.409245	38365.446768
636.754470	38423.941797
637.099642	38157.015221
637.444762	37655.611977
637.789829	37792.103738
638.134845	37422.715711
638.479808	37371.197639
638.824719	37248.332117
639.169577	36837.541093
639.514383	36884.166725
639.859137	36555.924595
640.203839	36795.961656
640.548489	36402.239979
640.893086	36459.099153
641.237632	36183.761412
641.582125	36293.562784
641.926566	36213.516823
642.270955	36160.657804
642.615292	36162.495305
642.959576	36104.953054
643.303809	36102.331654
643.647990	36217.632925
643.992118	36179.920053
644.336195	36133.117981
644.680219	36205.317386
645.024192	36491.929667
645.368112	36982.716241
645.711981	36945.547814
646.055797	37792.166752
646.399562	37662.936774
646.743274	38600.178014
647.086935	39017.073876
647.430544	38889.280626
647.774101	38983.283022
648.117606	39217.835307
648.461059	39517.534424
648.804460	39140.448554
649.147810	38515.781537
649.491108	38280.412585
649.834354	37905.005420
650.177548	37063.321771
650.520690	36588.656807
650.863781	36609.282688
651.206820	36431.524041
651.549807	35981.538046
651.892742	35490.650649
652.235626	35281.972086
652.578458	35131.869209
652.921238	34493.346581
653.263967	34791.798012
653.606644	34461.693176
653.949269	34395.522991
654.291843	33961.782114
654.634365	34340.922253
654.976836	33933.047537
655.319255	33898.147629
655.661622	33883.457706
656.003938	33633.671054
656.346203	33477.670027
656.688416	33683.565874
657.030577	33478.219513
657.372687	33320.572550
657.714746	33548.205852
658.056753	33653.145031
658.398708	33094.852366
658.740612	33123.954947
659.082465	33380.068248
659.424266	33171.503110
659.766016	33266.758233
660.107715	33139.433810
660.449362	33233.683222
660.790958	33190.888867
661.132503	33190.800647
661.473996	33208.132134
661.815438	33289.198929
662.156829	33480.818228
662.498168	33217.937178
662.839456	33225.700555
663.180693	33350.398537
663.521879	33478.703464
663.863013	33409.052362
664.204097	33389.195257
664.545129	33816.652336
664.886110	33744.717591
665.227040	33765.713997
665.567918	33875.028897
665.908746	33899.196189
666.249522	34047.713622
666.590248	34025.915673
666.930922	34126.025427
667.271545	34069.072991
667.612118	34112.449599
667.952639	33886.769744
668.293109	33918.647481
668.633528	33799.729182
668.973896	33723.602718
669.314213	33745.632560
669.654480	33465.926660
669.994695	33479.326047
670.334859	33337.291537
670.674973	33225.483786
671.015035	33349.735625
671.355047	33295.283602
671.695008	33202.470918
672.034918	33084.598659
672.374777	33113.061014
672.714585	32934.745320
673.054342	33132.267810
673.394049	32860.607591
673.733705	33112.715695
674.073310	32781.458955
674.412864	32839.107070
674.752368	32427.267486
675.091820	32707.215362
675.431223	32287.725827
675.770574	32006.752076
676.109875	31868.059851
676.449125	31572.393658
676.788324	31495.553870
677.127473	30941.001741
677.466571	30868.141945
677.805619	30506.318169
678.144616	30488.006177
678.483562	30395.669883
678.822458	30050.197089
679.161303	29960.096547
679.500098	29857.274652
679.838842	29717.919516
680.177535	29824.625619
680.516179	30052.752954
680.854771	30249.526833
681.193314	31023.399401
681.531805	31997.206651
681.870247	32660.849349
682.208638	33325.921214
682.546978	33496.468490
682.885268	33581.041408
683.223508	33079.565067
683.561697	32769.345062
683.899836	32552.114181
684.237925	32051.454508
684.575963	31876.319782
684.913951	31418.116706
685.251889	31521.775432
685.589776	31455.285133
685.927614	31411.374163
686.265401	31492.534219
686.603137	31537.009799
686.940824	31933.657866
687.278460	32233.188104
687.616046	32312.556030
687.953582	32832.740092
688.291068	32671.226564
688.628504	32928.758950
688.965889	32844.992617
689.303224	32484.477020
689.640510	32189.652699
689.977745	31509.099451
690.314930	30786.830654
690.652065	30314.403962
690.989150	29653.496090
691.326185	28806.713314
691.663170	28139.819072
692.000105	27432.976206
692.336990	26800.306357
692.673825	26364.034821
693.010610	25862.956731
693.347345	25322.590409
693.684030	24694.089595
694.020665	24412.122737
694.357251	23775.503144
694.693786	23711.402352
695.030272	23457.088743
695.366707	22933.270009
695.703093	22653.848934
696.039429	22620.108491
696.375716	22347.135051
696.711952	22292.945168
697.048139	22115.453703
697.384276	21921.848189
697.720363	22021.985669
698.056400	21810.239564
698.392388	21599.973037
698.728326	21543.867515
699.064214	21341.858398
699.400053	21285.004265
699.735842	20957.883792
700.071581	20690.495951
700.407270	20417.835063
700.742910	20238.939636
701.078501	19974.218566
701.414042	19704.862154
701.749533	19419.253062
702.084974	19085.390046
702.420366	19261.434700
702.755709	18843.921297
703.091002	18579.348940
703.426246	18569.697651
703.761440	18453.461247
704.096584	18196.102781
704.431679	18133.781517
704.766725	18025.487450
705.101721	17943.354451
705.436668	18018.669289
705.771565	17697.215073
706.106413	17988.636615
706.441212	17954.056820
706.775961	18040.376497
707.110661	18081.015759
707.445311	18372.046612
707.779913	18184.984516
708.114465	18370.504019
708.448967	18586.749354
708.783421	19170.608231
709.117825	19369.055773
709.452180	19523.544453
709.786485	19829.068623
710.120742	20496.172073
710.454949	20470.099225
710.789107	20826.791107
711.123216	21407.847102
711.457275	21482.254533
711.791286	21935.953338
712.125247	21996.726968
712.459159	21735.126372
712.793023	22292.599849
713.126837	21341.944098
713.460602	21568.680074
713.794318	21248.584449
714.127985	20930.759864
714.461602	20161.268058
714.795171	20110.516242
715.128691	19240.035002
715.462162	18764.540768
715.795584	18396.375220
716.128957	18150.364392
716.462281	17779.090973
716.795556	17561.461841
717.128782	17103.843539
717.461960	16639.654093
717.795088	16545.376954
718.128167	16191.699683
718.461198	15783.088957
718.794180	15656.203115
719.127113	15330.887375
719.459997	15162.800182
719.792833	14843.992572
720.125619	14802.839113
720.458357	14522.734961
720.791046	14361.907030
721.123686	14213.147621
721.456278	14005.144572
721.788821	13958.408035
722.121315	13716.089852
722.453761	13759.600051
722.786158	13683.380325
723.118506	13675.528728
723.450805	13540.987893
723.783056	13655.850584
724.115259	13554.021797
724.447412	13472.445845
724.779518	13661.562211
725.111574	13653.037620
725.443582	13799.339466
725.775542	13768.235547
726.107453	14128.786432
726.439315	14015.935162
726.771129	14311.886181
727.102895	14591.075363
727.434612	14742.579680
727.766281	14826.648482
728.097901	15016.039591
728.429473	15040.587490
728.760996	15014.673438
729.092471	15071.794753
729.423897	14964.398011
729.755276	14853.049005
730.086606	14928.653710
730.417887	15310.876515
730.749120	15687.054977
731.080305	15808.387988
731.411442	16054.053497
731.742530	16109.055006
732.073570	16173.236457
732.404562	16397.429171
732.735506	16255.750063
733.066401	16022.755494
733.397249	15605.128665
733.728048	15091.467856
734.058798	14427.749540
734.389501	13889.346748
734.720156	13506.609745
735.050762	13076.380032
735.381320	12752.884148
735.711831	12540.883464
736.042293	12239.331723
736.372707	12217.296840
736.703073	12029.889425
737.033391	12161.334991
737.363661	12109.917742
737.693883	12165.892194
738.024056	12278.136005
738.354182	12399.688307
738.684260	12610.496758
739.014290	12764.302362
739.344272	12900.867219
739.674207	13115.133902
740.004093	13194.592569
740.333931	13181.929190
740.663722	13211.561093
740.993464	13194.471581
741.323159	13050.619735
741.652806	12833.381293
741.982405	12659.068275
742.311956	12381.540153
742.641460	12277.402517
742.970915	12035.228007
743.300323	11765.624579
743.629683	11591.472878
743.958996	11372.901050
744.288260	11155.206383
744.617477	10909.820658
744.946647	10843.363127
745.275768	10622.898346
745.604842	10480.084978
745.933869	10334.430920
746.262847	10282.398650
746.591778	10220.120236
746.920662	10122.765473
747.249498	10111.201066
747.578286	10184.917858
747.907027	10271.129151
748.235720	10423.185474
748.564365	10427.891391
748.892963	10347.263177
749.221514	10376.527075
749.550017	10258.448128
749.878473	10224.342202
750.206881	10046.144975
750.535242	9975.815838
750.863555	9899.994363
751.191821	9813.331888
751.520039	9825.203805
751.848210	9739.935208
752.176334	9747.413760
752.504411	9677.238378
752.832440	9548.154593
753.160421	9577.085774
753.488356	9474.596596
753.816243	9409.416997
754.144082	9289.019120
754.471875	9239.704033
754.799620	9188.032206
755.127318	9157.419799
755.454969	9122.056105
755.782572	9081.855423
756.110129	9078.021626
756.437638	9009.638374
756.765100	8991.815375
757.092515	8984.891350
757.419882	8988.195826
757.747203	8980.014033
758.074477	9023.413327
758.401703	8983.182399
758.728882	9088.608049
759.056014	9110.526986
759.383099	9189.141260
759.710138	9254.623328
760.037129	9304.931522
760.364073	9309.894538
760.690970	9284.950909
761.017820	9272.799208
761.344623	9403.511286
761.671379	9618.148493
761.998088	10034.197441
762.324751	11125.060283
762.651366	13126.022794
762.977935	15634.468180
763.304456	17178.845826
763.630931	17513.901075
763.957359	16703.505347
764.283740	15378.599376
764.610074	14067.266711
764.936362	12584.368457
765.262602	11509.990188
765.588796	10474.038114
765.914943	9742.324715
766.241044	9143.294486
766.567097	8678.409361
766.893104	8280.286756
767.219064	8012.992176
767.544978	7730.576656
767.870845	7498.630647
768.196665	7353.233687
768.522438	7210.132974
768.848165	7089.795590
769.173846	6961.644418
769.499479	6871.526232
769.825066	6759.085816
770.150607	6621.139682
770.476101	6569.026754
770.801548	6495.453634
771.126949	6382.262086
771.452303	6317.815975
771.777611	6200.757862
772.102872	6181.740110
772.428087	6093.104022
772.753256	6005.728223
773.078378	5937.559220
773.403453	5836.204302
773.728482	5755.949132
774.053465	5713.358944
774.378401	5646.838398
774.703291	5579.770888
775.028135	5507.213560
775.352932	5475.930680
775.677683	5419.815076
776.002388	5350.249674
776.327046	5347.739179
776.651658	5284.392040
776.976224	5228.377259
777.300743	5211.010484
777.625216	5160.377135
777.949643	5130.195747
778.274024	5128.721209
778.598359	5080.661369
778.922647	5075.907561
779.246889	5046.074012
779.571086	5046.515113
779.895236	5049.711205
780.219339	5040.233836
780.543397	5035.459863
780.867409	5062.472886
781.191374	5057.436773
781.515294	5035.845511
781.839167	5064.494388
782.162995	5042.860277
782.486776	5006.019524
782.810511	4974.232529
783.134201	4927.064973
783.457844	4910.482097
783.781441	4880.363724
784.104993	4850.323488
784.428498	4826.635106
784.751958	4814.032221
785.075372	4792.327533
785.398739	4761.856279
785.722061	4769.591930
786.045337	4768.250983
786.368568	4837.120706
786.691752	4847.550853
787.014891	5005.772508
787.337983	5182.308674
787.661030	5466.355008
787.984031	5726.899483
788.306987	5880.473194
788.629897	5930.027736
788.952760	5863.471903
789.275579	5747.074181
789.598351	5557.632661
789.921078	5384.234612
790.243759	5205.137540
790.566395	5071.715841
790.888984	4940.585348
791.211529	4851.545968
791.534027	4743.864401
791.856480	4657.980783
792.178888	4613.328763
792.501249	4570.592382
792.823566	4501.480683
793.145836	4495.832070
793.468062	4479.982682
793.790241	4450.146613
794.112375	4471.536229
794.434464	4528.045043
794.756507	4543.554153
795.078505	4616.673569
795.400457	4751.353035
795.722364	4890.703130
796.044226	5015.723746
796.366042	5111.820741
796.687812	5073.376902
797.009538	5091.081434
797.331218	5027.701527
797.652852	4984.022450
797.974442	4899.429367
798.295986	4853.501935
798.617484	4771.915902
798.938938	4702.995767
799.260346	4659.515815
799.581709	4571.729162
799.903026	4538.583575
800.224299	4493.419878
800.545526	4418.077313
800.866708	4379.704050
801.187845	4348.532075
801.508936	4298.516267
801.829983	4280.030356
802.150984	4208.786249
802.471940	4192.556255
802.792851	4183.462013
803.113717	4166.284281
803.434538	4152.181653
803.755314	4128.057212
804.076045	4121.599494
804.396731	4097.704424
804.717372	4101.392028
805.037967	4101.465125
805.358518	4116.931385
805.679024	4148.819204
805.999485	4154.908918
806.319901	4163.410824
806.640272	4172.313501
806.960598	4197.546997
807.280879	4190.020554
807.601115	4213.177094
807.921306	4186.660625
808.241453	4181.783309
808.561554	4188.024257
808.881611	4166.533818
809.201623	4161.739681
809.521590	4131.049137
809.841513	4119.721664
810.161390	4126.910349
810.481223	4073.378337
810.801011	4063.722006
811.120755	4045.893966
811.440453	4014.424563
811.760107	3992.803054
812.079716	3975.766475
812.399281	3942.530147
812.718801	3939.475208
813.038276	3913.475457
813.357707	3892.647930
813.677093	3905.056730
813.996434	3866.716235
814.315731	3875.752503
814.634983	3869.685474
814.954191	3874.104046
815.273354	3902.120258
815.592473	3928.225873
815.911547	3964.461687
816.230577	3998.300432
816.549562	4046.796332
816.868502	4073.726176
817.187399	4103.221967
817.506250	4145.517248
817.825058	4156.706089
818.143821	4243.834872
818.462539	4333.585054
818.781213	4459.893684
819.099843	4664.947658
819.418429	5016.873129
819.736970	5354.877453
820.055466	5746.837247
820.373919	6250.990440
820.692327	7076.653302
821.010691	8669.965428
821.329011	12487.248108
821.647286	18741.711903
821.965517	25667.324674
822.283704	29321.263887
822.601847	29983.792490
822.919945	26582.679745
823.237999	23054.885325
823.556010	19705.267967
823.873976	16756.092144
824.191897	14228.283685
824.509775	12348.820544
824.827609	10711.516789
825.145398	9755.716540
825.463144	9285.485271
825.780845	9432.248383
826.098502	10148.326643
826.416116	11506.978098
826.733685	12760.105601
827.051210	12988.419459
827.368692	12114.716921
827.686129	10693.230003
828.003522	9318.507350
828.320872	8112.232331
828.638177	7185.736310
828.955439	6485.454505
829.272656	5894.076748
829.589830	5424.347073
829.906960	5016.822717
830.224046	4714.343404
830.541088	4483.375379
830.858086	4332.909539
831.175041	4218.866037
831.491952	4179.764327
831.808819	4190.605328
832.125642	4315.313392
832.442421	4612.693578
832.759157	5210.188776
833.075849	6174.435478
833.392497	7177.481420
833.709101	7781.696476
834.025662	7620.976930
834.342179	7039.011006
834.658653	6328.989693
834.975083	5735.267799
835.291469	5258.125108
835.607811	4859.712637
835.924110	4576.520778
836.240366	4314.020336
836.556578	4068.740475
836.872746	3876.644787
837.188871	3730.244638
837.504952	3611.769961
837.820990	3523.363246
838.136984	3459.872434
838.452935	3433.991150
838.768842	3445.343829
839.084706	3601.788477
839.400526	4004.990043
839.716303	4486.344618
840.032037	4777.461171
840.347727	4685.676883
840.663373	4367.096124
840.978977	4059.058939
841.294537	3824.965398
841.610054	3653.951816
841.925527	3521.971888
842.240957	3413.120773
842.556344	3318.382369
842.871687	3230.812486
843.186987	3152.871206
843.502244	3088.604056
843.817458	3043.926830
844.132629	3003.348062
844.447756	2978.197746
844.762840	2952.258489
845.077881	2932.318205
845.392879	2913.381110
845.707833	2902.119173
846.022745	2883.204763
846.337613	2880.785009
846.652438	2869.704553
846.967221	2861.888244
847.281960	2850.293590
847.596656	2846.754700
847.911309	2839.049297
848.225919	2833.410766
848.540485	2828.266269
848.855009	2823.976247
849.169490	2814.261943
849.483928	2812.298414
849.798323	2809.472847
850.112675	2803.461271
850.426984	2804.199800
850.741251	2797.210240
851.055474	2794.304015
851.369654	2795.713018
851.683792	2795.828964
851.997887	2794.301495
852.311938	2793.482307
852.625947	2796.499438
852.939914	2790.981895
853.253837	2795.612195
853.567718	2794.729993
853.881555	2789.857717
854.195350	2793.441978
854.509103	2791.188582
854.822812	2790.623973
855.136479	2785.282870
855.450103	2787.306894
855.763685	2784.743467
856.077224	2785.930659
856.390720	2787.795886
856.704173	2792.395938
857.017584	2797.369037
857.330953	2795.549180
857.644278	2800.686116
857.957561	2804.038483
858.270802	2803.115952
858.584000	2800.209727
858.897155	2798.029428
859.210268	2792.171607
859.523339	2782.883281
859.836367	2782.043929
860.149352	2780.652571
860.462295	2780.796243
860.775195	2771.545726
861.088054	2773.816766
861.400869	2770.474481
861.713642	2768.949532
862.026373	2774.779626
862.339062	2774.368772
862.651708	2782.764814
862.964312	2784.619959
863.276873	2791.785959
863.589392	2806.047383
863.901869	2820.046667
864.214303	2830.018070
864.526696	2839.129955
864.839045	2849.461800
865.151353	2854.331555
865.463619	2854.112264
865.775842	2851.987418
866.088023	2853.928262
866.400162	2849.350895
866.712258	2851.629496
867.024313	2849.315607
867.336325	2848.458610
867.648296	2850.139835
867.960224	2845.791840
868.272110	2848.526666
868.583954	2849.330730
868.895755	2852.325175
869.207515	2852.236955
869.519233	2858.311546
869.830909	2861.222812
870.142542	2867.373020
870.454134	2869.976776
870.765684	2874.846530
871.077191	2885.475803
871.388657	2889.894374
871.700081	2896.848646
872.011463	2908.196283
872.322803	2918.565937
872.634101	2927.791248
872.945357	2938.649894
873.256571	2955.701597
873.567744	2960.654530
873.878874	2964.223667
874.189963	2970.313381
874.501010	2971.061993
874.812015	2965.851960
875.122979	2975.740183
875.433900	2971.571149
875.744780	2971.760192
876.055618	2977.683548
876.366415	2976.193887
876.677169	2977.275215
876.987882	2981.880309
877.298554	2987.483551
877.609183	3007.373424
877.919771	3027.671630
878.230317	3056.295301
878.540822	3112.007613
878.851285	3182.152748
879.161707	3286.466824
879.472087	3463.670943
879.782425	3775.335239
880.092722	4398.747009
880.402977	5509.739178
880.713191	6990.865467
881.023363	8499.846650
881.333494	9323.994646
881.643583	9510.913068
881.953631	9138.661666
882.263637	8551.641985
882.573602	7909.540138
882.883526	7338.758014
883.193408	6790.903058
883.503248	6288.753723
883.813048	5834.492830
884.122806	5418.632926
884.432522	5005.177652
884.742197	4641.453361
885.051831	4328.092717
885.361424	4063.159918
885.670975	3853.483206
885.980485	3683.371990
886.289954	3544.316802
886.599382	3436.423507
886.908768	3343.651153
887.218113	3261.056888
887.527417	3196.177238
887.836680	3136.454688
888.145901	3085.838983
888.455082	3047.387582
888.764221	3015.119157
889.073319	2983.654795
889.382376	2970.978813
889.691392	2956.157821
890.000366	2952.276133
890.309300	2950.078190
890.618193	2953.556586
890.927044	2948.195319
891.235855	2952.530711
891.544625	2961.440950
891.853353	2970.305819
892.162041	3000.638442
892.470687	3049.522511
892.779293	3104.667693
893.087858	3188.139118
893.396381	3323.078204
893.704864	3531.708876
894.013306	3810.313285
894.321707	4081.968463
894.630068	4245.952156
894.938387	4254.302828
895.246665	4154.944206
895.554903	4000.422758
895.863100	3842.750589
896.171256	3713.419787
896.479371	3598.269751
896.787446	3492.397959
897.095480	3395.625449
897.403473	3323.410920
897.711425	3258.503544
898.019336	3198.100438
898.327207	3142.519197
898.635038	3094.144284
898.942827	3043.450441
899.250576	3006.707991
899.558284	2961.471197
899.865952	2939.053186
900.173579	2907.578742
900.481165	2888.001421
900.788711	2868.305633
901.096216	2851.337109
901.403681	2839.850840
901.711105	2835.820438
902.018489	2831.958914
902.325832	2846.830318
902.633135	2875.617827
902.940397	2954.398458
903.247619	3155.968995
903.554800	3540.651883
903.861941	4034.137995
904.169041	4382.053228
904.476101	4469.955827
904.783121	4327.470134
905.090100	4116.213021
905.397039	3912.134510
905.703938	3736.924167
906.010796	3579.569591
906.317614	3457.142649
906.624391	3340.127386
906.931129	3244.068200
907.237826	3157.012514
907.544483	3074.090574
907.851099	2989.285764
908.157675	2910.376583
908.464211	2841.879905
908.770707	2792.602626
909.077163	2754.494023
909.383578	2725.225084
909.689954	2706.524924
909.996289	2690.680577
910.302584	2684.923580
910.608839	2673.969152
910.915054	2669.719460
911.221229	2668.900272
911.527363	2670.699964
911.833458	2672.895387
912.139513	2678.785975
912.445527	2683.622962
912.751502	2699.389171
913.057436	2720.738457
913.363331	2746.236613
913.669186	2787.085083
913.975000	2842.152127
914.280775	2933.684357
914.586510	3064.676219
914.892205	3243.526276
915.197859	3488.700272
915.503475	3774.682409
915.809050	4008.715456
916.114585	4142.681599
916.420081	4163.040299
916.725536	4121.901963
917.030952	4001.478880
917.336328	3906.808531
917.641665	3802.381029
917.946961	3694.684339
918.252218	3599.638424
918.557435	3498.041530
918.862612	3401.382447
919.167750	3319.178871
919.472848	3232.289544
919.777906	3150.126298
920.082925	3075.222313
920.387904	3002.465860
920.692843	2949.248920
920.997743	2902.214954
921.302603	2858.127543
921.607423	2828.230981
921.912204	2797.568162
922.216946	2775.039246
922.521647	2754.146184
922.826310	2732.842267
923.130932	2712.949874
923.435516	2697.518902
923.740059	2688.926256
924.044564	2670.752896
924.349028	2659.760660
924.653454	2642.693834
924.957840	2634.035652
925.262186	2625.619446
925.566493	2614.707868
925.870761	2600.625405
926.174989	2597.930908
926.479178	2592.509147
926.783328	2581.600090
927.087438	2578.381314
927.391509	2571.232957
927.695541	2565.594427
927.999533	2561.380022
928.303486	2554.957592
928.607400	2554.289639
928.911275	2551.968188
929.215110	2550.042467
929.518906	2546.990049
929.822663	2546.173382
930.126381	2545.011396
930.430060	2547.559699
930.733699	2545.109698
931.037299	2550.944834
931.340861	2546.871582
931.644383	2549.495502
931.947866	2548.038609
932.251309	2550.725544
932.554714	2545.235727
932.858080	2545.956612
933.161407	2542.992414
933.464694	2540.040818
933.767943	2541.003678
934.071153	2542.715150
934.374323	2535.508821
934.677455	2538.772968
934.980548	2535.334901
935.283602	2534.724921
935.586617	2532.509334
935.889593	2533.618388
936.192530	2534.006557
936.495428	2533.913296
936.798287	2540.232382
937.101108	2545.570964
937.403890	2557.740309
937.706632	2569.733214
938.009336	2583.079669
938.312002	2595.206165
938.614628	2604.489449
938.917216	2616.411778
939.219765	2619.595267
939.522275	2622.861935
939.824747	2623.124075
940.127179	2620.454784
940.429573	2615.317848
940.731929	2616.938579
941.034246	2608.096395
941.336524	2614.360029
941.638763	2609.996910
941.940964	2608.638319
942.243126	2599.896958
942.545250	2598.409818
942.847335	2592.431009
943.149381	2582.656212
943.451389	2578.272929
943.753359	2572.198338
944.055290	2569.579459
944.357182	2564.213151
944.659036	2560.838098
944.960851	2558.990515
945.262628	2557.662171
945.564367	2558.088149
945.866067	2554.942469
946.167729	2557.742830
946.469352	2555.524722
946.770937	2551.723692
947.072484	2550.700338
947.373992	2552.159752
947.675462	2547.993238
947.976893	2545.606252
948.278286	2545.666746
948.579641	2543.622558
948.880958	2541.119625
949.182236	2542.453010
949.483476	2536.723739
949.784678	2541.195242
950.085841	2538.934285
950.386967	2539.680376
950.688054	2542.581560
950.989103	2545.026519
951.290114	2550.791079
951.591087	2556.855587
951.892021	2559.855073
952.192917	2566.403532
952.493776	2574.048442
952.794596	2572.767989
953.095378	2573.819069
953.396122	2577.322671
953.696828	2572.848647
953.997496	2568.697257
954.298126	2567.878070
954.598718	2564.845816
954.899272	2554.428271
955.199788	2549.936603
955.500266	2548.152035
955.800706	2539.866898
956.101108	2530.021525
956.401472	2527.402645
956.701798	2517.718589
957.002087	2516.168434
957.302337	2514.068793
957.602550	2507.074193
957.902724	2505.297186
958.202861	2495.958448
958.502960	2495.056082
958.803022	2494.675475
959.103045	2485.966881
959.403031	2484.545276
959.702979	2483.443784
960.002889	2482.251551
960.302762	2479.678042
960.602596	2476.744090
960.902393	2476.650829
961.202153	2475.435911
961.501875	2469.699078
961.801559	2471.501290
962.101205	2471.897021
962.400814	2470.213276
962.700385	2469.310909
962.999918	2467.483491
963.299414	2466.250929
963.598873	2466.450054
963.898293	2464.363017
964.197677	2462.540639
964.497022	2466.578604
964.796331	2461.502162
965.095601	2465.129272
965.394835	2461.993674
965.694030	2460.249435
965.993189	2461.111472
966.292309	2462.986782
966.591393	2462.079374
966.890439	2459.601647
967.189447	2462.704477
967.488419	2460.849332
967.787353	2461.078705
968.086249	2460.236832
968.385108	2461.295474
968.683930	2462.850670
968.982714	2463.390074
969.281462	2462.747327
969.580172	2460.539301
969.878844	2467.957359
970.177480	2463.876545
970.476078	2465.335959
970.774639	2465.719087
971.073162	2471.907103
971.371649	2464.824282
971.670098	2467.309571
971.968510	2470.974490
972.266885	2465.136834
972.565223	2472.222175
972.863524	2470.276290
973.161788	2470.059520
973.460014	2473.943729
973.758204	2473.427011
974.056356	2471.541620
974.354471	2471.778554
974.652550	2474.760396
974.950591	2474.135293
975.248595	2472.416260
975.546563	2472.789305
975.844493	2473.850468
976.142386	2469.573049
976.440243	2470.891311
976.738062	2471.108080
977.035845	2467.138172
977.333590	2467.271762
977.631299	2466.258490
977.928971	2464.390743
978.226606	2464.179014
978.524204	2464.332770
978.821765	2460.229270
979.119290	2459.828499
979.416777	2463.306895
979.714228	2463.498459
980.011642	2463.952162
980.309020	2467.680096
980.606360	2468.224540
980.903664	2472.451548
981.200931	2474.442804
981.498162	2485.719865
981.795356	2500.117400
982.092513	2517.148938
982.389633	2535.284489
982.686717	2557.901626
982.983764	2573.854358
983.280775	2584.140832
983.577749	2583.258630
983.874686	2578.464493
984.171587	2573.035170
984.468451	2562.231977
984.765279	2553.372149
985.062070	2545.449976
985.358824	2534.780374
985.655543	2526.984230
985.952224	2514.948475
986.248869	2501.342401
986.545478	2488.918477
986.842050	2480.381283
987.138586	2469.764613
987.435086	2463.712708
987.731549	2458.033848
988.027975	2454.908333
988.324366	2454.124433
988.620719	2455.417489
988.917037	2453.751388
989.213318	2451.021603
989.509563	2449.534462
989.805772	2448.788372
990.101944	2446.144287
990.398080	2447.467589
990.694180	2446.255192
990.990244	2447.913732
991.286271	2446.444235
991.582262	2446.003134
991.878217	2446.968515
992.174136	2446.333330
992.470019	2448.753084
992.765865	2449.723506
993.061676	2451.185440
993.357450	2453.065791
993.653188	2451.220728
993.948890	2454.971347
994.244556	2454.154680
994.540186	2461.847481
994.835780	2466.364355
995.131337	2473.704275
995.426859	2477.956488
995.722345	2493.115238
996.017795	2494.367964
996.313208	2502.895076
996.608586	2510.058556
996.903928	2509.567043
997.199234	2507.689213
997.494504	2503.225272
997.789738	2501.990189
998.084936	2497.846360
998.380099	2492.253200
998.675225	2488.807572
998.970316	2480.179637
999.265371	2477.200315
999.560390	2469.759572
999.855373	2465.963583
1000.150320	2463.521144
1000.445232	2457.481842
1000.740108	2453.897581
1001.034948	2448.236365
1001.329752	2447.742332
1001.624521	2449.733588
1001.919254	2441.065324
1002.213951	2443.555654
1002.508613	2438.557350
1002.803239	2439.288317
1003.097829	2435.099118
1003.392384	2441.521548
1003.686903	2439.802515
1003.981386	2438.998451
1004.275834	2437.085333
1004.570246	2439.547937
1004.864623	2439.321085
1005.158964	2437.100457
1005.453270	2436.805549
1005.747540	2436.344283
1006.041775	2439.462237
1006.335974	2434.635332
1006.630138	2437.470981
1006.924266	2435.046186
1007.218359	2434.360589
1007.512416	2433.697678
1007.806438	2434.630291
1008.100425	2434.121135
1008.394376	2432.576021
1008.688292	2431.774477
1008.982172	2432.744900
1009.276017	2432.636515
1009.569827	2433.301947
1009.863602	2435.688933
1010.157341	2431.918150
1010.451045	2436.140117
1010.744714	2434.620209
1011.038347	2433.483429
1011.331945	2433.233892
1011.625508	2430.935125
1011.919036	2432.855805
1012.212528	2434.083326
1012.505986	2431.492173
1012.799408	2430.998140
1013.092795	2432.061823
1013.386147	2432.064344
1013.679464	2430.005032
1013.972745	2429.979827
1014.265992	2429.173242
1014.559204	2429.178283
1014.852380	2432.112235
1015.145521	2432.112235
1015.438628	2432.442430
1015.731699	2431.625763
1016.024736	2431.862698
1016.317737	2430.662903
1016.610703	2429.410176
1016.903635	2430.708273
1017.196531	2428.384302
1017.489393	2430.670465
1017.782219	2426.410690
1018.075011	2431.918150
1018.367768	2431.804724
1018.660490	2432.213058
1018.953177	2432.213058
1019.245829	2432.213058
