Dividing Wavelength (nm)	Counts (n)	Blue Motor Position (mm): 0.000000	Red Motor Position (mm): 27.200000	
326.493990	1988.629328
326.888308	1988.629328
327.282561	1988.629328
327.676750	1961.686881
328.070874	1963.799125
328.464933	1970.798767
328.858929	1980.006434
329.252859	1991.291057
329.646726	2006.434683
330.040528	2020.282733
330.434265	2039.580270
330.827938	2058.613146
331.221547	2078.535786
331.615091	2098.181163
332.008571	2120.500872
332.401986	2141.918214
332.795338	2163.045689
333.188625	2182.040757
333.581847	2200.728314
333.975006	2218.334544
334.368100	2235.832389
334.761129	2252.158166
335.154095	2268.385640
335.546996	2287.405914
335.939833	2312.924234
336.332606	2327.175576
336.725315	2338.805518
337.117960	2346.100068
337.510540	2350.256499
337.903056	2365.760568
338.295508	2369.937164
338.687896	2374.945550
339.080220	2386.492313
339.472480	2387.140101
339.864676	2395.881462
340.256807	2395.447923
340.648875	2397.555125
341.040879	2398.606206
341.432818	2401.923285
341.824694	2401.920764
342.216506	2402.971845
342.608253	2401.683830
342.999937	2404.612741
343.391557	2398.505383
343.783113	2401.073851
344.174605	2396.688047
344.566033	2397.149312
344.957397	2390.631100
345.348697	2390.046327
345.739934	2390.918446
346.131106	2389.322921
346.522215	2389.209495
346.913260	2386.540204
347.304241	2387.165307
347.695159	2382.688763
348.086012	2382.436705
348.476802	2380.019472
348.867528	2379.633823
349.258191	2378.955788
349.648789	2379.275901
350.039324	2376.029398
350.429796	2377.418236
350.820203	2369.669983
351.210548	2375.454707
351.600828	2373.077803
351.991045	2374.101157
352.381198	2373.879346
352.771288	2374.050745
353.161314	2373.239120
353.551276	2372.107381
353.941175	2372.001516
354.331010	2375.134593
354.720782	2376.256250
355.110490	2372.064531
355.500135	2375.817670
355.889717	2374.575025
356.279235	2375.091744
356.668689	2377.211549
357.058080	2376.452855
357.447408	2373.839017
357.836672	2371.457072
358.225873	2380.137939
358.615010	2374.307844
359.004084	2380.639533
359.393095	2380.379914
359.782043	2381.844369
360.170927	2382.056098
360.559748	2380.730274
360.948505	2384.322096
361.337199	2384.238917
361.725830	2385.272354
362.114398	2387.724875
362.502903	2388.899464
362.891344	2387.989536
363.279722	2391.251162
363.668037	2390.764691
364.056289	2389.383415
364.444478	2391.641852
364.832603	2388.092879
365.220665	2393.890206
365.608665	2393.239898
365.996601	2396.032697
366.384474	2397.676113
366.772284	2393.786863
367.160031	2399.115362
367.547715	2396.506565
367.935336	2399.790877
368.322893	2399.080074
368.710388	2402.613923
369.097820	2405.348749
369.485189	2403.680127
369.872495	2405.336146
370.259738	2406.419994
370.646918	2409.106929
371.034035	2410.546179
371.421090	2416.451890
371.808081	2418.289391
372.195010	2421.493044
372.581875	2428.064188
372.968678	2432.424786
373.355418	2439.928544
373.742096	2452.818774
374.128710	2462.517954
374.515262	2474.914152
374.901751	2487.713641
375.288177	2506.469254
375.674540	2525.061029
376.060841	2547.350491
376.447079	2567.631053
376.833254	2593.109045
377.219367	2622.481327
377.605417	2657.774446
377.991404	2682.496264
378.377329	2721.350957
378.763191	2757.760691
379.148991	2806.468319
379.534727	2856.743747
379.920402	2902.489697
380.306013	2951.567851
380.691563	3015.741739
381.077049	3069.813155
381.462474	3127.667957
381.847835	3203.184442
382.233134	3274.509207
382.618371	3334.756037
383.003545	3423.089655
383.388657	3503.480935
383.773706	3596.901078
384.158693	3670.718694
384.543618	3767.193775
384.928480	3847.769058
385.313280	3953.083803
385.698017	4054.985687
386.082692	4177.878935
386.467305	4240.842947
386.851856	4370.400601
387.236344	4526.537738
387.620770	4591.064507
388.005133	4713.435996
388.389435	4860.143656
388.773674	4944.958548
389.157851	5083.126493
389.541965	5216.160023
389.926018	5238.411676
390.310008	5418.496814
390.693936	5543.162028
391.077802	5662.705430
391.461606	5799.792047
391.845348	5915.080715
392.229027	6032.733684
392.612645	6254.693167
392.996200	6376.626076
393.379694	6554.160391
393.763125	6777.518795
394.146494	6869.426591
394.529801	7007.939855
394.913047	7254.366578
395.296230	7253.842298
395.679351	7306.575288
396.062410	7572.849034
396.445408	7468.111501
396.828343	7620.124975
397.211217	7761.269721
397.594028	7643.102554
397.976778	7846.702155
398.359466	8011.757094
398.742092	7986.299267
399.124656	8136.006412
399.507158	8327.829878
399.889598	8344.775717
400.271977	8564.176814
400.654294	8591.867872
401.036549	8790.847256
401.418742	8815.851379
401.800874	9119.059139
402.182944	9201.575266
402.564952	9570.824661
402.946898	9386.557885
403.328783	9443.850599
403.710606	9641.965424
404.092367	9913.804604
404.474067	10268.626218
404.855705	10056.431450
405.237282	10010.425880
405.618797	10443.710532
406.000250	10690.182626
406.381642	11065.178937
406.762972	11006.056285
407.144240	10804.417693
407.525447	11058.363297
407.906593	10987.494756
408.287677	11256.452917
408.668700	11419.952660
409.049661	11386.567618
409.430560	11559.965667
409.811399	11523.034173
410.192176	11686.949811
410.572891	11757.099988
410.953545	12241.766601
411.334138	11719.548433
411.714669	12311.911736
412.095139	11627.290276
412.475547	12132.411371
412.855894	11972.420271
413.236180	12308.589616
413.616405	11994.364414
413.996568	12268.116712
414.376670	12241.854821
414.756711	12118.825461
415.136691	12399.121177
415.516609	12584.638159
415.896466	12647.150987
416.276262	12944.100155
416.655997	13380.996794
417.035670	13428.224844
417.415283	14069.905755
417.794834	14166.998378
418.174324	13904.989448
418.553753	13804.655363
418.933121	14294.731134
419.312428	14109.453607
419.691674	14020.051264
420.070859	14483.398838
420.449983	14136.459068
420.829045	14684.767728
421.208047	14425.513788
421.586988	14881.836514
421.965867	15136.689526
422.344686	15130.758609
422.723444	15692.517067
423.102141	14388.420978
423.480777	15577.941722
423.859352	15074.547223
424.237866	16196.619849
424.616319	15894.062398
424.994712	16544.938374
425.373044	16344.028228
425.751314	17015.330960
426.129524	16150.168137
426.507673	17236.836739
426.885762	16927.700582
427.263789	17130.914535
427.641756	17297.383517
428.019662	17365.996142
428.397508	17402.403355
428.775292	17702.203295
429.153016	17661.798447
429.530679	17741.804079
429.908282	17767.534128
430.285824	17489.131366
430.663305	18204.385397
431.040726	17788.550698
431.418086	17616.594420
431.795385	18277.587992
432.172624	18689.619140
432.549802	18243.091376
432.926920	18428.694058
433.303977	18318.260021
433.680974	18567.159430
434.057910	18873.651502
434.434786	18888.585920
434.811601	18794.092012
435.188355	19843.327527
435.565050	19485.834102
435.941683	19436.690413
436.318257	20324.825774
436.694770	20132.263780
437.071222	20732.395501
437.447614	19794.551842
437.823946	19816.392642
438.200218	19961.267841
438.576429	19744.614173
438.952580	20026.886020
439.328670	19972.013061
439.704700	20397.075591
440.080670	19969.749583
440.456580	20553.033768
440.832429	20729.363247
441.208218	19725.528364
441.583947	20169.759882
441.959616	20275.054463
442.335224	20507.615492
442.710773	20647.089096
443.086261	21176.611896
443.461689	20541.376100
443.837057	20658.393883
444.212365	21300.767953
444.587612	21299.981533
444.962800	20868.957838
445.337927	21294.884927
445.712995	20024.345279
446.088002	21879.860419
446.462949	22069.543915
446.837837	22244.227457
447.212664	22196.926311
447.587431	25050.841970
447.962139	27987.593870
448.336786	30363.348525
448.711374	28786.427711
449.085901	25091.637508
449.460369	25034.831266
449.834776	24947.112668
450.209124	27442.821579
450.583412	26965.381460
450.957640	27491.582140
451.331808	26128.086136
451.705917	24761.018474
452.079965	24789.735407
452.453954	25153.661344
452.827883	25032.406471
453.201752	24821.592978
453.575562	24979.582740
453.949311	26101.302485
454.323001	26139.012837
454.696632	25889.631997
455.070202	27433.429910
455.443713	27554.480616
455.817164	28127.284243
456.190556	28645.504776
456.563888	28077.371778
456.937160	28484.681886
457.310373	26814.340929
457.683526	27235.279796
458.056619	27201.569600
458.429653	27120.848124
458.802628	27656.662284
459.175542	27752.582839
459.548398	28999.033333
459.921194	30519.944407
460.293930	31141.783337
460.666607	33081.437856
461.039224	34771.220022
461.411782	35090.022591
461.784280	33866.121178
462.156719	33336.787422
462.529099	32742.425301
462.901419	31432.879725
463.273680	30350.657420
463.645882	30374.602901
464.018024	30284.998912
464.390106	31033.504394
464.762130	33547.434556
465.134094	37347.489092
465.505999	42321.525016
465.877845	46679.045469
466.249631	47701.134370
466.621358	45917.944664
466.993026	43735.561108
467.364634	41619.206586
467.736184	39617.921441
468.107674	38309.812594
468.479105	37431.411701
468.850477	36659.686664
469.221790	35204.111465
469.593043	33460.222594
469.964238	32509.617254
470.335373	32302.360296
470.706449	33732.797783
471.077467	35931.834790
471.448425	39943.292634
471.819324	42399.131059
472.190164	40559.021685
472.560945	37149.465008
472.931667	34188.828121
473.302330	33041.002761
473.672934	32149.691473
474.043479	32419.529315
474.413965	31552.917160
474.784393	31064.431873
475.154761	31683.702335
475.525070	31522.584537
475.895321	30963.883539
476.265513	31282.179472
476.635645	31932.203493
477.005719	31599.338625
477.375734	31796.394808
477.745691	32181.496112
478.115588	33059.529001
478.485427	34499.637941
478.855207	37011.929728
479.224928	38973.926640
479.594591	40113.338315
479.964194	38986.080862
480.333739	38855.144453
480.703226	38585.132691
481.072653	38823.692694
481.442022	38928.243704
481.811333	38850.713278
482.180584	37500.357042
482.549777	36767.985773
482.918912	36060.548050
483.287988	35523.418149
483.657005	34590.043473
484.025964	33806.605316
484.394864	33516.570091
484.763706	32880.895715
485.132489	31954.596298
485.501213	31541.524152
485.869879	31337.896825
486.238487	30757.561715
486.607036	30581.761557
486.975527	29906.171324
487.343959	29739.641848
487.712333	29488.393261
488.080648	29101.275495
488.448905	29101.928324
488.817104	28648.458892
489.185244	28942.164077
489.553326	29685.567911
489.921350	31112.668153
490.289315	32727.208578
490.657222	32788.216622
491.025070	32608.237347
491.392861	31591.005598
491.760593	30362.544461
492.128267	28907.107893
492.495883	27626.566596
492.863440	26447.632275
493.230939	25340.252092
493.598380	24399.963474
493.965763	23893.191401
494.333088	23119.817907
494.700354	22555.959808
495.067563	22092.975198
495.434713	21717.356304
495.801805	21443.891352
496.168839	20943.408119
496.535815	20485.139508
496.902733	20188.684374
497.269593	19705.066321
497.636395	19369.333036
498.003139	19255.970089
498.369825	18719.896310
498.736453	18558.307164
499.103023	18059.051452
499.469535	17709.107155
499.835989	17458.251778
500.202385	17041.176955
500.568723	16759.618431
500.935003	16563.681384
501.301226	16206.762650
501.667390	16143.959956
502.033497	15981.876777
502.399546	15498.586399
502.765537	14998.849257
503.131470	14863.826992
503.497345	14720.615373
503.863163	14042.401220
504.228923	13968.979334
504.594625	13834.577132
504.960269	13379.308007
505.325856	13323.762054
505.691385	12896.499059
506.056856	12686.603057
506.422270	12558.323336
506.787625	12204.653626
507.152924	12013.314111
507.518164	11816.658700
507.883347	11399.420040
508.248472	11236.273178
508.613540	11121.357556
508.978550	10970.637138
509.343503	10692.793944
509.708398	10523.214569
510.073236	10420.236399
510.438016	10216.659483
510.802738	9896.735258
511.167403	9817.695006
511.532010	9661.275564
511.896561	9518.540334
512.261053	9472.779260
512.625488	9194.368936
512.989866	8983.341195
513.354186	8772.273125
513.718449	8585.780679
514.082655	8510.919545
514.446803	8288.725648
514.810894	8187.965585
515.174927	8007.053697
515.538904	7831.740010
515.902822	7747.678770
516.266684	7513.857452
516.630488	7410.642347
516.994235	7244.674960
517.357925	7162.378123
517.721558	7034.098402
518.085133	6919.061792
518.448651	6796.607124
518.812112	6636.265664
519.175516	6508.752198
519.538863	6410.250572
519.902152	6282.106962
520.265385	6195.532707
520.628560	6078.920736
520.991678	5936.331699
521.354739	5846.400035
521.717743	5759.059524
522.080690	5641.237677
522.443580	5573.948355
522.806413	5472.139732
523.169189	5371.160380
523.531908	5284.550836
523.894569	5181.975958
524.257174	5103.376808
524.619722	5030.128843
524.982213	4944.295637
525.344647	4859.652143
525.707025	4783.616420
526.069345	4728.123398
526.431608	4649.496522
526.793815	4593.086010
527.155964	4501.735261
527.518057	4440.573462
527.880093	4368.212740
528.242072	4328.503571
528.603995	4259.064197
528.965860	4199.858366
529.327669	4153.923372
529.689421	4090.558589
530.051117	4046.826579
530.412755	4001.418386
530.774337	3960.206953
531.135862	3911.191814
531.497331	3874.877863
531.858743	3831.559228
532.220098	3804.248777
532.581396	3759.359822
532.942638	3714.090261
533.303824	3694.661654
533.664953	3661.395080
534.026025	3621.950571
534.387040	3606.602778
534.747999	3577.369127
535.108902	3556.846590
535.469748	3521.258564
535.830537	3498.457426
536.191270	3481.025116
536.551947	3457.069552
536.912567	3440.895010
537.273131	3420.735436
537.633638	3394.224008
537.994089	3381.653891
538.354483	3354.787062
538.714821	3351.875795
539.075103	3343.981348
539.435328	3326.876713
539.795497	3304.927529
540.155609	3294.993936
540.515665	3286.595373
540.875665	3266.531581
541.235609	3257.485231
541.595496	3246.896287
541.955328	3249.202615
542.315102	3228.188565
542.674821	3214.138869
543.034483	3203.151674
543.394090	3193.749922
543.753640	3185.487471
544.113134	3190.523584
544.472571	3167.528361
544.831953	3177.890452
545.191278	3158.184582
545.550548	3143.358549
545.909761	3146.448776
546.268918	3139.141623
546.628019	3141.513486
546.987064	3124.582771
547.346053	3105.655759
547.704986	3113.759414
548.063863	3101.446396
548.422684	3097.388267
548.781449	3086.922831
549.140158	3085.183633
549.498811	3080.699527
549.857408	3065.240829
550.215949	3066.843916
550.574434	3060.973492
550.932864	3054.601473
551.291237	3055.284550
551.649555	3048.393292
552.007817	3048.456307
552.366022	3038.719318
552.724173	3036.281920
553.082267	3035.087167
553.440305	3036.198741
553.798288	3021.087883
554.156215	3018.534538
554.514086	3019.157121
554.871902	3010.241840
555.229661	3005.830831
555.587365	3001.147599
555.945014	2998.682474
556.302606	2994.430261
556.660143	2993.137205
557.017625	2990.165445
557.375050	2983.070021
557.732421	2985.749394
558.089735	2980.829228
558.446994	2978.490133
558.804197	2980.201604
559.161345	2975.969556
559.518437	2962.663430
559.875474	2966.381281
560.232455	2960.790642
560.589381	2959.104376
560.946251	2959.656382
561.303065	2955.855352
561.659825	2954.489199
562.016528	2945.765483
562.373177	2939.227106
562.729770	2943.033177
563.086307	2934.133020
563.442789	2938.929678
563.799216	2933.583534
564.155587	2929.522885
564.511904	2925.880651
564.868164	2926.336876
565.224370	2923.165990
565.580520	2918.659198
565.936615	2924.832091
566.292654	2915.523601
566.648638	2918.180289
567.004567	2911.634350
567.360441	2910.779875
567.716260	2905.693351
568.072023	2905.564801
568.427732	2901.718401
568.783385	2895.855539
569.138982	2896.248749
569.494525	2895.540467
569.850013	2887.948489
570.205445	2889.677605
570.560823	2890.161556
570.916145	2885.800958
571.271412	2884.507902
571.626625	2879.968343
571.981782	2878.894577
572.336884	2870.732949
572.691931	2872.325953
573.046923	2869.172712
573.401860	2865.565766
573.756743	2862.576362
574.111570	2863.748430
574.466342	2860.375898
574.821059	2859.322297
575.175722	2851.523632
575.530330	2850.303673
575.884882	2847.450380
576.239380	2841.781602
576.593823	2843.354442
576.948211	2841.098526
577.302544	2834.234995
577.656823	2826.774087
578.011047	2833.090653
578.365216	2825.642348
578.719330	2823.635969
579.073389	2815.980977
579.427394	2820.288643
579.781344	2814.824032
580.135239	2811.121304
580.489080	2806.889256
580.842866	2801.936322
581.196597	2806.732980
581.550273	2804.308185
581.903895	2798.974644
582.257463	2799.975313
582.610975	2794.137657
582.964434	2793.021042
583.317837	2788.655402
583.671186	2784.637603
584.024481	2785.199691
584.377721	2779.891356
584.730906	2779.354473
585.084037	2775.931530
585.437113	2771.717125
585.790135	2772.869029
586.143103	2764.057092
586.496016	2766.365941
586.848874	2757.223808
587.201679	2758.080804
587.554428	2751.179465
587.907124	2749.717530
588.259765	2746.123187
588.612352	2747.698548
588.964884	2745.062024
589.317362	2742.417939
589.669786	2739.794019
590.022155	2737.127248
590.374470	2738.100191
590.726731	2731.352607
591.078937	2725.386401
591.431090	2724.418499
591.783188	2720.007490
592.135232	2718.611090
592.487222	2716.642520
592.839157	2716.140925
593.191038	2709.456355
593.542866	2709.562219
593.894639	2703.885880
594.246358	2700.594006
594.598022	2699.948739
594.949633	2695.023531
595.301190	2693.440609
595.652692	2693.554035
596.004141	2691.572862
596.355535	2687.194619
596.706876	2683.444001
597.058162	2680.885615
597.409395	2681.102385
597.760573	2680.129442
598.111698	2676.744307
598.462768	2675.095850
598.813785	2674.211128
599.164748	2671.468740
599.515657	2670.326919
599.866511	2666.467915
600.217312	2665.946156
600.568060	2662.354334
600.918753	2667.370282
601.269392	2664.706032
601.619978	2658.286123
601.970510	2661.709066
602.320988	2659.233860
602.671412	2659.243942
603.021783	2655.710093
603.372100	2654.764877
603.722363	2652.813950
604.072572	2654.117088
604.422728	2652.380411
604.772830	2647.750111
605.122878	2645.887405
605.472872	2645.927734
605.822813	2645.358084
606.172701	2645.111067
606.522534	2647.251037
606.872314	2648.362611
607.222041	2645.617703
607.571714	2651.868734
607.921333	2640.750469
608.270899	2641.042856
608.620411	2641.897332
608.969870	2639.054121
609.319276	2639.850623
609.668627	2640.405150
610.017926	2640.367341
610.367171	2642.179636
610.716362	2641.070582
611.065500	2638.366003
611.414585	2643.074441
611.763616	2639.437248
612.112594	2638.202166
612.461518	2640.684934
612.810389	2639.500263
613.159207	2638.665952
613.507971	2637.947587
613.856682	2639.674183
614.205340	2637.584624
614.553945	2642.451858
614.902496	2633.970117
615.250994	2637.990437
615.599439	2640.435397
615.947830	2637.211579
616.296169	2640.712660
616.644454	2637.110756
616.992686	2638.023205
617.340864	2641.085706
617.688990	2638.673514
618.037063	2641.332722
618.385082	2640.894142
618.733048	2641.877167
619.080961	2638.492032
619.428821	2639.225520
619.776628	2642.111581
620.124382	2636.089922
620.472083	2637.594707
620.819731	2637.950108
621.167326	2632.646814
621.514868	2634.156640
621.862357	2633.561784
622.209793	2632.422483
622.557176	2629.458284
622.904506	2627.366206
623.251783	2622.745988
623.599007	2622.564507
623.946179	2620.064094
624.293297	2621.619290
624.640363	2620.966461
624.987376	2618.087962
625.334336	2616.681480
625.681243	2613.966819
626.028097	2616.505040
626.374899	2613.583691
626.721647	2612.106633
627.068343	2613.535800
627.414987	2611.920110
627.761577	2607.191508
628.108115	2607.569594
628.454600	2604.428956
628.801032	2605.263267
629.147412	2607.451127
629.493739	2606.667228
629.840014	2603.914758
630.186236	2603.070365
630.532405	2601.316043
630.878521	2604.141610
631.224585	2601.091712
631.570597	2600.733790
631.916556	2601.540374
632.262462	2600.353183
632.608316	2600.141454
632.954117	2598.949221
633.299866	2600.622884
633.645562	2596.905033
633.991206	2598.208172
634.336797	2594.757502
634.682336	2593.083839
635.027823	2591.818509
635.373257	2590.865731
635.718639	2590.883375
636.063968	2587.704928
636.409245	2585.126377
636.754470	2583.301480
637.099642	2583.581264
637.444762	2584.264340
637.789829	2580.949782
638.134845	2578.724112
638.479808	2583.228383
638.824719	2577.660429
639.169577	2575.850654
639.514383	2576.448031
639.859137	2573.884604
640.203839	2576.500963
640.548489	2574.073648
640.893086	2572.886456
641.237632	2568.104922
641.582125	2570.247412
641.926566	2568.122566
642.270955	2571.396795
642.615292	2570.300344
642.959576	2571.598441
643.303809	2570.491908
643.647990	2570.812021
643.992118	2570.668348
644.336195	2572.374779
644.680219	2572.722618
645.024192	2569.587021
645.368112	2573.078020
645.711981	2573.909810
646.055797	2576.758062
646.399562	2572.926785
646.743274	2580.808629
647.086935	2580.506160
647.430544	2580.012127
647.774101	2580.475913
648.117606	2577.511715
648.461059	2583.591346
648.804460	2579.979359
649.147810	2579.840728
649.491108	2574.048442
649.834354	2573.816549
650.177548	2569.594582
650.520690	2569.040056
650.863781	2570.648184
651.206820	2571.495097
651.549807	2566.312791
651.892742	2565.692729
652.235626	2562.983109
652.578458	2563.010836
652.921238	2561.342214
653.263967	2560.359189
653.606644	2558.337686
653.949269	2560.069322
654.291843	2556.996739
654.634365	2559.144271
654.976836	2557.067315
655.319255	2554.564382
655.661622	2555.900288
656.003938	2559.000598
656.346203	2554.622356
656.688416	2554.151008
657.030577	2554.574465
657.372687	2552.676470
657.714746	2553.331820
658.056753	2552.167314
658.398708	2548.139432
658.740612	2548.883002
659.082465	2548.131870
659.424266	2552.865513
659.766016	2548.109185
660.107715	2548.525080
660.449362	2554.211502
660.790958	2551.940462
661.132503	2554.529094
661.473996	2553.790565
661.815438	2551.887530
662.156829	2551.852242
662.498168	2551.602704
662.839456	2553.835936
663.180693	2552.162272
663.521879	2553.548590
663.863013	2552.091696
664.204097	2550.319731
664.545129	2552.437015
664.886110	2554.241748
665.227040	2553.790565
665.567918	2553.266285
665.908746	2553.974567
666.249522	2553.563713
666.590248	2556.290977
666.930922	2555.746533
667.271545	2554.637479
667.612118	2556.681667
667.952639	2552.694114
668.293109	2554.352654
668.633528	2554.372818
668.973896	2551.310317
669.314213	2550.801161
669.654480	2551.559855
669.994695	2552.482386
670.334859	2549.908877
670.674973	2549.974412
671.015035	2552.552962
671.355047	2551.106151
671.695008	2551.456511
672.034918	2550.730585
672.374777	2548.971222
672.714585	2549.878630
673.054342	2552.389124
673.394049	2550.002138
673.733705	2552.391645
674.073310	2549.477858
674.412864	2552.121943
674.752368	2550.097920
675.091820	2549.278732
675.431223	2548.376366
675.770574	2549.369473
676.109875	2540.050900
676.449125	2544.852599
676.788324	2540.910417
677.127473	2542.153062
677.466571	2536.781712
677.805619	2538.886394
678.144616	2539.140972
678.483562	2541.936292
678.822458	2540.663401
679.161303	2540.761703
679.500098	2537.245498
679.838842	2537.416897
680.177535	2539.274563
680.516179	2539.456044
680.854771	2541.107022
681.193314	2542.957126
681.531805	2549.324103
681.870247	2549.308979
682.208638	2551.675801
682.546978	2555.378529
682.885268	2557.347099
683.223508	2551.960626
683.561697	2552.399207
683.899836	2551.897612
684.237925	2552.719320
684.575963	2546.362425
684.913951	2547.743701
685.251889	2546.743032
685.589776	2545.442414
685.927614	2549.550955
686.265401	2547.393341
686.603137	2549.505584
686.940824	2547.242106
687.278460	2553.535987
687.616046	2550.012220
687.953582	2553.906512
688.291068	2554.529094
688.628504	2553.120092
688.965889	2555.096224
689.303224	2552.668908
689.640510	2551.133877
689.977745	2549.593805
690.314930	2546.284287
690.652065	2545.301262
690.989150	2539.889583
691.326185	2538.805735
691.663170	2536.786753
692.000105	2533.661238
692.336990	2530.427338
692.673825	2526.255783
693.010610	2527.758047
693.347345	2519.520801
693.684030	2518.641120
694.020665	2518.096675
694.357251	2511.195336
694.693786	2518.507529
695.030272	2515.119874
695.366707	2512.465707
695.703093	2511.800274
696.039429	2511.152486
696.375716	2511.039060
696.711952	2511.502846
697.048139	2512.460665
697.384276	2511.964112
697.720363	2509.453617
698.056400	2510.630727
698.392388	2508.760458
698.728326	2511.117198
699.064214	2506.446569
699.400053	2507.371621
699.735842	2507.737104
700.071581	2506.819614
700.407270	2502.206958
700.742910	2502.648059
701.078501	2503.968842
701.414042	2505.279542
701.749533	2500.616474
702.084974	2499.159581
702.420366	2496.190341
702.755709	2499.489777
703.091002	2497.440548
703.426246	2495.441730
703.761440	2497.432986
704.096584	2496.717142
704.431679	2496.074395
704.766725	2493.785711
705.101721	2493.271513
705.436668	2496.127327
705.771565	2495.499703
706.106413	2494.171359
706.441212	2493.576503
706.775961	2495.282934
707.110661	2496.402070
707.445311	2497.009529
707.779913	2496.023983
708.114465	2502.602689
708.448967	2498.736124
708.783421	2503.636126
709.117825	2501.309633
709.452180	2504.450272
709.786485	2502.892555
710.120742	2509.609893
710.454949	2509.042763
710.789107	2508.163082
711.123216	2510.454286
711.457275	2514.610718
711.791286	2514.832528
712.125247	2514.267919
712.459159	2515.901253
712.793023	2524.405679
713.126837	2517.133815
713.460602	2513.330264
713.794318	2513.161386
714.127985	2512.818587
714.461602	2509.378000
714.795171	2509.773730
715.128691	2504.354490
715.462162	2505.030005
715.795584	2499.598161
716.128957	2502.292658
716.462281	2499.119252
716.795556	2497.808552
717.128782	2494.481390
717.461960	2495.408963
717.795088	2492.719507
718.128167	2492.676657
718.461198	2489.147849
718.794180	2487.685915
719.127113	2487.033085
719.459997	2486.511326
719.792833	2484.245327
720.125619	2485.399752
720.458357	2482.826242
720.791046	2483.307673
721.123686	2479.579739
721.456278	2482.022178
721.788821	2479.330202
722.121315	2482.022178
722.453761	2481.119812
722.786158	2479.035295
723.118506	2482.140646
723.450805	2479.441108
723.783056	2477.790130
724.115259	2482.243989
724.447412	2481.122333
724.779518	2482.954792
725.111574	2481.087044
725.443582	2482.385142
725.775542	2480.560244
726.107453	2487.292705
726.439315	2481.394555
726.771129	2489.548621
727.102895	2487.973261
727.434612	2491.071050
727.766281	2488.631131
728.097901	2487.023003
728.429473	2487.267499
728.760996	2487.378404
729.092471	2488.142139
729.423897	2492.832933
729.755276	2491.267655
730.086606	2492.384270
730.417887	2490.186327
730.749120	2494.337717
731.080305	2496.545743
731.411442	2496.341576
731.742530	2497.430465
732.073570	2501.876763
732.404562	2501.458347
732.735506	2502.637977
733.066401	2498.305105
733.397249	2499.293172
733.728048	2494.355361
734.058798	2491.857470
734.389501	2488.202633
734.720156	2482.911942
735.050762	2484.935965
735.381320	2480.401448
735.711831	2482.266674
736.042293	2479.105871
736.372707	2478.594194
736.703073	2479.809112
737.033391	2477.235603
737.363661	2477.401961
737.693883	2478.553865
738.024056	2483.075780
738.354182	2480.542600
738.684260	2483.337920
739.014290	2484.383959
739.344272	2485.745071
739.674207	2487.083497
740.004093	2486.458394
740.333931	2487.706079
740.663722	2487.559886
740.993464	2486.286995
741.323159	2487.118785
741.652806	2483.932776
741.982405	2487.239773
742.311956	2484.865389
742.641460	2482.372539
742.970915	2480.580408
743.300323	2480.174596
743.629683	2479.141159
743.958996	2477.538072
744.288260	2475.413226
744.617477	2473.167392
744.946647	2469.898203
745.275768	2469.487349
745.604842	2465.386371
745.933869	2468.753862
746.262847	2465.867801
746.591778	2468.441310
746.920662	2470.523307
747.249498	2470.404839
747.578286	2472.383492
747.907027	2472.204531
748.235720	2475.216621
748.564365	2472.012967
748.892963	2473.747124
749.221514	2471.158492
749.550017	2472.479274
749.878473	2473.716878
750.206881	2471.360138
750.535242	2469.714201
750.863555	2469.222689
751.191821	2471.050107
751.520039	2468.292596
751.848210	2468.663121
752.176334	2470.576239
752.504411	2470.369551
752.832440	2467.339818
753.160421	2469.857874
753.488356	2468.975672
753.816243	2469.076495
754.144082	2468.653038
754.471875	2468.537092
754.799620	2466.313943
755.127318	2466.941567
755.454969	2465.474591
755.782572	2466.936526
756.110129	2465.295630
756.437638	2466.298820
756.765100	2464.294961
757.092515	2467.483491
757.419882	2467.080198
757.747203	2465.988789
758.074477	2468.358131
758.401703	2466.704633
758.728882	2466.838223
759.056014	2468.038018
759.383099	2469.449541
759.710138	2472.121352
760.037129	2472.426342
760.364073	2469.326032
760.690970	2468.620271
761.017820	2469.028604
761.344623	2472.131435
761.671379	2474.228555
761.998088	2472.917855
762.324751	2486.163486
762.651366	2501.886845
762.977935	2524.148581
763.304456	2533.757020
763.630931	2539.367824
763.957359	2535.977648
764.283740	2522.240504
764.610074	2512.380007
764.936362	2499.867863
765.262602	2489.455360
765.588796	2484.802375
765.914943	2478.384986
766.241044	2474.009264
766.567097	2464.995681
766.893104	2467.659931
767.219064	2462.979220
767.544978	2462.449899
767.870845	2455.805658
768.196665	2459.528550
768.522438	2457.101234
768.848165	2454.903291
769.173846	2452.554114
769.499479	2453.380863
769.825066	2452.075204
770.150607	2454.414299
770.476101	2450.540173
770.801548	2450.595625
771.126949	2449.862137
771.452303	2446.988680
771.777611	2447.119750
772.102872	2445.796447
772.428087	2448.637137
772.753256	2449.196705
773.078378	2446.232507
773.403453	2444.601693
773.728482	2445.176385
774.053465	2445.168823
774.378401	2444.395006
774.703291	2441.738318
775.028135	2444.105140
775.352932	2441.740839
775.677683	2444.899122
776.002388	2440.488112
776.327046	2441.085489
776.651658	2442.065993
776.976224	2440.861157
777.300743	2440.538523
777.625216	2440.415015
777.949643	2440.636826
778.274024	2442.378545
778.598359	2437.092895
778.922647	2433.448141
779.246889	2436.765220
779.571086	2435.124324
779.895236	2441.617330
780.219339	2436.896290
780.543397	2439.724377
780.867409	2437.365117
781.191374	2437.967535
781.515294	2440.543565
781.839167	2440.372165
782.162995	2441.642536
782.486776	2438.373348
782.810511	2436.616506
783.134201	2438.524582
783.457844	2437.508790
783.781441	2440.069696
784.104993	2438.461568
784.428498	2436.064499
784.751958	2438.101126
785.075372	2438.650611
785.398739	2439.832762
785.722061	2438.365786
786.045337	2439.384099
786.368568	2439.870571
786.691752	2439.079109
787.014891	2441.816456
787.337983	2443.059100
787.661030	2444.689914
787.984031	2448.964812
788.306987	2451.440019
788.629897	2450.572940
788.952760	2452.624690
789.275579	2451.467745
789.598351	2448.122939
789.921078	2446.507250
790.243759	2441.992896
790.566395	2442.829728
790.888984	2441.319902
791.211529	2442.154213
791.534027	2439.573142
791.856480	2435.928388
792.178888	2436.503080
792.501249	2439.200097
792.823566	2438.126331
793.145836	2436.054417
793.468062	2436.261104
793.790241	2436.472833
794.112375	2436.603903
794.434464	2437.975097
794.756507	2436.717329
795.078505	2439.006013
795.400457	2437.738162
795.722364	2440.694799
796.044226	2440.336877
796.366042	2441.665221
796.687812	2442.035746
797.009538	2444.362239
797.331218	2444.024481
797.652852	2442.933072
797.974442	2442.343257
798.295986	2441.783688
798.617484	2439.308482
798.938938	2441.357711
799.260346	2439.172371
799.581709	2439.772268
799.903026	2438.138934
800.224299	2438.078440
800.545526	2437.317226
800.866708	2435.245312
801.187845	2436.157761
801.508936	2437.160950
801.829983	2436.276228
802.150984	2435.459561
802.471940	2437.463420
802.792851	2433.637184
803.113717	2434.479057
803.434538	2432.724735
803.755314	2436.893769
804.076045	2432.717173
804.396731	2432.911258
804.717372	2433.410332
805.037967	2432.903696
805.358518	2434.521906
805.679024	2432.341607
805.999485	2433.009560
806.319901	2437.604572
806.640272	2435.023501
806.960598	2436.926537
807.280879	2433.541402
807.601115	2436.757658
807.921306	2437.029880
808.241453	2434.998295
808.561554	2433.485949
808.881611	2435.162133
809.201623	2436.059458
809.521590	2436.596341
809.841513	2432.989396
810.161390	2432.878490
810.481223	2434.368151
810.801011	2434.771443
811.120755	2433.811104
811.440453	2434.196752
811.760107	2434.136258
812.079716	2433.410332
812.399281	2427.761719
812.718801	2429.679878
813.038276	2426.216605
813.357707	2431.875301
813.677093	2431.676175
813.996434	2430.390681
814.315731	2433.642225
814.634983	2431.046031
814.954191	2431.885383
815.273354	2433.506114
815.592473	2434.196752
815.911547	2435.061310
816.230577	2435.464602
816.549562	2437.932247
816.868502	2436.026691
817.187399	2439.318564
817.506250	2439.132042
817.825058	2441.519028
818.143821	2438.673297
818.462539	2443.290993
818.781213	2442.595314
819.099843	2450.426747
819.418429	2456.763477
819.736970	2462.522995
820.055466	2470.719912
820.373919	2478.911787
820.692327	2493.369816
821.010691	2521.257479
821.329011	2583.069587
821.647286	2679.282528
821.965517	2775.157713
822.283704	2830.617967
822.601847	2849.093796
822.919945	2810.029895
823.237999	2761.203799
823.556010	2714.631099
823.873976	2670.634429
824.191897	2629.554066
824.509775	2596.511823
824.827609	2568.167936
825.145398	2551.075904
825.463144	2539.909748
825.780845	2543.637681
826.098502	2552.197561
826.416116	2579.238310
826.733685	2599.869232
827.051210	2607.352825
827.368692	2596.136257
827.686129	2569.702967
828.003522	2543.609955
828.320872	2519.001563
828.638177	2503.689058
828.955439	2487.393528
829.272656	2475.874491
829.589830	2466.384519
829.906960	2461.451750
830.224046	2455.518312
830.541088	2453.060750
830.858086	2446.529935
831.175041	2445.483895
831.491952	2444.677311
831.808819	2447.449945
832.125642	2448.858948
832.442421	2455.717438
832.759157	2470.936681
833.075849	2483.204329
833.392497	2504.896414
833.709101	2517.721109
834.025662	2517.965605
834.342179	2506.396157
834.658653	2491.580206
834.975083	2478.072434
835.291469	2473.285859
835.607811	2462.921247
835.924110	2455.619135
836.240366	2451.024123
836.556578	2445.816612
836.872746	2442.323092
837.188871	2433.632143
837.504952	2434.201793
837.820990	2431.852615
838.136984	2431.698860
838.452935	2430.405804
838.768842	2430.504107
839.084706	2433.221289
839.400526	2443.643874
839.716303	2451.750050
840.032037	2459.825978
840.347727	2455.367078
840.663373	2454.137036
840.978977	2444.931889
841.294537	2439.482402
841.610054	2435.202462
841.925527	2431.845054
842.240957	2431.197265
842.556344	2427.718869
842.871687	2427.209713
843.186987	2425.783066
843.502244	2423.207037
843.817458	2420.865421
844.132629	2421.724937
844.447756	2416.855183
844.762840	2417.747467
845.077881	2416.741757
845.392879	2413.114647
845.707833	2417.467683
846.022745	2413.044070
846.337613	2414.264030
846.652438	2416.635893
846.967221	2415.526839
847.281960	2414.327044
847.596656	2418.329720
847.911309	2416.651016
848.225919	2415.801582
848.540485	2417.692014
848.855009	2414.516087
849.169490	2413.480130
849.483928	2414.896694
849.798323	2414.760583
850.112675	2414.228742
850.426984	2415.216808
850.741251	2415.733526
851.055474	2416.708989
851.369654	2412.434091
851.683792	2413.913669
851.997887	2416.313259
852.311938	2414.138001
852.625947	2415.486509
852.939914	2413.575912
853.253837	2413.805285
853.567718	2415.473907
853.881555	2413.838052
854.195350	2413.288566
854.509103	2415.489030
854.822812	2413.109605
855.136479	2415.491551
855.450103	2414.442991
855.763685	2414.679925
856.077224	2413.192784
856.390720	2414.362332
856.704173	2415.612538
857.017584	2416.192271
857.330953	2414.518608
857.644278	2414.884092
857.957561	2420.515060
858.270802	2414.798392
858.584000	2417.495409
858.897155	2417.225707
859.210268	2413.931313
859.523339	2415.564647
859.836367	2414.027095
860.149352	2417.092117
860.462295	2416.187230
860.775195	2412.444173
861.088054	2408.711199
861.400869	2413.255799
861.713642	2411.897208
862.026373	2417.545821
862.339062	2412.734039
862.651708	2415.763773
862.964312	2414.304359
863.276873	2416.250244
863.589392	2415.821746
863.901869	2415.342837
864.214303	2414.868968
864.526696	2415.320151
864.839045	2415.184040
865.151353	2417.084555
865.463619	2416.260327
865.775842	2415.960378
866.088023	2417.868455
866.400162	2418.140677
866.712258	2416.918197
867.024313	2417.944072
867.336325	2418.833836
867.648296	2416.557755
867.960224	2417.109761
868.272110	2417.502971
868.583954	2416.822415
868.895755	2417.266037
869.207515	2418.652354
869.519233	2414.858886
869.830909	2415.161355
870.142542	2417.881058
870.454134	2420.941038
870.765684	2419.441295
871.077191	2416.744277
871.388657	2419.524474
871.700081	2418.959864
872.011463	2421.959351
872.322803	2419.620256
872.634101	2422.103024
872.945357	2418.526325
873.256571	2423.842222
873.567744	2420.419278
873.878874	2422.763415
874.189963	2421.586306
874.501010	2423.254928
874.812015	2422.266861
875.122979	2424.346337
875.433900	2422.886923
875.744780	2424.240473
876.055618	2424.704259
876.366415	2425.518406
876.677169	2423.446491
876.987882	2422.259300
877.298554	2419.761408
877.609183	2422.576892
877.919771	2421.752664
878.230317	2426.075453
878.540822	2431.608119
878.851285	2431.527461
879.161707	2438.159099
879.472087	2446.792075
879.782425	2457.970833
880.092722	2482.826243
880.402977	2512.944616
880.713191	2553.120092
881.023363	2591.674836
881.333494	2614.929679
881.643583	2623.136677
881.953631	2620.525360
882.263637	2609.613782
882.573602	2593.771956
882.883526	2576.982393
883.193408	2561.616957
883.503248	2546.022147
883.813048	2531.349869
884.122806	2516.337313
884.432522	2503.419356
884.742197	2487.872438
885.051831	2478.359780
885.361424	2468.746300
885.670975	2461.665999
885.980485	2454.442026
886.289954	2448.982456
886.599382	2444.679831
886.908768	2443.343926
887.218113	2437.667586
887.527417	2438.287648
887.836680	2433.727925
888.145901	2432.782708
888.455082	2429.815989
888.764221	2429.332038
889.073319	2425.770463
889.382376	2426.135947
889.691392	2427.066040
890.000366	2423.872469
890.309300	2424.396749
890.618193	2426.025042
890.927044	2425.117634
891.235855	2424.739547
891.544625	2423.421286
891.853353	2427.045875
892.162041	2427.310536
892.470687	2429.763057
892.779293	2431.643407
893.087858	2434.703388
893.396381	2435.903183
893.704864	2445.551951
894.013306	2455.175514
894.321707	2471.294603
894.630068	2482.523773
894.938387	2480.766931
895.246665	2478.430356
895.554903	2470.729994
895.863100	2464.332770
896.171256	2462.966617
896.479371	2455.432613
896.787446	2453.683332
897.095480	2444.904163
897.403473	2445.516663
897.711425	2439.565581
898.019336	2441.718153
898.327207	2434.889911
898.635038	2437.254212
898.942827	2430.420928
899.250576	2428.429672
899.558284	2429.049734
899.865952	2428.301123
900.173579	2425.893972
900.481165	2423.176790
900.788711	2421.019176
901.096216	2424.631162
901.403681	2419.894998
901.711105	2420.336099
902.018489	2421.077149
902.325832	2424.152253
902.633135	2425.420103
902.940397	2430.403284
903.247619	2439.129521
903.554800	2454.222736
903.861941	2474.077320
904.169041	2489.644403
904.476101	2494.178921
904.783121	2489.770432
905.090100	2479.562095
905.397039	2476.418936
905.703938	2467.705302
906.010796	2458.810186
906.317614	2452.639813
906.624391	2448.092693
906.931129	2441.501384
907.237826	2440.427618
907.544483	2434.673141
907.851099	2433.604416
908.157675	2426.796338
908.464211	2421.919022
908.770707	2414.596746
909.077163	2416.953485
909.383578	2412.446694
909.689954	2414.132960
909.996289	2411.652712
910.302584	2414.810995
910.608839	2413.364184
910.915054	2415.073135
911.221229	2413.018865
911.527363	2413.190264
911.833458	2412.857548
912.139513	2415.100861
912.445527	2416.149421
912.751502	2414.327044
913.057436	2416.078845
913.363331	2420.048754
913.669186	2419.151428
913.975000	2423.088569
914.280775	2427.698705
914.586510	2434.753799
914.892205	2442.655808
915.197859	2456.423199
915.503475	2469.179839
915.809050	2478.011941
916.114585	2488.479897
916.420081	2488.323621
916.725536	2491.023159
917.030952	2485.309011
917.336328	2481.051756
917.641665	2477.654019
917.946961	2470.455251
918.252218	2465.958542
918.557435	2459.571400
918.862612	2456.287088
919.167750	2450.343568
919.472848	2446.131684
919.777906	2441.148503
920.082925	2438.438883
920.387904	2434.378233
920.692843	2428.906061
920.997743	2428.386822
921.302603	2422.798703
921.607423	2425.301636
921.912204	2420.661254
922.216946	2421.488003
922.521647	2419.020358
922.826310	2418.049936
923.130932	2420.557910
923.435516	2415.262178
923.740059	2415.806623
924.044564	2414.826118
924.349028	2415.000038
924.653454	2409.230438
924.957840	2412.025757
925.262186	2408.880077
925.566493	2408.519635
925.870761	2404.592576
926.174989	2410.306724
926.479178	2407.029974
926.783328	2411.453586
927.087438	2406.961918
927.391509	2407.939902
927.695541	2407.266908
927.999533	2405.734397
928.303486	2408.068452
928.607400	2407.466034
928.911275	2408.179357
929.215110	2408.648184
929.518906	2406.324212
929.822663	2408.277659
930.126381	2406.120046
930.430060	2405.633574
930.733699	2405.744480
931.037299	2406.682134
931.340861	2407.244223
931.644383	2406.619120
931.947866	2407.014850
932.251309	2406.465365
932.554714	2408.504511
932.858080	2404.418656
933.161407	2405.893194
933.464694	2403.843965
933.767943	2405.096691
934.071153	2404.411094
934.374323	2406.629202
934.677455	2406.861095
934.980548	2405.878070
935.283602	2408.509553
935.586617	2404.297668
935.889593	2405.542833
936.192530	2404.895045
936.495428	2407.687844
936.798287	2405.288255
937.101108	2405.542833
937.403890	2406.972001
937.706632	2406.165416
938.009336	2408.096178
938.312002	2410.122722
938.614628	2410.760428
938.917216	2414.569019
939.219765	2411.234296
939.522275	2412.116498
939.824747	2413.212949
940.127179	2408.791857
940.429573	2407.960067
940.731929	2412.555078
941.034246	2404.274983
941.336524	2413.558268
941.638763	2411.163720
941.940964	2411.390572
942.243126	2409.724471
942.545250	2410.752866
942.847335	2412.590367
943.149381	2409.936199
943.451389	2408.827145
943.753359	2409.603483
944.055290	2407.962587
944.357182	2408.436456
944.659036	2409.885787
944.960851	2409.590880
945.262628	2408.494429
945.564367	2409.752197
945.866067	2406.049469
946.167729	2408.713719
946.469352	2406.601476
946.770937	2408.343194
947.072484	2407.450910
947.373992	2406.840931
947.675462	2409.858061
947.976893	2407.375293
948.278286	2408.360838
948.579641	2405.913358
948.880958	2407.299676
949.182236	2407.501322
949.483476	2408.365880
949.784678	2408.426373
950.085841	2406.178019
950.386967	2409.895870
950.688054	2407.818914
950.989103	2408.025602
951.290114	2405.447052
951.591087	2410.079872
951.892021	2404.970663
952.192917	2412.381159
952.493776	2409.240520
952.794596	2413.591036
953.095378	2407.458472
953.396122	2410.281518
953.696828	2410.122722
953.997496	2411.786302
954.298126	2410.102557
954.598718	2405.815056
954.899272	2407.949984
955.199788	2407.637433
955.500266	2408.638102
955.800706	2405.782288
956.101108	2404.224572
956.401472	2402.888666
956.701798	2401.381361
957.002087	2403.730539
957.302337	2403.856568
957.602550	2405.217679
957.902724	2402.918913
958.202861	2402.687020
958.502960	2402.492935
958.803022	2401.467061
959.103045	2403.100394
959.403031	2402.281207
959.702979	2400.221896
960.002889	2404.562329
960.302762	2401.242729
960.602596	2403.468399
960.902393	2401.063768
961.202153	2401.688871
961.501875	2404.479150
961.801559	2403.370096
962.101205	2401.106618
962.400814	2399.841288
962.700385	2399.574107
962.999918	2399.420352
963.299414	2401.141906
963.598873	2400.128634
963.898293	2399.387585
964.197677	2400.834396
964.497022	2398.969169
964.796331	2400.632750
965.095601	2399.742986
965.394835	2401.368758
965.694030	2399.281720
965.993189	2400.496638
966.292309	2400.542009
966.591393	2399.911865
966.890439	2401.272976
967.189447	2398.833058
967.488419	2397.411452
967.787353	2400.085784
968.086249	2398.170146
968.385108	2401.028480
968.683930	2400.176525
968.982714	2399.710218
969.281462	2401.963614
969.580172	2399.778274
969.878844	2400.053017
970.177480	2400.854560
970.476078	2402.379509
970.774639	2399.397667
971.073162	2399.795918
971.371649	2397.502193
971.670098	2396.052861
971.968510	2397.839950
972.266885	2398.071843
972.565223	2399.984961
972.863524	2401.867832
973.161788	2401.555281
973.460014	2403.233985
973.758204	2400.385733
974.056356	2400.693243
974.354471	2402.319016
974.652550	2402.440003
974.950591	2401.124262
975.248595	2403.289438
975.546563	2400.438665
975.844493	2398.558315
976.142386	2404.857237
976.440243	2399.533778
976.738062	2401.671227
977.035845	2399.876577
977.333590	2399.206103
977.631299	2402.714746
977.928971	2400.937739
978.226606	2401.809859
978.524204	2402.200548
978.821765	2401.903120
979.119290	2400.743655
979.416777	2401.519993
979.714228	2403.163409
980.011642	2400.509241
980.309020	2400.708367
980.606360	2401.066289
980.903664	2400.564694
981.200931	2403.100394
981.498162	2401.910682
981.795356	2402.596279
982.092513	2406.359500
982.389633	2407.473595
982.686717	2407.060221
982.983764	2406.941754
983.280775	2411.171282
983.577749	2411.214132
983.874686	2410.846127
984.171587	2409.011147
984.468451	2411.942578
984.765279	2408.791857
985.062070	2409.469892
985.358824	2407.229099
985.655543	2409.981569
985.952224	2404.917730
986.248869	2403.233985
986.545478	2399.879097
986.842050	2400.158881
987.138586	2395.147974
987.435086	2399.624519
987.731549	2392.836605
988.027975	2402.142575
988.324366	2398.233160
988.620719	2400.363048
988.917037	2398.608726
989.213318	2399.813562
989.509563	2399.687533
989.805772	2400.473953
990.101944	2398.949004
990.398080	2397.373644
990.694180	2399.702657
990.990244	2400.040414
991.286271	2397.474467
991.582262	2398.666700
991.878217	2399.034704
992.174136	2400.168963
992.470019	2397.739127
992.765865	2398.215516
993.061676	2398.540671
993.357450	2396.856925
993.653188	2400.592420
993.948890	2400.957904
994.244556	2398.553274
994.540186	2399.410270
994.835780	2400.758778
995.131337	2400.360527
995.426859	2399.795918
995.722345	2405.474778
996.017795	2400.300033
996.313208	2401.938408
996.608586	2404.602658
996.903928	2404.484191
997.199234	2405.265570
997.494504	2403.039901
997.789738	2405.890673
998.084936	2403.952349
998.380099	2404.169119
998.675225	2402.893707
998.970316	2404.227092
999.265371	2401.099056
999.560390	2400.526885
999.855373	2403.309602
1000.150320	2399.647204
1000.445232	2400.095867
1000.740108	2397.383726
1001.034948	2397.736607
1001.329752	2397.822306
1001.624521	2400.322719
1001.919254	2395.881462
1002.213951	2396.829199
1002.508613	2394.351472
1002.803239	2395.228633
1003.097829	2394.537995
1003.392384	2396.463715
1003.686903	2397.920609
1003.981386	2397.971020
1004.275834	2398.021432
1004.570246	2398.044117
1004.864623	2393.680998
1005.158964	2396.935063
1005.453270	2398.916237
1005.747540	2395.032028
1006.041775	2396.940104
1006.335974	2398.838099
1006.630138	2397.774415
1006.924266	2400.141237
1007.218359	2396.738458
1007.512416	2398.424724
1007.806438	2397.043448
1008.100425	2398.641494
1008.394376	2396.322563
1008.688292	2399.367420
1008.982172	2397.509755
1009.276017	2397.000598
1009.569827	2396.869528
1009.863602	2397.582852
1010.157341	2395.102604
1010.451045	2396.937584
1010.744714	2393.338200
1011.038347	2397.217368
1011.331945	2395.082439
1011.625508	2399.097718
1011.919036	2393.801986
1012.212528	2393.272665
1012.505986	2394.699312
1012.799408	2395.634446
1013.092795	2396.120917
1013.386147	2398.026473
1013.679464	2399.763151
1013.972745	2397.018242
1014.265992	2395.216030
1014.559204	2397.625701
1014.852380	2397.587893
1015.145521	2397.648387
1015.438628	2394.963972
1015.731699	2396.728376
1016.024736	2397.298026
1016.317737	2393.754095
1016.610703	2398.427245
1016.903635	2395.316853
1017.196531	2391.810730
1017.489393	2396.037738
1017.782219	2393.912892
1018.075011	2395.337018
1018.367768	2397.247615
1018.660490	2396.216699
1018.953177	2396.216699
1019.245829	2396.216699
