Dividing Wavelength (nm)	Counts (n)	Blue Motor Position (mm): 0.000000	Red Motor Position (mm): 27.000000	
326.493990	1988.853659
326.888308	1988.853659
327.282561	1988.853659
327.676750	1963.327777
328.070874	1962.929526
328.464933	1970.735752
328.858929	1981.443163
329.252859	1992.246356
329.646726	2008.025167
330.040528	2021.873217
330.434265	2039.035825
330.827938	2060.755637
331.221547	2077.285580
331.615091	2100.245515
332.008571	2121.027672
332.401986	2143.513739
332.795338	2164.842861
333.188625	2182.088648
333.581847	2202.220496
333.975006	2218.415203
334.368100	2236.775085
334.761129	2255.147570
335.154095	2268.756165
335.546996	2289.034206
335.939833	2315.936324
336.332606	2328.627429
336.725315	2337.381392
337.117960	2347.178875
337.510540	2354.987622
337.903056	2362.690505
338.295508	2370.773995
338.687896	2379.021323
339.080220	2382.628269
339.472480	2389.149001
339.864676	2393.691081
340.256807	2396.514127
340.648875	2396.362892
341.040879	2400.675599
341.432818	2400.733573
341.824694	2404.637946
342.216506	2402.132493
342.608253	2401.696433
342.999937	2403.874212
343.391557	2400.703326
343.783113	2399.528737
344.174605	2397.676113
344.566033	2397.857594
344.957397	2395.266441
345.348697	2393.814589
345.739934	2393.794424
346.131106	2391.810730
346.522215	2391.294012
346.913260	2388.047509
347.304241	2383.016438
347.695159	2383.633979
348.086012	2382.852600
348.476802	2381.486447
348.867528	2376.069728
349.258191	2380.558875
349.648789	2378.872609
350.039324	2373.455889
350.429796	2375.449666
350.820203	2375.386651
351.210548	2374.418750
351.600828	2373.236599
351.991045	2373.478574
352.381198	2373.859182
352.771288	2374.345653
353.161314	2371.890611
353.551276	2373.579398
353.941175	2374.484285
354.331010	2373.178626
354.720782	2372.112422
355.110490	2376.399923
355.500135	2375.563092
355.889717	2377.945037
356.279235	2377.098123
356.668689	2377.294728
357.058080	2377.143493
357.447408	2378.459234
357.836672	2372.608975
358.225873	2377.909749
358.615010	2375.429501
359.004084	2380.657178
359.393095	2379.774976
359.782043	2383.865872
360.170927	2381.834287
360.559748	2385.184134
360.948505	2384.617004
361.337199	2384.143135
361.725830	2386.280585
362.114398	2387.029196
362.502903	2387.699669
362.891344	2387.734958
363.279722	2386.426778
363.668037	2392.249311
364.056289	2392.965155
364.444478	2393.993550
364.832603	2390.951214
365.220665	2390.991543
365.608665	2394.265772
365.996601	2397.381205
366.384474	2397.988664
366.772284	2398.051679
367.160031	2399.493449
367.547715	2397.222409
367.935336	2398.712070
368.322893	2399.879097
368.710388	2399.450599
369.097820	2405.421846
369.485189	2403.586866
369.872495	2406.777916
370.259738	2408.373441
370.646918	2412.502146
371.034035	2409.583318
371.421090	2412.981056
371.808081	2418.254103
372.195010	2422.276944
372.581875	2428.522933
372.968678	2435.835127
373.355418	2441.135900
373.742096	2454.041254
374.128710	2464.630198
374.515262	2474.523462
374.901751	2491.499548
375.288177	2504.989675
375.674540	2524.025072
376.060841	2546.654812
376.447079	2574.320664
376.833254	2598.404777
377.219367	2622.504013
377.605417	2658.497851
377.991404	2684.613549
378.377329	2723.284240
378.763191	2758.920156
379.148991	2803.967907
379.534727	2856.103520
379.920402	2899.470046
380.306013	2949.957202
380.691563	3016.102182
381.077049	3071.055800
381.462474	3128.038482
381.847835	3203.063454
382.233134	3272.323867
382.618371	3331.779235
383.003545	3418.996238
383.388657	3501.547653
383.773706	3591.968309
384.158693	3666.196779
384.543618	3757.923093
384.928480	3837.548118
385.313280	3943.651804
385.698017	4049.911765
386.082692	4166.942152
386.467305	4229.724682
386.851856	4359.410885
387.236344	4515.253115
387.620770	4578.663269
388.005133	4697.332030
388.389435	4847.132437
388.773674	4930.603863
389.157851	5060.569850
389.541965	5195.292166
389.926018	5221.780909
390.310008	5400.638527
390.693936	5524.867681
391.077802	5643.412934
391.461606	5775.710455
391.845348	5889.330501
392.229027	6013.930180
392.612645	6238.647175
392.996200	6353.938363
393.379694	6529.458737
393.763125	6754.531133
394.146494	6847.938673
394.529801	6984.725341
394.913047	7232.268680
395.296230	7222.367854
395.679351	7283.053264
396.062410	7550.806589
396.445408	7438.411543
396.828343	7596.605472
397.211217	7737.059579
397.594028	7616.334027
397.976778	7817.627300
398.359466	7986.246335
398.742092	7961.809341
399.124656	8104.778985
399.507158	8293.479456
399.889598	8316.830080
400.271977	8533.536681
400.654294	8565.880724
401.036549	8759.128316
401.418742	8783.051112
401.800874	9087.113347
402.182944	9170.088219
402.564952	9534.120020
402.946898	9354.712917
403.328783	9417.427391
403.710606	9612.978790
404.092367	9869.659220
404.474067	10231.064581
404.855705	10021.773517
405.237282	9974.852978
405.618797	10405.256611
406.000250	10655.960753
406.381642	11024.385920
406.762972	10974.256686
407.144240	10772.608012
407.525447	11018.996927
407.906593	10963.214039
408.287677	11221.681558
408.668700	11377.644776
409.049661	11349.868018
409.430560	11512.097390
409.811399	11485.439769
410.192176	11640.611525
410.572891	11722.336191
410.953545	12197.170033
411.334138	11683.786487
411.714669	12280.593568
412.095139	11589.486663
412.475547	12091.199938
412.855894	11928.463930
413.236180	12261.016247
413.616405	11949.606530
413.996568	12227.490053
414.376670	12197.167513
414.756711	12079.491858
415.136691	12355.328673
415.516609	12529.692103
415.896466	12596.835231
416.276262	12892.617371
416.655997	13348.110827
417.035670	13373.339281
417.415283	14025.107541
417.794834	14110.512249
418.174324	13863.243653
418.553753	13756.991253
418.933121	14245.451335
419.312428	14055.195668
419.691674	13969.644767
420.070859	14417.694959
420.449983	14075.806426
420.829045	14627.606084
421.208047	14373.494122
421.586988	14827.356764
421.965867	15083.840590
422.344686	15073.120576
422.723444	15647.386137
423.102141	14331.571887
423.480777	15516.061559
423.859352	15023.046795
424.237866	16137.666075
424.616319	15839.655745
424.994712	16498.645458
425.373044	16290.292049
425.751314	16963.386910
426.129524	16094.249138
426.507673	17177.449426
426.885762	16877.493211
427.263789	17064.797282
427.641756	17238.079383
428.019662	17297.522149
428.397508	17335.068663
428.775292	17638.788100
429.153016	17600.840814
429.530679	17680.702773
429.908282	17698.704734
430.285824	17413.879542
430.663305	18127.177605
431.040726	17735.545486
431.418086	17551.883649
431.795385	18203.198205
432.172624	18623.995919
432.549802	18175.466818
432.926920	18360.479684
433.303977	18247.386439
433.680974	18504.840687
434.057910	18797.184760
434.434786	18814.801072
434.811601	18734.682014
435.188355	19775.007289
435.565050	19426.161963
435.941683	19374.495178
436.318257	20246.009855
436.694770	20069.942515
437.071222	20641.470730
437.447614	19725.422500
437.823946	19752.609443
438.200218	19890.772346
438.576429	19677.397948
438.952580	19947.618917
439.328670	19907.143493
439.704700	20327.966413
440.080670	19894.137316
440.456580	20480.587346
440.832429	20665.179276
441.208218	19642.722371
441.583947	20087.243755
441.959616	20196.087308
442.335224	20434.997671
442.710773	20562.117927
443.086261	21097.758167
443.461689	20464.775767
443.837057	20580.984445
444.212365	21218.256868
444.587612	21206.810928
444.962800	20794.568052
445.337927	21219.071014
445.712995	19957.865062
446.088002	21797.165331
446.462949	21981.835400
446.837837	22161.423985
447.212664	22112.625616
447.587431	24952.660458
447.962139	27884.449341
448.336786	30244.785628
448.711374	28671.237346
449.085901	24993.748382
449.460369	24932.309320
449.834776	24858.562280
450.209124	27327.245566
450.583412	26872.639353
450.957640	27375.691054
451.331808	26029.342535
451.705917	24656.772453
452.079965	24686.926115
452.453954	25033.694485
452.827883	24926.194400
453.201752	24709.502923
453.575562	24859.918351
453.949311	25970.829862
454.323001	26003.907393
454.696632	25756.820278
455.070202	27283.127908
455.443713	27410.220437
455.817164	27981.305030
456.190556	28474.660072
456.563888	27882.579073
456.937160	28297.897053
457.310373	26640.998334
457.683526	27052.643833
458.056619	27001.150967
458.429653	26908.381134
458.802628	27452.384648
459.175542	27530.068829
459.548398	28769.181924
459.921194	30258.610992
460.293930	30863.733456
460.666607	32762.741151
461.039224	34433.503044
461.411782	34738.911267
461.784280	33501.585261
462.156719	32965.282109
462.529099	32359.199306
462.901419	31040.325075
463.273680	29969.291611
463.645882	29957.573449
464.018024	29866.749501
464.390106	30583.878841
464.762130	33048.597259
465.134094	36786.486807
465.505999	41675.251614
465.877845	45946.835517
466.249631	46911.757733
466.621358	45136.328883
466.993026	42964.849344
467.364634	40864.702131
467.736184	38864.402532
468.107674	37547.816984
468.479105	36685.721703
468.850477	35903.866468
469.221790	34443.285403
469.593043	32715.371949
469.964238	31773.881015
470.335373	31545.584802
470.706449	32920.423402
471.077467	35041.214140
471.448425	38934.688819
471.819324	41331.845693
472.190164	39489.389662
472.560945	36145.466287
472.931667	33257.782458
473.302330	32100.280603
473.672934	31227.389691
474.043479	31452.104165
474.413965	30619.663472
474.784393	30121.350455
475.154761	30690.456395
475.525070	30518.878203
475.895321	29956.981113
476.265513	30257.287689
476.635645	30849.719048
477.005719	30500.057056
477.375734	30676.845280
477.745691	31020.934277
478.115588	31857.591895
478.485427	33205.546022
478.855207	35630.691383
479.224928	37475.594894
479.594591	38563.720390
479.964194	37448.039947
480.333739	37275.503936
480.703226	36981.967630
481.072653	37196.385547
481.442022	37269.338605
481.811333	37179.177568
482.180584	35849.679106
482.549777	35149.813197
482.918912	34433.419865
483.287988	33900.973195
483.657005	32968.815958
484.025964	32190.502134
484.394864	31902.319533
484.763706	31302.056742
485.132489	30378.267820
485.501213	29961.379520
485.869879	29760.827297
486.238487	29162.099537
486.607036	28984.671086
486.975527	28324.842021
487.343959	28146.334763
487.712333	27873.873001
488.080648	27504.371547
488.448905	27478.888514
488.817104	27032.708590
489.185244	27272.249098
489.553326	27977.481315
489.921350	29302.926690
490.289315	30811.731433
490.657222	30836.861585
491.025070	30654.654121
491.392861	29676.040130
491.760593	28499.344082
492.128267	27111.020395
492.495883	25894.695836
492.863440	24782.420692
493.230939	23733.686773
493.598380	22831.506757
493.965763	22341.670441
494.333088	21630.507306
494.700354	21077.427194
495.067563	20645.937192
495.434713	20287.758170
495.801805	20004.644450
496.168839	19539.217400
496.535815	19099.215410
496.902733	18811.733530
497.269593	18347.639866
497.636395	18037.059418
498.003139	17906.546466
498.369825	17394.075369
498.736453	17235.450422
499.103023	16775.883714
499.469535	16450.832634
499.835989	16222.589353
500.202385	15825.749722
500.568723	15559.501182
500.935003	15364.922725
501.301226	15033.933167
501.667390	14972.920082
502.033497	14810.073168
502.399546	14371.397002
502.765537	13907.328543
503.131470	13767.930557
503.497345	13621.371612
503.863163	12994.037825
504.228923	12909.976584
504.594625	12787.970579
504.960269	12352.382119
505.325856	12297.667956
505.691385	11907.507854
506.056856	11714.731610
506.422270	11598.268353
506.787625	11278.351689
507.152924	11098.828639
507.518164	10911.307798
507.883347	10529.304283
508.248472	10374.248473
508.613540	10265.059602
508.978550	10122.490730
509.343503	9868.540084
509.708398	9704.828613
510.073236	9608.363613
510.438016	9418.526362
510.802738	9131.301581
511.167403	9045.065083
511.532010	8897.941528
511.896561	8769.233309
512.261053	8714.995535
512.625488	8468.455385
512.989866	8273.912217
513.354186	8075.651198
513.718449	7906.233141
514.082655	7832.753282
514.446803	7627.835420
514.810894	7536.963580
515.174927	7370.313117
515.538904	7209.331430
515.902822	7134.606407
516.266684	6930.094357
516.630488	6836.074317
516.994235	6683.135792
517.357925	6598.094047
517.721558	6486.354351
518.085133	6385.054885
518.448651	6267.258243
518.812112	6126.317664
519.175516	6011.460015
519.538863	5919.958032
519.902152	5810.043234
520.265385	5729.775462
520.628560	5626.028515
520.991678	5506.837994
521.354739	5418.680817
521.717743	5341.508313
522.080690	5242.681533
522.443580	5179.306667
522.806413	5096.293987
523.169189	5001.464842
523.531908	4926.298717
523.894569	4837.881920
524.257174	4765.755612
524.619722	4705.680181
524.982213	4635.714007
525.344647	4556.164599
525.707025	4490.372500
526.069345	4443.683854
526.431608	4377.667424
526.793815	4329.652954
527.155964	4249.990120
527.518057	4199.825598
527.880093	4137.912668
528.242072	4105.485445
528.603995	4044.406825
528.965860	3993.828929
529.327669	3952.400727
529.689421	3907.229467
530.051117	3865.213971
530.412755	3834.876307
530.774337	3791.827374
531.135862	3751.331785
531.497331	3722.299780
531.858743	3682.610776
532.220098	3663.270389
532.581396	3623.775469
532.942638	3586.324737
533.303824	3568.960483
533.664953	3541.450906
534.026025	3511.624919
534.387040	3499.614370
534.747999	3475.847851
535.108902	3456.883030
535.469748	3429.270110
535.830537	3411.253026
536.191270	3391.532032
536.551947	3371.432952
536.912567	3360.329810
537.273131	3345.501256
537.633638	3318.336999
537.994089	3312.375834
538.354483	3291.928914
538.714821	3288.868934
539.075103	3283.759724
539.435328	3264.134512
539.795497	3247.869230
540.155609	3239.523599
540.515665	3237.469329
540.875665	3213.120556
541.235609	3208.729711
541.595496	3198.821323
541.955328	3199.529605
542.315102	3184.970753
542.674821	3167.823268
543.034483	3161.852022
543.394090	3152.173006
543.753640	3145.309475
544.113134	3149.735608
544.472571	3130.032258
544.831953	3140.459885
545.191278	3120.534725
545.550548	3109.713888
545.909761	3112.058024
546.268918	3105.320522
546.628019	3104.455964
546.987064	3088.767894
547.346053	3075.741552
547.704986	3080.492840
548.063863	3069.493042
548.422684	3067.206879
548.781449	3056.698593
549.140158	3056.156669
549.498811	3053.071483
549.857408	3038.782333
550.215949	3042.119577
550.574434	3033.085829
550.932864	3029.461239
551.291237	3033.342928
551.649555	3026.285312
552.007817	3026.040816
552.366022	3015.058663
552.724173	3012.084382
553.082267	3013.987418
553.440305	3014.330216
553.798288	3001.008967
554.156215	3001.457630
554.514086	2999.476456
554.871902	2991.214005
555.229661	2989.976402
555.587365	2982.444918
555.945014	2977.156748
556.302606	2976.725729
556.660143	2972.566777
557.017625	2970.608289
557.375050	2968.155767
557.732421	2966.225005
558.089735	2963.691826
558.446994	2960.294088
558.804197	2961.088070
559.161345	2961.587144
559.518437	2948.742284
559.875474	2945.639454
560.232455	2948.384362
560.589381	2946.574588
560.946251	2941.180553
561.303065	2943.496963
561.659825	2942.234154
562.016528	2933.339038
562.373177	2930.319387
562.729770	2928.759150
563.086307	2922.036771
563.442789	2924.920311
563.799216	2926.326793
564.155587	2916.063004
564.511904	2918.296235
564.868164	2914.361615
565.224370	2915.490833
565.580520	2910.928589
565.936615	2913.096285
566.292654	2906.010943
566.648638	2904.349883
567.004567	2904.483474
567.360441	2903.308885
567.716260	2894.819582
568.072023	2899.485170
568.427732	2890.622821
568.783385	2886.899929
569.138982	2886.501678
569.494525	2884.482696
569.850013	2883.048488
570.205445	2882.819115
570.560823	2880.651419
570.916145	2875.257384
571.271412	2876.053887
571.626625	2871.988196
571.981782	2869.066847
572.336884	2866.435365
572.691931	2865.701877
573.046923	2861.411855
573.401860	2859.909591
573.756743	2856.524457
574.111570	2850.160000
574.466342	2849.547500
574.821059	2850.371728
575.175722	2845.817046
575.530330	2842.744462
575.884882	2837.582321
576.239380	2838.010819
576.593823	2834.983606
576.948211	2829.914726
577.302544	2827.704180
577.656823	2823.550269
578.011047	2824.137564
578.365216	2822.103458
578.719330	2815.875112
579.073389	2812.621048
579.427394	2813.001655
579.781344	2808.956129
580.135239	2804.812300
580.489080	2802.110242
580.842866	2795.458439
581.196597	2794.672019
581.550273	2797.888276
581.903895	2793.101700
582.257463	2795.231587
582.610975	2786.364198
582.964434	2785.638272
583.317837	2783.873868
583.671186	2779.591408
584.024481	2777.491767
584.377721	2771.361724
584.730906	2772.352311
585.084037	2770.756786
585.437113	2763.439551
585.790135	2761.997781
586.143103	2759.719179
586.496016	2756.717172
586.848874	2752.961512
587.201679	2748.570667
587.554428	2744.068917
587.907124	2744.268043
588.259765	2738.765623
588.612352	2741.608834
588.964884	2737.298647
589.317362	2734.788153
589.669786	2734.717577
590.022155	2728.942935
590.374470	2727.324725
590.726731	2725.194837
591.078937	2720.559496
591.431090	2719.770556
591.783188	2715.215873
592.135232	2709.882332
592.487222	2709.463917
592.839157	2710.527600
593.191038	2706.371169
593.542866	2703.414532
593.894639	2696.036803
594.246358	2699.389171
594.598022	2694.726103
594.949633	2691.545135
595.301190	2688.780062
595.652692	2686.433405
596.004141	2686.435926
596.355535	2682.443332
596.706876	2676.633402
597.058162	2675.597445
597.409395	2675.456293
597.760573	2671.990499
598.111698	2672.030829
598.462768	2671.695592
598.813785	2670.500838
599.164748	2665.290806
599.515657	2666.092349
599.866511	2662.314005
600.217312	2663.712925
600.568060	2657.635814
600.918753	2661.378871
601.269392	2659.264107
601.619978	2653.227325
601.970510	2656.380567
602.320988	2656.367964
602.671412	2657.207316
603.021783	2650.888229
603.372100	2650.104330
603.722363	2647.813126
604.072572	2647.533342
604.422728	2649.348157
604.772830	2642.305665
605.122878	2643.192908
605.472872	2644.382620
605.822813	2639.666621
606.172701	2644.680048
606.522534	2644.077631
606.872314	2643.429842
607.222041	2639.011271
607.571714	2643.041673
607.921333	2638.580252
608.270899	2642.051087
608.620411	2640.155613
608.969870	2639.298617
609.319276	2636.969604
609.668627	2635.684109
610.017926	2639.933802
610.367171	2638.486991
610.716362	2637.917341
611.065500	2635.225364
611.414585	2636.828451
611.763616	2640.115284
612.112594	2636.210910
612.461518	2638.078657
612.810389	2635.540437
613.159207	2635.605972
613.507971	2634.181846
613.856682	2636.614202
614.205340	2636.057155
614.553945	2635.674027
614.902496	2632.795528
615.250994	2636.667134
615.599439	2636.457927
615.947830	2634.970786
616.296169	2634.867442
616.644454	2635.991620
616.992686	2635.621095
617.340864	2637.340128
617.688990	2636.215951
618.037063	2634.703605
618.385082	2636.765437
618.733048	2638.015643
619.080961	2637.869450
619.428821	2637.204017
619.776628	2636.586476
620.124382	2635.732000
620.472083	2634.857360
620.819731	2632.848460
621.167326	2630.675723
621.514868	2634.259983
621.862357	2630.698408
622.209793	2629.727986
622.557176	2628.576082
622.904506	2625.135495
623.251783	2620.248096
623.599007	2618.277005
623.946179	2619.554938
624.293297	2618.035030
624.640363	2616.868003
624.987376	2615.761469
625.334336	2612.429267
625.681243	2608.766868
626.028097	2610.657301
626.374899	2612.704010
626.721647	2608.862650
627.068343	2609.417177
627.414987	2606.450458
627.761577	2606.962135
628.108115	2610.105295
628.454600	2604.433997
628.801032	2604.749069
629.147412	2605.558174
629.493739	2603.456013
629.840014	2601.961311
630.186236	2602.810745
630.532405	2599.191197
630.878521	2602.079778
631.224585	2604.890221
631.570597	2599.813779
631.916556	2600.136413
632.262462	2597.441916
632.608316	2598.671958
632.954117	2598.956783
633.299866	2599.460898
633.645562	2596.267327
633.991206	2593.207347
634.336797	2592.766246
634.682336	2592.176431
635.027823	2590.490165
635.373257	2588.556883
635.718639	2587.253744
636.063968	2586.313569
636.409245	2583.505647
636.754470	2583.424988
637.099642	2582.724268
637.444762	2580.521283
637.789829	2581.428691
638.134845	2578.439287
638.479808	2577.604976
638.824719	2576.163206
639.169577	2573.814028
639.514383	2576.122877
639.859137	2575.094481
640.203839	2575.427197
640.548489	2573.856878
640.893086	2573.990469
641.237632	2567.988975
641.582125	2569.947463
641.926566	2567.278172
642.270955	2570.653225
642.615292	2569.476115
642.959576	2570.297823
643.303809	2569.559294
643.647990	2570.537278
643.992118	2569.753379
644.336195	2566.776577
644.680219	2566.834551
645.024192	2573.196487
645.368112	2573.146075
645.711981	2569.859243
646.055797	2574.010633
646.399562	2576.032136
646.743274	2577.720922
647.086935	2578.449369
647.430544	2577.693196
647.774101	2578.605645
648.117606	2579.883577
648.461059	2580.365008
648.804460	2577.746128
649.147810	2580.211252
649.491108	2573.249419
649.834354	2572.589028
650.177548	2569.297154
650.520690	2566.642987
650.863781	2564.868501
651.206820	2568.288924
651.549807	2564.192986
651.892742	2562.741134
652.235626	2563.509910
652.578458	2561.541339
652.921238	2559.008159
653.263967	2559.005639
653.606644	2557.621842
653.949269	2558.877089
654.291843	2555.660833
654.634365	2558.206616
654.976836	2555.504557
655.319255	2554.002294
655.661622	2553.982129
656.003938	2554.927345
656.346203	2552.177396
656.688416	2557.271482
657.030577	2550.932231
657.372687	2552.346275
657.714746	2551.085986
658.056753	2550.680173
658.398708	2546.793444
658.740612	2549.200595
659.082465	2548.227652
659.424266	2548.918290
659.766016	2547.446273
660.107715	2550.294525
660.449362	2549.122457
660.790958	2552.041285
661.132503	2551.295194
661.473996	2547.516849
661.815438	2550.266799
662.156829	2550.511295
662.498168	2554.483724
662.839456	2554.534135
663.180693	2552.537838
663.521879	2550.533980
663.863013	2551.141439
664.204097	2550.791079
664.545129	2551.925338
664.886110	2550.786037
665.227040	2553.203271
665.567918	2552.885678
665.908746	2554.224104
666.249522	2553.183106
666.590248	2550.246634
666.930922	2553.084804
667.271545	2553.389793
667.612118	2551.317879
667.952639	2553.125133
668.293109	2552.540359
668.633528	2552.157231
668.973896	2553.719989
669.314213	2553.586398
669.654480	2550.367622
669.994695	2550.632282
670.334859	2550.090358
670.674973	2548.741850
671.015035	2552.031203
671.355047	2550.561706
671.695008	2548.865358
672.034918	2550.264278
672.374777	2550.685214
672.714585	2548.552806
673.054342	2549.480379
673.394049	2548.041129
673.733705	2550.682694
674.073310	2550.574309
674.412864	2550.728064
674.752368	2545.505429
675.091820	2548.996428
675.431223	2546.574153
675.770574	2545.477703
676.109875	2538.057124
676.449125	2539.970242
676.788324	2540.769265
677.127473	2539.093081
677.466571	2537.966383
677.805619	2541.752290
678.144616	2539.887063
678.483562	2541.676672
678.822458	2537.305992
679.161303	2537.870601
679.500098	2538.152906
679.838842	2535.889428
680.177535	2538.175591
680.516179	2539.902186
680.854771	2536.726259
681.193314	2542.936961
681.531805	2544.340922
681.870247	2547.537014
682.208638	2552.981460
682.546978	2554.640000
682.885268	2552.159752
683.223508	2551.159083
683.561697	2552.013558
683.899836	2550.380225
684.237925	2547.950388
684.575963	2548.310831
684.913951	2545.099616
685.251889	2544.804708
685.589776	2543.299924
685.927614	2546.412837
686.265401	2546.221273
686.603137	2544.950902
686.940824	2547.022816
687.278460	2548.933413
687.616046	2550.443239
687.953582	2552.048847
688.291068	2553.167983
688.628504	2553.588919
688.965889	2553.135215
689.303224	2554.128322
689.640510	2550.412992
689.977745	2549.588763
690.314930	2546.443083
690.652065	2544.071221
690.989150	2540.484440
691.326185	2537.933616
691.663170	2534.664428
692.000105	2532.133768
692.336990	2526.986750
692.673825	2522.512726
693.010610	2526.591020
693.347345	2518.225225
693.684030	2514.033505
694.020665	2520.483662
694.357251	2511.512928
694.693786	2514.608197
695.030272	2511.596108
695.366707	2512.879081
695.703093	2512.032167
696.039429	2512.884122
696.375716	2513.496622
696.711952	2511.354132
697.048139	2505.216527
697.384276	2513.683145
697.720363	2510.608041
698.056400	2510.993690
698.392388	2506.864985
698.728326	2509.284738
699.064214	2509.279697
699.400053	2508.092506
699.735842	2506.615448
700.071581	2503.555467
700.407270	2501.765858
700.742910	2501.375168
701.078501	2502.101094
701.414042	2501.760816
701.749533	2497.974910
702.084974	2497.090187
702.420366	2497.871566
702.755709	2497.155722
703.091002	2499.182266
703.426246	2496.185300
703.761440	2495.257728
704.096584	2495.166987
704.431679	2495.431648
704.766725	2495.582882
705.101721	2493.006853
705.436668	2497.175887
705.771565	2492.328818
706.106413	2493.533653
706.441212	2495.794611
706.775961	2494.940135
707.110661	2496.109683
707.445311	2494.315032
707.779913	2493.495845
708.114465	2497.218737
708.448967	2495.978613
708.783421	2501.672596
709.117825	2502.446413
709.452180	2502.716115
709.786485	2504.740138
710.120742	2506.398678
710.454949	2507.535458
710.789107	2508.344563
711.123216	2510.063597
711.457275	2511.545696
711.791286	2511.081910
712.125247	2513.446211
712.459159	2514.681294
712.793023	2519.805627
713.126837	2514.877899
713.460602	2514.797240
713.794318	2512.571571
714.127985	2514.638444
714.461602	2507.853051
714.795171	2510.809688
715.128691	2503.439521
715.462162	2502.368275
715.795584	2499.888028
716.128957	2499.414159
716.462281	2498.405928
716.795556	2497.178407
717.128782	2494.521719
717.461960	2491.892758
717.795088	2491.978457
718.128167	2490.617346
718.461198	2490.435864
718.794180	2486.566779
719.127113	2484.794813
719.459997	2487.809423
719.792833	2480.524956
720.125619	2485.619042
720.458357	2480.842548
720.791046	2485.177941
721.123686	2480.812302
721.456278	2484.172231
721.788821	2479.766262
722.121315	2479.625110
722.453761	2478.768114
722.786158	2478.674852
723.118506	2479.751139
723.450805	2481.651654
723.783056	2480.726602
724.115259	2481.132415
724.447412	2479.922538
724.779518	2480.797178
725.111574	2482.710296
725.443582	2483.073259
725.775542	2481.392034
726.107453	2483.688280
726.439315	2482.959833
726.771129	2489.462922
727.102895	2488.502582
727.434612	2489.157932
727.766281	2489.614156
728.097901	2489.246152
728.429473	2487.302787
728.760996	2487.050729
729.092471	2486.561738
729.423897	2489.974599
729.755276	2488.656337
730.086606	2492.903509
730.417887	2492.356544
730.749120	2497.261587
731.080305	2493.062305
731.411442	2499.232678
731.742530	2500.331649
732.073570	2498.935250
732.404562	2499.520023
732.735506	2497.962307
733.066401	2496.974241
733.397249	2495.063643
733.728048	2493.115238
734.058798	2490.773622
734.389501	2486.705410
734.720156	2485.296408
735.050762	2482.087713
735.381320	2480.361118
735.711831	2480.777013
736.042293	2479.322641
736.372707	2476.050932
736.703073	2478.821046
737.033391	2477.381796
737.363661	2478.044708
737.693883	2481.071921
738.024056	2482.692652
738.354182	2480.250213
738.684260	2483.922693
739.014290	2484.174751
739.344272	2483.882364
739.674207	2484.648620
740.004093	2487.849752
740.333931	2484.840183
740.663722	2486.135760
740.993464	2486.788589
741.323159	2489.286481
741.652806	2483.131232
741.982405	2484.467138
742.311956	2481.664257
742.641460	2483.416057
742.970915	2481.243320
743.300323	2479.650316
743.629683	2473.512711
743.958996	2475.156127
744.288260	2476.779378
744.617477	2472.456589
744.946647	2469.169757
745.275768	2469.734366
745.604842	2466.266052
745.933869	2468.761423
746.262847	2464.731021
746.591778	2470.641774
746.920662	2467.095322
747.249498	2469.338635
747.578286	2469.449541
747.907027	2470.039356
748.235720	2470.465333
748.564365	2472.595221
748.892963	2471.440797
749.221514	2473.333750
749.550017	2467.962400
749.878473	2471.211424
750.206881	2468.403501
750.535242	2469.028604
750.863555	2469.537761
751.191821	2467.687657
751.520039	2467.833851
751.848210	2467.359983
752.176334	2471.372741
752.504411	2467.798563
752.832440	2466.480301
753.160421	2470.488018
753.488356	2467.511217
753.816243	2466.066927
754.144082	2466.704633
754.471875	2465.199848
754.799620	2465.136834
755.127318	2463.894189
755.454969	2468.705971
755.782572	2467.165898
756.110129	2467.397791
756.437638	2466.334108
756.765100	2465.330918
757.092515	2465.686319
757.419882	2465.139354
757.747203	2468.216979
758.074477	2469.212607
758.401703	2466.797894
758.728882	2467.715384
759.056014	2468.274952
759.383099	2466.364355
759.710138	2468.552215
760.037129	2469.986424
760.364073	2472.562453
760.690970	2467.554067
761.017820	2468.900055
761.344623	2470.495580
761.671379	2473.767289
761.998088	2470.913996
762.324751	2485.190544
762.651366	2495.600526
762.977935	2522.691687
763.304456	2528.415917
763.630931	2539.100643
763.957359	2531.092770
764.283740	2520.997859
764.610074	2512.485871
764.936362	2502.189314
765.262602	2490.282109
765.588796	2481.770121
765.914943	2477.401961
766.241044	2472.166723
766.567097	2469.106742
766.893104	2463.526185
767.219064	2463.443006
767.544978	2459.788169
767.870845	2460.330093
768.196665	2455.654423
768.522438	2454.845318
768.848165	2456.869341
769.173846	2452.206274
769.499479	2452.818774
769.825066	2452.435647
770.150607	2452.455811
770.476101	2450.456994
770.801548	2450.918259
771.126949	2450.028496
771.452303	2448.369956
771.777611	2447.386931
772.102872	2448.354832
772.428087	2446.688731
772.753256	2448.196036
773.078378	2444.450459
773.403453	2444.921807
773.728482	2445.181426
774.053465	2443.071703
774.378401	2445.637651
774.703291	2443.374172
775.028135	2441.894594
775.352932	2442.822166
775.677683	2443.354008
776.002388	2444.674790
776.327046	2441.627413
776.651658	2443.538010
776.976224	2438.176743
777.300743	2440.213369
777.625216	2438.454006
777.949643	2439.227823
778.274024	2442.991045
778.598359	2436.561053
778.922647	2436.442586
779.246889	2440.009202
779.571086	2434.647935
779.895236	2441.574481
780.219339	2438.454006
780.543397	2439.769747
780.867409	2439.439552
781.191374	2439.013574
781.515294	2438.753955
781.839167	2440.152875
782.162995	2438.519541
782.486776	2439.472319
782.810511	2438.017947
783.134201	2438.005344
783.457844	2439.409305
783.781441	2437.536516
784.104993	2439.111877
784.428498	2435.247832
784.751958	2439.895776
785.075372	2434.562236
785.398739	2437.670107
785.722061	2439.094233
786.045337	2439.608431
786.368568	2437.818821
786.691752	2440.929213
787.014891	2440.099943
787.337983	2442.033226
787.661030	2444.974739
787.984031	2446.192178
788.306987	2450.867848
788.629897	2450.804833
788.952760	2451.561006
789.275579	2447.812908
789.598351	2446.287959
789.921078	2444.503391
790.243759	2441.929882
790.566395	2442.996086
790.888984	2439.442073
791.211529	2440.530962
791.534027	2443.127156
791.856480	2436.697164
792.178888	2438.912751
792.501249	2435.913265
792.823566	2437.201280
793.145836	2436.364448
793.468062	2435.545261
793.790241	2433.969900
794.112375	2435.772113
794.434464	2437.841506
794.756507	2437.586928
795.078505	2439.452155
795.400457	2436.558533
795.722364	2437.410487
796.044226	2443.240582
796.366042	2440.457865
796.687812	2441.980293
797.009538	2442.459203
797.331218	2443.296035
797.652852	2444.732763
797.974442	2442.524738
798.295986	2443.187650
798.617484	2438.149017
798.938938	2439.447114
799.260346	2440.674635
799.581709	2438.179263
799.903026	2438.169181
800.224299	2438.600200
800.545526	2437.861671
800.866708	2434.216917
801.187845	2435.535178
801.508936	2436.598862
801.829983	2436.538368
802.150984	2433.475867
802.471940	2435.953594
802.792851	2435.406629
803.113717	2435.706578
803.434538	2434.612647
803.755314	2435.550302
804.076045	2436.818152
804.396731	2432.548295
804.717372	2432.492842
805.037967	2434.085847
805.358518	2434.138779
805.679024	2435.976279
805.999485	2434.899993
806.319901	2436.724891
806.640272	2434.519386
806.960598	2434.683223
807.280879	2434.400919
807.601115	2436.641712
807.921306	2433.899324
808.241453	2435.094077
808.561554	2434.809252
808.881611	2437.360076
809.201623	2431.850095
809.521590	2434.569797
809.841513	2434.143820
810.161390	2436.180446
810.481223	2433.838830
810.801011	2435.993923
811.120755	2434.547112
811.440453	2433.906886
811.760107	2432.772626
812.079716	2431.812286
812.399281	2430.262131
812.718801	2429.644590
813.038276	2429.914292
813.357707	2432.810435
813.677093	2434.100970
813.996434	2433.788418
814.315731	2433.904365
814.634983	2431.776998
814.954191	2432.984354
815.273354	2434.310178
815.592473	2431.290527
815.911547	2434.884869
816.230577	2433.412852
816.549562	2437.959973
816.868502	2433.904365
817.187399	2439.817638
817.506250	2441.335026
817.825058	2440.472988
818.143821	2438.436362
818.462539	2444.715119
818.781213	2443.790068
819.099843	2452.181068
819.418429	2454.890688
819.736970	2463.019549
820.055466	2468.358131
820.373919	2479.388176
820.692327	2493.652120
821.010691	2520.977695
821.329011	2580.485995
821.647286	2672.361024
821.965517	2768.584048
822.283704	2827.500013
822.601847	2842.245388
822.919945	2805.497897
823.237999	2756.603746
823.556010	2709.030377
823.873976	2664.065806
824.191897	2623.091307
824.509775	2594.255907
824.827609	2562.862122
825.145398	2548.081458
825.463144	2539.196425
825.780845	2540.494522
826.098502	2552.101779
826.416116	2575.749831
826.733685	2595.596854
827.051210	2603.009871
827.368692	2592.844384
827.686129	2568.888821
828.003522	2542.526107
828.320872	2519.223373
828.638177	2502.111177
828.955439	2485.198105
829.272656	2475.077989
829.589830	2463.110290
829.906960	2460.478807
830.224046	2456.687860
830.541088	2448.551437
830.858086	2444.523556
831.175041	2447.059256
831.491952	2447.301231
831.808819	2448.475820
832.125642	2448.415326
832.442421	2452.702828
832.759157	2464.599951
833.075849	2484.958651
833.392497	2503.416835
833.709101	2518.457118
834.025662	2516.637261
834.342179	2504.581342
834.658653	2490.637510
834.975083	2479.688124
835.291469	2474.384830
835.607811	2458.164918
835.924110	2455.989660
836.240366	2448.533793
836.556578	2445.259564
836.872746	2440.969542
837.188871	2437.554160
837.504952	2437.337391
837.820990	2431.630805
838.136984	2432.593665
838.452935	2431.837492
838.768842	2430.743562
839.084706	2435.991403
839.400526	2442.678493
839.716303	2452.186109
840.032037	2458.953858
840.347727	2456.478652
840.663373	2450.835080
840.978977	2440.518359
841.294537	2439.973914
841.610054	2434.723552
841.925527	2436.427463
842.240957	2429.498397
842.556344	2427.549991
842.871687	2426.534198
843.186987	2425.309198
843.502244	2421.447674
843.817458	2423.310380
844.132629	2421.649320
844.447756	2419.912642
844.762840	2412.970974
845.077881	2415.776376
845.392879	2412.267733
845.707833	2417.344175
846.022745	2413.447363
846.337613	2418.294432
846.652438	2419.388363
846.967221	2417.500450
847.281960	2415.889802
847.596656	2418.196130
847.911309	2416.275450
848.225919	2417.611356
848.540485	2414.374935
848.855009	2415.844431
849.169490	2416.895512
849.483928	2414.319482
849.798323	2412.678587
850.112675	2413.275963
850.426984	2417.603794
850.741251	2416.509864
851.055474	2414.112795
851.369654	2414.175809
851.683792	2413.346540
851.997887	2414.067425
852.311938	2413.273443
852.625947	2415.920049
852.939914	2416.527508
853.253837	2414.216139
853.567718	2414.977353
853.881555	2415.791499
854.195350	2413.487692
854.509103	2414.810995
854.822812	2414.753022
855.136479	2414.362332
855.450103	2413.467527
855.763685	2414.659760
856.077224	2413.250758
856.390720	2414.183371
856.704173	2415.872158
857.017584	2416.214956
857.330953	2415.078176
857.644278	2415.448701
857.957561	2419.542118
858.270802	2416.683783
858.584000	2417.165214
858.897155	2416.472055
859.210268	2416.361150
859.523339	2415.788979
859.836367	2416.920718
860.149352	2416.512384
860.462295	2413.492733
860.775195	2414.405182
861.088054	2410.420150
861.400869	2412.358473
861.713642	2409.434604
862.026373	2415.839390
862.339062	2414.871489
862.651708	2417.155131
862.964312	2414.926941
863.276873	2414.284194
863.589392	2414.019534
863.901869	2419.194278
864.214303	2417.502971
864.526696	2417.122364
864.839045	2416.678742
865.151353	2418.385173
865.463619	2417.326531
865.775842	2418.327200
866.088023	2417.797878
866.400162	2417.671850
866.712258	2417.591191
867.024313	2419.678229
867.336325	2417.502971
867.648296	2417.944072
867.960224	2417.422312
868.272110	2416.754360
868.583954	2415.393248
868.895755	2417.419792
869.207515	2417.951634
869.519233	2417.044226
869.830909	2419.103537
870.142542	2420.124371
870.454134	2418.816192
870.765684	2421.329207
871.077191	2420.562951
871.388657	2420.285688
871.700081	2417.364339
872.011463	2421.099834
872.322803	2420.159659
872.634101	2419.774011
872.945357	2419.474062
873.256571	2421.808116
873.567744	2422.077818
873.878874	2421.992118
874.189963	2420.462128
874.501010	2424.613518
874.812015	2420.966244
875.122979	2420.930956
875.433900	2424.558066
875.744780	2424.671492
876.055618	2423.945566
876.366415	2424.621080
876.677169	2423.711152
876.987882	2425.440268
877.298554	2420.104206
877.609183	2425.629311
877.919771	2423.938004
878.230317	2428.064188
878.540822	2434.814293
878.851285	2434.244643
879.161707	2438.582556
879.472087	2446.391303
879.782425	2458.220371
880.092722	2480.293063
880.402977	2509.385562
880.713191	2553.528425
881.023363	2589.217274
881.333494	2610.869030
881.643583	2624.089456
881.953631	2619.106275
882.263637	2604.300406
882.573602	2590.023858
882.883526	2571.981569
883.193408	2559.330793
883.503248	2541.853113
883.813048	2530.293747
884.122806	2512.934534
884.432522	2502.481701
884.742197	2489.669609
885.051831	2481.593680
885.361424	2466.172791
885.670975	2462.419652
885.980485	2452.881789
886.289954	2450.593105
886.599382	2442.731425
886.908768	2441.365273
887.218113	2437.221444
887.527417	2435.487287
887.836680	2432.024015
888.145901	2430.022677
888.455082	2430.108376
888.764221	2428.858170
889.073319	2428.172573
889.382376	2424.994126
889.691392	2423.675864
890.000366	2425.306677
890.309300	2426.491348
890.618193	2427.837336
890.927044	2425.099990
891.235855	2423.690987
891.544625	2425.336924
891.853353	2426.771132
892.162041	2430.247008
892.470687	2430.126020
892.779293	2431.976124
893.087858	2432.162646
893.396381	2434.627771
893.704864	2451.601336
894.013306	2455.034361
894.321707	2468.819397
894.630068	2477.580922
894.938387	2482.838845
895.246665	2479.249544
895.554903	2471.839048
895.863100	2465.421659
896.171256	2461.955866
896.479371	2456.503858
896.787446	2453.224587
897.095480	2446.724019
897.403473	2445.123453
897.711425	2439.827721
898.019336	2439.684048
898.327207	2437.231527
898.635038	2434.335384
898.942827	2430.967893
899.250576	2429.614343
899.558284	2426.637542
899.865952	2425.722572
900.173579	2427.441606
900.481165	2425.253745
900.788711	2422.052612
901.096216	2422.342479
901.403681	2420.003383
901.711105	2424.787438
902.018489	2421.639238
902.325832	2428.878335
902.633135	2423.464135
902.940397	2428.684250
903.247619	2436.455189
903.554800	2457.686008
903.861941	2473.490026
904.169041	2490.342603
904.476101	2495.328304
904.783121	2489.475524
905.090100	2480.996304
905.397039	2473.323668
905.703938	2467.911989
906.010796	2460.118365
906.317614	2453.272478
906.624391	2447.099585
906.931129	2442.222269
907.237826	2439.724377
907.544483	2434.549633
907.851099	2433.039807
908.157675	2426.355237
908.464211	2423.239804
908.770707	2416.822415
909.077163	2418.445667
909.383578	2414.251427
909.689954	2414.231262
909.996289	2412.383679
910.302584	2417.150090
910.608839	2415.236972
910.915054	2411.766138
911.221229	2413.598597
911.527363	2414.082548
911.833458	2414.455593
912.139513	2413.265881
912.445527	2417.104720
912.751502	2416.928279
913.057436	2420.235276
913.363331	2419.479103
913.669186	2420.378949
913.975000	2425.392377
914.280775	2430.655341
914.586510	2432.258428
914.892205	2443.018771
915.197859	2455.674588
915.503475	2470.382154
915.809050	2482.753146
916.114585	2486.644917
916.420081	2491.353354
916.725536	2490.887048
917.030952	2486.065184
917.336328	2483.194247
917.641665	2475.385499
917.946961	2471.297124
918.252218	2465.517441
918.557435	2460.993005
918.862612	2455.127623
919.167750	2448.717796
919.472848	2446.540017
919.777906	2443.006168
920.082925	2438.194387
920.387904	2435.973759
920.692843	2430.708273
920.997743	2426.836667
921.302603	2429.253901
921.607423	2424.711821
921.912204	2423.786769
922.216946	2421.394742
922.521647	2418.937179
922.826310	2420.073959
923.130932	2418.196130
923.435516	2416.877868
923.740059	2415.226890
924.044564	2416.283012
924.349028	2413.699420
924.653454	2409.280849
924.957840	2411.725809
925.262186	2409.187588
925.566493	2407.955026
925.870761	2406.598955
926.174989	2410.125242
926.479178	2410.142886
926.783328	2411.609862
927.087438	2409.560633
927.391509	2411.907290
927.695541	2409.429563
927.999533	2406.777916
928.303486	2409.245561
928.607400	2407.892011
928.911275	2406.631723
929.215110	2406.629202
929.518906	2408.933009
929.822663	2408.706157
930.126381	2405.525189
930.430060	2408.474264
930.733699	2408.827145
931.037299	2407.476116
931.340861	2407.571898
931.644383	2405.815056
931.947866	2406.218348
932.251309	2408.028122
932.554714	2406.394788
932.858080	2409.091806
933.161407	2407.559295
933.464694	2406.868657
933.767943	2406.757752
934.071153	2408.512073
934.374323	2408.605334
934.677455	2408.043246
934.980548	2405.714233
935.283602	2407.634912
935.586617	2405.598286
935.889593	2407.856723
936.192530	2407.471075
936.495428	2406.669531
936.798287	2406.510735
937.101108	2407.403019
937.403890	2407.886970
937.706632	2408.562485
938.009336	2410.533576
938.312002	2408.852351
938.614628	2411.035171
938.917216	2413.757394
939.219765	2410.891498
939.522275	2412.373597
939.824747	2414.591705
940.127179	2411.254461
940.429573	2406.339336
940.731929	2408.940571
941.034246	2409.784964
941.336524	2412.736560
941.638763	2413.039029
941.940964	2411.998031
942.243126	2413.386869
942.545250	2411.335119
942.847335	2410.399985
943.149381	2411.534245
943.451389	2410.977197
943.753359	2410.042063
944.055290	2410.853689
944.357182	2407.594583
944.659036	2409.565674
944.960851	2409.487536
945.262628	2408.665828
945.564367	2409.437125
945.866067	2411.715726
946.167729	2409.008627
946.469352	2409.079203
946.770937	2410.089954
947.072484	2405.426887
947.373992	2408.123904
947.675462	2409.588359
947.976893	2408.300345
948.278286	2408.007958
948.579641	2408.819583
948.880958	2408.123904
949.182236	2409.505180
949.483476	2407.912176
949.784678	2407.516445
950.085841	2407.786147
950.386967	2409.646333
950.688054	2404.378327
950.989103	2409.459810
951.290114	2408.091137
951.591087	2408.633061
951.892021	2409.573236
952.192917	2410.258833
952.493776	2409.127094
952.794596	2408.194480
953.095378	2411.446025
953.396122	2408.862433
953.696828	2410.440314
953.997496	2410.440314
954.298126	2410.178174
954.598718	2411.496436
954.899272	2408.940571
955.199788	2408.887639
955.500266	2407.211455
955.800706	2407.014850
956.101108	2400.405898
956.401472	2406.049469
956.701798	2401.015877
957.002087	2401.756927
957.302337	2405.590724
957.602550	2404.811866
957.902724	2403.312123
958.202861	2404.217010
958.502960	2403.251629
958.803022	2403.617113
959.103045	2403.975035
959.403031	2404.264901
959.702979	2404.612741
960.002889	2402.939077
960.302762	2401.734242
960.602596	2402.500497
960.902393	2400.108470
961.202153	2400.625188
961.501875	2403.498646
961.801559	2403.481002
962.101205	2400.804149
962.400814	2401.812380
962.700385	2400.312636
962.999918	2400.761299
963.299414	2401.217523
963.598873	2401.106618
963.898293	2402.568553
964.197677	2400.627708
964.497022	2399.390105
964.796331	2402.495456
965.095601	2399.218706
965.394835	2401.542678
965.694030	2400.088305
965.993189	2402.523182
966.292309	2402.354304
966.591393	2400.705846
966.890439	2402.835734
967.189447	2403.097874
967.488419	2400.821793
967.787353	2404.998389
968.086249	2400.612585
968.385108	2400.189128
968.683930	2400.211813
968.982714	2403.816238
969.281462	2400.529406
969.580172	2399.616957
969.878844	2402.734911
970.177480	2401.179715
970.476078	2405.883111
970.774639	2404.862278
971.073162	2401.290620
971.371649	2399.818603
971.670098	2399.813562
971.968510	2399.246432
972.266885	2396.456154
972.565223	2400.509241
972.863524	2403.354973
973.161788	2402.959242
973.460014	2401.998902
973.758204	2402.424880
974.056356	2399.029663
974.354471	2401.953532
974.652550	2401.151988
974.950591	2401.038563
975.248595	2401.209962
975.546563	2403.710374
975.844493	2401.618295
976.142386	2404.070817
976.440243	2402.339180
976.738062	2401.010836
977.035845	2405.129459
977.333590	2400.758778
977.631299	2400.940260
977.928971	2402.891187
978.226606	2402.016546
978.524204	2403.498646
978.821765	2402.568553
979.119290	2401.882956
979.416777	2402.064437
979.714228	2403.087792
980.011642	2399.818603
980.309020	2400.620147
980.606360	2400.398336
980.903664	2400.657955
981.200931	2402.823131
981.498162	2402.475291
981.795356	2406.271280
982.092513	2405.373955
982.389633	2406.989645
982.686717	2409.522824
982.983764	2409.847979
983.280775	2412.744122
983.577749	2410.856210
983.874686	2415.612538
984.171587	2409.585839
984.468451	2410.372259
984.765279	2409.563154
985.062070	2409.991652
985.358824	2406.546023
985.655543	2409.366549
985.952224	2405.802453
986.248869	2403.027298
986.545478	2400.347924
986.842050	2400.519324
987.138586	2397.565207
987.435086	2398.951525
987.731549	2397.567728
988.027975	2398.928840
988.324366	2400.186608
988.620719	2401.640980
988.917037	2398.165105
989.213318	2396.932543
989.509563	2397.741648
989.805772	2398.820455
990.101944	2399.395146
990.398080	2399.334652
990.694180	2400.685682
990.990244	2400.335322
991.286271	2398.928840
991.582262	2401.149468
991.878217	2401.651063
992.174136	2401.530075
992.470019	2400.839437
992.765865	2399.619478
993.061676	2397.552605
993.357450	2397.638304
993.653188	2400.700805
993.948890	2398.540671
994.244556	2398.729714
994.540186	2400.741134
994.835780	2398.908675
995.131337	2400.884807
995.426859	2400.589900
995.722345	2405.197514
996.017795	2401.381361
996.313208	2404.529562
996.608586	2403.796074
996.903928	2406.409912
997.199234	2406.697258
997.494504	2404.390930
997.789738	2405.041239
998.084936	2403.415467
998.380099	2401.696433
998.675225	2404.665673
998.970316	2403.816238
999.265371	2401.913203
999.560390	2401.560322
999.855373	2400.783984
1000.150320	2403.226423
1000.445232	2402.351783
1000.740108	2399.959756
1001.034948	2398.021432
1001.329752	2400.940260
1001.624521	2400.494118
1001.919254	2394.608571
1002.213951	2395.493293
1002.508613	2394.429610
1002.803239	2397.272821
1003.097829	2394.064126
1003.392384	2397.388767
1003.686903	2396.680485
1003.981386	2396.902296
1004.275834	2397.908006
1004.570246	2399.730383
1004.864623	2399.042266
1005.158964	2399.934550
1005.453270	2398.628891
1005.747540	2400.748696
1006.041775	2399.528737
1006.335974	2399.188459
1006.630138	2398.064282
1006.924266	2401.721639
1007.218359	2395.745351
1007.512416	2399.354817
1007.806438	2396.977913
1008.100425	2399.160733
1008.394376	2397.587893
1008.688292	2397.857594
1008.982172	2396.831720
1009.276017	2398.361710
1009.569827	2396.188973
1009.863602	2400.506721
1010.157341	2395.326935
1010.451045	2397.567728
1010.744714	2396.690567
1011.038347	2397.114024
1011.331945	2397.262738
1011.625508	2401.192318
1011.919036	2399.430434
1012.212528	2395.755433
1012.505986	2397.197203
1012.799408	2398.858263
1013.092795	2398.437327
1013.386147	2398.107132
1013.679464	2397.522358
1013.972745	2399.180897
1014.265992	2398.273490
1014.559204	2399.425393
1014.852380	2396.844323
1015.145521	2398.044117
1015.438628	2398.086967
1015.731699	2398.180228
1016.024736	2396.680485
1016.317737	2396.892213
1016.610703	2398.071843
1016.903635	2394.747202
1017.196531	2394.270813
1017.489393	2396.930022
1017.782219	2394.419527
1018.075011	2398.424724
1018.367768	2394.969013
1018.660490	2395.153015
1018.953177	2395.153015
1019.245829	2395.153015
