Dividing Wavelength (nm)	Counts (n)	Blue Motor Position (mm): 0.000000	Red Motor Position (mm): 18.600000	
326.493990	1981.725468
326.888308	1981.725468
327.282561	1981.725468
327.676750	1961.076902
328.070874	1959.105811
328.464933	1965.031687
328.858929	1974.698099
329.252859	1987.469863
329.646726	2002.860505
330.040528	2017.328617
330.434265	2036.061545
330.827938	2054.875131
331.221547	2076.312638
331.615091	2096.812490
332.008571	2118.527260
332.401986	2139.054838
332.795338	2157.248363
333.188625	2179.053873
333.581847	2195.669517
333.975006	2215.395552
334.368100	2229.384753
334.761129	2249.667836
335.154095	2263.505803
335.546996	2279.219080
335.939833	2295.721297
336.332606	2309.619758
336.725315	2323.046871
337.117960	2330.280927
337.510540	2335.017091
337.903056	2347.017558
338.295508	2352.938393
338.687896	2358.718076
339.080220	2367.098994
339.472480	2370.980683
339.864676	2376.079810
340.256807	2378.476878
340.648875	2379.487630
341.040879	2383.281098
341.432818	2383.379401
341.824694	2384.785882
342.216506	2384.049874
342.608253	2383.192878
342.999937	2381.173896
343.391557	2380.722713
343.783113	2381.589791
344.174605	2379.593494
344.566033	2375.505118
344.957397	2375.686600
345.348697	2374.141486
345.739934	2372.903883
346.131106	2370.083357
346.522215	2369.332225
346.913260	2365.558922
347.304241	2363.013139
347.695159	2367.051103
348.086012	2363.010618
348.476802	2361.135309
348.867528	2359.436440
349.258191	2359.075998
349.648789	2360.391739
350.039324	2355.743795
350.429796	2358.816378
350.820203	2357.790504
351.210548	2355.640452
351.600828	2355.169104
351.991045	2355.055678
352.381198	2354.002077
352.771288	2355.148939
353.161314	2355.211953
353.551276	2353.669360
353.941175	2356.252952
354.331010	2352.948475
354.720782	2356.999043
355.110490	2356.240349
355.500135	2356.961234
355.889717	2354.992663
356.279235	2356.641121
356.668689	2357.740092
357.058080	2356.525174
357.447408	2357.553569
357.836672	2353.097189
358.225873	2357.503158
358.615010	2355.370750
359.004084	2361.152953
359.393095	2358.730679
359.782043	2363.300485
360.170927	2361.919209
360.559748	2361.672192
360.948505	2363.761750
361.337199	2362.778725
361.725830	2367.421628
362.114398	2367.865250
362.502903	2367.925743
362.891344	2369.276773
363.279722	2368.694519
363.668037	2369.012112
364.056289	2368.283665
364.444478	2371.066382
364.832603	2370.741228
365.220665	2374.380941
365.608665	2372.699716
365.996601	2375.104347
366.384474	2373.123173
366.772284	2375.719367
367.160031	2374.348173
367.547715	2374.217103
367.935336	2374.330529
368.322893	2378.209697
368.710388	2378.648278
369.097820	2383.444936
369.485189	2381.025182
369.872495	2383.066849
370.259738	2382.890409
370.646918	2388.750750
371.034035	2388.231511
371.421090	2390.772253
371.808081	2392.040103
372.195010	2396.803993
372.581875	2405.341187
372.968678	2410.783113
373.355418	2415.378125
373.742096	2424.958837
374.128710	2437.029880
374.515262	2444.810901
374.901751	2463.029631
375.288177	2480.202322
375.674540	2496.767553
376.060841	2516.967457
376.447079	2541.832948
376.833254	2566.915209
377.219367	2592.458736
377.605417	2627.025928
377.991404	2655.455515
378.377329	2691.469518
378.763191	2725.681308
379.148991	2771.346601
379.534727	2817.916780
379.920402	2862.566279
380.306013	2911.999834
380.691563	2974.656335
381.077049	3030.716487
381.462474	3083.653643
381.847835	3154.736433
382.233134	3230.434399
382.618371	3288.478244
383.003545	3375.039897
383.388657	3453.069397
383.773706	3543.487532
384.158693	3611.540589
384.543618	3707.907286
384.928480	3785.525931
385.313280	3890.258423
385.698017	3993.234073
386.082692	4110.140951
386.467305	4170.407945
386.851856	4296.376298
387.236344	4450.179381
387.620770	4513.511397
388.005133	4632.316269
388.389435	4776.601654
388.773674	4860.781362
389.157851	4988.564529
389.541965	5120.342811
389.926018	5146.395494
390.310008	5315.997554
390.693936	5439.064722
391.077802	5554.098812
391.461606	5690.101581
391.845348	5798.821625
392.229027	5921.356952
392.612645	6143.664275
392.996200	6250.418269
393.379694	6428.002996
393.763125	6641.924359
394.146494	6738.502784
394.529801	6867.790737
394.913047	7111.039012
395.296230	7100.684482
395.679351	7161.319481
396.062410	7412.454642
396.445408	7309.297511
396.828343	7464.045811
397.211217	7590.162877
397.594028	7471.680638
397.976778	7670.710433
398.359466	7835.946853
398.742092	7809.639592
399.124656	7956.130482
399.507158	8138.111094
399.889598	8155.427458
400.271977	8365.457050
400.654294	8396.404694
401.036549	8593.100435
401.418742	8618.412068
401.800874	8912.417202
402.182944	8990.451743
402.564952	9350.574129
402.946898	9177.120628
403.328783	9230.382939
403.710606	9427.713865
404.092367	9673.754941
404.474067	10023.129587
404.855705	9818.655346
405.237282	9777.564901
405.618797	10191.940186
406.000250	10432.917422
406.381642	10795.371342
406.762972	10742.172046
407.144240	10550.802284
407.525447	10785.301637
407.906593	10729.917001
408.287677	10985.198511
408.668700	11128.538679
409.049661	11111.358427
409.430560	11264.841397
409.811399	11234.024823
410.192176	11387.527958
410.572891	11463.535955
410.953545	11924.052921
411.334138	11416.260014
411.714669	11991.707726
412.095139	11317.153450
412.475547	11800.368211
412.855894	11643.568162
413.236180	11962.537089
413.616405	11648.581589
413.996568	11914.235274
414.376670	11867.130732
414.756711	11738.692214
415.136691	12005.281033
415.516609	12150.932570
415.896466	12201.712113
416.276262	12463.219448
416.655997	12876.896533
417.035670	12899.314544
417.415283	13489.963855
417.794834	13546.674315
418.174324	13269.612500
418.553753	13129.443217
418.933121	13565.515627
419.312428	13339.674456
419.691674	13203.464999
420.070859	13585.914657
420.449983	13202.550030
420.829045	13664.191173
421.208047	13353.711549
421.586988	13710.325292
421.965867	13855.266027
422.344686	13776.709727
422.723444	14203.660169
423.102141	12936.674535
423.480777	13901.947112
423.859352	13377.271381
424.237866	14226.725969
424.616319	13862.356410
424.994712	14305.173884
425.373044	14017.107230
425.751314	14437.579790
426.129524	13609.199746
426.507673	14339.259646
426.885762	13975.290859
427.263789	13975.361435
427.641756	13958.067757
428.019662	13854.560266
428.397508	13733.648191
428.775292	13786.255152
429.153016	13599.364455
429.530679	13490.599040
429.908282	13327.590810
430.285824	12965.852733
430.663305	13272.637192
431.040726	12815.558293
431.418086	12518.422603
431.795385	12762.810180
432.172624	12839.554186
432.549802	12367.724871
432.926920	12283.484669
433.303977	12021.541274
433.680974	11978.373874
434.057910	11951.812034
434.434786	11770.280084
434.811601	11534.515401
435.188355	11883.380892
435.565050	11500.311172
435.941683	11267.508167
436.318257	11497.485606
436.694770	11194.718947
437.071222	11275.856318
437.447614	10625.544951
437.823946	10423.104816
438.200218	10285.587180
438.576429	9988.431325
438.952580	9892.430112
439.328670	9683.948154
439.704700	9649.955653
440.080670	9289.177917
440.456580	9308.883787
440.832429	9171.131738
441.208218	8631.294737
441.583947	8583.023168
441.959616	8437.215355
442.335224	8323.207140
442.710773	8178.107609
443.086261	8150.250193
443.461689	7788.958258
443.837057	7637.746328
444.212365	7630.343394
444.587612	7458.860984
444.962800	7175.384300
445.337927	7108.505833
445.712995	6650.398539
446.088002	6899.615541
446.462949	6782.413755
446.837837	6659.396998
447.212664	6486.409804
447.587431	6858.653645
447.962139	7244.054898
448.336786	7508.498705
448.711374	7063.354738
449.085901	6267.918635
449.460369	6068.825825
449.834776	5892.624895
450.209124	6089.678558
450.583412	5893.534824
450.957640	5815.651517
451.331808	5499.982025
451.705917	5186.704561
452.079965	5051.210948
452.453954	4964.243483
452.827883	4830.138708
453.201752	4696.139797
453.575562	4604.748719
453.949311	4586.535031
454.323001	4484.360924
454.696632	4367.045713
455.070202	4386.786871
455.443713	4300.636073
455.817164	4239.839757
456.190556	4178.809028
456.563888	4055.013413
456.937160	3988.218125
457.310373	3817.401147
457.683526	3757.645830
458.056619	3678.557688
458.429653	3604.006584
458.802628	3563.707600
459.175542	3507.362624
459.548398	3496.546828
459.921194	3499.085049
460.293930	3478.209631
460.666607	3498.969103
461.039224	3501.106552
461.411782	3451.529324
461.784280	3355.664222
462.156719	3282.799385
462.529099	3215.862944
462.901419	3141.125317
463.273680	3074.496387
463.645882	3038.106818
464.018024	3003.713546
464.390106	2988.557317
464.762130	3014.163858
465.134094	3063.274779
465.505999	3135.585089
465.877845	3180.111081
466.249631	3159.908657
466.621358	3094.313163
466.993026	3033.907537
467.364634	2980.751090
467.736184	2927.839139
468.107674	2894.988460
468.479105	2870.947198
468.850477	2845.360821
469.221790	2813.387303
469.593043	2784.337654
469.964238	2764.674633
470.335373	2753.311873
470.706449	2757.886720
471.077467	2772.138062
471.448425	2804.053607
471.819324	2823.091524
472.190164	2801.031435
472.560945	2763.295878
472.931667	2724.937738
473.302330	2709.347970
473.672934	2697.150898
474.043479	2695.361289
474.413965	2683.496933
474.784393	2671.004954
475.154761	2677.795388
475.525070	2669.805159
475.895321	2664.360713
476.265513	2661.215033
476.635645	2671.047804
477.005719	2663.947338
477.375734	2663.967503
477.745691	2662.618994
478.115588	2667.266938
478.485427	2679.353105
478.855207	2699.124510
479.224928	2711.397199
479.594591	2716.786192
479.964194	2707.848227
480.333739	2706.582897
480.703226	2703.480067
481.072653	2704.979810
481.442022	2703.318750
481.811333	2700.833461
482.180584	2692.671833
482.549777	2688.538087
482.918912	2682.092972
483.287988	2680.101716
483.657005	2668.025632
484.025964	2663.725528
484.394864	2662.712256
484.763706	2659.070022
485.132489	2650.195071
485.501213	2648.889412
485.869879	2649.388486
486.238487	2646.709113
486.607036	2647.765235
486.975527	2640.301806
487.343959	2638.786940
487.712333	2640.967239
488.080648	2639.510345
488.448905	2640.747948
488.817104	2639.606127
489.185244	2643.918834
489.553326	2653.615494
489.921350	2666.195693
490.289315	2679.058197
490.657222	2685.669670
491.025070	2686.322500
491.392861	2679.214473
491.760593	2671.504028
492.128267	2663.370126
492.495883	2654.074239
492.863440	2646.381438
493.230939	2635.752165
493.598380	2632.419962
493.965763	2627.431741
494.333088	2624.291102
494.700354	2622.735906
495.067563	2623.403859
495.434713	2618.740791
495.801805	2621.024434
496.168839	2619.650720
496.535815	2619.852366
496.902733	2618.521501
497.269593	2615.837087
497.636395	2615.544700
498.003139	2618.846656
498.369825	2617.909001
498.736453	2617.288939
499.103023	2617.309104
499.469535	2615.214504
499.835989	2615.643002
500.202385	2616.202570
500.568723	2614.997735
500.935003	2618.423199
501.301226	2619.436471
501.667390	2624.603653
502.033497	2626.804117
502.399546	2626.035341
502.765537	2620.195164
503.131470	2626.844446
503.497345	2626.950310
503.863163	2624.447377
504.228923	2626.584827
504.594625	2630.416104
504.960269	2628.591206
505.325856	2630.486680
505.691385	2632.044396
506.056856	2632.094808
506.422270	2638.212248
506.787625	2639.628812
507.152924	2641.347846
507.518164	2643.689462
507.883347	2641.163844
508.248472	2643.558392
508.613540	2649.912766
508.978550	2652.834115
509.343503	2657.134219
509.708398	2656.776297
510.073236	2664.010353
510.438016	2665.681495
510.802738	2664.146464
511.167403	2670.964625
511.532010	2673.028977
511.896561	2674.858916
512.261053	2685.894002
512.625488	2681.936696
512.989866	2682.831501
513.354186	2684.963909
513.718449	2682.055163
514.082655	2694.133768
514.446803	2694.705939
514.810894	2696.203161
515.174927	2697.992771
515.538904	2698.864891
515.902822	2707.147506
516.266684	2703.860674
516.630488	2705.836806
516.994235	2707.936447
517.357925	2715.624207
517.721558	2717.088662
518.085133	2718.482541
518.448651	2721.187120
518.812112	2721.955896
519.175516	2722.341544
519.538863	2725.199878
519.902152	2725.711555
520.265385	2730.614077
520.628560	2732.905282
520.991678	2729.505024
521.354739	2732.398646
521.717743	2734.561301
522.080690	2737.427197
522.443580	2740.827455
522.806413	2740.877867
523.169189	2739.597414
523.531908	2742.191087
523.894569	2742.372569
524.257174	2745.417426
524.619722	2747.519587
524.982213	2744.749473
525.344647	2745.631675
525.707025	2746.032447
526.069345	2750.952613
526.431608	2748.908425
526.793815	2750.133425
527.155964	2749.210894
527.518057	2749.994793
527.880093	2748.038826
528.242072	2753.175762
528.603995	2752.966554
528.965860	2751.000504
529.327669	2751.865062
529.689421	2750.299783
530.051117	2751.423961
530.412755	2750.433374
530.774337	2749.833477
531.135862	2749.548651
531.497331	2749.200812
531.858743	2747.784247
532.220098	2750.476224
532.581396	2749.571337
532.942638	2746.070255
533.303824	2748.616038
533.664953	2751.003024
534.026025	2750.929927
534.387040	2750.766090
534.747999	2750.299783
535.108902	2750.909763
535.469748	2748.757190
535.830537	2752.502767
536.191270	2748.293404
536.551947	2750.627458
536.912567	2752.618714
537.273131	2750.776172
537.633638	2747.242323
537.994089	2744.943557
538.354483	2746.087899
538.714821	2748.298445
539.075103	2748.285842
539.435328	2746.624782
539.795497	2743.973135
540.155609	2743.098495
540.515665	2744.356263
540.875665	2740.547671
541.235609	2738.632033
541.595496	2744.041191
541.955328	2744.883063
542.315102	2739.995665
542.674821	2733.674058
543.034483	2734.498287
543.394090	2731.445868
543.753640	2732.280179
544.113134	2735.672875
544.472571	2725.661144
544.831953	2732.033162
545.191278	2725.895557
545.550548	2723.591750
545.909761	2723.879096
546.268918	2721.300546
546.628019	2724.055536
546.987064	2717.948178
547.346053	2710.641026
547.704986	2710.744370
548.063863	2706.877805
548.422684	2704.624409
548.781449	2699.832792
549.140158	2700.702391
549.498811	2695.840198
549.857408	2691.769467
550.215949	2688.399455
550.574434	2685.798220
550.932864	2681.929134
551.291237	2680.976356
551.649555	2681.069617
552.007817	2675.889832
552.366022	2672.454286
552.724173	2670.495797
553.082267	2669.167453
553.440305	2668.723832
553.798288	2659.962306
554.156215	2656.675474
554.514086	2657.676143
554.871902	2653.368477
555.229661	2648.226500
555.587365	2642.555202
555.945014	2642.547640
556.302606	2639.822897
556.660143	2634.892648
557.017625	2636.271404
557.375050	2630.330404
557.732421	2628.192955
558.089735	2623.963427
558.446994	2624.540639
558.804197	2621.838580
559.161345	2617.092334
559.518437	2614.549072
559.875474	2610.455655
560.232455	2607.181426
560.589381	2606.173195
560.946251	2604.534820
561.303065	2600.862339
561.659825	2601.651280
562.016528	2594.076946
562.373177	2590.570824
562.729770	2592.418407
563.086307	2586.404310
563.442789	2585.549834
563.799216	2582.832652
564.155587	2583.465317
564.511904	2582.094123
564.868164	2580.959864
565.224370	2580.480954
565.580520	2574.885273
565.936615	2574.998699
566.292654	2571.787484
566.648638	2571.011147
567.004567	2568.044428
567.360441	2567.086608
567.716260	2564.187945
568.072023	2563.557801
568.427732	2559.048489
568.783385	2559.618139
569.138982	2560.313818
569.494525	2558.234342
569.850013	2553.316697
570.205445	2558.715772
570.560823	2555.807027
570.916145	2554.871893
571.271412	2553.959444
571.626625	2553.160421
571.981782	2549.170348
572.336884	2549.913918
572.691931	2550.145811
573.046923	2551.761501
573.401860	2546.342260
573.756743	2549.268650
574.111570	2547.857127
574.466342	2547.484082
574.821059	2543.960315
575.175722	2545.578526
575.530330	2541.646426
575.884882	2541.452341
576.239380	2541.212886
576.593823	2541.989224
576.948211	2539.846734
577.302544	2538.979655
577.656823	2536.012936
578.011047	2537.217772
578.365216	2534.976979
578.719330	2535.344983
579.073389	2533.540250
579.427394	2536.849768
579.781344	2532.206865
580.135239	2532.375744
580.489080	2531.138140
580.842866	2532.045548
581.196597	2530.843233
581.550273	2531.521268
581.903895	2532.703419
582.257463	2531.357431
582.610975	2530.724766
582.964434	2528.567152
583.317837	2532.554705
583.671186	2529.351051
584.024481	2528.718387
584.377721	2527.584127
584.730906	2527.611853
585.084037	2530.306350
585.437113	2527.309384
585.790135	2525.010618
586.143103	2526.671678
586.496016	2525.358457
586.848874	2522.071625
587.201679	2525.066071
587.554428	2521.638086
587.907124	2524.841739
588.259765	2521.539783
588.612352	2524.493900
588.964884	2524.952645
589.317362	2522.220339
589.669786	2525.660927
590.022155	2521.786800
590.374470	2524.357788
590.726731	2523.321831
591.078937	2520.251769
591.431090	2519.606501
591.783188	2516.856552
592.135232	2517.985770
592.487222	2518.368898
592.839157	2514.875378
593.191038	2515.719771
593.542866	2514.976201
593.894639	2514.008300
594.246358	2513.473937
594.598022	2515.056860
594.949633	2513.718433
595.301190	2512.722805
595.652692	2514.726664
596.004141	2511.414626
596.355535	2509.257012
596.706876	2510.837414
597.058162	2510.166940
597.409395	2512.770696
597.760573	2511.578463
598.111698	2508.594100
598.462768	2511.971673
598.813785	2508.621827
599.164748	2506.887670
599.515657	2508.284069
599.866511	2507.573267
600.217312	2508.309275
600.568060	2505.292145
600.918753	2507.114522
601.269392	2508.074862
601.619978	2507.671569
601.970510	2504.714933
602.320988	2506.784326
602.671412	2506.892711
603.021783	2503.058913
603.372100	2501.579335
603.722363	2505.307268
604.072572	2504.422546
604.422728	2508.092506
604.772830	2498.352996
605.122878	2498.501710
605.472872	2498.789056
605.822813	2497.695126
606.172701	2504.593945
606.522534	2501.770899
606.872314	2504.654439
607.222041	2502.043121
607.571714	2503.936074
607.921333	2501.395333
608.270899	2504.770385
608.620411	2499.101608
608.969870	2501.140754
609.319276	2502.348111
609.668627	2505.231651
610.017926	2503.396671
610.367171	2504.357011
610.716362	2501.382730
611.065500	2503.323574
611.414585	2503.333656
611.763616	2506.318019
612.112594	2500.644201
612.461518	2504.835920
612.810389	2501.176043
613.159207	2503.343739
613.507971	2502.416166
613.856682	2504.019253
614.205340	2504.790550
614.553945	2503.641167
614.902496	2503.316012
615.250994	2505.410612
615.599439	2501.927174
615.947830	2504.183091
616.296169	2502.272493
616.644454	2504.750221
616.992686	2503.404233
617.340864	2505.009840
617.688990	2500.712256
618.037063	2503.489932
618.385082	2502.481701
618.733048	2506.171826
619.080961	2506.713750
619.428821	2505.458503
619.776628	2505.415653
620.124382	2503.406753
620.472083	2500.790394
620.819731	2505.370282
621.167326	2502.675786
621.514868	2502.842144
621.862357	2497.780825
622.209793	2500.437513
622.557176	2498.297544
622.904506	2495.976092
623.251783	2495.608088
623.599007	2494.882162
623.946179	2494.496514
624.293297	2494.670433
624.640363	2492.081801
624.987376	2493.773108
625.334336	2490.803868
625.681243	2493.848725
626.028097	2490.710607
626.374899	2492.492655
626.721647	2492.853098
627.068343	2490.438385
627.414987	2488.222798
627.761577	2489.185658
628.108115	2490.133395
628.454600	2488.464773
628.801032	2488.676502
629.147412	2488.762201
629.493739	2486.591984
629.840014	2487.819505
630.186236	2485.009062
630.532405	2488.636172
630.878521	2487.088538
631.224585	2486.390338
631.570597	2483.673156
631.916556	2488.192551
632.262462	2484.419247
632.608316	2485.054433
632.954117	2484.290698
633.299866	2484.968733
633.645562	2483.763897
633.991206	2484.331027
634.336797	2482.342292
634.682336	2486.206336
635.027823	2480.857672
635.373257	2482.110399
635.718639	2481.318937
636.063968	2480.645943
636.409245	2479.360449
636.754470	2478.427836
637.099642	2479.247023
637.444762	2477.071765
637.789829	2479.791468
638.134845	2476.358442
638.479808	2476.905407
638.824719	2474.415077
639.169577	2474.170581
639.514383	2475.408185
639.859137	2470.246043
640.203839	2477.520428
640.548489	2473.200159
640.893086	2473.306023
641.237632	2469.746969
641.582125	2471.909624
641.926566	2467.065075
642.270955	2472.007926
642.615292	2471.400467
642.959576	2475.060345
643.303809	2470.298975
643.647990	2472.086064
643.992118	2471.554222
644.336195	2471.251753
644.680219	2472.189408
645.024192	2472.307875
645.368112	2473.227886
645.711981	2471.713019
646.055797	2473.961373
646.399562	2472.315437
646.743274	2477.535552
647.086935	2475.141003
647.430544	2476.890284
647.774101	2475.718216
648.117606	2475.095633
648.461059	2475.826600
648.804460	2477.933803
649.147810	2477.182671
649.491108	2472.570015
649.834354	2472.743935
650.177548	2470.447689
650.520690	2467.942236
650.863781	2466.510548
651.206820	2470.830817
651.549807	2467.828810
651.892742	2468.073306
652.235626	2467.818728
652.578458	2470.551033
652.921238	2465.351083
653.263967	2466.003912
653.606644	2465.285548
653.949269	2466.621453
654.291843	2462.699436
654.634365	2466.056844
654.976836	2464.355455
655.319255	2465.368727
655.661622	2464.892338
656.003938	2463.566514
656.346203	2465.393932
656.688416	2465.063737
657.030577	2461.489559
657.372687	2463.155660
657.714746	2464.796556
658.056753	2462.951493
658.398708	2456.652572
658.740612	2461.907975
659.082465	2456.909671
659.424266	2460.007460
659.766016	2457.116358
660.107715	2461.373612
660.449362	2464.095835
660.790958	2462.457460
661.132503	2460.635083
661.473996	2465.169601
661.815438	2462.424693
662.156829	2458.606019
662.498168	2460.932511
662.839456	2462.641462
663.180693	2462.775053
663.521879	2460.302367
663.863013	2462.986782
664.204097	2460.582151
664.545129	2462.896041
664.886110	2461.277830
665.227040	2466.051803
665.567918	2464.257152
665.908746	2463.682461
666.249522	2461.408900
666.590248	2462.228088
666.930922	2461.199693
667.271545	2464.108438
667.612118	2465.066258
667.952639	2462.855712
668.293109	2463.780763
668.633528	2464.743624
668.973896	2463.067440
669.314213	2461.734055
669.654480	2465.030969
669.994695	2460.796400
670.334859	2461.403859
670.674973	2457.567541
671.015035	2459.967130
671.355047	2461.834878
671.695008	2461.676082
672.034918	2458.865638
672.374777	2461.272789
672.714585	2457.668364
673.054342	2464.252111
673.394049	2459.029476
673.733705	2461.015690
674.073310	2461.713890
674.412864	2460.035186
674.752368	2458.537963
675.091820	2459.866307
675.431223	2459.475618
675.770574	2458.308591
676.109875	2453.448918
676.449125	2457.668364
676.788324	2452.612087
677.127473	2458.384208
677.466571	2451.243414
677.805619	2458.669033
678.144616	2456.193827
678.483562	2454.827674
678.822458	2453.698456
679.161303	2455.793055
679.500098	2454.399176
679.838842	2453.648044
680.177535	2454.295832
680.516179	2454.429423
680.854771	2453.126285
681.193314	2457.164249
681.531805	2462.384364
681.870247	2460.730865
682.208638	2460.745989
682.546978	2460.302367
682.885268	2460.168777
683.223508	2466.392081
683.561697	2458.656430
683.899836	2462.782615
684.237925	2461.620629
684.575963	2456.660133
684.913951	2457.686008
685.251889	2459.208437
685.589776	2457.580144
685.927614	2460.617439
686.265401	2458.111986
686.603137	2458.754733
686.940824	2457.476800
687.278460	2461.741617
687.616046	2458.424537
687.953582	2461.262707
688.291068	2460.962758
688.628504	2462.669189
688.965889	2460.627522
689.303224	2462.212964
689.640510	2461.300516
689.977745	2459.190793
690.314930	2457.670885
690.652065	2457.562500
690.989150	2454.711728
691.326185	2455.356995
691.663170	2453.002776
692.000105	2450.731737
692.336990	2450.812395
692.673825	2453.340534
693.010610	2450.225101
693.347345	2447.104626
693.684030	2446.943309
694.020665	2445.131015
694.357251	2441.703030
694.693786	2445.957764
695.030272	2445.718309
695.366707	2441.793771
695.703093	2443.046497
696.039429	2445.272167
696.375716	2443.563216
696.711952	2445.539348
697.048139	2441.987855
697.384276	2442.040787
697.720363	2441.335026
698.056400	2440.999789
698.392388	2442.275201
698.728326	2442.670932
699.064214	2441.846703
699.400053	2440.969542
699.735842	2437.279417
700.071581	2442.529779
700.407270	2440.369645
700.742910	2441.937444
701.078501	2439.888215
701.414042	2437.148348
701.749533	2435.883018
702.084974	2438.353183
702.420366	2438.756476
702.755709	2438.980807
703.091002	2435.177256
703.426246	2436.987031
703.761440	2437.539037
704.096584	2436.916454
704.431679	2437.072730
704.766725	2437.791095
705.101721	2435.860333
705.436668	2439.162288
705.771565	2435.751948
706.106413	2436.077102
706.441212	2438.093564
706.775961	2438.758996
707.110661	2433.715322
707.445311	2435.651125
707.779913	2437.710436
708.114465	2437.024839
708.448967	2437.095415
708.783421	2438.239757
709.117825	2439.908379
709.452180	2442.512135
709.786485	2440.155396
710.120742	2443.989193
710.454949	2439.000972
710.789107	2443.996755
711.123216	2437.670107
711.457275	2443.432146
711.791286	2441.577001
712.125247	2441.929882
712.459159	2445.637651
712.793023	2446.933227
713.126837	2445.093206
713.460602	2445.544389
713.794318	2445.710747
714.127985	2443.913576
714.461602	2438.988369
714.795171	2443.152362
715.128691	2438.653132
715.462162	2442.411312
715.795584	2439.709254
716.128957	2437.045004
716.462281	2438.471650
716.795556	2437.965014
717.128782	2438.491815
717.461960	2432.530651
717.795088	2435.015939
718.128167	2433.879159
718.461198	2431.517379
718.794180	2433.783377
719.127113	2430.229364
719.459997	2434.221958
719.792833	2432.389498
720.125619	2432.621391
720.458357	2433.281782
720.791046	2432.606268
721.123686	2428.477563
721.456278	2431.282965
721.788821	2429.551329
722.121315	2431.739189
722.453761	2428.895979
722.786158	2430.657862
723.118506	2429.669796
723.450805	2428.470001
723.783056	2431.971082
724.115259	2428.555701
724.447412	2430.925043
724.779518	2431.194745
725.111574	2430.249528
725.443582	2431.903027
725.775542	2429.377409
726.107453	2431.305650
726.439315	2431.429158
726.771129	2438.837134
727.102895	2429.349682
727.434612	2435.177256
727.766281	2432.359251
728.097901	2432.724735
728.429473	2431.499735
728.760996	2433.332194
729.092471	2430.562080
729.423897	2433.692637
729.755276	2434.587441
730.086606	2433.932091
730.417887	2436.588779
730.749120	2437.954932
731.080305	2435.883018
731.411442	2435.245312
731.742530	2438.138934
732.073570	2440.750252
732.404562	2438.305292
732.735506	2438.869902
733.066401	2439.799994
733.397249	2439.210179
733.728048	2433.788418
734.058798	2433.942174
734.389501	2434.569797
734.720156	2430.988057
735.050762	2430.299940
735.381320	2428.109559
735.711831	2433.221289
736.042293	2430.683068
736.372707	2428.243149
736.703073	2429.997471
737.033391	2428.686771
737.363661	2428.744744
737.693883	2428.301122
738.024056	2434.060641
738.354182	2428.827923
738.684260	2434.562236
739.014290	2430.564601
739.344272	2432.727256
739.674207	2435.910744
740.004093	2433.138110
740.333931	2433.730445
740.663722	2433.412852
740.993464	2435.204983
741.323159	2434.539550
741.652806	2432.061823
741.982405	2429.697522
742.311956	2431.376226
742.641460	2428.522933
742.970915	2430.909920
743.300323	2430.637697
743.629683	2428.638880
743.958996	2429.258942
744.288260	2426.740885
744.617477	2427.565114
744.946647	2427.242480
745.275768	2424.699218
745.604842	2423.501944
745.933869	2424.179979
746.262847	2422.145874
746.591778	2425.200813
746.920662	2426.193920
747.249498	2425.321801
747.578286	2424.895823
747.907027	2426.496389
748.235720	2426.312387
748.564365	2425.790628
748.892963	2426.105700
749.221514	2426.945052
749.550017	2426.214085
749.878473	2426.272058
750.206881	2425.583941
750.535242	2427.681061
750.863555	2426.211564
751.191821	2426.889599
751.520039	2425.425144
751.848210	2426.125865
752.176334	2425.359609
752.504411	2424.099321
752.832440	2426.458581
753.160421	2425.730134
753.488356	2424.242994
753.816243	2426.292223
754.144082	2422.574372
754.471875	2423.333065
754.799620	2423.385997
755.127318	2427.532347
755.454969	2424.101841
755.782572	2426.002356
756.110129	2425.014290
756.437638	2424.449681
756.765100	2423.035637
757.092515	2427.194589
757.419882	2425.515885
757.747203	2424.815165
758.074477	2423.484300
758.401703	2424.492531
758.728882	2422.947417
759.056014	2425.047058
759.383099	2423.723755
759.710138	2428.182655
760.037129	2425.793148
760.364073	2424.777356
760.690970	2426.556883
761.017820	2425.057140
761.344623	2425.737696
761.671379	2429.828592
761.998088	2422.675195
762.324751	2434.012750
762.651366	2434.668100
762.977935	2448.211160
763.304456	2445.062959
763.630931	2455.046964
763.957359	2452.574278
764.283740	2444.311827
764.610074	2443.737136
764.936362	2443.200253
765.262602	2433.475867
765.588796	2433.909406
765.914943	2427.368509
766.241044	2427.774322
766.567097	2426.985381
766.893104	2425.538570
767.219064	2422.203847
767.544978	2421.729978
767.870845	2420.880544
768.196665	2420.273085
768.522438	2419.584967
768.848165	2418.609504
769.173846	2417.997004
769.499479	2416.484658
769.825066	2417.782755
770.150607	2419.479103
770.476101	2417.828125
770.801548	2417.260996
771.126949	2418.939700
771.452303	2414.430388
771.777611	2412.890315
772.102872	2417.906263
772.428087	2416.782086
772.753256	2415.123546
773.078378	2417.220666
773.403453	2415.932652
773.728482	2417.301325
774.053465	2417.939031
774.378401	2415.378125
774.703291	2414.795871
775.028135	2412.635737
775.352932	2413.825449
775.677683	2414.427867
776.002388	2414.695048
776.327046	2414.150604
776.651658	2414.112795
776.976224	2412.005593
777.300743	2413.795202
777.625216	2411.645150
777.949643	2412.577764
778.274024	2415.625141
778.598359	2410.362177
778.922647	2407.120715
779.246889	2412.418967
779.571086	2406.180539
779.895236	2411.204049
780.219339	2413.588515
780.543397	2412.446694
780.867409	2415.897363
781.191374	2412.950809
781.515294	2415.030285
781.839167	2416.794689
782.162995	2412.741601
782.486776	2413.265881
782.810511	2414.042219
783.134201	2411.493916
783.457844	2415.446180
783.781441	2410.707496
784.104993	2411.191446
784.428498	2412.728998
784.751958	2413.117167
785.075372	2414.750501
785.398739	2411.808988
785.722061	2409.008627
786.045337	2414.004410
786.368568	2412.988618
786.691752	2411.861920
787.014891	2414.632034
787.337983	2417.097158
787.661030	2415.635223
787.984031	2415.771335
788.306987	2418.117992
788.629897	2414.931982
788.952760	2418.720410
789.275579	2418.798547
789.598351	2421.276275
789.921078	2415.988104
790.243759	2414.881571
790.566395	2412.633216
790.888984	2412.708834
791.211529	2412.953330
791.534027	2413.986766
791.856480	2412.212280
792.178888	2411.567012
792.501249	2410.253792
792.823566	2412.650860
793.145836	2411.647671
793.468062	2413.775038
793.790241	2408.905283
794.112375	2413.762435
794.434464	2412.771848
794.756507	2414.281674
795.078505	2413.956519
795.400457	2413.636406
795.722364	2411.398134
796.044226	2409.525345
796.366042	2409.318658
796.687812	2412.910480
797.009538	2413.981725
797.331218	2413.669173
797.652852	2413.454924
797.974442	2416.716551
798.295986	2415.037847
798.617484	2412.779410
798.938938	2412.849986
799.260346	2414.062383
799.581709	2412.547517
799.903026	2414.213618
800.224299	2410.846127
800.545526	2411.715726
800.866708	2411.128432
801.187845	2412.426529
801.508936	2413.291087
801.829983	2411.806467
802.150984	2411.478792
802.471940	2412.461817
802.792851	2410.846127
803.113717	2410.861251
803.434538	2412.280336
803.755314	2411.425860
804.076045	2411.864440
804.396731	2408.537279
804.717372	2409.812691
805.037967	2412.355953
805.358518	2411.892167
805.679024	2411.062897
805.999485	2408.678431
806.319901	2414.715213
806.640272	2411.889646
806.960598	2412.240006
807.280879	2411.108267
807.601115	2408.461662
807.921306	2409.545510
808.241453	2413.107085
808.561554	2409.956364
808.881611	2413.621282
809.201623	2413.039029
809.521590	2410.117681
809.841513	2411.433422
810.161390	2411.090623
810.481223	2410.205901
810.801011	2409.263205
811.120755	2412.645819
811.440453	2408.892680
811.760107	2408.602814
812.079716	2409.618606
812.399281	2406.477968
812.718801	2408.194480
813.038276	2403.423028
813.357707	2406.914027
813.677093	2408.355797
813.996434	2409.326219
814.315731	2409.679100
814.634983	2409.767320
814.954191	2408.927968
815.273354	2409.759759
815.592473	2410.289080
815.911547	2410.278998
816.230577	2414.937024
816.549562	2413.064235
816.868502	2411.234296
817.187399	2412.749163
817.506250	2412.043401
817.825058	2413.777558
818.143821	2415.496592
818.462539	2414.911818
818.781213	2418.160842
819.099843	2420.900709
819.418429	2423.075967
819.736970	2422.536563
820.055466	2428.041503
820.373919	2429.939498
820.692327	2435.149530
821.010691	2448.735440
821.329011	2477.059162
821.647286	2522.159845
821.965517	2563.729200
822.283704	2592.226843
822.601847	2600.552308
822.919945	2579.881057
823.237999	2555.890206
823.556010	2537.648791
823.873976	2513.657939
824.191897	2499.368789
824.509775	2480.910604
824.827609	2469.240333
825.145398	2462.507872
825.463144	2458.026286
825.780845	2457.166769
826.098502	2464.736062
826.416116	2473.631178
826.733685	2484.673825
827.051210	2486.506285
827.368692	2483.169041
827.686129	2471.244192
828.003522	2457.522171
828.320872	2445.393155
828.638177	2439.374017
828.955439	2432.084508
829.272656	2429.253901
829.589830	2421.631676
829.906960	2422.450863
830.224046	2420.661254
830.541088	2419.229566
830.858086	2418.435584
831.175041	2416.013310
831.491952	2415.201684
831.808819	2416.361150
832.125642	2417.576068
832.442421	2423.627973
832.759157	2422.108065
833.075849	2434.791608
833.392497	2442.038267
833.709101	2448.395162
834.025662	2444.382403
834.342179	2443.170006
834.658653	2438.154058
834.975083	2431.008222
835.291469	2432.565939
835.607811	2424.114444
835.924110	2419.894998
836.240366	2417.840728
836.556578	2416.847621
836.872746	2414.626993
837.188871	2412.834863
837.504952	2409.719429
837.820990	2412.890315
838.136984	2407.982752
838.452935	2409.994172
838.768842	2410.278998
839.084706	2409.606003
839.400526	2417.467683
839.716303	2418.266706
840.032037	2421.765267
840.347727	2421.845925
840.663373	2417.528177
840.978977	2414.563978
841.294537	2412.234965
841.610054	2406.861095
841.925527	2411.032650
842.240957	2407.072824
842.556344	2407.024933
842.871687	2408.595252
843.186987	2404.040570
843.502244	2406.982083
843.817458	2406.445200
844.132629	2405.673903
844.447756	2403.400343
844.762840	2399.274159
845.077881	2398.870866
845.392879	2398.316339
845.707833	2401.973697
846.022745	2397.960938
846.337613	2402.475291
846.652438	2402.137534
846.967221	2401.716598
847.281960	2400.932698
847.596656	2404.285066
847.911309	2400.242060
848.225919	2402.727349
848.540485	2403.148285
848.855009	2399.838768
849.169490	2403.012174
849.483928	2402.460168
849.798323	2402.802966
850.112675	2400.539488
850.426984	2401.835065
850.741251	2401.139386
851.055474	2403.435631
851.369654	2401.809859
851.683792	2402.727349
851.997887	2402.581156
852.311938	2403.881773
852.625947	2399.334653
852.939914	2403.493604
853.253837	2404.585014
853.567718	2399.934550
853.881555	2400.547050
854.195350	2403.531413
854.509103	2400.789025
854.822812	2402.475291
855.136479	2402.709705
855.450103	2401.749365
855.763685	2402.462688
856.077224	2402.036711
856.390720	2403.659963
856.704173	2402.805487
857.017584	2402.500497
857.330953	2404.211969
857.644278	2405.028636
857.957561	2407.319840
858.270802	2404.464027
858.584000	2401.283058
858.897155	2401.174674
859.210268	2403.430590
859.523339	2403.667524
859.836367	2403.430590
860.149352	2401.421690
860.462295	2402.573594
860.775195	2401.688871
861.088054	2396.902296
861.400869	2399.148130
861.713642	2395.352141
862.026373	2406.183060
862.339062	2403.488563
862.651708	2401.804818
862.964312	2401.341032
863.276873	2402.215672
863.589392	2400.421021
863.901869	2405.275652
864.214303	2402.742473
864.526696	2402.129972
864.839045	2404.131310
865.151353	2402.321536
865.463619	2402.790363
865.775842	2401.847668
866.088023	2402.427400
866.400162	2403.153327
866.712258	2402.530744
867.024313	2399.768192
867.336325	2403.813718
867.648296	2403.665004
867.960224	2402.137534
868.272110	2402.596279
868.583954	2403.798594
868.895755	2401.857750
869.207515	2402.795405
869.519233	2403.803635
869.830909	2403.927144
870.142542	2401.830024
870.454134	2404.219531
870.765684	2405.157185
871.077191	2404.809346
871.388657	2405.169788
871.700081	2404.700961
872.011463	2404.058214
872.322803	2406.430077
872.634101	2405.321023
872.945357	2406.208266
873.256571	2406.041908
873.567744	2405.762124
873.878874	2403.962432
874.189963	2407.337484
874.501010	2407.095509
874.812015	2402.684499
875.122979	2405.353790
875.433900	2404.592576
875.744780	2409.069121
876.055618	2406.442679
876.366415	2407.584501
876.677169	2406.034346
876.987882	2404.123749
877.298554	2402.636608
877.609183	2405.653739
877.919771	2403.173491
878.230317	2405.147103
878.540822	2407.960067
878.851285	2413.573392
879.161707	2410.457958
879.472087	2416.915677
879.782425	2421.490524
880.092722	2433.475867
880.402977	2446.338371
880.713191	2465.066258
881.023363	2481.770121
881.333494	2494.839312
881.643583	2498.136227
881.953631	2496.986844
882.263637	2492.217912
882.573602	2483.723568
882.883526	2475.992958
883.193408	2468.297637
883.503248	2460.375464
883.813048	2452.042437
884.122806	2446.550099
884.432522	2443.147321
884.742197	2434.748758
885.051831	2430.960331
885.361424	2426.158632
885.670975	2422.420617
885.980485	2420.159659
886.289954	2414.266550
886.599382	2416.091448
886.908768	2414.778227
887.218113	2409.870664
887.527417	2413.739750
887.836680	2408.053328
888.145901	2408.990983
888.455082	2406.586352
888.764221	2406.719943
889.073319	2403.985117
889.382376	2408.441497
889.691392	2406.251116
890.000366	2406.188101
890.309300	2404.567370
890.618193	2407.055180
890.927044	2404.312792
891.235855	2407.264388
891.544625	2407.798750
891.853353	2406.104922
892.162041	2405.915879
892.470687	2410.011816
892.779293	2410.168092
893.087858	2408.093657
893.396381	2409.603483
893.704864	2416.005748
894.013306	2418.755698
894.321707	2431.915630
894.630068	2429.377409
894.938387	2430.826741
895.246665	2431.812286
895.554903	2427.963365
895.863100	2427.542429
896.171256	2421.356933
896.479371	2421.931625
896.787446	2419.708476
897.095480	2416.146901
897.403473	2417.019020
897.711425	2413.205387
898.019336	2413.366704
898.327207	2410.788154
898.635038	2412.406364
898.942827	2409.038874
899.250576	2408.970818
899.558284	2407.967628
899.865952	2407.599624
900.173579	2406.883780
900.481165	2406.959398
900.788711	2405.255488
901.096216	2403.102915
901.403681	2404.627864
901.711105	2406.331774
902.018489	2402.394633
902.325832	2406.840931
902.633135	2405.772206
902.940397	2407.498801
903.247619	2411.902249
903.554800	2422.546645
903.861941	2430.020156
904.169041	2434.854623
904.476101	2436.702205
904.783121	2438.151537
905.090100	2432.840682
905.397039	2430.761206
905.703938	2426.219126
906.010796	2422.176121
906.317614	2417.719741
906.624391	2420.169741
906.931129	2414.168248
907.237826	2415.242013
907.544483	2410.372259
907.851099	2408.723802
908.157675	2406.286404
908.464211	2404.718605
908.770707	2399.702657
909.077163	2401.867832
909.383578	2398.520506
909.689954	2398.316339
909.996289	2397.895403
910.302584	2401.814900
910.608839	2399.223747
910.915054	2404.045611
911.221229	2401.298182
911.527363	2402.256001
911.833458	2401.144427
912.139513	2403.614592
912.445527	2403.319685
912.751502	2401.830024
913.057436	2400.844478
913.363331	2405.825138
913.669186	2403.559139
913.975000	2404.234654
914.280775	2406.800601
914.586510	2411.067938
914.892205	2413.323854
915.197859	2420.618404
915.503475	2425.956986
915.809050	2429.657193
916.114585	2436.064499
916.420081	2437.292020
916.725536	2436.268666
917.030952	2435.212544
917.336328	2431.015784
917.641665	2431.625763
917.946961	2428.316246
918.252218	2422.186203
918.557435	2419.902560
918.862612	2419.539597
919.167750	2418.861562
919.472848	2414.440470
919.777906	2411.942578
920.082925	2412.297980
920.387904	2409.036353
920.692843	2410.158010
920.997743	2405.288255
921.302603	2404.900086
921.607423	2407.186250
921.912204	2406.702299
922.216946	2402.878584
922.521647	2404.378327
922.826310	2403.349932
923.130932	2404.280024
923.435516	2398.023953
923.740059	2401.404046
924.044564	2400.844478
924.349028	2405.033677
924.653454	2396.710732
924.957840	2399.339694
925.262186	2395.962121
925.566493	2396.130999
925.870761	2396.798952
926.174989	2399.536299
926.479178	2400.027811
926.783328	2399.427914
927.087438	2395.853736
927.391509	2398.893552
927.695541	2396.748541
927.999533	2396.788870
928.303486	2396.985475
928.607400	2398.447409
928.911275	2396.786349
929.215110	2400.476474
929.518906	2396.529250
929.822663	2394.845505
930.126381	2396.410783
930.430060	2396.690567
930.733699	2397.575290
931.037299	2400.826834
931.340861	2397.169477
931.644383	2398.175187
931.947866	2399.077554
932.251309	2397.502193
932.554714	2395.944477
932.858080	2397.119065
933.161407	2397.577810
933.464694	2395.826009
933.767943	2401.945970
934.071153	2395.581513
934.374323	2395.780639
934.677455	2395.296688
934.980548	2396.153684
935.283602	2396.695608
935.586617	2396.350289
935.889593	2398.028994
936.192530	2397.177039
936.495428	2398.828017
936.798287	2397.439179
937.101108	2396.993037
937.403890	2398.286092
937.706632	2397.280382
938.009336	2399.503531
938.312002	2400.209293
938.614628	2400.400857
938.917216	2400.794067
939.219765	2397.182080
939.522275	2401.446896
939.824747	2402.513100
940.127179	2397.096380
940.429573	2396.269631
940.731929	2397.542522
941.034246	2392.294681
941.336524	2399.609395
941.638763	2399.692574
941.940964	2401.653583
942.243126	2398.606206
942.545250	2400.194169
942.847335	2398.336504
943.149381	2401.033521
943.451389	2398.364230
943.753359	2399.460681
944.055290	2399.909344
944.357182	2397.015722
944.659036	2399.538819
944.960851	2398.664179
945.262628	2397.018242
945.564367	2396.912378
945.866067	2398.951525
946.167729	2397.726524
946.469352	2394.588406
946.770937	2397.320712
947.072484	2397.945815
947.373992	2397.073695
947.675462	2399.899262
947.976893	2396.304919
948.278286	2398.548233
948.579641	2397.716442
948.880958	2397.018242
949.182236	2400.801628
949.483476	2397.265259
949.784678	2398.003788
950.085841	2394.931205
950.386967	2397.814745
950.688054	2396.559497
950.989103	2399.208624
951.290114	2400.161402
951.591087	2397.774415
951.892021	2399.062430
952.192917	2396.796432
952.493776	2396.720814
952.794596	2399.188459
953.095378	2398.586041
953.396122	2396.919940
953.696828	2398.608726
953.997496	2396.236863
954.298126	2400.166443
954.598718	2399.243912
954.899272	2399.102759
955.199788	2397.940773
955.500266	2398.074364
955.800706	2396.867008
956.101108	2394.122099
956.401472	2394.515309
956.701798	2391.576317
957.002087	2393.948180
957.302337	2394.530433
957.602550	2396.985475
957.902724	2396.758623
958.202861	2395.132851
958.502960	2394.981616
958.803022	2393.633107
959.103045	2397.043448
959.403031	2395.465567
959.702979	2396.594785
960.002889	2395.866339
960.302762	2395.329456
960.602596	2394.810217
960.902393	2393.575134
961.202153	2393.454147
961.501875	2396.325084
961.801559	2394.147305
962.101205	2395.420197
962.400814	2392.730741
962.700385	2394.434651
962.999918	2395.213509
963.299414	2393.849877
963.598873	2395.019425
963.898293	2396.468757
964.197677	2394.553118
964.497022	2391.561193
964.796331	2392.715618
965.095601	2396.108314
965.394835	2392.602192
965.694030	2394.800135
965.993189	2397.340876
966.292309	2393.189486
966.591393	2393.713766
966.890439	2392.829043
967.189447	2395.304250
967.488419	2395.392470
967.787353	2391.941800
968.086249	2393.466749
968.385108	2394.666544
968.683930	2393.817110
968.982714	2395.072357
969.281462	2395.939435
969.580172	2396.327604
969.878844	2395.188303
970.177480	2393.570093
970.476078	2395.223592
970.774639	2396.446071
971.073162	2393.736451
971.371649	2394.616133
971.670098	2389.025493
971.968510	2389.837119
972.266885	2391.929198
972.565223	2393.930536
972.863524	2392.236708
973.161788	2394.787532
973.460014	2393.761657
973.758204	2395.578993
974.056356	2393.852398
974.354471	2393.333159
974.652550	2395.649569
974.950591	2395.122768
975.248595	2394.290978
975.546563	2394.666544
975.844493	2392.423231
976.142386	2394.422048
976.440243	2394.684188
976.738062	2393.993550
977.035845	2391.251162
977.333590	2393.870042
977.631299	2392.355175
977.928971	2394.953890
978.226606	2396.115876
978.524204	2394.192676
978.821765	2394.427089
979.119290	2393.625546
979.416777	2393.040772
979.714228	2393.933056
980.011642	2392.569424
980.309020	2397.275341
980.606360	2394.001112
980.903664	2394.275855
981.200931	2393.801986
981.498162	2394.870711
981.795356	2395.803324
982.092513	2396.030176
982.389633	2396.400701
982.686717	2395.263921
982.983764	2398.316339
983.280775	2399.773233
983.577749	2399.705177
983.874686	2399.077554
984.171587	2400.542009
984.468451	2397.267779
984.765279	2393.381050
985.062070	2399.879097
985.358824	2396.017573
985.655543	2394.492624
985.952224	2397.242574
986.248869	2396.413304
986.545478	2390.678991
986.842050	2391.241080
987.138586	2391.394835
987.435086	2390.905843
987.731549	2390.298384
988.027975	2391.687222
988.324366	2391.548590
988.620719	2391.730072
988.917037	2391.283930
989.213318	2391.301574
989.509563	2392.624877
989.805772	2393.469270
990.101944	2392.763508
990.398080	2391.493138
990.694180	2392.962634
990.990244	2394.036400
991.286271	2391.730072
991.582262	2394.152346
991.878217	2392.214023
992.174136	2392.554301
992.470019	2393.307953
992.765865	2394.172511
993.061676	2390.910884
993.357450	2392.982799
993.653188	2394.999260
993.948890	2392.738303
994.244556	2392.113200
994.540186	2395.626884
994.835780	2395.639487
995.131337	2392.874414
995.426859	2396.035217
995.722345	2394.840464
996.017795	2395.367264
996.313208	2395.558828
996.608586	2395.989847
996.903928	2393.315515
997.199234	2396.254508
997.494504	2396.446071
997.789738	2393.393653
998.084936	2395.243756
998.380099	2397.565207
998.675225	2393.870042
998.970316	2392.332490
999.265371	2395.024466
999.560390	2395.077398
999.855373	2392.791235
1000.150320	2394.608571
1000.445232	2393.471791
1000.740108	2394.958931
1001.034948	2394.908519
1001.329752	2392.881976
1001.624521	2392.561862
1001.919254	2388.927190
1002.213951	2392.604712
1002.508613	2389.075904
1002.803239	2393.880124
1003.097829	2388.387787
1003.392384	2395.521020
1003.686903	2392.556821
1003.981386	2395.705022
1004.275834	2392.130844
1004.570246	2391.717469
1004.864623	2388.891902
1005.158964	2392.871893
1005.453270	2390.794938
1005.747540	2391.291492
1006.041775	2392.524054
1006.335974	2389.980792
1006.630138	2392.196379
1006.924266	2390.638662
1007.218359	2392.350134
1007.512416	2389.917777
1007.806438	2392.667727
1008.100425	2393.340721
1008.394376	2391.420041
1008.688292	2392.602192
1008.982172	2392.745864
1009.276017	2391.309136
1009.569827	2393.507079
1009.863602	2394.414486
1010.157341	2389.504403
1010.451045	2391.248642
1010.744714	2392.055226
1011.038347	2390.447098
1011.331945	2391.425082
1011.625508	2391.220915
1011.919036	2389.234701
1012.212528	2390.651265
1012.505986	2393.045813
1012.799408	2393.446585
1013.092795	2390.552963
1013.386147	2390.162273
1013.679464	2393.166801
1013.972745	2391.412479
1014.265992	2391.833416
1014.559204	2392.992881
1014.852380	2394.658982
1015.145521	2392.244270
1015.438628	2392.153529
1015.731699	2392.214023
1016.024736	2393.431461
1016.317737	2393.459188
1016.610703	2392.541698
1016.903635	2388.165976
1017.196531	2386.366284
1017.489393	2391.785525
1017.782219	2387.651778
1018.075011	2390.023641
1018.367768	2390.416851
1018.660490	2390.684032
1018.953177	2390.684032
1019.245829	2390.684032
