Dividing Wavelength (nm)	Counts (n)	Blue Motor Position (mm): 0.000000	Red Motor Position (mm): 13.200000	
326.493990	1981.256641
326.888308	1981.256641
327.282561	1981.256641
327.676750	1953.542897
328.070874	1957.530450
328.464933	1963.688219
328.858929	1974.062914
329.252859	1986.328041
329.646726	1997.884887
330.040528	2016.252331
330.434265	2032.507531
330.827938	2052.031920
331.221547	2070.825342
331.615091	2092.940883
332.008571	2113.183637
332.401986	2136.768675
332.795338	2157.341624
333.188625	2174.264777
333.581847	2195.457788
333.975006	2214.140304
334.368100	2229.599003
334.761129	2247.162383
335.154095	2261.126379
335.546996	2276.678338
335.939833	2290.768363
336.332606	2306.849644
336.725315	2317.292394
337.117960	2323.193065
337.510540	2329.917964
337.903056	2340.549758
338.295508	2347.330109
338.687896	2354.501151
339.080220	2361.722604
339.472480	2368.565970
339.864676	2369.380116
340.256807	2375.482433
340.648875	2374.648122
341.040879	2375.668956
341.432818	2377.730788
341.824694	2378.776827
342.216506	2375.805067
342.608253	2376.586446
342.999937	2375.938658
343.391557	2375.454707
343.783113	2373.297093
344.174605	2376.198277
344.566033	2372.155272
344.957397	2367.376258
345.348697	2368.351721
345.739934	2362.919878
346.131106	2366.862060
346.522215	2364.928778
346.913260	2359.002901
347.304241	2357.437623
347.695159	2360.212778
348.086012	2356.746985
348.476802	2354.236490
348.867528	2354.735564
349.258191	2352.880420
349.648789	2353.077025
350.039324	2349.404544
350.429796	2350.518639
350.820203	2349.157528
351.210548	2349.636437
351.600828	2348.829853
351.991045	2349.089472
352.381198	2349.457476
352.771288	2347.975377
353.161314	2346.009327
353.551276	2348.958402
353.941175	2349.482682
354.331010	2349.439832
354.720782	2346.319358
355.110490	2348.492095
355.500135	2349.298680
355.889717	2347.894719
356.279235	2349.059225
356.668689	2351.458814
357.058080	2349.097034
357.447408	2347.380521
357.836672	2346.949502
358.225873	2350.937055
358.615010	2349.129801
359.004084	2355.380832
359.393095	2353.641634
359.782043	2357.178003
360.170927	2355.232118
360.559748	2356.137005
360.948505	2356.862931
361.337199	2359.358303
361.725830	2359.179342
362.114398	2360.096832
362.502903	2358.725638
362.891344	2359.418796
363.279722	2359.988447
363.668037	2362.756040
364.056289	2362.007429
364.444478	2360.351410
364.832603	2364.858201
365.220665	2366.118490
365.608665	2365.085053
365.996601	2366.514220
366.384474	2366.244519
366.772284	2368.465147
367.160031	2367.477081
367.547715	2367.756865
367.935336	2370.161495
368.322893	2366.854498
368.710388	2371.729294
369.097820	2372.246012
369.485189	2371.608306
369.872495	2376.034439
370.259738	2375.268184
370.646918	2373.957484
371.034035	2378.771786
371.421090	2381.630120
371.808081	2385.925183
372.195010	2388.143291
372.581875	2394.031359
372.968678	2402.835734
373.355418	2405.618451
373.742096	2415.562127
374.128710	2426.090577
374.515262	2437.450817
374.901751	2451.755091
375.288177	2465.877883
375.674540	2486.962509
376.060841	2505.685355
376.447079	2527.218643
376.833254	2555.605381
377.219367	2576.271591
377.605417	2611.330295
377.991404	2640.228710
378.377329	2677.876047
378.763191	2712.108002
379.148991	2758.942842
379.534727	2804.817342
379.920402	2850.908611
380.306013	2898.920560
380.691563	2959.207719
381.077049	3010.335102
381.462474	3068.996488
381.847835	3142.572129
382.233134	3211.169630
382.618371	3271.023249
383.003545	3354.804706
383.388657	3430.729524
383.773706	3520.830066
384.158693	3592.797579
384.543618	3685.239737
384.928480	3762.863424
385.313280	3864.843446
385.698017	3967.478818
386.082692	4085.698917
386.467305	4143.084891
386.851856	4269.378398
387.236344	4424.882871
387.620770	4483.753465
388.005133	4601.771918
388.389435	4745.850616
388.773674	4827.701310
389.157851	4957.858861
389.541965	5086.100774
389.926018	5110.668837
390.310008	5289.347494
390.693936	5402.614659
391.077802	5522.299213
391.461606	5648.658255
391.845348	5760.191263
392.229027	5879.737186
392.612645	6096.852120
392.996200	6208.475869
393.379694	6385.551439
393.763125	6594.857626
394.146494	6689.969076
394.529801	6818.846174
394.913047	7045.960237
395.296230	7041.897067
395.679351	7087.963131
396.062410	7331.135789
396.445408	7224.477577
396.828343	7362.945470
397.211217	7485.916857
397.594028	7359.313319
397.976778	7545.329375
398.359466	7682.937752
398.742092	7644.130949
399.124656	7761.516737
399.507158	7916.012979
399.889598	7911.458297
400.271977	8075.139521
400.654294	8072.717247
401.036549	8225.842295
401.418742	8204.266156
401.800874	8438.699975
402.182944	8458.728479
402.564952	8734.991271
402.946898	8523.010752
403.328783	8514.947427
403.710606	8622.334086
404.092367	8773.891335
404.474067	9006.119649
404.855705	8751.256554
405.237282	8630.856156
405.618797	8902.176097
406.000250	9011.349846
406.381642	9207.954846
406.762972	9066.437054
407.144240	8811.682345
407.525447	8900.376406
407.906593	8744.776151
408.287677	8822.241042
408.668700	8814.843148
409.049661	8676.092950
409.430560	8670.756889
409.811399	8527.240280
410.192176	8516.903394
410.572891	8426.228160
410.953545	8597.115714
411.334138	8135.330898
411.714669	8360.516720
412.095139	7812.334089
412.475547	7964.324877
412.855894	7734.574291
413.236180	7774.936289
413.616405	7458.687064
413.996568	7461.074050
414.376670	7306.744167
414.756711	7103.472241
415.136691	7091.466733
415.516609	7030.279728
415.896466	6914.202119
416.276262	6883.256997
416.655997	6922.540188
417.035670	6787.797707
417.415283	6891.441310
417.794834	6769.218535
418.174324	6523.953797
418.553753	6334.446742
418.933121	6339.767680
419.312428	6124.815400
419.691674	5955.656963
420.070859	5945.078101
420.449983	5706.434919
420.829045	5713.477411
421.208047	5505.169372
421.586988	5479.741792
421.965867	5399.312703
422.344686	5265.286067
422.723444	5246.727059
423.102141	4852.302141
423.480777	4952.253098
423.859352	4748.209876
424.237866	4813.258404
424.616319	4641.934791
424.994712	4626.992811
425.373044	4479.939832
425.751314	4452.087458
426.129524	4231.358016
426.507673	4255.192591
426.885762	4113.987351
427.263789	4027.181203
427.641756	3954.906180
428.019662	3861.687684
428.397508	3777.218110
428.775292	3714.009602
429.153016	3625.010552
429.530679	3553.421126
429.908282	3478.761638
430.285824	3388.189747
430.663305	3357.620190
431.040726	3273.153137
431.418086	3202.977755
431.795385	3177.734177
432.172624	3139.728918
432.549802	3069.165367
432.926920	3029.284799
433.303977	2978.916110
433.680974	2943.960749
434.057910	2914.893456
434.434786	2880.343908
434.811601	2839.316478
435.188355	2832.553770
435.565050	2794.422482
435.941683	2763.545415
436.318257	2752.379259
436.694770	2723.642162
437.071222	2711.374514
437.447614	2674.185922
437.823946	2656.723365
438.200218	2643.810449
438.576429	2629.100362
438.952580	2617.092334
439.328670	2602.561208
439.704700	2596.789087
440.080670	2581.854669
440.456580	2576.972311
440.832429	2568.911506
441.208218	2552.091696
441.583947	2546.780841
441.959616	2542.533669
442.335224	2539.191384
442.710773	2534.246012
443.086261	2532.902544
443.461689	2522.752181
443.837057	2520.975174
444.212365	2521.406193
444.587612	2518.676408
444.962800	2511.379338
445.337927	2509.562002
445.712995	2498.496669
446.088002	2508.979749
446.462949	2506.469254
446.837837	2503.157216
447.212664	2501.488594
447.587431	2511.656601
447.962139	2524.834178
448.336786	2534.359438
448.711374	2524.624970
449.085901	2502.932885
449.460369	2503.749552
449.834776	2495.870228
450.209124	2509.529234
450.583412	2507.464882
450.957640	2504.568739
451.331808	2499.018429
451.705917	2489.488127
452.079965	2490.811430
452.453954	2492.328818
452.827883	2488.416882
453.201752	2489.162973
453.575562	2486.884371
453.949311	2488.812613
454.323001	2485.752632
454.696632	2488.038796
455.070202	2491.103817
455.443713	2491.307984
455.817164	2489.422592
456.190556	2489.972078
456.563888	2489.127685
456.937160	2489.157932
457.310373	2485.588795
457.683526	2485.757673
458.056619	2485.122488
458.429653	2484.555358
458.802628	2484.744402
459.175542	2488.915956
459.548398	2491.963334
459.921194	2498.965497
460.293930	2497.720332
460.666607	2506.229799
461.039224	2511.339009
461.411782	2509.531755
461.784280	2509.733401
462.156719	2505.970180
462.529099	2503.046311
462.901419	2497.871566
463.273680	2495.111534
463.645882	2494.811586
464.018024	2496.946514
464.390106	2495.424086
464.762130	2502.829541
465.134094	2517.353105
465.505999	2535.410518
465.877845	2550.392828
466.249631	2556.311142
466.621358	2548.318393
466.993026	2541.815304
467.364634	2537.406815
467.736184	2527.016997
468.107674	2521.701100
468.479105	2518.925945
468.850477	2514.986283
469.221790	2513.622651
469.593043	2507.434635
469.964238	2504.087309
470.335373	2501.627226
470.706449	2505.390447
471.077467	2513.201715
471.448425	2530.260980
471.819324	2541.096940
472.190164	2532.285003
472.560945	2519.422499
472.931667	2511.323885
473.302330	2506.002947
473.672934	2506.557474
474.043479	2505.403050
474.413965	2502.393481
474.784393	2497.591782
475.154761	2503.706702
475.525070	2500.356855
475.895321	2501.231495
476.265513	2505.246774
476.635645	2504.737618
477.005719	2508.178205
477.375734	2507.482526
477.745691	2509.060407
478.115588	2512.637106
478.485427	2518.673887
478.855207	2530.863398
479.224928	2536.915303
479.594591	2544.824873
479.964194	2541.164995
480.333739	2540.925541
480.703226	2540.544933
481.072653	2543.297403
481.442022	2546.395193
481.811333	2547.905018
482.180584	2539.851775
482.549777	2538.891435
482.918912	2536.857329
483.287988	2538.833462
483.657005	2533.537730
484.025964	2533.789787
484.394864	2531.286854
484.763706	2532.726104
485.132489	2528.184024
485.501213	2528.705784
485.869879	2524.748478
486.238487	2529.250228
486.607036	2528.698222
486.975527	2524.473735
487.343959	2528.587317
487.712333	2530.152595
488.080648	2525.197141
488.448905	2524.632531
488.817104	2529.101514
489.185244	2529.988757
489.553326	2534.530837
489.921350	2546.049873
490.289315	2554.108158
490.657222	2558.594785
491.025070	2556.830381
491.392861	2556.853066
491.760593	2548.903167
492.128267	2545.150028
492.495883	2535.539068
492.863440	2535.564273
493.230939	2532.771474
493.598380	2526.984230
493.965763	2519.687159
494.333088	2520.483662
494.700354	2520.760925
495.067563	2521.431399
495.434713	2518.507529
495.801805	2521.900226
496.168839	2519.772859
496.535815	2524.345186
496.902733	2521.668333
497.269593	2520.024917
497.636395	2519.989629
498.003139	2521.408713
498.369825	2520.045081
498.736453	2522.106913
499.103023	2524.743437
499.469535	2523.125226
499.835989	2522.192613
500.202385	2522.215298
500.568723	2521.494413
500.935003	2525.134126
501.301226	2525.625639
501.667390	2527.659744
502.033497	2532.138809
502.399546	2529.310722
502.765537	2527.672347
503.131470	2532.116124
503.497345	2532.252235
503.863163	2532.741227
504.228923	2534.359438
504.594625	2539.335057
504.960269	2536.703574
505.325856	2542.405119
505.691385	2538.891435
506.056856	2545.255892
506.422270	2548.958619
506.787625	2548.076417
507.152924	2550.780996
507.518164	2554.135884
507.883347	2549.775286
508.248472	2559.930691
508.613540	2559.043448
508.978550	2561.649724
509.343503	2566.494273
509.708398	2569.345045
510.073236	2572.644481
510.438016	2574.466858
510.802738	2574.297979
511.167403	2578.310737
511.532010	2584.546645
511.896561	2585.801892
512.261053	2589.529825
512.625488	2591.984867
512.989866	2588.133426
513.354186	2589.605443
513.718449	2590.447315
514.082655	2599.332349
514.446803	2599.022318
514.810894	2605.409460
515.174927	2607.506580
515.538904	2607.027670
515.902822	2609.472630
516.266684	2609.714605
516.630488	2613.886160
516.994235	2615.106119
517.357925	2616.978908
517.721558	2622.209105
518.085133	2622.594753
518.448651	2621.437809
518.812112	2623.066101
519.175516	2626.673047
519.538863	2627.270424
519.902152	2628.613891
520.265385	2630.597585
520.628560	2630.844602
520.991678	2629.352420
521.354739	2630.947945
521.717743	2629.848974
522.080690	2632.351907
522.443580	2633.876856
522.806413	2636.957001
523.169189	2633.586989
523.531908	2637.072947
523.894569	2633.327370
524.257174	2636.841054
524.619722	2633.738224
524.982213	2635.487504
525.344647	2631.487349
525.707025	2632.243522
526.069345	2633.178656
526.431608	2631.202524
526.793815	2630.151443
527.155964	2627.681278
527.518057	2627.177162
527.880093	2624.210443
528.242072	2628.167749
528.603995	2623.386215
528.965860	2621.493261
529.327669	2620.167438
529.689421	2615.998404
530.051117	2615.955554
530.412755	2614.453290
530.774337	2608.897938
531.135862	2607.531786
531.497331	2605.177567
531.858743	2599.486104
532.220098	2601.595827
532.581396	2595.148191
532.942638	2591.659713
533.303824	2593.809765
533.664953	2589.023189
534.026025	2585.088569
534.387040	2584.632344
534.747999	2580.808629
535.108902	2579.581108
535.469748	2571.913513
535.830537	2569.297154
536.191270	2566.186762
536.551947	2563.996381
536.912567	2559.792059
537.273131	2557.820968
537.633638	2555.842315
537.994089	2551.103630
538.354483	2547.136242
538.714821	2547.882333
539.075103	2542.228679
539.435328	2542.319420
539.795497	2535.372710
540.155609	2536.690971
540.515665	2533.878007
540.875665	2528.388191
541.235609	2529.023376
541.595496	2525.663447
541.955328	2527.117820
542.315102	2520.034999
542.674821	2517.685821
543.034483	2516.012158
543.394090	2515.177847
543.753640	2512.306910
544.113134	2508.175685
544.472571	2509.892198
544.831953	2509.378000
545.191278	2503.449603
545.550548	2503.031187
545.909761	2502.915241
546.268918	2498.630260
546.628019	2499.020949
546.987064	2497.748058
547.346053	2494.849394
547.704986	2494.814106
548.063863	2490.030051
548.422684	2493.997439
548.781449	2489.107520
549.140158	2488.656337
549.498811	2489.667088
549.857408	2486.891933
550.215949	2485.742550
550.574434	2482.054946
550.932864	2483.458907
551.291237	2482.039823
551.649555	2484.759525
552.007817	2481.157621
552.366022	2483.411016
552.724173	2478.866416
553.082267	2478.637044
553.440305	2478.942033
553.798288	2480.807260
554.156215	2479.698207
554.514086	2482.347333
554.871902	2477.500263
555.229661	2479.078145
555.587365	2475.597228
555.945014	2478.029585
556.302606	2477.298617
556.660143	2476.512197
557.017625	2475.234265
557.375050	2478.649647
557.732421	2476.595376
558.089735	2476.779378
558.446994	2475.009933
558.804197	2476.592856
559.161345	2475.319964
559.518437	2474.377269
559.875474	2471.221506
560.232455	2474.001703
560.589381	2474.536065
560.946251	2474.263843
561.303065	2474.004223
561.659825	2472.892649
562.016528	2473.621096
562.373177	2471.453399
562.729770	2472.701085
563.086307	2473.648822
563.442789	2471.022381
563.799216	2472.459110
564.155587	2471.208903
564.511904	2470.672021
564.868164	2470.853502
565.224370	2473.784933
565.580520	2471.861733
565.936615	2474.473051
566.292654	2471.586990
566.648638	2469.880559
567.004567	2470.888790
567.360441	2473.031281
567.716260	2471.226547
568.072023	2472.582618
568.427732	2465.066257
568.783385	2469.179839
569.138982	2465.645990
569.494525	2467.906948
569.850013	2467.748151
570.205445	2468.300158
570.560823	2467.876701
570.916145	2467.566670
571.271412	2470.026753
571.626625	2468.779067
571.981782	2469.051290
572.336884	2467.334777
572.691931	2468.867287
573.046923	2469.787298
573.401860	2468.542133
573.756743	2466.999540
574.111570	2467.044910
574.466342	2466.046762
574.821059	2468.748820
575.175722	2464.214303
575.530330	2468.194293
575.884882	2465.719087
576.239380	2465.840075
576.593823	2465.930815
576.948211	2464.453757
577.302544	2463.780763
577.656823	2465.542647
578.011047	2466.845785
578.365216	2461.287913
578.719330	2463.611885
579.073389	2462.364199
579.427394	2461.943263
579.781344	2464.622636
580.135239	2463.279168
580.489080	2463.982409
580.842866	2463.213633
581.196597	2463.392594
581.550273	2461.799590
581.903895	2461.378653
582.257463	2462.906123
582.610975	2462.865794
582.964434	2463.221195
583.317837	2460.511575
583.671186	2461.000567
584.024481	2461.023252
584.377721	2461.343365
584.730906	2460.567028
585.084037	2462.621298
585.437113	2461.736575
585.790135	2459.178190
586.143103	2459.808334
586.496016	2459.972172
586.848874	2455.117540
587.201679	2456.529063
587.554428	2454.923456
587.907124	2455.150308
588.259765	2451.319031
588.612352	2457.328086
588.964884	2459.798252
589.317362	2459.397480
589.669786	2455.319187
590.022155	2458.432099
590.374470	2457.333128
590.726731	2458.074177
591.078937	2457.441512
591.431090	2454.830195
591.783188	2455.621656
592.135232	2454.991512
592.487222	2455.601491
592.839157	2457.587706
593.191038	2457.113837
593.542866	2451.147632
593.894639	2453.716100
594.246358	2453.827005
594.598022	2454.615946
594.949633	2454.207612
595.301190	2452.780966
595.652692	2451.833229
596.004141	2453.209464
596.355535	2455.334310
596.706876	2451.649227
597.058162	2452.851542
597.409395	2454.767180
597.760573	2451.477827
598.111698	2452.155863
598.462768	2453.012859
598.813785	2453.532098
599.164748	2451.717282
599.515657	2448.052363
599.866511	2449.254678
600.217312	2453.479165
600.568060	2449.078238
600.918753	2452.153342
601.269392	2450.174689
601.619978	2450.963630
601.970510	2449.632765
602.320988	2453.363219
602.671412	2450.058742
603.021783	2450.583023
603.372100	2448.826180
603.722363	2448.811057
604.072572	2449.937755
604.422728	2450.305759
604.772830	2447.762497
605.122878	2446.424071
605.472872	2446.330809
605.822813	2446.159410
606.172701	2449.602518
606.522534	2446.797116
606.872314	2447.777620
607.222041	2448.135542
607.571714	2448.874071
607.921333	2449.877261
608.270899	2450.356171
608.620411	2449.350460
608.969870	2449.025306
609.319276	2448.548917
609.668627	2449.789041
610.017926	2450.048660
610.367171	2451.001438
610.716362	2447.961622
611.065500	2448.705193
611.414585	2450.008331
611.763616	2449.234514
612.112594	2446.963474
612.461518	2453.156532
612.810389	2449.723506
613.159207	2449.423557
613.507971	2449.970522
613.856682	2451.298866
614.205340	2447.855758
614.553945	2450.267950
614.902496	2446.910542
615.250994	2450.661160
615.599439	2449.146294
615.947830	2452.412961
616.296169	2448.934565
616.644454	2450.736778
616.992686	2451.802982
617.340864	2451.245934
617.688990	2451.492951
618.037063	2450.547734
618.385082	2449.499174
618.733048	2451.994546
619.080961	2447.192847
619.428821	2451.142591
619.776628	2453.527056
620.124382	2451.989504
620.472083	2450.938424
620.819731	2452.491099
621.167326	2449.098403
621.514868	2450.058743
621.862357	2448.992538
622.209793	2450.288115
622.557176	2448.188474
622.904506	2445.330140
623.251783	2445.234358
623.599007	2442.018102
623.946179	2445.194029
624.293297	2446.010696
624.640363	2445.771241
624.987376	2446.187136
625.334336	2443.916097
625.681243	2446.729060
626.028097	2446.509770
626.374899	2444.755449
626.721647	2443.883329
627.068343	2442.721343
627.414987	2444.384924
627.761577	2443.303596
628.108115	2441.781168
628.454600	2443.298555
628.801032	2443.227979
629.147412	2442.234872
629.493739	2441.753442
629.840014	2444.052208
630.186236	2443.008689
630.532405	2440.263781
630.878521	2442.885181
631.224585	2439.701692
631.570597	2440.362083
631.916556	2444.919286
632.262462	2444.417691
632.608316	2441.713112
632.954117	2442.466765
633.299866	2443.346446
633.645562	2439.852927
633.991206	2439.411826
634.336797	2440.636826
634.682336	2439.149686
635.027823	2441.065324
635.373257	2440.543565
635.718639	2439.396702
636.063968	2440.092381
636.409245	2437.428132
636.754470	2439.671445
637.099642	2437.647422
637.444762	2438.524583
637.789829	2438.080961
638.134845	2438.186825
638.479808	2433.801021
638.824719	2435.018460
639.169577	2434.290013
639.514383	2433.609457
639.859137	2435.273038
640.203839	2435.517534
640.548489	2433.145671
640.893086	2432.621391
641.237632	2431.247677
641.582125	2434.015270
641.926566	2431.971082
642.270955	2434.128696
642.615292	2435.295723
642.959576	2434.728594
643.303809	2434.494180
643.647990	2435.189859
643.992118	2434.423604
644.336195	2433.150712
644.680219	2435.048707
645.024192	2437.339911
645.368112	2431.658531
645.711981	2434.852102
646.055797	2434.937802
646.399562	2436.845878
646.743274	2435.235230
647.086935	2437.967535
647.430544	2435.767071
647.774101	2434.143820
648.117606	2435.578028
648.461059	2437.508790
648.804460	2440.130190
649.147810	2436.271187
649.491108	2436.545930
649.834354	2435.968717
650.177548	2435.804880
650.520690	2435.129365
650.863781	2436.629109
651.206820	2435.981320
651.549807	2433.422935
651.892742	2433.417894
652.235626	2432.734817
652.578458	2433.891762
652.921238	2436.162802
653.263967	2434.872267
653.606644	2431.088881
653.949269	2432.296237
654.291843	2432.694488
654.634365	2433.057451
654.976836	2432.417225
655.319255	2433.327153
655.661622	2431.298088
656.003938	2434.683223
656.346203	2432.243305
656.688416	2432.460074
657.030577	2430.214240
657.372687	2431.663572
657.714746	2431.250197
658.056753	2430.436051
658.398708	2427.305495
658.740612	2428.041503
659.082465	2426.894641
659.424266	2429.478232
659.766016	2425.808272
660.107715	2429.286668
660.449362	2429.142995
660.790958	2430.451175
661.132503	2429.654672
661.473996	2432.573500
661.815438	2428.621236
662.156829	2431.542584
662.498168	2432.235743
662.839456	2427.403797
663.180693	2430.274734
663.521879	2430.972934
663.863013	2432.523089
664.204097	2429.909251
664.545129	2430.584765
664.886110	2431.277924
665.227040	2431.519899
665.567918	2432.381937
665.908746	2432.127358
666.249522	2431.774477
666.590248	2429.117789
666.930922	2431.237595
667.271545	2431.126689
667.612118	2431.461926
667.952639	2430.741041
668.293109	2432.956628
668.633528	2428.923705
668.973896	2430.509148
669.314213	2431.252718
669.654480	2429.858839
669.994695	2428.459919
670.334859	2429.697522
670.674973	2428.719538
671.015035	2430.226843
671.355047	2433.483429
671.695008	2431.819848
672.034918	2427.744075
672.374777	2430.420928
672.714585	2429.546287
673.054342	2430.191555
673.394049	2430.483942
673.733705	2431.104004
674.073310	2428.805238
674.412864	2430.226843
674.752368	2428.386822
675.091820	2429.997471
675.431223	2426.304826
675.770574	2428.162491
676.109875	2425.407500
676.449125	2429.100145
676.788324	2424.467325
677.127473	2425.246183
677.466571	2423.612849
677.805619	2426.234249
678.144616	2426.559404
678.483562	2427.943201
678.822458	2427.003025
679.161303	2426.892120
679.500098	2428.139806
679.838842	2427.726431
680.177535	2427.129054
680.516179	2426.183838
680.854771	2426.193920
681.193314	2428.923705
681.531805	2429.770619
681.870247	2430.451175
682.208638	2431.257759
682.546978	2431.638366
682.885268	2431.051072
683.223508	2430.035279
683.561697	2429.788263
683.899836	2429.667275
684.237925	2428.671647
684.575963	2429.311874
684.913951	2429.198448
685.251889	2428.356575
685.589776	2428.033941
685.927614	2427.733993
686.265401	2429.193407
686.603137	2426.478745
686.940824	2428.429672
687.278460	2428.729621
687.616046	2428.888417
687.953582	2430.284817
688.291068	2430.819179
688.628504	2430.864549
688.965889	2433.397729
689.303224	2432.102152
689.640510	2432.099632
689.977745	2427.953283
690.314930	2429.296750
690.652065	2429.354724
690.989150	2428.661565
691.326185	2425.341965
691.663170	2427.701225
692.000105	2425.876328
692.336990	2423.136460
692.673825	2424.293405
693.010610	2424.207706
693.347345	2420.789803
693.684030	2418.377611
694.020665	2421.167890
694.357251	2416.487178
694.693786	2423.701070
695.030272	2420.131933
695.366707	2420.510019
695.703093	2421.248548
696.039429	2421.503127
696.375716	2420.310894
696.711952	2423.249886
697.048139	2420.091603
697.384276	2417.762590
697.720363	2419.882396
698.056400	2420.048754
698.392388	2419.453897
698.728326	2418.012127
699.064214	2420.409196
699.400053	2419.443815
699.735842	2420.033630
700.071581	2420.504978
700.407270	2421.321645
700.742910	2418.591860
701.078501	2417.815522
701.414042	2418.886768
701.749533	2417.860893
702.084974	2417.409710
702.420366	2417.497930
702.755709	2416.305697
703.091002	2413.434760
703.426246	2416.235121
703.761440	2420.830132
704.096584	2414.516087
704.431679	2419.098496
704.766725	2417.306366
705.101721	2417.631520
705.436668	2416.363670
705.771565	2415.254616
706.106413	2418.397776
706.441212	2418.440626
706.775961	2414.516087
707.110661	2416.769483
707.445311	2418.080183
707.779913	2419.348033
708.114465	2417.666808
708.448967	2418.173444
708.783421	2420.595719
709.117825	2419.743764
709.452180	2419.635379
709.786485	2418.586819
710.120742	2421.349371
710.454949	2418.324679
710.789107	2418.632189
711.123216	2416.434246
711.457275	2419.761408
711.791286	2420.817530
712.125247	2419.179155
712.459159	2418.564134
712.793023	2422.831471
713.126837	2420.414237
713.460602	2421.377098
713.794318	2421.976995
714.127985	2424.041348
714.461602	2419.385842
714.795171	2418.450708
715.128691	2419.342992
715.462162	2420.096645
715.795584	2418.430543
716.128957	2417.709658
716.462281	2419.239648
716.795556	2418.039854
717.128782	2416.645975
717.461960	2419.247210
717.795088	2416.603125
718.128167	2417.092117
718.461198	2416.885430
718.794180	2417.384504
719.127113	2414.715213
719.459997	2414.080028
719.792833	2413.449883
720.125619	2414.382497
720.458357	2412.998700
720.791046	2414.364853
721.123686	2414.155645
721.456278	2414.407702
721.788821	2412.897877
722.121315	2415.778896
722.453761	2412.504667
722.786158	2412.202198
723.118506	2411.985428
723.450805	2414.470717
723.783056	2413.381828
724.115259	2411.796385
724.447412	2415.705800
724.779518	2414.190933
725.111574	2413.326375
725.443582	2413.868299
725.775542	2416.061201
726.107453	2414.188412
726.439315	2411.498957
726.771129	2419.837025
727.102895	2415.673032
727.434612	2414.319482
727.766281	2415.486509
728.097901	2415.047929
728.429473	2411.572053
728.760996	2410.964594
729.092471	2409.913514
729.423897	2413.921231
729.755276	2417.709658
730.086606	2416.537590
730.417887	2414.352250
730.749120	2417.918866
731.080305	2416.910635
731.411442	2419.569844
731.742530	2416.658578
732.073570	2419.816861
732.404562	2418.314597
732.735506	2419.156469
733.066401	2413.916190
733.397249	2419.774011
733.728048	2417.298804
734.058798	2418.342323
734.389501	2417.230749
734.720156	2413.591036
735.050762	2413.785120
735.381320	2416.895512
735.711831	2413.114647
736.042293	2415.720923
736.372707	2411.388051
736.703073	2412.378638
737.033391	2415.126067
737.363661	2411.768658
737.693883	2415.814184
738.024056	2416.635893
738.354182	2411.662794
738.684260	2415.998187
739.014290	2416.280491
739.344272	2414.004410
739.674207	2412.781930
740.004093	2415.068094
740.333931	2413.167579
740.663722	2416.933321
740.993464	2413.767476
741.323159	2416.305697
741.652806	2413.066756
741.982405	2418.087745
742.311956	2413.376787
742.641460	2412.945768
742.970915	2411.630027
743.300323	2415.055491
743.629683	2413.031468
743.958996	2416.542631
744.288260	2411.486354
744.617477	2413.112126
744.946647	2406.044428
745.275768	2409.905952
745.604842	2406.435118
745.933869	2409.724471
746.262847	2407.355128
746.591778	2408.111301
746.920662	2410.049625
747.249498	2409.865623
747.578286	2415.216808
747.907027	2411.130953
748.235720	2411.360325
748.564365	2410.586508
748.892963	2413.371745
749.221514	2413.331416
749.550017	2412.227403
749.878473	2413.996848
750.206881	2411.062897
750.535242	2411.768658
750.863555	2412.061045
751.191821	2413.606159
751.520039	2409.802608
751.848210	2410.957033
752.176334	2411.085582
752.504411	2410.783113
752.832440	2413.505336
753.160421	2409.711868
753.488356	2410.780592
753.816243	2411.100706
754.144082	2412.487023
754.471875	2409.989131
754.799620	2410.949471
755.127318	2412.935686
755.454969	2413.601118
755.782572	2411.887126
756.110129	2411.110788
756.437638	2411.108267
756.765100	2406.553585
757.092515	2410.704975
757.419882	2408.456620
757.747203	2411.390572
758.074477	2409.616086
758.401703	2411.826632
758.728882	2409.550551
759.056014	2410.528535
759.383099	2412.746642
759.710138	2410.173133
760.037129	2409.447207
760.364073	2410.878895
760.690970	2408.958215
761.017820	2412.635737
761.344623	2412.088772
761.671379	2411.446025
761.998088	2408.118863
762.324751	2415.126067
762.651366	2416.918197
762.977935	2423.267530
763.304456	2423.680905
763.630931	2427.252562
763.957359	2422.778538
764.283740	2425.321801
764.610074	2421.684608
764.936362	2419.781572
765.262602	2416.638413
765.588796	2417.356778
765.914943	2413.649009
766.241044	2413.800243
766.567097	2411.599780
766.893104	2410.551220
767.219064	2409.815211
767.544978	2408.766651
767.870845	2410.810839
768.196665	2410.989800
768.522438	2406.641805
768.848165	2407.849161
769.173846	2407.014850
769.499479	2407.622309
769.825066	2403.372617
770.150607	2407.730694
770.476101	2408.532238
770.801548	2405.588204
771.126949	2405.920920
771.452303	2404.673234
771.777611	2405.888152
772.102872	2405.439490
772.428087	2404.884963
772.753256	2408.580129
773.078378	2406.699778
773.403453	2403.375137
773.728482	2405.240364
774.053465	2406.331774
774.378401	2404.426218
774.703291	2407.090468
775.028135	2404.169119
775.352932	2404.771537
775.677683	2404.083419
776.002388	2406.462844
776.327046	2403.498646
776.651658	2402.394633
776.976224	2404.494273
777.300743	2403.445713
777.625216	2402.828172
777.949643	2405.968811
778.274024	2405.149623
778.598359	2402.460168
778.922647	2400.927657
779.246889	2402.606361
779.571086	2397.018242
779.895236	2404.403533
780.219339	2405.043759
780.543397	2405.157185
780.867409	2401.729201
781.191374	2403.959911
781.515294	2400.620147
781.839167	2406.102402
782.162995	2404.721125
782.486776	2403.997720
782.810511	2403.871691
783.134201	2402.921433
783.457844	2403.685168
783.781441	2406.057031
784.104993	2403.604510
784.428498	2404.209448
784.751958	2405.200035
785.075372	2402.681979
785.398739	2405.784809
785.722061	2403.763306
786.045337	2404.070817
786.368568	2404.411094
786.691752	2405.631054
787.014891	2403.236506
787.337983	2402.908831
787.661030	2405.827659
787.984031	2404.350601
788.306987	2407.181208
788.629897	2407.493760
788.952760	2406.840931
789.275579	2407.776065
789.598351	2406.500653
789.921078	2404.552247
790.243759	2404.983265
790.566395	2403.914541
790.888984	2404.295148
791.211529	2405.620971
791.534027	2401.086453
791.856480	2402.543347
792.178888	2402.296330
792.501249	2403.130641
792.823566	2405.164747
793.145836	2403.019736
793.468062	2404.451424
793.790241	2401.855229
794.112375	2404.990827
794.434464	2402.427400
794.756507	2405.149623
795.078505	2402.739952
795.400457	2403.337329
795.722364	2400.534447
796.044226	2402.815569
796.366042	2399.443037
796.687812	2403.067627
797.009538	2404.706002
797.331218	2404.075858
797.652852	2404.816907
797.974442	2403.344890
798.295986	2403.307082
798.617484	2405.583163
798.938938	2404.300189
799.260346	2406.311609
799.581709	2404.123749
799.903026	2405.729356
800.224299	2403.196176
800.545526	2403.788512
800.866708	2401.401526
801.187845	2400.748696
801.508936	2403.317164
801.829983	2405.454613
802.150984	2402.833213
802.471940	2400.857081
802.792851	2403.382699
803.113717	2404.035528
803.434538	2402.288769
803.755314	2402.611402
804.076045	2401.308264
804.396731	2405.653739
804.717372	2403.244067
805.037967	2403.138203
805.358518	2401.169633
805.679024	2403.914541
805.999485	2403.791033
806.319901	2404.852195
806.640272	2406.200704
806.960598	2403.438152
807.280879	2401.605692
807.601115	2406.059552
807.921306	2402.555950
808.241453	2404.385889
808.561554	2401.502349
808.881611	2403.420508
809.201623	2401.910682
809.521590	2400.945301
809.841513	2399.579148
810.161390	2404.033008
810.481223	2405.376475
810.801011	2403.692730
811.120755	2402.588717
811.440453	2404.053172
811.760107	2403.690209
812.079716	2399.327091
812.399281	2399.455640
812.718801	2399.997564
813.038276	2399.127965
813.357707	2400.670558
813.677093	2398.356669
813.996434	2402.815569
814.315731	2403.944788
814.634983	2401.489746
814.954191	2402.624005
815.273354	2401.028480
815.592473	2401.983779
815.911547	2406.377144
816.230577	2404.595097
816.549562	2403.569222
816.868502	2404.388409
817.187399	2403.828841
817.506250	2401.514952
817.825058	2404.721125
818.143821	2406.210786
818.462539	2404.063255
818.781213	2403.659963
819.099843	2405.537792
819.418429	2408.607855
819.736970	2410.258833
820.055466	2412.048442
820.373919	2414.349729
820.692327	2417.785276
821.010691	2421.954310
821.329011	2441.357711
821.647286	2466.230764
821.965517	2489.462922
822.283704	2509.423370
822.601847	2513.897394
822.919945	2502.078409
823.237999	2486.718013
823.556010	2475.047742
823.873976	2463.770681
824.191897	2451.467745
824.509775	2440.102464
824.827609	2439.389140
825.145398	2432.671803
825.463144	2429.848757
825.780845	2429.752975
826.098502	2432.666762
826.416116	2441.337546
826.733685	2446.577826
827.051210	2445.637651
827.368692	2444.581529
827.686129	2434.988213
828.003522	2431.308171
828.320872	2423.108734
828.638177	2418.614545
828.955439	2413.959040
829.272656	2411.632547
829.589830	2404.310271
829.906960	2410.505849
830.224046	2408.365880
830.541088	2405.293296
830.858086	2405.946126
831.175041	2404.950498
831.491952	2403.919582
831.808819	2405.827659
832.125642	2404.305230
832.442421	2407.261867
832.759157	2411.897208
833.075849	2414.425347
833.392497	2421.760225
833.709101	2425.105031
834.025662	2425.823395
834.342179	2419.463980
834.658653	2417.152611
834.975083	2416.288053
835.291469	2416.519946
835.607811	2408.950653
835.924110	2407.823956
836.240366	2408.045766
836.556578	2405.414284
836.872746	2405.910838
837.188871	2399.816083
837.504952	2403.032339
837.820990	2399.203583
838.136984	2403.140724
838.452935	2400.917575
838.768842	2400.846999
839.084706	2404.070817
839.400526	2403.002092
839.716303	2407.902093
840.032037	2407.450910
840.347727	2411.390572
840.663373	2405.678945
840.978977	2402.654252
841.294537	2405.489901
841.610054	2404.078378
841.925527	2402.581156
842.240957	2399.997564
842.556344	2401.439334
842.871687	2401.454458
843.186987	2399.503531
843.502244	2398.346586
843.817458	2398.533109
844.132629	2400.030332
844.447756	2399.339694
844.762840	2392.614794
845.077881	2398.301216
845.392879	2394.732079
845.707833	2397.219888
846.022745	2393.023128
846.337613	2397.756771
846.652438	2393.834754
846.967221	2397.650907
847.281960	2395.934394
847.596656	2399.422873
847.911309	2396.083108
848.225919	2395.911709
848.540485	2396.587224
848.855009	2398.018911
849.169490	2395.841133
849.483928	2396.829199
849.798323	2395.689898
850.112675	2399.372461
850.426984	2396.703170
850.741251	2400.892369
851.055474	2394.540515
851.369654	2398.056720
851.683792	2397.618140
851.997887	2397.552605
852.311938	2395.768036
852.625947	2398.543191
852.939914	2398.197872
853.253837	2400.466392
853.567718	2396.788870
853.881555	2396.438510
854.195350	2396.995557
854.509103	2399.284241
854.822812	2396.574621
855.136479	2397.439179
855.450103	2392.226626
855.763685	2396.962790
856.077224	2397.860115
856.390720	2394.709394
856.704173	2398.202913
857.017584	2397.721483
857.330953	2396.604868
857.644278	2396.125958
857.957561	2399.092677
858.270802	2399.380023
858.584000	2399.526216
858.897155	2398.654097
859.210268	2397.295506
859.523339	2399.092677
859.836367	2394.094373
860.149352	2395.989847
860.462295	2397.976062
860.775195	2394.875752
861.088054	2393.532284
861.400869	2395.747872
861.713642	2392.269475
862.026373	2397.623181
862.339062	2396.080588
862.651708	2396.075547
862.964312	2397.444220
863.276873	2396.718294
863.589392	2397.552605
863.901869	2396.723335
864.214303	2396.251987
864.526696	2395.878942
864.839045	2395.536143
865.151353	2396.355331
865.463619	2398.351627
865.775842	2395.213509
866.088023	2396.224261
866.400162	2395.727707
866.712258	2395.614281
867.024313	2395.793242
867.336325	2399.687533
867.648296	2396.771226
867.960224	2395.952038
868.272110	2395.183262
868.583954	2398.575959
868.895755	2400.302554
869.207515	2397.688716
869.519233	2398.263407
869.830909	2397.489590
870.142542	2397.333314
870.454134	2397.043448
870.765684	2401.237688
871.077191	2400.186607
871.388657	2399.165774
871.700081	2398.210475
872.011463	2400.100908
872.322803	2402.999571
872.634101	2397.134189
872.945357	2394.583365
873.256571	2396.809034
873.567744	2398.144940
873.878874	2398.971689
874.189963	2402.369427
874.501010	2401.809859
874.812015	2397.419014
875.122979	2398.649056
875.433900	2398.843140
875.744780	2399.397667
876.055618	2396.705691
876.366415	2399.543860
876.677169	2397.597975
876.987882	2396.002450
877.298554	2394.976575
877.609183	2395.039589
877.919771	2396.297357
878.230317	2397.683675
878.540822	2401.255332
878.851285	2400.627708
879.161707	2402.596279
879.472087	2407.128276
879.782425	2406.397309
880.092722	2412.726478
880.402977	2421.651841
880.713191	2434.436207
881.023363	2443.265788
881.333494	2452.707869
881.643583	2452.591922
881.953631	2452.753239
882.263637	2449.594956
882.573602	2444.785696
882.883526	2437.773451
883.193408	2435.487287
883.503248	2428.822882
883.813048	2429.173242
884.122806	2423.428847
884.432522	2419.710996
884.742197	2416.172106
885.051831	2413.986766
885.361424	2410.326888
885.670975	2408.915365
885.980485	2408.454100
886.289954	2405.079047
886.599382	2406.301527
886.908768	2404.007802
887.218113	2401.348593
887.527417	2401.464540
887.836680	2399.437996
888.145901	2400.988151
888.455082	2401.159550
888.764221	2398.833058
889.073319	2401.799777
889.382376	2399.727863
889.691392	2398.306257
890.000366	2398.961607
890.309300	2399.682492
890.618193	2398.086967
890.927044	2397.441699
891.235855	2399.702657
891.544625	2398.248284
891.853353	2400.350445
892.162041	2397.837430
892.470687	2402.893707
892.779293	2400.514283
893.087858	2398.359189
893.396381	2401.179715
893.704864	2402.896228
894.013306	2400.904972
894.321707	2412.461817
894.630068	2415.103382
894.938387	2416.318300
895.246665	2412.784451
895.554903	2411.995510
895.863100	2411.022568
896.171256	2408.789337
896.479371	2406.921589
896.787446	2407.448390
897.095480	2405.830179
897.403473	2405.454613
897.711425	2402.157699
898.019336	2404.595097
898.327207	2403.440672
898.635038	2402.881104
898.942827	2400.809190
899.250576	2399.894221
899.558284	2399.536299
899.865952	2398.583521
900.173579	2400.168963
900.481165	2399.722821
900.788711	2398.233160
901.096216	2397.235012
901.403681	2398.840619
901.711105	2397.887841
902.018489	2396.877090
902.325832	2398.603685
902.633135	2398.507903
902.940397	2401.088974
903.247619	2398.175187
903.554800	2406.908986
903.861941	2413.064235
904.169041	2417.152611
904.476101	2417.003897
904.783121	2414.037178
905.090100	2413.898546
905.397039	2412.381159
905.703938	2411.456107
906.010796	2406.034346
906.317614	2406.104922
906.624391	2407.082906
906.931129	2404.577452
907.237826	2400.789025
907.544483	2402.757596
907.851099	2400.627708
908.157675	2397.114024
908.464211	2394.893396
908.770707	2394.895917
909.077163	2393.040772
909.383578	2392.244270
909.689954	2393.542367
909.996289	2390.903323
910.302584	2397.116545
910.608839	2396.289796
910.915054	2395.271483
911.221229	2395.256359
911.527363	2397.673592
911.833458	2391.258724
912.139513	2396.246946
912.445527	2394.043962
912.751502	2392.773591
913.057436	2397.421535
913.363331	2395.362223
913.669186	2398.656617
913.975000	2397.267779
914.280775	2399.730383
914.586510	2401.981258
914.892205	2404.186763
915.197859	2409.742115
915.503475	2409.490057
915.809050	2413.684297
916.114585	2415.093299
916.420081	2417.472724
916.725536	2416.900553
917.030952	2418.687642
917.336328	2413.417116
917.641665	2413.187743
917.946961	2408.875036
918.252218	2411.015006
918.557435	2405.542833
918.862612	2407.783626
919.167750	2406.540982
919.472848	2405.928482
919.777906	2404.736249
920.082925	2402.687020
920.387904	2403.365055
920.692843	2402.409756
920.997743	2399.979920
921.302603	2397.655948
921.607423	2399.122924
921.912204	2396.927502
922.216946	2399.833727
922.521647	2395.163098
922.826310	2394.434651
923.130932	2395.876421
923.435516	2396.882131
923.740059	2395.737789
924.044564	2397.691236
924.349028	2396.062944
924.653454	2389.338044
924.957840	2391.193189
925.262186	2394.989178
925.566493	2393.239898
925.870761	2388.531460
926.174989	2396.022614
926.479178	2395.578993
926.783328	2394.086811
927.087438	2395.246277
927.391509	2393.829712
927.695541	2394.558159
927.999533	2395.800804
928.303486	2391.835936
928.607400	2393.623025
928.911275	2392.410628
929.215110	2395.150495
929.518906	2394.958931
929.822663	2395.405073
930.126381	2392.496327
930.430060	2393.880124
930.733699	2392.385422
931.037299	2395.125289
931.340861	2391.843498
931.644383	2392.813920
931.947866	2392.748385
932.251309	2391.225957
932.554714	2393.771739
932.858080	2392.788714
933.161407	2392.208982
933.464694	2394.018756
933.767943	2394.054044
934.071153	2393.378529
934.374323	2391.994733
934.677455	2390.822664
934.980548	2393.204609
935.283602	2393.345762
935.586617	2391.500699
935.889593	2395.049672
936.192530	2394.543036
936.495428	2390.822664
936.798287	2393.391132
937.101108	2393.202089
937.403890	2392.980278
937.706632	2393.033210
938.009336	2393.161760
938.312002	2395.319373
938.614628	2393.249980
938.917216	2394.505227
939.219765	2394.245608
939.522275	2397.487070
939.824747	2395.092522
940.127179	2392.566903
940.429573	2390.157232
940.731929	2392.657644
941.034246	2390.119423
941.336524	2392.566903
941.638763	2396.572100
941.940964	2394.084291
942.243126	2393.935577
942.545250	2397.855074
942.847335	2392.760988
943.149381	2394.742161
943.451389	2392.995402
943.753359	2393.514640
944.055290	2392.692932
944.357182	2392.682850
944.659036	2390.706718
944.960851	2393.761657
945.262628	2391.362068
945.564367	2393.940618
945.866067	2393.630587
946.167729	2391.697304
946.469352	2394.429610
946.770937	2393.484393
947.072484	2394.472460
947.373992	2391.825854
947.675462	2392.503889
947.976893	2393.479352
948.278286	2392.251831
948.579641	2394.595968
948.880958	2392.957593
949.182236	2393.128992
949.483476	2394.817779
949.784678	2390.520195
950.085841	2391.694784
950.386967	2394.994219
950.688054	2393.623025
950.989103	2392.138405
951.290114	2391.649413
951.591087	2393.459188
951.892021	2395.142933
952.192917	2393.355844
952.493776	2393.524723
952.794596	2394.601009
953.095378	2392.007335
953.396122	2394.830382
953.696828	2392.403066
953.997496	2392.650083
954.298126	2392.090514
954.598718	2395.132851
954.899272	2392.413148
955.199788	2394.210320
955.500266	2392.004815
955.800706	2389.567417
956.101108	2386.991387
956.401472	2392.145967
956.701798	2387.795451
957.002087	2388.826367
957.302337	2390.895761
957.602550	2393.292830
957.902724	2392.019938
958.202861	2392.095556
958.502960	2390.873076
958.803022	2390.850391
959.103045	2391.790566
959.403031	2389.307798
959.702979	2389.227139
960.002889	2393.343241
960.302762	2390.626059
960.602596	2392.035062
960.902393	2390.764691
961.202153	2392.897099
961.501875	2393.050854
961.801559	2392.997922
962.101205	2391.450288
962.400814	2392.871893
962.700385	2388.060112
962.999918	2391.210833
963.299414	2390.421893
963.598873	2392.052706
963.898293	2392.430792
964.197677	2392.962634
964.497022	2389.932901
964.796331	2389.275030
965.095601	2391.614125
965.394835	2392.511451
965.694030	2390.709238
965.993189	2391.445247
966.292309	2391.165463
966.591393	2389.481717
966.890439	2389.998436
967.189447	2392.350134
967.488419	2389.474156
967.787353	2390.346275
968.086249	2391.057078
968.385108	2390.374002
968.683930	2394.275855
968.982714	2392.115720
969.281462	2392.065309
969.580172	2390.810061
969.878844	2389.446429
970.177480	2390.066491
970.476078	2391.543549
970.774639	2392.002294
971.073162	2391.283930
971.371649	2388.448281
971.670098	2386.867879
971.968510	2389.902654
972.266885	2386.232694
972.565223	2390.467263
972.863524	2393.035731
973.161788	2391.737634
973.460014	2391.125133
973.758204	2391.805689
974.056356	2392.256873
974.354471	2391.599002
974.652550	2391.359547
974.950591	2392.398025
975.248595	2392.367778
975.546563	2389.335524
975.844493	2390.134547
976.142386	2392.377860
976.440243	2392.030021
976.738062	2392.418189
977.035845	2391.924156
977.333590	2391.351985
977.631299	2391.662016
977.928971	2391.745195
978.226606	2391.455329
978.524204	2389.920298
978.821765	2389.998436
979.119290	2391.498179
979.416777	2387.235883
979.714228	2391.135216
980.011642	2391.147819
980.309020	2392.420710
980.606360	2389.970709
980.903664	2392.370298
981.200931	2392.317366
981.498162	2393.156718
981.795356	2392.408107
982.092513	2393.376009
982.389633	2389.648075
982.686717	2392.813920
982.983764	2395.437841
983.280775	2393.963303
983.577749	2392.975237
983.874686	2394.555639
984.171587	2390.283261
984.468451	2393.804507
984.765279	2394.379198
985.062070	2393.073539
985.358824	2391.263765
985.655543	2393.249980
985.952224	2391.435164
986.248869	2391.999774
986.545478	2387.810575
986.842050	2391.425082
987.138586	2386.406613
987.435086	2387.860986
987.731549	2386.106665
988.027975	2389.869886
988.324366	2389.726213
988.620719	2388.957437
988.917037	2390.832747
989.213318	2387.513147
989.509563	2390.878117
989.805772	2389.905174
990.101944	2390.454660
990.398080	2387.601367
990.694180	2388.589433
990.990244	2391.490617
991.286271	2387.001470
991.582262	2387.311501
991.878217	2389.602705
992.174136	2389.784187
992.470019	2390.862993
992.765865	2388.982643
993.061676	2388.493651
993.357450	2390.071532
993.653188	2387.452653
993.948890	2391.538508
994.244556	2390.434495
994.540186	2390.631100
994.835780	2389.365771
995.131337	2390.275699
995.426859	2386.870400
995.722345	2393.267624
996.017795	2391.921636
996.313208	2391.266286
996.608586	2391.087325
996.903928	2391.094887
997.199234	2394.840464
997.494504	2392.145967
997.789738	2392.536657
998.084936	2391.520864
998.380099	2389.378374
998.675225	2391.805689
998.970316	2391.535988
999.265371	2391.659496
999.560390	2390.994063
999.855373	2390.691594
1000.150320	2393.784342
1000.445232	2390.898282
1000.740108	2388.377705
1001.034948	2389.322921
1001.329752	2387.712272
1001.624521	2389.489279
1001.919254	2385.226983
1002.213951	2388.584392
1002.508613	2381.544421
1002.803239	2387.329145
1003.097829	2385.602549
1003.392384	2391.089845
1003.686903	2388.876779
1003.981386	2387.314021
1004.275834	2386.819988
1004.570246	2388.637324
1004.864623	2391.543549
1005.158964	2388.871738
1005.453270	2385.771428
1005.747540	2389.680843
1006.041775	2389.854763
1006.335974	2391.046996
1006.630138	2386.963661
1006.924266	2389.527088
1007.218359	2388.448281
1007.512416	2388.357540
1007.806438	2388.624721
1008.100425	2387.003990
1008.394376	2389.252345
1008.688292	2389.748898
1008.982172	2385.549617
1009.276017	2389.784187
1009.569827	2385.461397
1009.863602	2390.588251
1010.157341	2387.974412
1010.451045	2389.811913
1010.744714	2386.759494
1011.038347	2391.546070
1011.331945	2390.162273
1011.625508	2391.669578
1011.919036	2389.322921
1012.212528	2387.971892
1012.505986	2388.831408
1012.799408	2389.574979
1013.092795	2389.083466
1013.386147	2388.014742
1013.679464	2389.877448
1013.972745	2389.060781
1014.265992	2386.658671
1014.559204	2390.613456
1014.852380	2388.642365
1015.145521	2389.002808
1015.438628	2387.487941
1015.731699	2389.277551
1016.024736	2389.751419
1016.317737	2391.243601
1016.610703	2392.360216
1016.903635	2387.016593
1017.196531	2383.903681
1017.489393	2385.809237
1017.782219	2383.273536
1018.075011	2388.065153
1018.367768	2387.999618
1018.660490	2390.779814
1018.953177	2390.779814
1019.245829	2390.779814
