Dividing Wavelength (nm)	Counts (n)	Blue Motor Position (mm): 0.000000	Red Motor Position (mm): 48.400000	
326.493990	2000.198776
326.888308	2000.198776
327.282561	2000.198776
327.676750	1977.437967
328.070874	1975.444190
328.464933	1982.416106
328.858929	1992.009422
329.252859	2004.022491
329.646726	2019.259379
330.040528	2035.091122
330.434265	2053.080480
330.827938	2072.357852
331.221547	2091.970461
331.615091	2112.888729
332.008571	2135.629374
332.401986	2155.683084
332.795338	2175.840138
333.188625	2196.518951
333.581847	2216.292877
333.975006	2231.355845
334.368100	2252.279154
334.761129	2264.700557
335.154095	2281.190171
335.546996	2326.242963
335.939833	2416.852662
336.332606	2428.585948
336.725315	2443.094388
337.117960	2448.904318
337.510540	2456.123251
337.903056	2468.758903
338.295508	2471.029942
338.687896	2479.930100
339.080220	2486.208857
339.472480	2492.391832
339.864676	2498.461381
340.256807	2495.562718
340.648875	2501.959942
341.040879	2502.370796
341.432818	2502.179232
341.824694	2505.309789
342.216506	2502.776609
342.608253	2508.258864
342.999937	2504.667042
343.391557	2500.303923
343.783113	2500.374499
344.174605	2498.234529
344.566033	2498.894920
344.957397	2498.710918
345.348697	2494.047851
345.739934	2492.674137
346.131106	2492.147336
346.522215	2489.029382
346.913260	2491.565083
347.304241	2490.720689
347.695159	2485.059474
348.086012	2485.361943
348.476802	2485.561068
348.867528	2478.490850
349.258191	2481.200470
349.648789	2479.509163
350.039324	2480.225007
350.429796	2479.685604
350.820203	2477.477578
351.210548	2477.268370
351.600828	2475.612351
351.991045	2477.502784
352.381198	2473.825262
352.771288	2477.817856
353.161314	2472.849799
353.551276	2475.503967
353.941175	2474.805767
354.331010	2476.436580
354.720782	2476.552527
355.110490	2482.049905
355.500135	2478.644605
355.889717	2475.811477
356.279235	2478.112764
356.668689	2478.833649
357.058080	2479.509163
357.447408	2479.330202
357.836672	2479.473875
358.225873	2478.279122
358.615010	2477.666622
359.004084	2482.584267
359.393095	2484.749443
359.782043	2484.636017
360.170927	2485.082159
360.559748	2486.730616
360.948505	2485.414875
361.337199	2490.433344
361.725830	2489.609115
362.114398	2490.244300
362.502903	2489.883858
362.891344	2491.728920
363.279722	2489.094917
363.668037	2492.240597
364.056289	2492.996770
364.444478	2493.455515
364.832603	2494.957779
365.220665	2496.512975
365.608665	2497.460712
365.996601	2498.438696
366.384474	2501.304592
366.772284	2501.113028
367.160031	2502.146465
367.547715	2504.959428
367.935336	2502.970693
368.322893	2502.516989
368.710388	2501.191166
369.097820	2508.498318
369.485189	2506.398678
369.872495	2510.618124
370.259738	2510.262722
370.646918	2515.813033
371.034035	2515.596263
371.421090	2517.842097
371.808081	2522.598426
372.195010	2530.772657
372.581875	2536.096115
372.968678	2540.499563
373.355418	2547.426108
373.742096	2557.939435
374.128710	2566.141392
374.515262	2581.209401
374.901751	2596.645414
375.288177	2617.258692
375.674540	2634.867442
376.060841	2658.336534
376.447079	2683.070956
376.833254	2707.732280
377.219367	2730.160374
377.605417	2767.742176
377.991404	2793.842750
378.377329	2836.995027
378.763191	2869.732280
379.148991	2922.177924
379.534727	2969.620223
379.920402	3021.715506
380.306013	3070.768454
380.691563	3138.387971
381.077049	3190.974767
381.462474	3251.947523
381.847835	3329.034327
382.233134	3401.135430
382.618371	3462.660192
383.003545	3554.499933
383.388657	3634.006491
383.773706	3730.479052
384.158693	3807.054179
384.543618	3904.592944
384.928480	3985.027074
385.313280	4095.972788
385.698017	4199.475238
386.082692	4324.553827
386.467305	4390.908014
386.851856	4517.561964
387.236344	4676.343186
387.620770	4743.546808
388.005133	4868.143967
388.389435	5021.208521
388.773674	5111.167911
389.157851	5243.213375
389.541965	5380.325197
389.926018	5402.952417
390.310008	5589.903607
390.693936	5718.357248
391.077802	5840.380898
391.461606	5973.323686
391.845348	6093.116625
392.229027	6216.672785
392.612645	6447.209792
392.996200	6564.169602
393.379694	6749.111893
393.763125	6979.492623
394.146494	7071.760862
394.529801	7214.899385
394.913047	7469.782644
395.296230	7468.600493
395.679351	7528.340687
396.062410	7800.499980
396.445408	7694.096346
396.828343	7855.090635
397.211217	7990.470822
397.594028	7870.398099
397.976778	8083.948937
398.359466	8256.429496
398.742092	8227.435299
399.124656	8381.576140
399.507158	8575.146365
399.889598	8594.098583
400.271977	8806.648753
400.654294	8843.368517
401.036549	9039.355976
401.418742	9072.425945
401.800874	9393.043330
402.182944	9470.848498
402.564952	9845.068472
402.946898	9656.244493
403.328783	9725.870389
403.710606	9925.956306
404.092367	10189.349033
404.474067	10560.609849
404.855705	10347.502632
405.237282	10299.180651
405.618797	10734.002856
406.000250	10992.707309
406.381642	11369.127747
406.762972	11318.552371
407.144240	11122.965684
407.525447	11373.778211
407.906593	11311.986268
408.287677	11573.859087
408.668700	11739.226577
409.049661	11705.929756
409.430560	11876.875282
409.811399	11848.201199
410.192176	12006.926969
410.572891	12092.810587
410.953545	12598.256836
411.334138	12054.722149
411.714669	12681.698015
412.095139	11957.962242
412.475547	12496.175991
412.855894	12324.854898
413.236180	12669.942044
413.616405	12336.928462
413.996568	12625.128707
414.376670	12602.534255
414.756711	12461.538223
415.136691	12765.892846
415.516609	12957.302937
415.896466	13017.275023
416.276262	13317.818533
416.655997	13761.041821
417.035670	13795.051965
417.415283	14461.116937
417.794834	14561.324994
418.174324	14299.863029
418.553753	14195.753120
418.933121	14710.694382
419.312428	14505.221992
419.691674	14411.206994
420.070859	14887.233069
420.449983	14534.410273
420.829045	15101.865235
421.208047	14828.725438
421.586988	15304.844774
421.965867	15577.263687
422.344686	15574.203707
422.723444	16150.266439
423.102141	14794.201096
423.480777	16023.327665
423.859352	15517.218504
424.237866	16649.912841
424.616319	16339.982702
424.994712	17025.395623
425.373044	16817.367369
425.751314	17512.242535
426.129524	16610.954804
426.507673	17743.838184
426.885762	17413.614881
427.263789	17641.326321
427.641756	17796.384651
428.019662	17868.092544
428.397508	17905.021517
428.775292	18236.016117
429.153016	18178.768773
429.530679	18270.754708
429.908282	18297.997103
430.285824	18003.500457
430.663305	18726.240602
431.040726	18318.509558
431.418086	18140.738309
431.795385	18806.873858
432.172624	19222.398525
432.549802	18771.197612
432.926920	18961.468402
433.303977	18849.816927
433.680974	19107.780331
434.057910	19398.889321
434.434786	19420.795655
434.811601	19346.161372
435.188355	20401.143802
435.565050	20044.887981
435.941683	19986.357664
436.318257	20889.142618
436.694770	20704.439782
437.071222	21308.995116
437.447614	20360.217195
437.823946	20391.676516
438.200218	20535.911489
438.576429	20323.010959
438.952580	20595.591189
439.328670	20560.512320
439.704700	20990.626086
440.080670	20538.885770
440.456580	21142.367338
440.832429	21328.131336
441.208218	20286.265989
441.583947	20749.172461
441.959616	20861.474245
442.335224	21104.871235
442.710773	21242.739231
443.086261	21791.889764
443.461689	21136.265021
443.837057	21263.886872
444.212365	21923.484044
444.587612	21914.692272
444.962800	21482.925006
445.337927	21923.161410
445.712995	20627.133688
446.088002	22530.771683
446.462949	22732.768197
446.837837	22911.537595
447.212664	22864.864072
447.587431	25787.150380
447.962139	28783.178687
448.336786	31187.993074
448.711374	29584.828013
449.085901	25812.335985
449.460369	25775.754852
449.834776	25711.215480
450.209124	28256.521783
450.583412	27754.957222
450.957640	28291.376321
451.331808	26910.430363
451.705917	25521.645410
452.079965	25573.541568
452.453954	25926.019045
452.827883	25809.011344
453.201752	25613.986746
453.575562	25776.352229
453.949311	26942.222399
454.323001	26988.737126
454.696632	26753.305159
455.070202	28343.338014
455.443713	28467.788979
455.817164	29089.784185
456.190556	29617.653486
456.563888	29052.988803
456.937160	29489.928292
457.310373	27798.091855
457.683526	28266.641900
458.056619	28245.746317
458.429653	28177.703343
458.802628	28777.220043
459.175542	28899.042047
459.548398	30204.605111
459.921194	31818.346513
460.293930	32493.339369
460.666607	34556.479471
461.039224	36334.413774
461.411782	36724.699905
461.784280	35523.448396
462.156719	35050.779729
462.529099	34485.003471
462.901419	33174.172401
463.273680	32109.374845
463.645882	32188.838553
464.018024	32167.083453
464.390106	33031.285937
464.762130	35780.867356
465.134094	39894.529552
465.505999	45241.590696
465.877845	49841.078972
466.249631	51013.724453
466.621358	49343.875009
466.993026	47248.027900
467.364634	45179.387899
467.736184	43172.658308
468.107674	41910.434043
468.479105	41092.753848
468.850477	40407.436709
469.221790	38942.721898
469.593043	37162.234250
469.964238	36274.262727
470.335373	36185.543460
470.706449	37972.241809
471.077467	40609.934818
471.448425	45199.643255
471.819324	48010.089045
472.190164	46116.850951
472.560945	42522.309133
472.931667	39398.401876
473.302330	38258.261755
473.672934	37441.925027
474.043479	37953.113151
474.413965	37151.899885
474.784393	36751.115551
475.154761	37672.207456
475.525070	37709.900163
475.895321	37233.627071
476.265513	37839.404885
476.635645	38835.670475
477.005719	38648.547886
477.375734	39128.947162
477.745691	39826.121095
478.115588	41206.086549
478.485427	43197.163357
478.855207	46593.176975
479.224928	49200.807063
479.594591	50847.802436
479.964194	49843.413026
480.333739	50036.814373
480.703226	50073.461041
481.072653	50699.373223
481.442022	51164.928822
481.811333	51437.236829
482.180584	50152.095479
482.549777	49635.780502
482.918912	49095.928378
483.287988	48802.742432
483.657005	47975.189137
484.025964	47324.509766
484.394864	47355.805249
484.763706	46923.675021
485.132489	46055.764769
485.501213	45875.634260
485.869879	46018.838317
486.238487	45605.191479
486.607036	45807.019115
486.975527	45263.045847
487.343959	45464.467670
487.712333	45549.776596
488.080648	45467.590664
488.448905	45916.838131
488.817104	45736.755512
489.185244	46720.584576
489.553326	48410.553265
489.921350	51116.909311
490.289315	53946.456032
490.657222	54513.994173
491.025070	54783.837057
491.392861	53907.994549
491.760593	52710.561714
492.128267	51071.266704
492.495883	49558.066074
492.863440	48157.517589
493.230939	46791.558981
493.598380	45697.058946
493.965763	45370.944183
494.333088	44538.488367
494.700354	44057.053133
495.067563	43752.776649
495.434713	43617.802275
495.801805	43687.554200
496.168839	43299.776043
496.535815	42955.427427
496.902733	43001.443079
497.269593	42575.699993
497.636395	42497.131090
498.003139	42908.005293
498.369825	42349.974768
498.736453	42682.572455
499.103023	42179.326669
499.469535	42067.992786
499.835989	42154.955211
500.202385	41824.590755
500.568723	41851.308871
500.935003	42040.495813
501.301226	41827.723832
501.667390	42463.995586
502.033497	42731.194383
502.399546	42150.541681
502.765537	41468.392907
503.131470	41850.608150
503.497345	42202.251316
503.863163	40849.308967
504.228923	41485.038797
504.594625	41903.031109
504.960269	41180.701818
505.325856	41887.335477
505.691385	41234.506053
506.056856	41374.004863
506.422270	41827.131497
506.787625	41393.047821
507.152924	41585.289703
507.518164	41701.725233
507.883347	40876.231250
508.248472	41148.176294
508.613540	41643.389001
508.978550	41949.155146
509.343503	41684.300485
509.708398	41897.503484
510.073236	42424.445213
510.438016	42424.649380
510.802738	41872.847200
511.167403	42516.116075
511.532010	42756.780760
511.896561	43059.817120
512.261053	43901.069751
512.625488	43438.410295
512.989866	43330.126310
513.354186	43169.999099
513.718449	43151.311542
514.082655	43841.715205
514.446803	43495.703008
514.810894	44044.296493
515.174927	43969.175739
515.538904	43854.481928
515.902822	44547.731322
516.266684	43966.166170
516.630488	44423.731540
516.994235	44265.887972
517.357925	44850.432446
517.721558	45018.708682
518.085133	45343.696747
518.448651	45472.921685
518.812112	45244.985913
519.175516	45337.322208
519.538863	45667.086766
519.902152	45639.728424
520.265385	46106.698067
520.628560	46144.620147
520.991678	45940.077850
521.354739	46199.470421
521.717743	46496.452356
522.080690	46387.087044
522.443580	46950.877087
522.806413	46991.604569
523.169189	46942.614636
523.531908	47139.602763
523.894569	46979.082343
524.257174	47149.972417
524.619722	47459.184191
524.982213	47451.607337
525.344647	47361.431177
525.707025	47390.364879
526.069345	47789.336918
526.431608	47720.018532
526.793815	48054.688133
527.155964	47566.424657
527.518057	47736.576202
527.880093	47518.853808
528.242072	48043.889982
528.603995	47742.323117
528.965860	47736.165348
529.327669	47830.069441
529.689421	47742.585257
530.051117	47687.182977
530.412755	47834.714864
530.774337	47915.254859
531.135862	47697.237558
531.497331	47911.151360
531.858743	47795.340932
532.220098	48151.861415
532.581396	47854.526599
532.942638	47506.787807
533.303824	47819.339345
533.664953	47769.164741
534.026025	47479.091707
534.387040	47969.336357
534.747999	47908.933252
535.108902	48080.607226
535.469748	47594.433307
535.830537	47689.683389
536.191270	47884.617246
536.551947	47544.009166
536.912567	47863.081437
537.273131	47965.827714
537.633638	47438.946479
537.994089	47802.753949
538.354483	47389.132317
538.714821	47954.112073
539.075103	48330.875308
539.435328	48058.501766
539.795497	47948.642421
540.155609	47933.370245
540.515665	48397.388292
540.875665	47855.106332
541.235609	48178.607256
541.595496	48151.437958
541.955328	48835.199901
542.315102	48209.307883
542.674821	47990.350407
543.034483	48031.181233
543.394090	47988.984254
543.753640	47949.368347
544.113134	48967.933482
544.472571	47957.245150
544.831953	49232.450386
545.191278	48434.153427
545.550548	48145.438985
545.909761	48612.103637
546.268918	48815.713321
546.628019	49128.413573
546.987064	48687.277323
547.346053	47933.145914
547.704986	48829.694961
548.063863	48379.666116
548.422684	48583.716900
548.781449	48441.221125
549.140158	48829.372327
549.498811	48671.576650
549.857408	48112.910939
550.215949	48952.517633
550.574434	48886.808713
550.932864	48637.475765
551.291237	49380.607377
551.649555	48972.392382
552.007817	49199.433348
552.366022	48854.189927
552.724173	49027.955980
553.082267	49434.036046
553.440305	49738.597355
553.798288	49043.765038
554.156215	49355.104179
554.514086	49564.327187
554.871902	49329.858081
555.229661	49337.140028
555.587365	49156.906175
555.945014	49257.734293
556.302606	49163.772226
556.660143	49403.098484
557.017625	49505.754021
557.375050	49279.141553
557.732421	49634.162292
558.089735	49621.322473
558.446994	49521.220281
558.804197	49997.430358
559.161345	49962.689247
559.518437	49194.336742
559.875474	49494.839923
560.232455	49654.538635
560.589381	49850.034582
560.946251	49536.593279
561.303065	50236.693602
561.659825	50034.626512
562.016528	49701.186952
562.373177	49408.311038
562.729770	49903.559032
563.086307	49404.010933
563.442789	49870.415967
563.799216	49924.895716
564.155587	49708.773889
564.511904	49724.335931
564.868164	49838.676862
565.224370	50081.400858
565.580520	49804.510442
565.936615	50014.164468
566.292654	49731.025542
566.648638	49991.285192
567.004567	49931.676068
567.360441	49984.048615
567.716260	49851.584736
568.072023	50110.536207
568.427732	50096.516758
568.783385	49661.003915
569.138982	50039.655063
569.494525	49999.691316
569.850013	49780.542276
570.205445	49741.911914
570.560823	49701.615451
570.916145	49597.079564
571.271412	49620.099993
571.626625	49366.716477
571.981782	49440.874371
572.336884	49118.122058
572.691931	49439.518300
573.046923	49034.990910
573.401860	48889.800638
573.756743	48890.869363
574.111570	48981.126181
574.466342	48828.374178
574.821059	48951.096028
575.175722	48472.703131
575.530330	48486.699894
575.884882	48202.792192
576.239380	48181.145477
576.593823	48146.139705
576.948211	48063.421932
577.302544	47572.279957
577.656823	47605.891850
578.011047	47829.124225
578.365216	47543.638641
578.719330	47336.490068
579.073389	47180.947787
579.427394	47277.962272
579.781344	47243.979854
580.135239	46895.348777
580.489080	46997.817791
580.842866	46460.619834
581.196597	46907.394614
581.550273	46855.483333
581.903895	46715.742548
582.257463	47142.324987
582.610975	46498.630134
582.964434	46783.946839
583.317837	46436.870958
583.671186	46277.051258
584.024481	46506.154056
584.377721	46030.372477
584.730906	46337.668613
585.084037	46369.102727
585.437113	46055.711837
585.790135	46100.414268
586.143103	45698.349482
586.496016	45825.235324
586.848874	45854.421084
587.201679	45882.336474
587.554428	45357.685949
587.907124	45532.369491
588.259765	45291.598942
588.612352	45544.954732
588.964884	44919.481130
589.317362	45231.306742
589.669786	45164.831567
590.022155	44929.049240
590.374470	45360.624942
590.726731	44875.466816
591.078937	44410.145631
591.431090	44478.710364
591.783188	44158.178679
592.135232	43808.398220
592.487222	44071.191049
592.839157	44171.237788
593.191038	43830.652393
593.542866	43574.420626
593.894639	42958.013539
594.246358	43252.948765
594.598022	43239.826642
594.949633	42819.807786
595.301190	42786.321921
595.652692	42606.856844
596.004141	42935.900518
596.355535	41938.427571
596.706876	41889.205745
597.058162	41733.660943
597.409395	42204.807181
597.760573	42277.384673
598.111698	41842.491892
598.462768	41864.451159
598.813785	41911.550659
599.164748	41332.869047
599.515657	41727.896383
599.866511	41196.188243
600.217312	41818.309478
600.568060	40761.986101
600.918753	41518.486853
601.269392	41482.157777
601.619978	41125.128138
601.970510	41351.891841
602.320988	41538.913608
602.671412	41827.766682
603.021783	41572.628845
603.372100	41241.183062
603.722363	41344.529236
604.072572	41415.233939
604.422728	41432.419233
604.772830	41240.343710
605.122878	41340.239214
605.472872	41270.620880
605.822813	41547.634804
606.172701	41377.828578
606.522534	41628.691517
606.872314	41903.867941
607.222041	41643.373877
607.571714	42020.464788
607.921333	41452.639301
608.270899	41764.729574
608.620411	42094.161416
608.969870	41890.554253
609.319276	41889.329253
609.668627	41958.239305
610.017926	42442.474900
610.367171	42608.338944
610.716362	42683.807537
611.065500	42618.312867
611.414585	42809.249089
611.763616	43117.427427
612.112594	43024.418138
612.461518	43260.540743
612.810389	43549.935741
613.159207	43405.204214
613.507971	43480.695493
613.856682	43959.947907
614.205340	43858.857649
614.553945	44556.772632
614.902496	44001.678579
615.250994	44467.216533
615.599439	44518.737126
615.947830	44745.740283
616.296169	44783.443073
616.644454	44913.066262
616.992686	45079.779740
617.340864	45612.760772
617.688990	45301.149408
618.037063	45911.441575
618.385082	45875.362037
618.733048	46186.439038
619.080961	46195.021603
619.428821	46212.912658
619.776628	46340.358068
620.124382	46163.093455
620.472083	46291.915100
620.819731	46433.753005
621.167326	46114.567308
621.514868	46080.002637
621.862357	45640.817313
622.209793	45691.765735
622.557176	45339.573083
622.904506	45099.984685
623.251783	44760.117654
623.599007	44538.596751
623.946179	44295.494669
624.293297	44246.333337
624.640363	43632.373730
624.987376	43636.482271
625.334336	43372.640881
625.681243	42998.267152
626.028097	42947.114564
626.374899	42805.977380
626.721647	42770.918676
627.068343	42642.439829
627.414987	42395.430852
627.761577	42161.662466
628.108115	42505.953109
628.454600	41926.931219
628.801032	42107.301183
629.147412	42071.859351
629.493739	42085.394849
629.840014	41688.068747
630.186236	42027.333360
630.532405	41632.537917
630.878521	41841.115657
631.224585	41710.998436
631.570597	41435.650613
631.916556	41591.782709
632.262462	41530.441949
632.608316	41552.388612
632.954117	41450.136368
633.299866	41421.311050
633.645562	41346.364216
633.991206	40859.497139
634.336797	40417.670252
634.682336	40422.207290
635.027823	40174.663951
635.373257	39991.556641
635.718639	39731.760777
636.063968	39612.640832
636.409245	39031.660454
636.754470	39062.091380
637.099642	38812.266918
637.444762	38303.690113
637.789829	38460.296077
638.134845	38101.701160
638.479808	38033.990903
638.824719	37940.205276
639.169577	37536.144193
639.514383	37586.170083
639.859137	37274.294059
640.203839	37531.526496
640.548489	37133.451782
640.893086	37214.800882
641.237632	36944.748791
641.582125	37045.430716
641.926566	36986.418969
642.270955	36940.191588
642.615292	36972.848183
642.959576	36932.445855
643.303809	36927.838240
643.647990	37073.285611
643.992118	37014.888885
644.336195	37014.770418
644.680219	37090.722962
645.024192	37385.910246
645.368112	37922.707431
645.711981	37908.332581
646.055797	38795.351327
646.399562	38712.089109
646.743274	39664.816775
647.086935	40140.968879
647.430544	40041.960617
647.774101	40151.973718
648.117606	40408.802862
648.461059	40726.708106
648.804460	40369.128981
649.147810	39725.318183
649.491108	39498.758646
649.834354	39120.558682
650.177548	38244.441432
650.520690	37798.422824
650.863781	37815.048550
651.206820	37660.033069
651.549807	37216.187199
651.892742	36709.301701
652.235626	36500.217324
652.578458	36362.374534
652.921238	35727.584880
653.263967	36047.637655
653.606644	35737.193319
653.949269	35676.626376
654.291843	35254.346563
654.634365	35661.795302
654.976836	35232.039457
655.319255	35220.066717
655.661622	35232.026854
656.003938	35012.272876
656.346203	34844.977144
656.688416	35070.586423
657.030577	34881.563318
657.372687	34723.455089
657.714746	34995.248899
658.056753	35119.062158
658.398708	34551.657607
658.740612	34597.275009
659.082465	34878.899068
659.424266	34672.420968
659.766016	34805.575486
660.107715	34690.964853
660.449362	34821.233309
660.790958	34794.709278
661.132503	34811.821475
661.473996	34850.209862
661.815438	34970.630424
662.156829	35167.031257
662.498168	34919.182929
662.839456	34938.407369
663.180693	35095.288077
663.521879	35251.929329
663.863013	35194.268612
664.204097	35200.872523
664.545129	35654.102501
664.886110	35611.930728
665.227040	35665.949213
665.567918	35794.919572
665.908746	35861.926589
666.249522	36028.582094
666.590248	36015.613726
666.930922	36160.582187
667.271545	36114.750537
667.612118	36205.496347
667.952639	35989.641701
668.293109	36031.090068
668.633528	35945.564372
668.973896	35866.055294
669.314213	35902.386890
669.654480	35637.524667
669.994695	35669.193195
670.334859	35540.764760
670.674973	35449.930729
671.015035	35602.554182
671.355047	35552.563580
671.695008	35497.352863
672.034918	35374.673864
672.374777	35447.258917
672.714585	35280.162312
673.054342	35508.382908
673.394049	35248.382878
673.733705	35557.841668
674.073310	35210.455757
674.412864	35291.492305
674.752368	34868.330289
675.091820	35199.632399
675.431223	34762.632417
675.770574	34484.327957
676.109875	34342.386708
676.449125	34048.338725
676.788324	33964.403514
677.127473	33406.456168
677.466571	33340.553163
677.805619	32980.302227
678.144616	32970.983654
678.483562	32890.801582
678.822458	32548.444221
679.161303	32464.773670
679.500098	32365.851108
679.838842	32238.773702
680.177535	32389.007649
680.516179	32661.592919
680.854771	32885.999883
681.193314	33776.766726
681.531805	34880.928133
681.870247	35649.545298
682.208638	36404.624444
682.546978	36643.320558
682.885268	36746.707062
683.223508	36225.522331
683.561697	35903.800933
683.899836	35712.166511
684.237925	35186.316192
684.575963	35037.193820
684.913951	34552.907814
685.251889	34710.983275
685.589776	34689.785223
685.927614	34662.903270
686.265401	34780.238646
686.603137	34863.916759
686.940824	35361.264395
687.278460	35724.527420
687.616046	35855.794025
687.953582	36477.353171
688.291068	36340.531214
688.628504	36659.497621
688.965889	36593.062775
689.303224	36236.696048
689.640510	35912.640597
689.977745	35185.217220
690.314930	34399.412241
690.652065	33874.900348
690.989150	33132.703870
691.326185	32208.940154
691.663170	31488.193786
692.000105	30719.624511
692.336990	30018.019404
692.673825	29544.758402
693.010610	28992.651232
693.347345	28398.067301
693.684030	27690.201081
694.020665	27404.715497
694.357251	26701.630812
694.693786	26640.743755
695.030272	26387.198923
695.366707	25808.603011
695.703093	25510.648133
696.039429	25497.533571
696.375716	25216.355654
696.711952	25161.505379
697.048139	24988.707228
697.384276	24803.754856
697.720363	24929.584576
698.056400	24716.101793
698.392388	24507.093034
698.728326	24465.571570
699.064214	24251.980402
699.400053	24203.396282
699.735842	23837.620242
700.071581	23539.027658
700.407270	23237.818716
700.742910	23054.469430
701.078501	22761.921190
701.414042	22466.267599
701.749533	22158.716885
702.084974	21799.547277
702.420366	22019.991893
702.755709	21545.188298
703.091002	21232.296481
703.426246	21269.800145
703.761440	21154.836632
704.096584	20877.598376
704.431679	20819.473872
704.766725	20711.663756
705.101721	20651.164869
705.436668	20743.743138
705.771565	20396.931918
706.106413	20753.870817
706.441212	20721.846887
706.775961	20847.845486
707.110661	20932.630132
707.445311	21276.504880
707.779913	21087.474213
708.114465	21329.789876
708.448967	21611.469388
708.783421	22349.781657
709.117825	22592.747628
709.452180	22819.521414
709.786485	23210.568759
710.120742	24026.219889
710.454949	24038.742115
710.789107	24511.403221
711.123216	25230.203703
711.457275	25337.411402
711.791286	25931.675220
712.125247	26004.121642
712.459159	25724.352727
712.793023	26438.722036
713.126837	25300.363962
713.460602	25602.918892
713.794318	25250.249852
714.127985	24850.793862
714.461602	23956.777995
714.795171	23946.282313
715.128691	22886.770406
715.462162	22333.014779
715.795584	21893.751318
716.128957	21626.396245
716.462281	21189.842404
716.795556	20941.805032
717.128782	20422.233470
717.461960	19861.757985
717.795088	19778.480644
718.128167	19347.550210
718.461198	18868.822077
718.794180	18722.404284
719.127113	18344.852107
719.459997	18128.720198
719.792833	17762.457686
720.125619	17727.532572
720.458357	17375.528964
720.791046	17196.875512
721.123686	17027.706992
721.456278	16777.721214
721.788821	16733.971561
722.121315	16450.346163
722.453761	16525.759304
722.786158	16449.443796
723.118506	16446.572859
723.450805	16296.033923
723.783056	16474.914226
724.115259	16350.644743
724.447412	16269.424193
724.779518	16520.796288
725.111574	16543.879731
725.443582	16741.046820
725.775542	16724.113584
726.107453	17209.364971
726.439315	17073.836071
726.771129	17490.313516
727.102895	17867.336371
727.434612	18088.275021
727.766281	18219.135813
728.097901	18484.469384
728.429473	18539.697745
728.760996	18522.698974
729.092471	18624.512638
729.423897	18509.244134
729.755276	18373.145583
730.086606	18496.306013
730.417887	19021.747999
730.749120	19525.649135
731.080305	19714.064780
731.411442	20070.547454
731.742530	20159.652369
732.073570	20266.156826
732.404562	20587.545507
732.735506	20412.093189
733.066401	20127.242791
733.397249	19592.946018
733.728048	18942.692624
734.058798	18087.155885
734.389501	17365.847428
734.720156	16895.832928
735.050762	16333.093966
735.381320	15944.932681
735.711831	15686.818043
736.042293	15316.174768
736.372707	15310.039683
736.703073	15082.240023
737.033391	15274.819662
737.363661	15214.529983
737.693883	15313.825590
738.024056	15479.094778
738.354182	15659.999104
738.684260	15933.416165
739.014290	16147.030018
739.344272	16338.278792
739.674207	16640.750544
740.004093	16765.496416
740.333931	16759.542813
740.663722	16814.249415
740.993464	16822.295097
741.323159	16654.381824
741.652806	16379.482663
741.982405	16176.004050
742.311956	15838.007288
742.641460	15729.438478
742.970915	15406.723973
743.300323	15063.267641
743.629683	14854.243758
743.958996	14561.375405
744.288260	14278.067600
744.617477	13972.747597
744.946647	13889.397159
745.275768	13618.543525
745.604842	13417.638421
745.933869	13243.637954
746.262847	13194.728680
746.591778	13115.038120
746.920662	12999.003361
747.249498	12993.954646
747.578286	13111.325310
747.907027	13256.281168
748.235720	13475.775527
748.564365	13491.481242
748.892963	13392.049524
749.221514	13453.019759
749.550017	13296.985965
749.878473	13258.101025
750.206881	13036.938044
750.535242	12938.726285
750.863555	12847.163807
751.191821	12748.011873
751.520039	12767.886622
751.848210	12665.505828
752.176334	12703.816077
752.504411	12587.524220
752.832440	12423.638829
753.160421	12485.271976
753.488356	12347.348527
753.816243	12264.718974
754.144082	12109.292639
754.471875	12044.178576
754.799620	11984.413176
755.127318	11956.616254
755.454969	11923.344639
755.782572	11867.786082
756.110129	11876.761857
756.437638	11797.474589
756.765100	11780.135540
757.092515	11779.638987
757.419882	11788.138372
757.747203	11792.524176
758.074477	11865.225176
758.401703	11811.950262
758.728882	11967.386679
759.056014	12019.431552
759.383099	12139.587453
759.710138	12241.932959
760.037129	12323.133344
760.364073	12346.320132
760.690970	12324.128972
761.017820	12337.384686
761.344623	12534.017413
761.671379	12893.290365
761.998088	13539.180640
762.324751	15163.473177
762.651366	18135.553482
762.977935	21843.652332
763.304456	24133.074707
763.630931	24665.702857
763.957359	23523.773127
764.283740	21582.122311
764.610074	19660.963786
764.936362	17465.347202
765.262602	15891.720782
765.588796	14345.931613
765.914943	13291.738124
766.241044	12368.039943
766.567097	11709.473687
766.893104	11124.656991
767.219064	10743.770091
767.544978	10337.536270
767.870845	9996.431637
768.196665	9807.902565
768.522438	9599.334907
768.848165	9431.716542
769.173846	9248.430270
769.499479	9127.235890
769.825066	8962.700191
770.150607	8770.334801
770.476101	8701.371816
770.801548	8591.744364
771.126949	8435.685365
771.452303	8347.029112
771.777611	8178.382352
772.102872	8157.607757
772.428087	8035.546299
772.753256	7911.554079
773.078378	7814.325344
773.403453	7661.041500
773.728482	7551.058647
774.053465	7479.005435
774.378401	7393.290696
774.703291	7292.414687
775.028135	7192.254522
775.352932	7152.724314
775.677683	7064.274749
776.002388	6967.197249
776.327046	6966.829245
776.651658	6871.884153
776.976224	6795.140148
777.300743	6774.179030
777.625216	6706.309976
777.949643	6660.072513
778.274024	6665.738770
778.598359	6590.023160
778.922647	6594.572801
779.246889	6546.157559
779.571086	6558.959570
779.895236	6563.950312
780.219339	6555.057717
780.543397	6547.070008
780.867409	6601.176713
781.191374	6597.027843
781.515294	6566.864099
781.839167	6623.796370
782.162995	6595.417194
782.486776	6539.972064
782.810511	6500.388924
783.134201	6425.484939
783.457844	6416.050420
783.781441	6368.025868
784.104993	6324.281255
784.428498	6293.192459
784.751958	6274.888030
785.075372	6248.076653
785.398739	6209.113575
785.722061	6231.634930
786.045337	6231.637450
786.368568	6344.176169
786.691752	6368.277925
787.014891	6626.044724
787.337983	6901.770634
787.661030	7346.929724
787.984031	7788.852394
788.306987	8056.089001
788.629897	8146.285325
788.952760	8072.157678
789.275579	7903.200887
789.598351	7595.750996
789.921078	7323.072464
790.243759	7035.242744
790.566395	6828.328584
790.888984	6628.524972
791.211529	6478.001159
791.534027	6306.236445
791.856480	6162.646739
792.178888	6098.951761
792.501249	6024.211614
792.823566	5915.662968
793.145836	5907.813892
793.468062	5888.531478
793.790241	5845.290981
794.112375	5887.394698
794.434464	5981.180324
794.756507	6005.831567
795.078505	6128.439990
795.400457	6352.176480
795.722364	6590.809580
796.044226	6788.153109
796.366042	6953.515558
796.687812	6909.869248
797.009538	6946.397448
797.331218	6853.012594
797.652852	6786.797038
797.974442	6668.430746
798.295986	6594.628254
798.617484	6458.680937
798.938938	6348.531726
799.260346	6280.803824
799.581709	6134.532224
799.903026	6082.255459
800.224299	6002.085989
800.545526	5881.632659
800.866708	5810.532226
801.187845	5755.064410
801.508936	5680.687226
801.829983	5645.058871
802.150984	5531.025451
802.471940	5503.389845
802.792851	5488.538606
803.113717	5460.242609
803.434538	5437.005411
803.755314	5399.479062
804.076045	5390.462958
804.396731	5345.677347
804.717372	5361.037743
805.037967	5355.341239
805.358518	5385.701588
805.679024	5445.638387
805.999485	5451.299602
806.319901	5465.606397
806.640272	5482.237164
806.960598	5527.935223
807.280879	5523.110839
807.601115	5559.359256
807.921306	5523.254512
808.241453	5520.386095
808.561554	5535.877561
808.881611	5500.289536
809.201623	5503.649465
809.521590	5457.291014
809.841513	5443.052275
810.161390	5463.547086
810.481223	5373.615422
810.801011	5362.812229
811.120755	5337.150235
811.440453	5282.814159
811.760107	5251.468264
812.079716	5223.013471
812.399281	5173.199309
812.718801	5164.652033
813.038276	5133.633813
813.357707	5095.923462
813.677093	5123.949757
813.996434	5056.156320
814.315731	5078.821348
814.634983	5080.074074
814.954191	5082.342594
815.273354	5145.417511
815.592473	5190.054407
815.911547	5266.037199
816.230577	5323.942412
816.549562	5416.871042
816.868502	5475.877748
817.187399	5532.343712
817.506250	5624.115397
817.825058	5658.997662
818.143821	5819.981868
818.462539	6000.157748
818.781213	6238.175827
819.099843	6620.340659
819.418429	7267.085409
819.736970	7917.089266
820.055466	8661.745827
820.373919	9640.556422
820.692327	11203.959382
821.010691	14098.801649
821.329011	20656.614356
821.647286	30520.740910
821.965517	41081.081057
822.283704	46593.910463
822.601847	48146.106937
822.919945	43601.141262
823.237999	38499.783436
823.556010	33209.553740
823.873976	28346.289610
824.191897	23966.245282
824.509775	20727.992053
824.827609	17816.536664
825.145398	16146.578835
825.463144	15346.635940
825.780845	15656.815615
826.098502	16957.977752
826.416116	19449.154666
826.733685	21711.495963
827.051210	22173.333711
827.368692	20672.935092
827.686129	18050.332776
828.003522	15501.477501
828.320872	13242.952358
828.638177	11494.851603
828.955439	10182.493063
829.272656	9067.336900
829.589830	8185.734875
829.906960	7412.041268
830.224046	6854.850095
830.541088	6425.305978
830.858086	6147.563607
831.175041	5933.299445
831.491952	5870.703438
831.808819	5904.307769
832.125642	6162.003992
832.442421	6746.606439
832.759157	7917.006087
833.075849	9734.160567
833.392497	11613.681681
833.709101	12764.612393
834.025662	12492.422852
834.342179	11412.784139
834.658653	10079.812321
834.975083	8941.368548
835.291469	7999.098756
835.607811	7224.946404
835.924110	6670.285891
836.240366	6163.362583
836.556578	5687.679306
836.872746	5310.124610
837.188871	5023.282956
837.504952	4787.122542
837.820990	4610.069657
838.136984	4489.129856
838.452935	4436.548101
838.768842	4473.308195
839.084706	4771.484883
839.400526	5545.145722
839.716303	6477.214739
840.032037	7063.785757
840.347727	6908.631644
840.663373	6288.998219
840.978977	5694.240368
841.294537	5232.200974
841.610054	4882.319691
841.925527	4629.538593
842.240957	4407.548863
842.556344	4209.156774
842.871687	4042.251732
843.186987	3882.827762
843.502244	3757.880244
843.817458	3661.362312
844.132629	3589.354471
844.447756	3533.984957
844.762840	3482.766834
845.077881	3443.312244
845.392879	3408.130031
845.707833	3377.109291
846.022745	3348.788088
846.337613	3335.340811
846.652438	3314.001606
846.967221	3302.089360
847.281960	3277.612037
847.596656	3269.505862
847.911309	3254.170672
848.225919	3241.819845
848.540485	3235.195769
848.855009	3226.035992
849.169490	3210.589897
849.483928	3202.415666
849.798323	3197.646734
850.112675	3186.888912
850.426984	3188.265147
850.741251	3179.375072
851.055474	3170.580779
851.369654	3177.890452
851.683792	3171.120183
851.997887	3177.353570
852.311938	3174.195287
852.625947	3175.866429
852.939914	3167.470387
853.253837	3174.066737
853.567718	3170.515244
853.881555	3165.116169
854.195350	3173.590348
854.509103	3167.631704
854.822812	3162.580468
855.136479	3159.684325
855.450103	3162.184738
855.763685	3157.536794
856.077224	3158.298008
856.390720	3166.663803
856.704173	3179.896832
857.017584	3182.155269
857.330953	3187.939993
857.644278	3196.114224
857.957561	3198.778473
858.270802	3200.245449
858.584000	3197.319059
858.897155	3191.879654
859.210268	3179.617048
859.523339	3169.809483
859.836367	3167.167918
860.149352	3160.367402
860.462295	3157.448574
860.775195	3147.298210
861.088054	3145.294352
861.400869	3144.102119
861.713642	3138.118269
862.026373	3150.496822
862.339062	3155.089314
862.651708	3163.402176
862.964312	3175.911800
863.276873	3187.004859
863.589392	3218.844786
863.901869	3246.556009
864.214303	3265.339348
864.526696	3285.980353
864.839045	3304.720842
865.151353	3319.705672
865.463619	3320.880261
865.775842	3322.072494
866.088023	3327.146415
866.400162	3321.596105
866.712258	3325.422340
867.024313	3322.611897
867.336325	3319.569561
867.648296	3323.453770
867.960224	3321.838080
868.272110	3326.407886
868.583954	3326.153308
868.895755	3334.970286
869.207515	3331.524657
869.519233	3350.776824
869.830909	3356.438039
870.142542	3369.416490
870.454134	3374.669372
870.765684	3388.867782
871.077191	3409.241605
871.388657	3421.579829
871.700081	3442.568673
872.011463	3461.223463
872.322803	3482.096361
872.634101	3499.710152
872.945357	3523.146477
873.256571	3548.135476
873.567744	3566.064340
873.878874	3569.648600
874.189963	3589.815736
874.501010	3592.142229
874.812015	3588.527721
875.122979	3605.965072
875.433900	3605.909620
875.744780	3611.210393
876.055618	3620.526445
876.366415	3617.600056
876.677169	3626.699338
876.987882	3644.343377
877.298554	3669.236594
877.609183	3711.746124
877.919771	3766.714866
878.230317	3840.983665
878.540822	3949.237402
878.851285	4116.966673
879.161707	4356.794526
879.472087	4765.448101
879.782425	5436.745791
880.092722	6704.573298
880.402977	8748.123477
880.713191	11201.148939
881.023363	13647.139470
881.333494	15001.763043
881.643583	15495.418034
881.953631	15098.737199
882.263637	14278.009627
882.573602	13236.655956
882.883526	12243.659554
883.193408	11241.435320
883.503248	10280.160378
883.813048	9409.603520
884.122806	8599.018749
884.432522	7785.444574
884.742197	7077.525422
885.051831	6477.353371
885.361424	5947.888544
885.670975	5522.470613
885.980485	5176.160987
886.289954	4885.626688
886.599382	4646.839833
886.908768	4454.285401
887.218113	4279.165798
887.527417	4137.073315
887.836680	4005.347965
888.145901	3896.910226
888.455082	3810.857729
888.764221	3738.794435
889.073319	3676.785722
889.382376	3637.310967
889.691392	3611.195270
890.000366	3599.358640
890.309300	3594.377980
890.618193	3598.592385
890.927044	3592.043926
891.235855	3601.339814
891.544625	3616.987555
891.853353	3647.899911
892.162041	3713.767627
892.470687	3807.487718
892.779293	3934.187038
893.087858	4123.563023
893.396381	4424.870268
893.704864	4865.351167
894.013306	5453.636177
894.321707	6041.323810
894.630068	6402.560292
894.938387	6439.474141
895.246665	6264.195742
895.554903	5933.314569
895.863100	5593.142548
896.171256	5304.745698
896.479371	5057.615734
896.787446	4816.913241
897.095480	4610.067137
897.403473	4446.010347
897.711425	4295.098365
898.019336	4167.738654
898.327207	4034.632028
898.635038	3932.669650
898.942827	3816.042556
899.250576	3723.663412
899.558284	3638.326760
899.865952	3582.334664
900.173579	3510.152902
900.481165	3464.737147
900.788711	3418.729057
901.096216	3386.180847
901.403681	3354.202288
901.711105	3344.543437
902.018489	3337.261490
902.325832	3372.834392
902.633135	3439.148251
902.940397	3625.464256
903.247619	4055.865368
903.554800	4853.373386
903.861941	5868.127408
904.169041	6595.011381
904.476101	6820.182080
904.783121	6544.297374
905.090100	6130.602645
905.397039	5703.304363
905.703938	5324.733873
906.010796	4978.754444
906.317614	4707.232857
906.624391	4452.200883
906.931129	4241.715066
907.237826	4044.066547
907.544483	3857.969833
907.851099	3675.464940
908.157675	3501.961027
908.464211	3355.195395
908.770707	3247.823859
909.077163	3161.700787
909.383578	3093.294850
909.689954	3045.466903
909.996289	3012.744773
910.302584	2991.234170
910.608839	2974.850420
910.915054	2962.073615
911.221229	2958.549849
911.527363	2964.798359
911.833458	2967.780201
912.139513	2984.887357
912.445527	3001.399656
912.751502	3036.896941
913.057436	3084.651792
913.363331	3147.076400
913.669186	3245.310844
913.975000	3372.171481
914.280775	3577.086823
914.586510	3866.562479
914.892205	4269.680867
915.197859	4793.955826
915.503475	5391.887084
915.809050	5903.743160
916.114585	6194.350556
916.420081	6257.372541
916.725536	6193.047418
917.030952	5954.159740
917.336328	5740.346761
917.641665	5521.618657
917.946961	5284.568480
918.252218	5081.054579
918.557435	4841.448537
918.862612	4629.082369
919.167750	4444.666879
919.472848	4244.870829
919.777906	4068.221236
920.082925	3901.906009
920.387904	3738.265114
920.692843	3614.393882
920.997743	3514.415198
921.302603	3408.969383
921.607423	3339.625791
921.912204	3269.611726
922.216946	3215.542831
922.521647	3163.356806
922.826310	3119.609673
923.130932	3077.372365
923.435516	3033.920140
923.740059	3006.397960
924.044564	2973.857312
924.349028	2946.970318
924.653454	2915.269022
924.957840	2886.060577
925.262186	2864.224819
925.566493	2839.687003
925.870761	2811.716161
926.174989	2800.897844
926.479178	2784.277160
926.783328	2764.992226
927.087438	2755.494692
927.391509	2739.259656
927.695541	2728.582492
927.999533	2719.090000
928.303486	2706.988710
928.607400	2698.015456
928.911275	2694.887420
929.215110	2689.576565
929.518906	2684.013651
929.822663	2686.750998
930.126381	2681.707323
930.430060	2686.524146
930.733699	2685.185720
931.037299	2690.715865
931.340861	2688.064218
931.644383	2693.095290
931.947866	2691.895495
932.251309	2690.156297
932.554714	2689.200999
932.858080	2686.289732
933.161407	2683.489371
933.464694	2679.123732
933.767943	2675.267249
934.071153	2672.643329
934.374323	2665.956238
934.677455	2664.998419
934.980548	2663.813748
935.283602	2656.378046
935.586617	2656.557007
935.889593	2660.655465
936.192530	2659.160763
936.495428	2667.017401
936.798287	2676.656087
937.101108	2686.309897
937.403890	2711.518187
937.706632	2737.709502
938.009336	2771.875922
938.312002	2800.386167
938.614628	2826.665702
938.917216	2847.752849
939.219765	2857.807430
939.522275	2870.443082
939.824747	2870.334698
940.127179	2862.624253
940.429573	2861.321114
940.731929	2859.924715
941.034246	2849.784434
941.336524	2848.166223
941.638763	2842.976356
941.940964	2836.621981
942.243126	2819.277891
942.545250	2808.620892
942.847335	2792.395938
943.149381	2779.218362
943.451389	2766.958276
943.753359	2752.875813
944.055290	2744.739391
944.357182	2732.068450
944.659036	2729.681464
944.960851	2723.702656
945.262628	2717.312993
945.564367	2719.382387
945.866067	2716.846686
946.167729	2715.820812
946.469352	2714.678990
946.770937	2712.092878
947.072484	2706.633309
947.373992	2706.272866
947.675462	2702.219778
947.976893	2695.084025
948.278286	2692.979343
948.579641	2689.253931
948.880958	2685.924249
949.182236	2682.352591
949.483476	2681.510718
949.784678	2682.229083
950.085841	2681.296469
950.386967	2683.650688
950.688054	2692.215609
950.989103	2700.420087
951.290114	2708.359904
951.591087	2720.836760
951.892021	2729.583162
952.192917	2743.158989
952.493776	2753.261461
952.794596	2759.139447
953.095378	2763.288316
953.396122	2759.184817
953.696828	2757.664909
953.997496	2752.003693
954.298126	2743.121180
954.598718	2731.206413
954.899272	2721.235011
955.199788	2708.062476
955.500266	2697.652493
955.800706	2681.178002
956.101108	2664.527071
956.401472	2656.516678
956.701798	2637.756024
957.002087	2625.077522
957.302337	2615.592591
957.602550	2603.748400
957.902724	2592.793972
958.202861	2582.454566
958.502960	2571.487536
958.803022	2562.191648
959.103045	2554.236707
959.403031	2548.852755
959.702979	2539.813966
960.002889	2538.745242
960.302762	2532.844571
960.602596	2525.504651
960.902393	2522.832839
961.202153	2522.237983
961.501875	2516.722961
961.801559	2512.362363
962.101205	2511.674245
962.400814	2510.827332
962.700385	2505.392968
962.999918	2505.740807
963.299414	2502.688389
963.598873	2502.411125
963.898293	2501.692761
964.197677	2499.192348
964.497022	2497.528768
964.796331	2495.449292
965.095601	2493.377377
965.394835	2494.400732
965.694030	2490.599702
965.993189	2494.499034
966.292309	2493.939466
966.591393	2490.274547
966.890439	2493.684888
967.189447	2491.900319
967.488419	2493.871411
967.787353	2493.919302
968.086249	2493.853767
968.385108	2496.081957
968.683930	2492.964003
968.982714	2497.349807
969.281462	2497.012049
969.580172	2499.343583
969.878844	2502.698471
970.177480	2505.208966
970.476078	2507.661487
970.774639	2507.583349
971.073162	2512.543844
971.371649	2510.653412
971.670098	2512.175840
971.968510	2515.371932
972.266885	2517.234638
972.565223	2520.125740
972.863524	2520.720596
973.161788	2522.651358
973.460014	2524.158663
973.758204	2526.094466
974.056356	2526.623787
974.354471	2526.734693
974.652550	2526.759898
974.950591	2528.660413
975.248595	2524.889630
975.546563	2525.902902
975.844493	2523.684794
976.142386	2522.016173
976.440243	2519.230935
976.738062	2517.537107
977.035845	2513.136180
977.333590	2510.666015
977.631299	2508.095026
977.928971	2505.466064
978.226606	2504.843482
978.524204	2503.643687
978.821765	2505.334994
979.119290	2502.993378
979.416777	2500.215703
979.714228	2502.355672
980.011642	2504.420025
980.309020	2511.457476
980.606360	2512.732888
980.903664	2524.564476
981.200931	2538.437731
981.498162	2556.691749
981.795356	2592.463777
982.092513	2632.606485
982.389633	2676.162054
982.686717	2721.532439
982.983764	2754.811616
983.280775	2774.693927
983.577749	2773.252157
983.874686	2765.491300
984.171587	2748.820205
984.468451	2731.002246
984.765279	2714.772252
985.062070	2694.894982
985.358824	2671.186435
985.655543	2649.307828
985.952224	2623.164404
986.248869	2594.853284
986.545478	2568.251115
986.842050	2545.132383
987.138586	2525.640762
987.435086	2511.417147
987.731549	2498.229488
988.027975	2494.730927
988.324366	2487.572489
988.620719	2480.872795
988.917037	2478.488330
989.213318	2475.720736
989.509563	2472.905252
989.805772	2471.881897
990.101944	2470.132617
990.398080	2466.447534
990.694180	2468.952987
990.990244	2468.940384
991.286271	2467.352421
991.582262	2466.999540
991.878217	2472.980869
992.174136	2471.607155
992.470019	2472.050776
992.765865	2473.507670
993.061676	2472.988431
993.357450	2479.310038
993.653188	2478.873978
993.948890	2488.086687
994.244556	2497.513644
994.540186	2502.678306
994.835780	2514.945954
995.131337	2534.838347
995.426859	2547.385779
995.722345	2571.916034
996.017795	2589.310535
996.313208	2606.117742
996.608586	2616.452107
996.903928	2619.711213
997.199234	2617.246089
997.494504	2613.855913
997.789738	2607.206631
998.084936	2594.351689
998.380099	2584.944896
998.675225	2569.602144
998.970316	2560.104610
999.265371	2541.853113
999.560390	2525.628159
999.855373	2516.564165
1000.150320	2506.660818
1000.445232	2498.446258
1000.740108	2488.000987
1001.034948	2481.911273
1001.329752	2477.848103
1001.624521	2471.027422
1001.919254	2463.427883
1002.213951	2465.073819
1002.508613	2460.423355
1002.803239	2458.220371
1003.097829	2454.247941
1003.392384	2458.260700
1003.686903	2456.551749
1003.981386	2451.750050
1004.275834	2453.915225
1004.570246	2452.196192
1004.864623	2449.567230
1005.158964	2450.003290
1005.453270	2449.957919
1005.747540	2448.543876
1006.041775	2449.340378
1006.335974	2448.453135
1006.630138	2445.882147
1006.924266	2446.986159
1007.218359	2447.470110
1007.512416	2446.061108
1007.806438	2445.025150
1008.100425	2447.454987
1008.394376	2447.719647
1008.688292	2445.559513
1008.982172	2445.012547
1009.276017	2446.582867
1009.569827	2444.881478
1009.863602	2446.154369
1010.157341	2446.189657
1010.451045	2445.073041
1010.744714	2442.393668
1011.038347	2442.897783
1011.331945	2442.272680
1011.625508	2443.860644
1011.919036	2441.929882
1012.212528	2441.834100
1012.505986	2441.987855
1012.799408	2440.137752
1013.092795	2439.691610
1013.386147	2441.844182
1013.679464	2440.659511
1013.972745	2440.576332
1014.265992	2440.266301
1014.559204	2440.992227
1014.852380	2440.478030
1015.145521	2439.368976
1015.438628	2440.500715
1015.731699	2440.117587
1016.024736	2439.941147
1016.317737	2441.912238
1016.610703	2441.032557
1016.903635	2435.648604
1017.196531	2438.476692
1017.489393	2441.612289
1017.782219	2438.363266
1018.075011	2445.347784
1018.367768	2442.262598
1018.660490	2442.343257
1018.953177	2442.343257
1019.245829	2442.343257
