Dividing Wavelength (nm)	Counts (n)	Blue Motor Position (mm): 0.000000	Red Motor Position (mm): 20.600000	
326.493990	1983.126909
326.888308	1983.126909
327.282561	1983.126909
327.676750	1958.896603
328.070874	1960.736624
328.464933	1967.600155
328.858929	1976.654067
329.252859	1985.662609
329.646726	2004.423263
330.040528	2020.156704
330.434265	2036.300999
330.827938	2055.376726
331.221547	2076.294993
331.615091	2097.374578
332.008571	2116.765377
332.401986	2138.946453
332.795338	2158.473363
333.188625	2178.262412
333.581847	2196.491225
333.975006	2215.892105
334.368100	2232.021277
334.761129	2245.460993
335.154095	2263.321801
335.546996	2282.077414
335.939833	2301.705147
336.332606	2311.346353
336.725315	2323.782880
337.117960	2331.392502
337.510540	2337.111691
337.903056	2350.652230
338.295508	2352.381346
338.687896	2362.398118
339.080220	2367.522451
339.472480	2374.290200
339.864676	2377.917310
340.256807	2381.436036
340.648875	2381.993083
341.040879	2385.292518
341.432818	2384.269164
341.824694	2386.774618
342.216506	2386.890564
342.608253	2385.277395
342.999937	2383.175234
343.391557	2385.121119
343.783113	2386.938455
344.174605	2381.746067
344.566033	2382.025851
344.957397	2379.311189
345.348697	2376.949409
345.739934	2378.507125
346.131106	2377.176261
346.522215	2371.308358
346.913260	2371.073944
347.304241	2371.802391
347.695159	2370.363141
348.086012	2365.919364
348.476802	2367.666124
348.867528	2366.418438
349.258191	2361.715042
349.648789	2363.449199
350.039324	2359.940556
350.429796	2361.198324
350.820203	2359.088601
351.210548	2360.676564
351.600828	2356.326048
351.991045	2359.950638
352.381198	2357.467870
352.771288	2358.390401
353.161314	2357.273785
353.551276	2358.685308
353.941175	2358.818899
354.331010	2359.668333
354.720782	2359.010463
355.110490	2357.782942
355.500135	2360.764784
355.889717	2358.544156
356.279235	2358.370236
356.668689	2361.873838
357.058080	2358.309743
357.447408	2358.002232
357.836672	2359.915350
358.225873	2358.133302
358.615010	2361.896523
359.004084	2364.399456
359.393095	2362.839219
359.782043	2366.680578
360.170927	2365.508510
360.559748	2369.579242
360.948505	2366.350383
361.337199	2367.807276
361.725830	2366.972965
362.114398	2373.342463
362.502903	2371.368852
362.891344	2371.474716
363.279722	2371.189891
363.668037	2374.264994
364.056289	2374.043184
364.444478	2373.851620
364.832603	2373.498739
365.220665	2377.065355
365.608665	2376.815818
365.996601	2375.815149
366.384474	2379.870758
366.772284	2377.196425
367.160031	2376.311703
367.547715	2381.166334
367.935336	2380.228679
368.322893	2382.015768
368.710388	2380.745398
369.097820	2385.983157
369.485189	2384.453166
369.872495	2386.593136
370.259738	2385.685728
370.646918	2390.868035
371.034035	2393.733931
371.421090	2395.258880
371.808081	2398.903634
372.195010	2402.944119
372.581875	2408.630540
372.968678	2413.487692
373.355418	2420.625966
373.742096	2432.772626
374.128710	2437.564243
374.515262	2453.214505
374.901751	2467.218830
375.288177	2483.355564
375.674540	2501.276866
376.060841	2521.151615
376.447079	2544.625747
376.833254	2571.671538
377.219367	2598.525764
377.605417	2631.963738
377.991404	2657.310659
378.377329	2698.348172
378.763191	2731.266907
379.148991	2775.500511
379.534727	2824.566062
379.920402	2869.162629
380.306013	2915.077458
380.691563	2978.853096
381.077049	3035.487939
381.462474	3090.353337
381.847835	3164.218843
382.233134	3233.874987
382.618371	3290.794655
383.003545	3378.442676
383.388657	3456.043678
383.773706	3548.344684
384.158693	3617.642905
384.543618	3710.684961
384.928480	3791.240079
385.313280	3893.630955
385.698017	3996.780524
386.082692	4115.739152
386.467305	4176.439686
386.851856	4303.237308
387.236344	4455.001244
387.620770	4518.502139
388.005133	4634.718379
388.389435	4784.891832
388.773674	4868.033061
389.157851	4995.644830
389.541965	5133.081807
389.926018	5150.330115
390.310008	5329.606149
390.693936	5448.889931
391.077802	5564.481068
391.461606	5695.893867
391.845348	5810.454088
392.229027	5929.528662
392.612645	6150.613505
392.996200	6265.783706
393.379694	6438.135715
393.763125	6657.191493
394.146494	6752.302943
394.529801	6891.257308
394.913047	7124.284644
395.296230	7119.994622
395.679351	7180.465783
396.062410	7428.724966
396.445408	7322.850653
396.828343	7477.934189
397.211217	7615.300591
397.594028	7496.977148
397.976778	7699.170267
398.359466	7858.561469
398.742092	7830.499887
399.124656	7976.748801
399.507158	8159.097418
399.889598	8181.457456
400.271977	8385.639310
400.654294	8417.600225
401.036549	8617.728992
401.418742	8636.850088
401.800874	8933.262373
402.182944	9010.742387
402.564952	9379.301144
402.946898	9195.036889
403.328783	9256.062577
403.710606	9445.499056
404.092367	9701.924908
404.474067	10053.961284
404.855705	9845.993523
405.237282	9801.691863
405.618797	10226.250279
406.000250	10467.431682
406.381642	10825.474592
406.762972	10769.734554
407.144240	10570.412372
407.525447	10830.109933
407.906593	10761.293142
408.287677	11011.258756
408.668700	11172.152222
409.049661	11139.883796
409.430560	11302.065277
409.811399	11273.391194
410.192176	11431.771645
410.572891	11500.439722
410.953545	11967.245527
411.334138	11462.452107
411.714669	12040.072556
412.095139	11373.062367
412.475547	11863.392717
412.855894	11713.695653
413.236180	12022.224351
413.616405	11714.298071
413.996568	11988.819145
414.376670	11960.964249
414.756711	11842.789521
415.136691	12108.163421
415.516609	12275.743978
415.896466	12343.393742
416.276262	12629.242288
416.655997	13068.972056
417.035670	13105.906070
417.415283	13745.295777
417.794834	13828.376513
418.174324	13569.190629
418.553753	13464.246408
418.933121	13941.870530
419.312428	13757.591151
419.691674	13672.103264
420.070859	14102.509418
420.449983	13767.877625
420.829045	14288.028920
421.208047	14035.144479
421.586988	14480.858096
421.965867	14705.058372
422.344686	14687.958778
422.723444	15219.682042
423.102141	13947.428402
423.480777	15080.828500
423.859352	14586.170320
424.237866	15638.009591
424.616319	15319.622917
424.994712	15919.220276
425.373044	15695.393045
425.751314	16310.912889
426.129524	15446.740652
426.507673	16433.160869
426.885762	16112.057013
427.263789	16244.858650
427.641756	16360.447266
428.019662	16358.075403
428.397508	16341.416911
428.775292	16554.400619
429.153016	16447.679393
429.530679	16445.095801
429.908282	16389.441463
430.285824	16062.139508
430.663305	16603.761077
431.040726	16165.767987
431.418086	15922.060966
431.795385	16384.362500
432.172624	16649.554919
432.549802	16154.039743
432.926920	16207.531426
433.303977	15988.495812
433.680974	16082.379741
434.057910	16204.111003
434.434786	16099.451608
434.811601	15893.528035
435.188355	16607.519257
435.565050	16182.071079
435.941683	15997.496792
436.318257	16537.883279
436.694770	16235.746764
437.071222	16529.741815
437.447614	15649.911755
437.823946	15501.701832
438.200218	15443.743686
438.576429	15115.292349
438.952580	15134.466377
439.328670	14942.098467
439.704700	15052.724068
440.080670	14584.630248
440.456580	14796.832578
440.832429	14730.795983
441.208218	13877.240417
441.583947	13966.801556
441.959616	13849.647661
442.335224	13808.857165
442.710773	13694.435575
443.086261	13812.590139
443.461689	13242.990166
443.837057	13115.262451
444.212365	13278.207667
444.587612	13070.459196
444.962800	12613.145884
445.337927	12644.494299
445.712995	11773.269489
446.088002	12517.817665
446.462949	12411.711459
446.837837	12275.224739
447.212664	12036.095086
447.587431	13166.132735
447.962139	14292.626453
448.336786	15142.791843
448.711374	14185.575030
449.085901	12302.789768
449.460369	11990.500370
449.834776	11712.430323
450.209124	12449.124382
450.583412	12050.041438
450.957640	12017.513392
451.331808	11274.394383
451.705917	10540.863649
452.079965	10308.892434
452.453954	10217.758455
452.827883	9955.000914
453.201752	9682.239202
453.575562	9526.616263
453.949311	9646.353749
454.323001	9450.504922
454.696632	9174.710957
455.070202	9398.155060
455.443713	9232.989216
455.817164	9164.885748
456.190556	9086.974715
456.563888	8747.047191
456.937160	8637.598700
457.310373	8060.212664
457.683526	7946.650592
458.056619	7747.880416
458.429653	7542.458438
458.802628	7474.609548
459.175542	7321.229922
459.548398	7383.379787
459.921194	7494.857343
460.293930	7452.441074
460.666607	7627.653938
461.039224	7732.136893
461.411782	7586.636590
461.784280	7193.792073
462.156719	6914.842346
462.529099	6638.098123
462.901419	6284.879597
463.273680	5984.885572
463.645882	5831.122818
464.018024	5679.434499
464.390106	5626.552795
464.762130	5786.987517
465.134094	6104.058449
465.505999	6520.792994
465.877845	6812.396018
466.249631	6713.425565
466.621358	6325.748231
466.993026	5930.425988
467.364634	5578.311474
467.736184	5274.196306
468.107674	5047.235998
468.479105	4869.865521
468.850477	4701.158266
469.221790	4499.650744
469.593043	4301.581289
469.964238	4154.707272
470.335373	4061.488775
470.706449	4051.207342
471.077467	4084.426025
471.448425	4205.622925
471.819324	4258.219804
472.190164	4102.896813
472.560945	3888.199112
472.931667	3701.845298
473.302330	3591.290274
473.672934	3507.140813
474.043479	3468.805359
474.413965	3393.384656
474.784393	3332.608505
475.154761	3315.450938
475.525070	3270.728342
475.895321	3225.468862
476.265513	3200.366437
476.635645	3188.078624
477.005719	3153.524035
477.375734	3134.191210
477.745691	3114.384517
478.115588	3111.480812
478.485427	3120.161679
478.855207	3155.444715
479.224928	3171.841068
479.594591	3174.885925
479.964194	3131.773977
480.333739	3111.334619
480.703226	3090.028182
481.072653	3079.194742
481.442022	3070.108063
481.811333	3055.980229
482.180584	3019.890609
482.549777	2999.073164
482.918912	2976.435863
483.287988	2962.204685
483.657005	2940.318516
484.025964	2916.912438
484.394864	2907.046900
484.763706	2898.401322
485.132489	2876.474823
485.501213	2865.114583
485.869879	2856.405989
486.238487	2845.277642
486.607036	2841.375789
486.975527	2830.950683
487.343959	2823.225115
487.712333	2817.594146
488.080648	2807.688279
488.448905	2808.867909
488.817104	2801.893472
489.185244	2802.952115
489.553326	2812.787406
489.921350	2828.248625
490.289315	2848.635051
490.657222	2850.722088
491.025070	2850.817870
491.392861	2838.421673
491.760593	2821.211174
492.128267	2800.872639
492.495883	2782.825308
492.863440	2767.401898
493.230939	2755.996287
493.598380	2741.318968
493.965763	2732.817062
494.333088	2722.336503
494.700354	2715.326778
495.067563	2710.651108
495.434713	2705.458720
495.801805	2708.982486
496.168839	2702.252546
496.535815	2699.643749
496.902733	2697.806248
497.269593	2692.800382
497.636395	2689.483303
498.003139	2690.166380
498.369825	2684.429547
498.736453	2688.381811
499.103023	2684.167407
499.469535	2683.345698
499.835989	2682.226562
500.202385	2676.396468
500.568723	2675.242044
500.935003	2680.941068
501.301226	2678.828825
501.667390	2679.400996
502.033497	2682.939886
502.399546	2676.837569
502.765537	2674.437980
503.131470	2678.395285
503.497345	2682.937365
503.863163	2675.287414
504.228923	2678.622137
504.594625	2680.046263
504.960269	2676.187260
505.325856	2681.687159
505.691385	2678.115501
506.056856	2682.118178
506.422270	2687.955834
506.787625	2685.415092
507.152924	2686.239321
507.518164	2688.971626
507.883347	2685.014320
508.248472	2689.271575
508.613540	2693.501103
508.978550	2697.420600
509.343503	2695.678881
509.708398	2703.671631
510.073236	2707.424770
510.438016	2710.336036
510.802738	2706.930737
511.167403	2712.087837
511.532010	2712.987683
511.896561	2719.372304
512.261053	2728.806824
512.625488	2722.487737
512.989866	2722.084445
513.354186	2724.940259
513.718449	2723.322048
514.082655	2734.299161
514.446803	2732.348234
514.810894	2738.551374
515.174927	2740.393916
515.538904	2738.684965
515.902822	2746.624782
516.266684	2744.467168
516.630488	2747.542272
516.994235	2748.709299
517.357925	2755.676174
517.721558	2757.125506
518.085133	2759.630959
518.448651	2761.042482
518.812112	2758.768922
519.175516	2760.223295
519.538863	2767.285951
519.902152	2764.457864
520.265385	2768.730242
520.628560	2772.848864
520.991678	2767.709408
521.354739	2772.185953
521.717743	2773.695778
522.080690	2773.708381
522.443580	2777.970677
522.806413	2781.743980
523.169189	2781.013013
523.531908	2780.771038
523.894569	2780.854217
524.257174	2785.852521
524.619722	2785.751698
524.982213	2787.710186
525.344647	2785.300514
525.707025	2786.422171
526.069345	2789.227573
526.431608	2788.713376
526.793815	2791.649848
527.155964	2787.735392
527.518057	2791.843932
527.880093	2787.574075
528.242072	2790.810496
528.603995	2791.556586
528.965860	2792.285033
529.327669	2791.052471
529.689421	2790.112296
530.051117	2790.344189
530.412755	2791.072636
530.774337	2790.714714
531.135862	2789.220012
531.497331	2788.703293
531.858743	2785.950823
532.220098	2791.009621
532.581396	2784.899743
532.942638	2788.035340
533.303824	2786.883437
533.664953	2788.806637
534.026025	2786.946451
534.387040	2790.540794
534.747999	2791.538942
535.108902	2793.404169
535.469748	2787.022068
535.830537	2790.714714
536.191270	2789.517440
536.551947	2787.778242
536.912567	2788.274795
537.273131	2791.236473
537.633638	2782.820267
537.994089	2787.652213
538.354483	2783.740277
538.714821	2788.496606
539.075103	2792.143881
539.435328	2788.428550
539.795497	2788.287398
540.155609	2785.413940
540.515665	2789.635907
540.875665	2785.663477
541.235609	2785.013169
541.595496	2783.362191
541.955328	2792.310239
542.315102	2786.535597
542.674821	2783.236162
543.034483	2784.209105
543.394090	2782.520318
543.753640	2779.604011
544.113134	2788.579785
544.472571	2780.287087
544.831953	2790.132460
545.191278	2780.392951
545.550548	2776.544030
545.909761	2782.648867
546.268918	2781.108795
546.628019	2785.913015
546.987064	2780.564350
547.346053	2774.499842
547.704986	2775.762651
548.063863	2771.666714
548.422684	2774.003289
548.781449	2770.691251
549.140158	2774.114194
549.498811	2771.250819
549.857408	2765.977772
550.215949	2765.138420
550.574434	2763.399222
550.932864	2761.518871
551.291237	2764.440220
551.649555	2760.825712
552.007817	2760.611463
552.366022	2757.425454
552.724173	2756.974271
553.082267	2756.981833
553.440305	2757.528798
553.798288	2751.544948
554.156215	2747.529669
554.514086	2747.471696
554.871902	2743.408526
555.229661	2740.063720
555.587365	2737.016343
555.945014	2737.074316
556.302606	2731.944942
556.660143	2730.848491
557.017625	2727.891854
557.375050	2723.080073
557.732421	2722.933880
558.089735	2722.250803
558.446994	2715.727550
558.804197	2717.184444
559.161345	2710.928372
559.518437	2705.635160
559.875474	2701.367823
560.232455	2700.336907
560.589381	2698.418748
560.946251	2694.138809
561.303065	2695.063861
561.659825	2691.517409
562.016528	2684.817715
562.373177	2681.142714
562.729770	2679.579957
563.086307	2675.985614
563.442789	2674.402692
563.799216	2671.067968
564.155587	2667.120745
564.511904	2664.600168
564.868164	2659.795948
565.224370	2661.136895
565.580520	2657.570279
565.936615	2653.900319
566.292654	2647.742549
566.648638	2649.325472
567.004567	2646.308341
567.360441	2643.918834
567.716260	2641.788947
568.072023	2636.231075
568.427732	2632.503141
568.783385	2630.337966
569.138982	2631.638583
569.494525	2627.146915
569.850013	2618.929835
570.205445	2620.943776
570.560823	2620.422016
570.916145	2618.324896
571.271412	2618.239197
571.626625	2614.612086
571.981782	2612.303238
572.336884	2607.796446
572.691931	2607.012547
573.046923	2603.987855
573.401860	2603.869388
573.756743	2599.594489
574.111570	2600.464088
574.466342	2596.736155
574.821059	2596.768922
575.175722	2594.679364
575.530330	2594.974272
575.884882	2587.609146
576.239380	2587.682242
576.593823	2587.692325
576.948211	2584.770976
577.302544	2583.044381
577.656823	2583.127560
578.011047	2583.024216
578.365216	2579.941551
578.719330	2577.562126
579.073389	2576.269070
579.427394	2576.420305
579.781344	2571.873184
580.135239	2572.911662
580.489080	2571.172464
580.842866	2569.730694
581.196597	2570.106260
581.550273	2569.332442
581.903895	2569.103070
582.257463	2567.691547
582.610975	2566.232133
582.964434	2567.905796
583.317837	2566.257339
583.671186	2564.485373
584.024481	2566.481670
584.377721	2560.979251
584.730906	2561.526216
585.084037	2562.332800
585.437113	2560.656617
585.790135	2559.824826
586.143103	2561.105279
586.496016	2558.047820
586.848874	2554.287119
587.201679	2555.917932
587.554428	2553.735113
587.907124	2554.040102
588.259765	2550.657488
588.612352	2555.547407
588.964884	2553.170503
589.317362	2558.622511
589.669786	2549.394679
590.022155	2554.221584
590.374470	2554.816440
590.726731	2554.642520
591.078937	2551.895091
591.431090	2553.503219
591.783188	2551.421223
592.135232	2546.669935
592.487222	2548.020965
592.839157	2550.818805
593.191038	2546.483413
593.542866	2545.366797
593.894639	2542.568957
594.246358	2545.356715
594.598022	2545.644061
594.949633	2545.334030
595.301190	2542.871426
595.652692	2542.021992
596.004141	2544.782023
596.355535	2538.601569
596.706876	2539.362783
597.058162	2538.594007
597.409395	2537.910931
597.760573	2539.725746
598.111698	2539.763555
598.462768	2539.052752
598.813785	2539.569470
599.164748	2535.839016
599.515657	2536.935467
599.866511	2532.421114
600.217312	2534.341794
600.568060	2533.434386
600.918753	2537.363965
601.269392	2534.936650
601.619978	2537.396733
601.970510	2534.740045
602.320988	2535.337422
602.671412	2536.675848
603.021783	2532.388347
603.372100	2532.582431
603.722363	2532.461443
604.072572	2532.257277
604.422728	2531.952287
604.772830	2527.717717
605.122878	2531.158305
605.472872	2528.113448
605.822813	2526.505320
606.172701	2533.585621
606.522534	2530.563449
606.872314	2532.184180
607.222041	2530.971782
607.571714	2533.688964
607.921333	2527.947090
608.270899	2532.461443
608.620411	2531.034797
608.969870	2529.716535
609.319276	2531.289375
609.668627	2530.727286
610.017926	2531.906916
610.367171	2531.869108
610.716362	2533.172246
611.065500	2531.659900
611.414585	2529.600588
611.763616	2532.736186
612.112594	2526.228057
612.461518	2531.178470
612.810389	2532.267359
613.159207	2531.896834
613.507971	2529.396422
613.856682	2532.204344
614.205340	2529.393901
614.553945	2533.096629
614.902496	2529.446833
615.250994	2529.943387
615.599439	2528.514220
615.947830	2530.505476
616.296169	2530.752492
616.644454	2531.874149
616.992686	2530.470187
617.340864	2534.137627
617.688990	2530.843233
618.037063	2531.939684
618.385082	2533.406660
618.733048	2536.577545
619.080961	2533.472195
619.428821	2531.337266
619.776628	2535.223996
620.124382	2529.832482
620.472083	2529.121679
620.819731	2534.770292
621.167326	2530.490352
621.514868	2529.915661
621.862357	2526.432223
622.209793	2527.538757
622.557176	2527.488345
622.904506	2525.033303
623.251783	2520.541635
623.599007	2521.030627
623.946179	2517.206912
624.293297	2517.529546
624.640363	2519.835873
624.987376	2518.613394
625.334336	2516.843949
625.681243	2515.276150
626.028097	2516.866634
626.374899	2517.302694
626.721647	2515.697086
627.068343	2514.252796
627.414987	2514.615759
627.761577	2513.357991
628.108115	2514.343536
628.454600	2512.264060
628.801032	2512.397651
629.147412	2509.650222
629.493739	2510.479492
629.840014	2512.145593
630.186236	2512.246416
630.532405	2509.206601
630.878521	2512.208608
631.224585	2511.275994
631.570597	2508.284069
631.916556	2509.504029
632.262462	2509.627537
632.608316	2508.019409
632.954117	2505.211486
633.299866	2505.380365
633.645562	2506.227279
633.991206	2505.856754
634.336797	2502.159068
634.682336	2504.634274
635.027823	2501.531444
635.373257	2502.075888
635.718639	2501.657473
636.063968	2499.905672
636.409245	2496.240753
636.754470	2501.707884
637.099642	2495.013232
637.444762	2499.207472
637.789829	2496.661689
638.134845	2497.349807
638.479808	2494.622543
638.824719	2496.180259
639.169577	2497.921978
639.514383	2494.057933
639.859137	2494.882162
640.203839	2495.666061
640.548489	2494.370485
640.893086	2489.929228
641.237632	2485.372025
641.582125	2488.626090
641.926566	2485.697180
642.270955	2491.575165
642.615292	2489.190699
642.959576	2491.819661
643.303809	2490.508961
643.647990	2492.046513
643.992118	2494.330156
644.336195	2488.394197
644.680219	2489.354537
645.024192	2491.996101
645.368112	2492.699342
645.711981	2491.149188
646.055797	2494.693119
646.399562	2492.081801
646.743274	2496.502893
647.086935	2497.730414
647.430544	2497.032214
647.774101	2493.296719
648.117606	2496.843171
648.461059	2496.805362
648.804460	2496.434837
649.147810	2491.058447
649.491108	2494.733448
649.834354	2489.389825
650.177548	2487.063332
650.520690	2489.278919
650.863781	2488.341265
651.206820	2489.339413
651.549807	2485.903867
651.892742	2485.079638
652.235626	2483.650471
652.578458	2486.342447
652.921238	2485.228352
653.263967	2485.989567
653.606644	2481.462610
653.949269	2482.695173
654.291843	2479.985552
654.634365	2481.490337
654.976836	2484.421768
655.319255	2484.472179
655.661622	2481.255923
656.003938	2481.397075
656.346203	2480.900522
656.688416	2479.705768
657.030577	2480.293063
657.372687	2477.810294
657.714746	2481.465131
658.056753	2480.479585
658.398708	2475.766107
658.740612	2474.316775
659.082465	2476.434059
659.424266	2476.063535
659.766016	2475.617393
660.107715	2479.214256
660.449362	2476.812146
660.790958	2479.799030
661.132503	2478.448000
661.473996	2479.579739
661.815438	2477.520428
662.156829	2479.650316
662.498168	2478.395068
662.839456	2478.170737
663.180693	2477.623772
663.521879	2480.761890
663.863013	2479.730974
664.204097	2477.139821
664.545129	2477.747280
664.886110	2479.889770
665.227040	2478.705099
665.567918	2480.565285
665.908746	2476.413895
666.249522	2480.504791
666.590248	2480.890439
666.930922	2480.661067
667.271545	2479.360449
667.612118	2482.054946
667.952639	2478.964719
668.293109	2479.680562
668.633528	2476.744090
668.973896	2479.728453
669.314213	2477.656539
669.654480	2482.251551
669.994695	2477.918679
670.334859	2473.946250
670.674973	2477.686786
671.015035	2476.902887
671.355047	2475.748463
671.695008	2475.771148
672.034918	2476.648308
672.374777	2475.375417
672.714585	2476.832311
673.054342	2478.720223
673.394049	2474.715026
673.733705	2476.678555
674.073310	2475.642598
674.412864	2475.204018
674.752368	2472.484315
675.091820	2476.411374
675.431223	2475.793833
675.770574	2476.817187
676.109875	2470.515745
676.449125	2471.579428
676.788324	2470.097329
677.127473	2469.568008
677.466571	2466.535754
677.805619	2470.926599
678.144616	2470.298975
678.483562	2469.517596
678.822458	2471.342494
679.161303	2472.423822
679.500098	2468.363172
679.838842	2472.020529
680.177535	2470.596403
680.516179	2470.024232
680.854771	2470.755200
681.193314	2474.125211
681.531805	2476.721405
681.870247	2476.386168
682.208638	2477.102012
682.546978	2476.151755
682.885268	2481.301293
683.223508	2479.297435
683.561697	2479.302476
683.899836	2475.544296
684.237925	2475.493884
684.575963	2473.406847
684.913951	2472.673359
685.251889	2476.691158
685.589776	2472.907772
685.927614	2474.684779
686.265401	2476.660911
686.603137	2474.352063
686.940824	2475.115798
687.278460	2476.459265
687.616046	2473.989100
687.953582	2475.370376
688.291068	2478.231231
688.628504	2481.412199
688.965889	2478.274081
689.303224	2477.591004
689.640510	2476.509677
689.977745	2475.478761
690.314930	2471.097998
690.652065	2473.222844
690.989150	2470.125055
691.326185	2467.785960
691.663170	2467.637246
692.000105	2465.605661
692.336990	2464.899899
692.673825	2462.389405
693.010610	2464.090794
693.347345	2459.256328
693.684030	2454.421861
694.020665	2457.852366
694.357251	2453.617797
694.693786	2458.485031
695.030272	2457.249948
695.366707	2454.499999
695.703093	2457.761626
696.039429	2455.926646
696.375716	2457.542335
696.711952	2455.480503
697.048139	2456.108127
697.384276	2457.927984
697.720363	2456.488734
698.056400	2452.475976
698.392388	2456.040072
698.728326	2455.193158
699.064214	2452.924638
699.400053	2453.678291
699.735842	2453.814402
700.071581	2451.931531
700.407270	2453.622838
700.742910	2450.446911
701.078501	2446.570264
701.414042	2450.048660
701.749533	2449.282405
702.084974	2450.192333
702.420366	2447.644030
702.755709	2446.920624
703.091002	2445.924996
703.426246	2447.029009
703.761440	2449.352981
704.096584	2446.368618
704.431679	2443.396858
704.766725	2450.724175
705.101721	2444.606735
705.436668	2447.815429
705.771565	2444.271498
706.106413	2444.127825
706.441212	2445.398196
706.775961	2446.343412
707.110661	2444.407609
707.445311	2444.284101
707.779913	2447.399534
708.114465	2447.908690
708.448967	2449.584874
708.783421	2448.579164
709.117825	2448.614452
709.452180	2451.808023
709.786485	2451.654268
710.120742	2454.368929
710.454949	2452.186109
710.789107	2453.070832
711.123216	2450.250306
711.457275	2452.198712
711.791286	2454.600822
712.125247	2454.517643
712.459159	2458.210288
712.793023	2458.724486
713.126837	2456.705504
713.460602	2459.286575
713.794318	2455.241049
714.127985	2455.465380
714.461602	2453.290122
714.795171	2453.902622
715.128691	2450.073866
715.462162	2451.515636
715.795584	2448.717796
716.128957	2451.548403
716.462281	2445.272167
716.795556	2447.570933
717.128782	2446.431632
717.461960	2445.254523
717.795088	2445.690583
718.128167	2444.284101
718.461198	2443.285952
718.794180	2441.876950
719.127113	2443.565736
719.459997	2440.762855
719.792833	2438.635488
720.125619	2439.389140
720.458357	2440.241095
720.791046	2438.771599
721.123686	2441.027515
721.456278	2439.182453
721.788821	2438.302772
722.121315	2438.907710
722.453761	2439.179932
722.786158	2441.229162
723.118506	2438.408636
723.450805	2437.672627
723.783056	2437.939809
724.115259	2438.857299
724.447412	2438.285128
724.779518	2436.306475
725.111574	2438.935437
725.443582	2438.396033
725.775542	2443.480037
726.107453	2440.455344
726.439315	2438.454006
726.771129	2447.699482
727.102895	2442.968360
727.434612	2441.836621
727.766281	2443.026333
728.097901	2439.847885
728.429473	2438.224634
728.760996	2441.002310
729.092471	2440.306630
729.423897	2444.604214
729.755276	2440.893925
730.086606	2446.076231
730.417887	2446.945830
730.749120	2446.477003
731.080305	2445.234358
731.411442	2446.734102
731.742530	2447.654112
732.073570	2445.645212
732.404562	2448.052363
732.735506	2447.349122
733.066401	2446.769390
733.397249	2447.628906
733.728048	2444.513473
734.058798	2443.870726
734.389501	2441.070365
734.720156	2439.968873
735.050762	2440.009202
735.381320	2438.330498
735.711831	2439.784871
736.042293	2437.491146
736.372707	2437.004675
736.703073	2434.899993
737.033391	2437.123142
737.363661	2436.361928
737.693883	2437.022319
738.024056	2438.922834
738.354182	2439.701692
738.684260	2437.967535
739.014290	2439.799994
739.344272	2440.656991
739.674207	2441.856785
740.004093	2440.682196
740.333931	2439.338729
740.663722	2441.637495
740.993464	2440.626744
741.323159	2443.714450
741.652806	2439.217741
741.982405	2440.747731
742.311956	2440.387289
742.641460	2439.552978
742.970915	2438.993410
743.300323	2438.569953
743.629683	2434.640373
743.958996	2438.895107
744.288260	2435.961156
744.617477	2434.053079
744.946647	2431.570311
745.275768	2435.305806
745.604842	2432.122317
745.933869	2427.060999
746.262847	2427.295412
746.591778	2432.807914
746.920662	2432.102152
747.249498	2432.003850
747.578286	2432.384457
747.907027	2433.680034
748.235720	2436.601382
748.564365	2433.894283
748.892963	2434.342945
749.221514	2435.860333
749.550017	2434.277410
749.878473	2433.982503
750.206881	2433.007040
750.535242	2432.686926
750.863555	2432.732297
751.191821	2433.417894
751.520039	2431.587955
751.848210	2433.251536
752.176334	2431.852615
752.504411	2431.277924
752.832440	2429.402615
753.160421	2433.175918
753.488356	2433.052410
753.816243	2432.583583
754.144082	2429.926895
754.471875	2430.985537
754.799620	2431.756833
755.127318	2430.153747
755.454969	2431.545105
755.782572	2430.756164
756.110129	2431.472008
756.437638	2429.936977
756.765100	2430.345310
757.092515	2430.352872
757.419882	2431.030907
757.747203	2434.093408
758.074477	2431.091401
758.401703	2432.429828
758.728882	2430.173911
759.056014	2433.475867
759.383099	2432.858326
759.710138	2434.713470
760.037129	2433.589293
760.364073	2434.138779
760.690970	2428.379260
761.017820	2433.314550
761.344623	2431.068716
761.671379	2433.319591
761.998088	2431.529982
762.324751	2437.866712
762.651366	2447.147476
762.977935	2457.968313
763.304456	2463.236319
763.630931	2468.108594
763.957359	2466.069447
764.283740	2459.836060
764.610074	2452.879268
764.936362	2451.853393
765.262602	2445.793926
765.588796	2439.588266
765.914943	2438.837134
766.241044	2437.927206
766.567097	2432.623912
766.893104	2431.466967
767.219064	2429.304312
767.544978	2428.404466
767.870845	2426.682912
768.196665	2429.752975
768.522438	2425.702408
768.848165	2422.738209
769.173846	2423.277613
769.499479	2425.609146
769.825066	2425.057140
770.150607	2421.334248
770.476101	2425.568817
770.801548	2424.290885
771.126949	2421.558579
771.452303	2421.939186
771.777611	2421.392221
772.102872	2420.872982
772.428087	2420.875503
772.753256	2419.751326
773.078378	2420.968764
773.403453	2418.627148
773.728482	2419.907601
774.053465	2418.458270
774.378401	2420.169741
774.703291	2421.125040
775.028135	2417.908784
775.352932	2417.460121
775.677683	2416.371232
776.002388	2418.178486
776.327046	2418.501119
776.651658	2420.230235
776.976224	2417.828125
777.300743	2416.509864
777.625216	2417.485327
777.949643	2415.640265
778.274024	2418.193609
778.598359	2414.178330
778.922647	2414.470717
779.246889	2415.231931
779.571086	2411.899728
779.895236	2417.649164
780.219339	2417.389545
780.543397	2415.045408
780.867409	2418.211253
781.191374	2416.023392
781.515294	2416.315779
781.839167	2415.380645
782.162995	2417.243352
782.486776	2415.814184
782.810511	2418.760739
783.134201	2416.197312
783.457844	2414.417785
783.781441	2417.563465
784.104993	2413.212949
784.428498	2415.862075
784.751958	2418.949782
785.075372	2417.923907
785.398739	2416.023392
785.722061	2416.986253
786.045337	2416.512384
786.368568	2417.991963
786.691752	2415.413413
787.014891	2416.439288
787.337983	2417.384504
787.661030	2421.906419
787.984031	2422.176121
788.306987	2424.265679
788.629897	2422.269382
788.952760	2425.664599
789.275579	2421.825760
789.598351	2421.858528
789.921078	2420.366346
790.243759	2419.766449
790.566395	2417.197981
790.888984	2418.173444
791.211529	2415.151273
791.534027	2417.180337
791.856480	2418.695204
792.178888	2416.283012
792.501249	2417.349216
792.823566	2415.834349
793.145836	2413.840573
793.468062	2417.815523
793.790241	2414.374935
794.112375	2416.691345
794.434464	2417.578588
794.756507	2416.053639
795.078505	2416.436767
795.400457	2415.584812
795.722364	2415.413413
796.044226	2417.908784
796.366042	2413.613721
796.687812	2419.655544
797.009538	2420.504978
797.331218	2417.936510
797.652852	2418.581778
797.974442	2419.980698
798.295986	2420.129412
798.617484	2422.342479
798.938938	2415.834349
799.260346	2419.574885
799.581709	2418.480955
799.903026	2418.501119
800.224299	2417.220666
800.545526	2417.230749
800.866708	2417.855852
801.187845	2415.189081
801.508936	2415.660429
801.829983	2416.789648
802.150984	2413.061714
802.471940	2412.582805
802.792851	2416.184709
803.113717	2416.855183
803.434538	2414.390058
803.755314	2414.679925
804.076045	2411.420819
804.396731	2414.977353
804.717372	2413.275963
805.037967	2412.429050
805.358518	2414.480799
805.679024	2414.042219
805.999485	2414.962229
806.319901	2417.404668
806.640272	2415.196643
806.960598	2414.833680
807.280879	2415.252096
807.601115	2415.373083
807.921306	2416.648495
808.241453	2417.480286
808.561554	2414.513567
808.881611	2415.058011
809.201623	2416.542631
809.521590	2413.848134
809.841513	2412.454255
810.161390	2414.170768
810.481223	2412.330747
810.801011	2412.466858
811.120755	2414.642116
811.440453	2416.983732
811.760107	2412.003072
812.079716	2410.306724
812.399281	2413.021385
812.718801	2411.819070
813.038276	2407.859244
813.357707	2412.716395
813.677093	2412.514749
813.996434	2415.103382
814.315731	2414.773186
814.634983	2416.456932
814.954191	2415.645306
815.273354	2415.806623
815.592473	2414.332085
815.911547	2415.234452
816.230577	2417.152611
816.549562	2415.090779
816.868502	2414.145563
817.187399	2415.930131
817.506250	2415.544483
817.825058	2418.047416
818.143821	2417.099679
818.462539	2416.789648
818.781213	2422.813827
819.099843	2424.663930
819.418429	2425.238622
819.736970	2427.847419
820.055466	2432.273552
820.373919	2437.859150
820.692327	2445.519183
821.010691	2459.836060
821.329011	2493.268993
821.647286	2548.116747
821.965517	2599.831423
822.283704	2633.034983
822.601847	2639.999337
822.919945	2618.029989
823.237999	2590.946390
823.556010	2562.577296
823.873976	2541.210366
824.191897	2516.909484
824.509775	2499.323418
824.827609	2484.951089
825.145398	2475.443473
825.463144	2470.069603
825.780845	2472.784264
826.098502	2478.873978
826.416116	2488.293374
826.733685	2501.841475
827.051210	2505.904645
827.368692	2503.505056
827.686129	2486.118116
828.003522	2471.392906
828.320872	2453.300204
828.638177	2450.005810
828.955439	2443.157403
829.272656	2435.799839
829.589830	2428.427151
829.906960	2430.320105
830.224046	2424.200144
830.541088	2423.479259
830.858086	2420.709145
831.175041	2422.866759
831.491952	2420.497416
831.808819	2421.800555
832.125642	2422.685277
832.442421	2426.977820
832.759157	2430.816658
833.075849	2440.621703
833.392497	2451.906325
833.709101	2458.243056
834.025662	2458.202727
834.342179	2455.205761
834.658653	2444.737805
834.975083	2440.674635
835.291469	2442.287804
835.607811	2429.687440
835.924110	2428.197779
836.240366	2426.728282
836.556578	2420.895667
836.872746	2417.165214
837.188871	2418.770821
837.504952	2413.107085
837.820990	2412.421488
838.136984	2414.014493
838.452935	2412.169430
838.768842	2412.134142
839.084706	2411.531724
839.400526	2417.961716
839.716303	2424.036306
840.032037	2430.718356
840.347727	2428.026380
840.663373	2422.609660
840.978977	2420.391552
841.294537	2417.155131
841.610054	2414.057342
841.925527	2413.502815
842.240957	2411.035171
842.556344	2412.189595
842.871687	2409.535427
843.186987	2411.060376
843.502244	2408.174316
843.817458	2407.783626
844.132629	2407.581980
844.447756	2405.326064
844.762840	2402.165260
845.077881	2403.700292
845.392879	2399.402708
845.707833	2403.092833
846.022745	2402.384551
846.337613	2406.717422
846.652438	2404.010323
846.967221	2407.559295
847.281960	2404.501835
847.596656	2402.402195
847.911309	2404.461506
848.225919	2403.120559
848.540485	2404.169119
848.855009	2403.836403
849.169490	2404.645508
849.483928	2404.229613
849.798323	2401.353635
850.112675	2402.780281
850.426984	2406.215827
850.741251	2402.379509
851.055474	2403.007133
851.369654	2402.679458
851.683792	2402.268604
851.997887	2403.672565
852.311938	2402.860940
852.625947	2404.358162
852.939914	2403.869170
853.253837	2403.702812
853.567718	2405.436969
853.881555	2404.290107
854.195350	2400.468912
854.509103	2406.233472
854.822812	2403.034859
855.136479	2405.089130
855.450103	2403.891856
855.763685	2405.971332
856.077224	2402.555950
856.390720	2403.218862
856.704173	2403.019736
857.017584	2405.336146
857.330953	2403.798594
857.644278	2405.101732
857.957561	2406.661970
858.270802	2404.869839
858.584000	2406.183060
858.897155	2406.767834
859.210268	2404.433780
859.523339	2406.099881
859.836367	2402.326577
860.149352	2404.882442
860.462295	2404.489232
860.775195	2402.934036
861.088054	2402.389592
861.400869	2404.322874
861.713642	2400.007647
862.026373	2404.128790
862.339062	2403.836403
862.651708	2404.516959
862.964312	2402.777761
863.276873	2402.117369
863.589392	2405.711712
863.901869	2407.259346
864.214303	2402.442524
864.526696	2403.133162
864.839045	2405.094171
865.151353	2404.164078
865.463619	2404.955539
865.775842	2409.222876
866.088023	2404.995868
866.400162	2407.340005
866.712258	2407.997875
867.024313	2405.719274
867.336325	2405.268091
867.648296	2404.935374
867.960224	2405.348749
868.272110	2402.578635
868.583954	2403.281876
868.895755	2404.398492
869.207515	2403.866650
869.519233	2407.607186
869.830909	2403.627195
870.142542	2406.934192
870.454134	2405.714233
870.765684	2404.837072
871.077191	2405.958729
871.388657	2411.463669
871.700081	2407.450910
872.011463	2405.973852
872.322803	2407.158523
872.634101	2406.475447
872.945357	2406.072155
873.256571	2406.661970
873.567744	2409.122053
873.878874	2407.909655
874.189963	2409.656415
874.501010	2406.407391
874.812015	2406.977042
875.122979	2410.934348
875.433900	2409.535427
875.744780	2407.944943
876.055618	2410.097516
876.366415	2409.353946
876.677169	2409.111970
876.987882	2406.508214
877.298554	2402.863460
877.609183	2410.488205
877.919771	2408.232289
878.230317	2410.026940
878.540822	2411.685479
878.851285	2414.611869
879.161707	2416.714030
879.472087	2423.083528
879.782425	2429.848757
880.092722	2438.181784
880.402977	2458.989147
880.713191	2478.127887
881.023363	2500.321567
881.333494	2513.138701
881.643583	2518.343692
881.953631	2516.717920
882.263637	2506.953205
882.573602	2500.840806
882.883526	2489.462922
883.193408	2481.129894
883.503248	2474.624285
883.813048	2462.946452
884.122806	2460.700618
884.432522	2452.591922
884.742197	2444.813422
885.051831	2440.316713
885.361424	2432.873449
885.670975	2429.808428
885.980485	2423.759043
886.289954	2422.511357
886.599382	2419.272416
886.908768	2415.980543
887.218113	2415.794020
887.527417	2413.265881
887.836680	2413.525501
888.145901	2410.349574
888.455082	2412.658422
888.764221	2408.927968
889.073319	2410.866292
889.382376	2410.084913
889.691392	2410.833524
890.000366	2408.161713
890.309300	2407.788668
890.618193	2410.891498
890.927044	2409.361508
891.235855	2407.743297
891.544625	2411.652712
891.853353	2411.221693
892.162041	2410.389903
892.470687	2414.417785
892.779293	2412.582805
893.087858	2413.107085
893.396381	2415.272260
893.704864	2420.494896
894.013306	2423.890113
894.321707	2436.336722
894.630068	2439.127000
894.938387	2441.869388
895.246665	2438.751434
895.554903	2435.305806
895.863100	2431.214909
896.171256	2429.934456
896.479371	2425.757860
896.787446	2424.051430
897.095480	2423.118816
897.403473	2420.149577
897.711425	2417.051788
898.019336	2418.206212
898.327207	2417.535738
898.635038	2414.163207
898.942827	2410.831004
899.250576	2412.345871
899.558284	2410.316806
899.865952	2410.205901
900.173579	2411.912331
900.481165	2410.077351
900.788711	2407.171126
901.096216	2408.242371
901.403681	2406.914027
901.711105	2408.191960
902.018489	2407.438307
902.325832	2409.495098
902.633135	2405.520148
902.940397	2411.819070
903.247619	2416.749318
903.554800	2424.210226
903.861941	2432.956628
904.169041	2447.215532
904.476101	2445.728391
904.783121	2447.447425
905.090100	2439.527772
905.397039	2436.495518
905.703938	2431.449323
906.010796	2429.016966
906.317614	2425.087387
906.624391	2423.630493
906.931129	2417.238310
907.237826	2417.175296
907.544483	2416.240162
907.851099	2411.758576
908.157675	2410.016858
908.464211	2410.929306
908.770707	2401.094015
909.077163	2403.687689
909.383578	2400.032852
909.689954	2401.474622
909.996289	2398.938922
910.302584	2406.392268
910.608839	2402.528223
910.915054	2403.034859
911.221229	2403.443193
911.527363	2402.117369
911.833458	2403.228944
912.139513	2402.359345
912.445527	2405.903276
912.751502	2404.191804
913.057436	2403.395302
913.363331	2406.838410
913.669186	2407.077865
913.975000	2408.806981
914.280775	2412.837383
914.586510	2413.608680
914.892205	2420.142015
915.197859	2425.709969
915.503475	2433.922009
915.809050	2441.241764
916.114585	2444.639502
916.420081	2447.412137
916.725536	2444.611776
917.030952	2442.537341
917.336328	2438.108687
917.641665	2437.077771
917.946961	2433.662390
918.252218	2429.934456
918.557435	2429.218613
918.862612	2427.471853
919.167750	2421.039340
919.472848	2421.326686
919.777906	2417.785276
920.082925	2415.365522
920.387904	2414.977353
920.692843	2413.913669
920.997743	2410.634399
921.302603	2411.897208
921.607423	2407.471075
921.912204	2404.834551
922.216946	2407.546692
922.521647	2408.267577
922.826310	2403.591907
923.130932	2403.208779
923.435516	2404.915210
923.740059	2405.376475
924.044564	2402.949160
924.349028	2403.060065
924.653454	2399.284241
924.957840	2400.594941
925.262186	2399.145609
925.566493	2401.585528
925.870761	2397.066133
926.174989	2400.665517
926.479178	2401.971176
926.783328	2400.655435
927.087438	2398.825496
927.391509	2399.866494
927.695541	2399.233829
927.999533	2398.802811
928.303486	2400.294992
928.607400	2400.957904
928.911275	2400.950342
929.215110	2398.581000
929.518906	2397.474467
929.822663	2399.944632
930.126381	2401.832544
930.430060	2399.377502
930.733699	2401.018398
931.037299	2401.409087
931.340861	2395.488252
931.644383	2400.738614
931.947866	2399.682492
932.251309	2398.548232
932.554714	2398.364230
932.858080	2399.586710
933.161407	2398.765002
933.464694	2398.898593
933.767943	2400.224416
934.071153	2400.065620
934.374323	2400.042935
934.677455	2399.904303
934.980548	2396.715773
935.283602	2399.387585
935.586617	2396.100752
935.889593	2399.100239
936.192530	2396.609909
936.495428	2402.026629
936.798287	2398.132337
937.101108	2399.682492
937.403890	2401.535116
937.706632	2401.525034
938.009336	2399.798439
938.312002	2401.053686
938.614628	2399.284241
938.917216	2398.349107
939.219765	2401.509910
939.522275	2402.815569
939.824747	2403.324726
940.127179	2400.002605
940.429573	2398.664179
940.731929	2399.967317
941.034246	2397.466905
941.336524	2401.875394
941.638763	2400.710888
941.940964	2400.652914
942.243126	2401.804818
942.545250	2402.019067
942.847335	2401.399005
943.149381	2399.395146
943.451389	2399.347255
943.753359	2402.818090
944.055290	2400.584859
944.357182	2400.501680
944.659036	2401.474622
944.960851	2399.702657
945.262628	2400.504200
945.564367	2401.124262
945.866067	2399.869015
946.167729	2399.768192
946.469352	2398.303737
946.770937	2401.303223
947.072484	2399.853891
947.373992	2398.424724
947.675462	2399.836247
947.976893	2399.029663
948.278286	2398.956566
948.579641	2401.020918
948.880958	2399.569066
949.182236	2399.143089
949.483476	2399.216185
949.784678	2398.646535
950.085841	2401.373799
950.386967	2402.293810
950.688054	2398.817934
950.989103	2396.957748
951.290114	2399.586710
951.591087	2401.056207
951.892021	2400.978069
952.192917	2400.186607
952.493776	2399.362379
952.794596	2399.745507
953.095378	2398.356669
953.396122	2401.114180
953.696828	2398.621329
953.997496	2400.491597
954.298126	2396.982954
954.598718	2399.218706
954.899272	2398.321381
955.199788	2398.661658
955.500266	2397.638304
955.800706	2399.443037
956.101108	2394.911040
956.401472	2396.337687
956.701798	2394.878273
957.002087	2398.800290
957.302337	2396.095711
957.602550	2399.816083
957.902724	2398.555794
958.202861	2395.238715
958.502960	2396.970351
958.803022	2397.058572
959.103045	2395.228633
959.403031	2397.600496
959.702979	2394.563200
960.002889	2396.355331
960.302762	2397.245094
960.602596	2395.558828
960.902393	2393.683519
961.202153	2397.005639
961.501875	2395.977244
961.801559	2397.713922
962.101205	2393.008004
962.400814	2394.611091
962.700385	2394.028838
962.999918	2396.483880
963.299414	2394.989178
963.598873	2394.520351
963.898293	2394.704353
964.197677	2397.348438
964.497022	2394.303581
964.796331	2394.477501
965.095601	2395.886503
965.394835	2396.781308
965.694030	2394.018756
965.993189	2397.471946
966.292309	2394.845505
966.591393	2397.413973
966.890439	2394.792573
967.189447	2394.969013
967.488419	2395.621843
967.787353	2398.049158
968.086249	2394.260731
968.385108	2397.545043
968.683930	2396.826678
968.982714	2397.285423
969.281462	2399.674930
969.580172	2397.635784
969.878844	2395.329456
970.177480	2396.133520
970.476078	2394.704353
970.774639	2395.097563
971.073162	2394.779970
971.371649	2391.992212
971.670098	2390.273178
971.968510	2394.066647
972.266885	2390.056409
972.565223	2393.839795
972.863524	2393.055895
973.161788	2398.185269
973.460014	2394.293499
973.758204	2394.026317
974.056356	2396.879611
974.354471	2395.626884
974.652550	2395.871380
974.950591	2395.750392
975.248595	2396.773746
975.546563	2395.823489
975.844493	2397.393808
976.142386	2397.025804
976.440243	2395.294168
976.738062	2395.170659
977.035845	2395.952038
977.333590	2395.334497
977.631299	2395.674775
977.928971	2394.517830
978.226606	2395.193345
978.524204	2394.888355
978.821765	2393.791904
979.119290	2394.686709
979.416777	2394.560680
979.714228	2394.495145
980.011642	2393.948180
980.309020	2398.523027
980.606360	2394.835423
980.903664	2395.135371
981.200931	2393.912892
981.498162	2396.599827
981.795356	2396.158726
982.092513	2400.307595
982.389633	2397.194683
982.686717	2400.431103
982.983764	2400.673079
983.280775	2403.208779
983.577749	2400.950342
983.874686	2399.508572
984.171587	2399.881618
984.468451	2400.897410
984.765279	2398.782646
985.062070	2401.076371
985.358824	2396.483880
985.655543	2397.867677
985.952224	2398.006308
986.248869	2395.911709
986.545478	2391.233518
986.842050	2392.768550
987.138586	2391.667058
987.435086	2394.207799
987.731549	2390.779814
988.027975	2394.074208
988.324366	2392.077912
988.620719	2393.784342
988.917037	2396.493962
989.213318	2394.419527
989.509563	2393.265103
989.805772	2394.976575
990.101944	2395.168139
990.398080	2392.133364
990.694180	2391.825854
990.990244	2395.175701
991.286271	2392.224105
991.582262	2392.602192
991.878217	2394.389281
992.174136	2394.540515
992.470019	2390.726882
992.765865	2396.834240
993.061676	2390.454660
993.357450	2394.638818
993.653188	2392.733262
993.948890	2395.243756
994.244556	2393.703684
994.540186	2395.427758
994.835780	2395.886503
995.131337	2397.119065
995.426859	2393.454147
995.722345	2395.417676
996.017795	2397.436658
996.313208	2396.428427
996.608586	2395.064795
996.903928	2399.006978
997.199234	2394.825340
997.494504	2399.566546
997.789738	2396.816596
998.084936	2398.586041
998.380099	2397.043448
998.675225	2394.369116
998.970316	2397.381205
999.265371	2394.855587
999.560390	2398.356669
999.855373	2396.241905
1000.150320	2394.480021
1000.445232	2396.730897
1000.740108	2397.383726
1001.034948	2395.256359
1001.329752	2395.205948
1001.624521	2395.689898
1001.919254	2390.754609
1002.213951	2390.419372
1002.508613	2391.709907
1002.803239	2392.733262
1003.097829	2390.424413
1003.392384	2394.721997
1003.686903	2393.227295
1003.981386	2393.186965
1004.275834	2393.955741
1004.570246	2394.210320
1004.864623	2394.016235
1005.158964	2395.735269
1005.453270	2392.400545
1005.747540	2395.203427
1006.041775	2391.992212
1006.335974	2393.796945
1006.630138	2392.881976
1006.924266	2394.969013
1007.218359	2390.416851
1007.512416	2392.108158
1007.806438	2394.480021
1008.100425	2392.748385
1008.394376	2391.462891
1008.688292	2392.700494
1008.982172	2394.495145
1009.276017	2392.030021
1009.569827	2391.941800
1009.863602	2394.832902
1010.157341	2393.040772
1010.451045	2396.307440
1010.744714	2395.223592
1011.038347	2392.425751
1011.331945	2395.246277
1011.625508	2392.894578
1011.919036	2392.813920
1012.212528	2392.448436
1012.505986	2393.325597
1012.799408	2393.882645
1013.092795	2393.068498
1013.386147	2392.720659
1013.679464	2391.551111
1013.972745	2392.438354
1014.265992	2393.590258
1014.559204	2393.275186
1014.852380	2394.719476
1015.145521	2393.620505
1015.438628	2392.458519
1015.731699	2392.100597
1016.024736	2391.631769
1016.317737	2393.610422
1016.610703	2395.750392
1016.903635	2392.335010
1017.196531	2388.854094
1017.489393	2392.617315
1017.782219	2385.683208
1018.075011	2394.175032
1018.367768	2390.923487
1018.660490	2391.961965
1018.953177	2391.961965
1019.245829	2391.961965
