Dividing Wavelength (nm)	Counts (n)	Blue Motor Position (mm): 0.000000	Red Motor Position (mm): 25.800000	
326.493990	1984.306539
326.888308	1984.306539
327.282561	1984.306539
327.676750	1963.282407
328.070874	1965.495473
328.464933	1969.757769
328.858929	1981.135653
329.252859	1992.755512
329.646726	2007.087513
330.040528	2020.892713
330.434265	2040.853161
330.827938	2061.839485
331.221547	2078.510581
331.615091	2100.061513
332.008571	2121.065481
332.401986	2141.013327
332.795338	2159.942859
333.188625	2183.595953
333.581847	2201.265197
333.975006	2218.190871
334.368100	2237.218707
334.761129	2255.366860
335.154095	2265.643253
335.546996	2288.325924
335.939833	2311.807619
336.332606	2327.346976
336.725315	2334.906186
337.117960	2344.058401
337.510540	2353.071984
337.903056	2362.826616
338.295508	2367.673686
338.687896	2375.106867
339.080220	2381.209184
339.472480	2389.022972
339.864676	2389.761501
340.256807	2394.684188
340.648875	2399.309447
341.040879	2398.533109
341.432818	2398.941443
341.824694	2398.097049
342.216506	2398.641494
342.608253	2400.161402
342.999937	2398.984292
343.391557	2397.184600
343.783113	2396.735938
344.174605	2393.015566
344.566033	2391.336862
344.957397	2394.225443
345.348697	2388.891902
345.739934	2390.280740
346.131106	2387.918960
346.522215	2385.007693
346.913260	2383.495347
347.304241	2383.800337
347.695159	2377.103164
348.086012	2381.083155
348.476802	2377.957640
348.867528	2377.387989
349.258191	2376.467979
349.648789	2375.205170
350.039324	2373.670138
350.429796	2371.699047
350.820203	2370.877339
351.210548	2375.744573
351.600828	2371.373893
351.991045	2372.220807
352.381198	2370.227030
352.771288	2370.678213
353.161314	2369.493542
353.551276	2371.978831
353.941175	2369.584283
354.331010	2371.557895
354.720782	2369.811135
355.110490	2373.912114
355.500135	2373.637371
355.889717	2370.693337
356.279235	2374.111239
356.668689	2375.273225
357.058080	2372.926568
357.447408	2373.201311
357.836672	2372.056969
358.225873	2372.946733
358.615010	2371.648636
359.004084	2378.870088
359.393095	2380.107692
359.782043	2379.401930
360.170927	2380.944523
360.559748	2379.754811
360.948505	2382.759339
361.337199	2384.682539
361.725830	2385.216901
362.114398	2386.182282
362.502903	2382.973588
362.891344	2385.219422
363.279722	2384.929555
363.668037	2386.590616
364.056289	2387.170348
364.444478	2387.853425
364.832603	2389.459032
365.220665	2388.334855
365.608665	2390.580689
365.996601	2393.199568
366.384474	2394.507748
366.772284	2390.268137
367.160031	2395.132851
367.547715	2393.002963
367.935336	2396.748541
368.322893	2396.105793
368.710388	2395.095042
369.097820	2399.987482
369.485189	2400.834396
369.872495	2402.440003
370.259738	2402.460168
370.646918	2404.201887
371.034035	2405.623492
371.421090	2410.112639
371.808081	2414.800912
372.195010	2414.453073
372.581875	2423.312901
372.968678	2432.457554
373.355418	2438.985848
373.742096	2450.630913
374.128710	2459.876390
374.515262	2471.854171
374.901751	2485.009062
375.288177	2502.973214
375.674540	2522.328724
376.060841	2541.348997
376.447079	2564.714746
376.833254	2591.742892
377.219367	2616.348764
377.605417	2650.767242
377.991404	2680.290759
378.377329	2716.405585
378.763191	2753.440422
379.148991	2798.294088
379.534727	2849.303004
379.920402	2895.815210
380.306013	2942.014864
380.691563	3008.618589
381.077049	3065.835685
381.462474	3120.391052
381.847835	3194.299408
382.233134	3267.665841
382.618371	3325.034172
383.003545	3410.915268
383.388657	3489.942917
383.773706	3583.312648
384.158693	3654.647495
384.543618	3750.966301
384.928480	3826.581088
385.313280	3933.897171
385.698017	4040.028583
386.082692	4159.793796
386.467305	4219.370152
386.851856	4348.156509
387.236344	4501.246269
387.620770	4565.087442
388.005133	4687.499260
388.389435	4832.150128
388.773674	4919.553654
389.157851	5053.363521
389.541965	5185.071227
389.926018	5206.377663
390.310008	5386.361979
390.693936	5512.408469
391.077802	5626.217559
391.461606	5757.232106
391.845348	5874.126381
392.229027	5992.837993
392.612645	6220.650256
392.996200	6338.088976
393.379694	6511.292939
393.763125	6734.709316
394.146494	6826.385219
394.529801	6961.261291
394.913047	7209.638941
395.296230	7202.011675
395.679351	7259.795901
396.062410	7521.174687
396.445408	7416.553100
396.828343	7570.293169
397.211217	7711.480765
397.594028	7588.269924
397.976778	7791.430944
398.359466	7953.607384
398.742092	7933.299096
399.124656	8084.755522
399.507158	8273.876929
399.889598	8287.271275
400.271977	8497.918409
400.654294	8528.263634
401.036549	8728.289057
401.418742	8751.629600
401.800874	9055.175117
402.182944	9129.542218
402.564952	9501.975103
402.946898	9321.693359
403.328783	9377.798881
403.710606	9575.066792
404.092367	9831.986677
404.474067	10191.783910
404.855705	9983.576694
405.237282	9938.269324
405.618797	10362.885712
406.000250	10611.487694
406.381642	10975.905144
406.762972	10924.840776
407.144240	10722.375434
407.525447	10976.749537
407.906593	10915.030690
408.287677	11172.792448
408.668700	11329.211890
409.049661	11304.928652
409.430560	11467.276491
409.811399	11436.245669
410.192176	11592.420615
410.572891	11668.932728
410.953545	12153.077581
411.334138	11625.735080
411.714669	12223.200031
412.095139	11543.425641
412.475547	12039.220601
412.855894	11883.401056
413.236180	12207.965664
413.616405	11898.690876
413.996568	12166.804643
414.376670	12149.861325
414.756711	12014.440809
415.136691	12300.518728
415.516609	12484.394815
415.896466	12543.754401
416.276262	12843.403107
416.655997	13286.026497
417.035670	13322.549656
417.415283	13959.065905
417.794834	14054.308425
418.174324	13792.748158
418.553753	13696.648642
418.933121	14190.903530
419.312428	13997.928160
419.691674	13902.385692
420.070859	14355.857645
420.449983	14012.708823
420.829045	14571.293875
421.208047	14305.257063
421.586988	14764.727990
421.965867	15013.879457
422.344686	15014.587739
422.723444	15571.478963
423.102141	14262.472791
423.480777	15452.530417
423.859352	14958.643534
424.237866	16056.077521
424.616319	15753.794813
424.994712	16418.400371
425.373044	16205.250304
425.751314	16885.662400
426.129524	16010.447517
426.507673	17087.641270
426.885762	16785.298068
427.263789	16979.891648
427.641756	17140.099517
428.019662	17211.756999
428.397508	17255.625119
428.775292	17548.009522
429.153016	17505.721803
429.530679	17590.322447
429.908282	17608.241228
430.285824	17334.231831
430.663305	18040.928504
431.040726	17635.589488
431.418086	17451.131148
431.795385	18104.686497
432.172624	18525.395991
432.549802	18082.238239
432.926920	18260.213655
433.303977	18156.562491
433.680974	18408.015245
434.057910	18697.843782
434.434786	18720.594509
434.811601	18628.230489
435.188355	19664.638787
435.565050	19304.246699
435.941683	19274.675290
436.318257	20144.176026
436.694770	19948.332241
437.071222	20534.469719
437.447614	19608.288770
437.823946	19628.619743
438.200218	19783.710841
438.576429	19557.151305
438.952580	19830.490228
439.328670	19798.990578
439.704700	20207.974349
440.080670	19769.028481
440.456580	20366.344717
440.832429	20547.707789
441.208218	19531.222130
441.583947	19975.362907
441.959616	20077.980635
442.335224	20297.971548
442.710773	20424.302863
443.086261	20961.190789
443.461689	20322.229580
443.837057	20439.083526
444.212365	21064.927653
444.587612	21057.255017
444.962800	20633.193155
445.337927	21045.088192
445.712995	19788.003384
446.088002	21612.240685
446.462949	21793.013941
446.837837	21954.058642
447.212664	21908.408473
447.587431	24703.413209
447.962139	27581.145800
448.336786	29896.346115
448.711374	28318.674169
449.085901	24666.133876
449.460369	24593.954635
449.834776	24503.355018
450.209124	26912.358604
450.583412	26414.032985
450.957640	26895.064926
451.331808	25539.155858
451.705917	24165.839686
452.079965	24166.545448
452.453954	24472.367046
452.827883	24318.072450
453.201752	24083.084105
453.575562	24184.786863
453.949311	25207.745363
454.323001	25217.333638
454.696632	24928.132724
455.070202	26332.383936
455.443713	26394.856435
455.817164	26875.197738
456.190556	27280.768648
456.563888	26659.882496
456.937160	26994.181572
457.310373	25335.861247
457.683526	25660.995505
458.056619	25540.499326
458.429653	25379.797423
458.802628	25813.319010
459.175542	25805.353987
459.548398	26846.758069
459.921194	28160.001331
460.293930	28631.933990
460.666607	30310.381122
461.039224	31722.877141
461.411782	31878.356408
461.784280	30664.963280
462.156719	30073.416644
462.529099	29387.527334
462.901419	28087.310413
463.273680	26989.775604
463.645882	26905.343838
464.018024	26718.750570
464.390106	27259.678981
464.762130	29348.783546
465.134094	32534.444937
465.505999	36760.033352
465.877845	40435.647006
466.249631	41157.068889
466.621358	39366.826609
466.993026	37271.997813
467.364634	35260.141369
467.736184	33375.402660
468.107674	32103.544750
468.479105	31218.877703
468.850477	30410.778221
469.221790	29045.621157
469.593043	27456.745246
469.964238	26536.122169
470.335373	26235.001447
470.706449	27226.591367
471.077467	28848.522123
471.448425	31921.284354
471.819324	33745.025101
472.190164	32084.632862
472.560945	29227.546317
472.931667	26733.327066
473.302330	25688.522726
473.672934	24868.911769
474.043479	24922.158957
474.413965	24133.266271
474.784393	23625.269198
475.154761	23931.236989
475.525070	23690.819321
475.895321	23114.363379
476.265513	23218.884142
476.635645	23546.491086
477.005719	23161.019258
477.375734	23163.587725
477.745691	23290.075317
478.115588	23783.085039
478.485427	24643.801565
478.855207	26287.822657
479.224928	27512.830603
479.594591	28119.916596
479.964194	27143.240930
480.333739	26845.522986
480.703226	26474.695709
481.072653	26472.553219
481.442022	26382.011575
481.811333	26174.852920
482.180584	25094.120276
482.549777	24456.744510
482.918912	23825.602131
483.287988	23316.312002
483.657005	22558.790416
484.025964	21915.519021
484.394864	21570.721742
484.763706	21033.191069
485.132489	20321.304528
485.501213	19925.125289
485.869879	19671.467030
486.238487	19184.909984
486.607036	18957.349779
486.975527	18437.702600
487.343959	18201.935396
487.712333	17932.062266
488.080648	17595.018282
488.448905	17458.750852
488.817104	17085.846620
489.185244	17137.863766
489.553326	17453.535778
489.921350	18159.662800
490.289315	18951.300395
490.657222	18869.174957
491.025070	18650.557759
491.392861	17949.073640
491.760593	17142.851987
492.128267	16259.762821
492.495883	15463.099197
492.863440	14756.339510
493.230939	14092.480042
493.598380	13532.909444
493.965763	13176.358715
494.333088	12704.385727
494.700354	12330.914365
495.067563	12025.090247
495.434713	11766.889908
495.801805	11561.878784
496.168839	11256.831003
496.535815	10970.380039
496.902733	10753.892728
497.269593	10455.632861
497.636395	10242.392053
498.003139	10118.241037
498.369825	9812.295931
498.736453	9676.270476
499.103023	9399.657324
499.469535	9193.486734
499.835989	9016.406123
500.202385	8777.911655
500.568723	8606.071323
500.935003	8457.654713
501.301226	8251.673167
501.667390	8174.858585
502.033497	8047.715644
502.399546	7796.353631
502.765537	7538.972480
503.131470	7431.185049
503.497345	7312.105434
503.863163	7006.606469
504.228923	6933.066117
504.594625	6833.931827
504.960269	6615.365040
505.325856	6546.540687
505.691385	6355.533888
506.056856	6235.395631
506.422270	6145.106045
506.787625	5984.852805
507.152924	5880.442947
507.518164	5767.349702
507.883347	5591.423515
508.248472	5497.353063
508.613540	5433.839566
508.978550	5344.722048
509.343503	5224.987083
509.708398	5138.440554
510.073236	5077.654321
510.438016	4982.689064
510.802738	4854.893294
511.167403	4808.537364
511.532010	4735.987598
511.896561	4666.354140
512.261053	4640.046879
512.625488	4530.036299
512.989866	4450.660811
513.354186	4370.246845
513.718449	4298.518788
514.082655	4268.256741
514.446803	4192.417623
514.810894	4151.561592
515.174927	4091.808795
515.538904	4031.146070
515.902822	3999.301101
516.266684	3932.536060
516.630488	3896.900143
516.994235	3842.198583
517.357925	3817.875016
517.721558	3779.370682
518.085133	3748.337339
518.448651	3712.189746
518.812112	3665.450688
519.175516	3632.680667
519.538863	3610.396247
519.902152	3575.004826
520.265385	3555.389697
520.628560	3527.552445
520.991678	3496.163701
521.354739	3472.999599
521.717743	3456.595684
522.080690	3431.281530
522.443580	3418.267791
522.806413	3400.401942
523.169189	3377.731873
523.531908	3361.890047
523.894569	3338.940194
524.257174	3325.051816
524.619722	3315.687872
524.982213	3297.968217
525.344647	3283.903397
525.707025	3268.386726
526.069345	3259.090838
526.431608	3244.438724
526.793815	3235.962024
527.155964	3216.717419
527.518057	3207.280379
527.880093	3193.724717
528.242072	3190.576516
528.603995	3176.615041
528.965860	3166.381498
529.327669	3157.761125
529.689421	3149.453304
530.051117	3140.802684
530.412755	3132.396560
530.774337	3127.254583
531.135862	3117.134466
531.497331	3105.358331
531.858743	3096.679985
532.220098	3099.603854
532.581396	3084.475351
532.942638	3072.651325
533.303824	3075.192066
533.664953	3067.174111
534.026025	3053.739436
534.387040	3059.388049
534.747999	3048.340360
535.108902	3047.959753
535.469748	3038.424411
535.830537	3031.444933
536.191270	3031.475180
536.551947	3021.365146
536.912567	3017.342305
537.273131	3016.840711
537.633638	3004.063906
537.994089	3008.419463
538.354483	3000.078874
538.714821	3000.870335
539.075103	3001.845798
539.435328	2994.553769
539.795497	2987.085300
540.155609	2984.214363
540.515665	2987.067656
540.875665	2977.923003
541.235609	2974.560553
541.595496	2970.101653
541.955328	2978.941316
542.315102	2966.119141
542.674821	2962.222329
543.034483	2956.553552
543.394090	2957.027420
543.753640	2953.831329
544.113134	2963.412042
544.472571	2947.976028
544.831953	2956.135136
545.191278	2946.015020
545.550548	2938.861622
545.909761	2943.615430
546.268918	2940.227775
546.628019	2945.266408
546.987064	2936.835078
547.346053	2926.364602
547.704986	2934.180911
548.063863	2928.035744
548.422684	2926.581372
548.781449	2921.220104
549.140158	2924.080959
549.498811	2923.120619
549.857408	2913.222314
550.215949	2918.049219
550.574434	2912.682910
550.932864	2912.632499
551.291237	2913.416398
551.649555	2912.937489
552.007817	2912.060328
552.366022	2908.844072
552.724173	2908.150913
553.082267	2908.397930
553.440305	2909.839700
553.798288	2901.640263
554.156215	2902.782084
554.514086	2905.481622
554.871902	2900.337125
555.229661	2900.775705
555.587365	2894.857390
555.945014	2893.997874
556.302606	2891.953686
556.660143	2895.311094
557.017625	2891.941083
557.375050	2889.864128
557.732421	2891.421844
558.089735	2888.069477
558.446994	2886.562172
558.804197	2892.351937
559.161345	2889.125598
559.518437	2879.933054
559.875474	2883.275339
560.232455	2879.910369
560.589381	2878.637478
560.946251	2877.639329
561.303065	2879.675956
561.659825	2879.312992
562.016528	2874.501211
562.373177	2871.035418
562.729770	2873.389637
563.086307	2868.920654
563.442789	2868.348483
563.799216	2868.943339
564.155587	2866.702546
564.511904	2863.924870
564.868164	2863.425796
565.224370	2864.814634
565.580520	2859.455887
565.936615	2860.824561
566.292654	2856.887420
566.648638	2858.982019
567.004567	2852.257120
567.360441	2854.956658
567.716260	2853.018334
568.072023	2852.425998
568.427732	2846.421984
568.783385	2842.474761
569.138982	2841.292610
569.494525	2841.763958
569.850013	2836.800942
570.205445	2836.269100
570.560823	2837.312619
570.916145	2831.757268
571.271412	2831.656445
571.626625	2830.128975
571.981782	2824.906340
572.336884	2822.000114
572.691931	2821.848880
573.046923	2816.273364
573.401860	2813.777992
573.756743	2809.848413
574.111570	2810.239102
574.466342	2806.364976
574.821059	2805.122331
575.175722	2798.823410
575.530330	2796.822072
575.884882	2789.207409
576.239380	2789.971143
576.593823	2787.649692
576.948211	2781.806995
577.302544	2778.305913
577.656823	2777.486726
578.011047	2777.834566
578.365216	2770.350973
578.719330	2768.160591
579.073389	2763.217740
579.427394	2764.846033
579.781344	2756.049219
580.135239	2754.862027
580.489080	2754.070566
580.842866	2745.540934
581.196597	2751.023189
581.550273	2745.974473
581.903895	2740.230078
582.257463	2742.828793
582.610975	2736.754203
582.964434	2736.970972
583.317837	2732.456619
583.671186	2725.272975
584.024481	2724.572255
584.377721	2723.722820
584.730906	2720.398179
585.084037	2719.788200
585.437113	2713.365770
585.790135	2711.737477
586.143103	2708.122970
586.496016	2706.645912
586.848874	2702.439069
587.201679	2700.939325
587.554428	2692.729806
587.907124	2696.026721
588.259765	2690.310052
588.612352	2693.097811
588.964884	2688.913653
589.317362	2687.303004
589.669786	2686.680422
590.022155	2683.701100
590.374470	2681.293949
590.726731	2677.989472
591.078937	2673.618792
591.431090	2673.825479
591.783188	2670.513441
592.135232	2667.382885
592.487222	2665.429438
592.839157	2663.120589
593.191038	2662.180414
593.542866	2658.941473
593.894639	2656.420896
594.246358	2654.827891
594.598022	2654.936276
594.949633	2651.359577
595.301190	2647.702220
595.652692	2645.350522
596.004141	2644.702734
596.355535	2642.688793
596.706876	2637.728297
597.058162	2638.093781
597.409395	2638.358442
597.760573	2637.662762
598.111698	2636.921713
598.462768	2634.023049
598.813785	2635.298461
599.164748	2630.123717
599.515657	2629.843933
599.866511	2626.834364
600.217312	2626.655403
600.568060	2626.373098
600.918753	2626.088273
601.269392	2625.135495
601.619978	2622.700618
601.970510	2622.264558
602.320988	2622.259517
602.671412	2622.715741
603.021783	2621.069804
603.372100	2620.787500
603.722363	2620.394290
604.072572	2619.794392
604.422728	2617.069649
604.772830	2612.986314
605.122878	2610.092692
605.472872	2616.424381
605.822813	2609.732249
606.172701	2615.214504
606.522534	2611.771396
606.872314	2615.766511
607.222041	2614.034874
607.571714	2614.992693
607.921333	2611.736108
608.270899	2612.590584
608.620411	2611.857096
608.969870	2613.709720
609.319276	2609.228134
609.668627	2611.032867
610.017926	2612.610748
610.367171	2613.782817
610.716362	2612.280553
611.065500	2613.056890
611.414585	2613.618979
611.763616	2614.090327
612.112594	2612.827518
612.461518	2612.877929
612.810389	2613.538321
613.159207	2610.939606
613.507971	2610.422887
613.856682	2614.377673
614.205340	2614.140738
614.553945	2614.780965
614.902496	2611.040429
615.250994	2615.622838
615.599439	2613.427415
615.947830	2616.038733
616.296169	2613.203084
616.644454	2614.496140
616.992686	2615.330451
617.340864	2616.250461
617.688990	2612.028495
618.037063	2616.583177
618.385082	2615.242231
618.733048	2616.966305
619.080961	2613.508074
619.428821	2614.619648
619.776628	2616.220214
620.124382	2612.441870
620.472083	2614.551592
620.819731	2612.116715
621.167326	2612.199894
621.514868	2614.561675
621.862357	2609.205449
622.209793	2610.594287
622.557176	2605.903493
622.904506	2603.695468
623.251783	2598.167842
623.599007	2601.132041
623.946179	2595.634663
624.293297	2597.963676
624.640363	2596.126175
624.987376	2597.467122
625.334336	2597.204982
625.681243	2595.501072
626.028097	2594.192893
626.374899	2592.229363
626.721647	2593.179621
627.068343	2592.592326
627.414987	2590.190217
627.761577	2591.311873
628.108115	2586.462283
628.454600	2589.232397
628.801032	2587.967068
629.147412	2586.792479
629.493739	2587.137798
629.840014	2586.759711
630.186236	2583.800554
630.532405	2586.661409
630.878521	2582.426840
631.224585	2583.896336
631.570597	2582.184864
631.916556	2584.269381
632.262462	2581.579926
632.608316	2582.731829
632.954117	2581.456418
633.299866	2579.558423
633.645562	2577.524318
633.991206	2575.394430
634.336797	2572.432752
634.682336	2576.153124
635.027823	2573.188925
635.373257	2574.812177
635.718639	2573.312433
636.063968	2567.767164
636.409245	2569.352607
636.754470	2570.582649
637.099642	2565.284396
637.444762	2564.155177
637.789829	2564.871021
638.134845	2564.215671
638.479808	2562.778943
638.824719	2561.501010
639.169577	2560.528067
639.514383	2557.672254
639.859137	2557.682336
640.203839	2560.954045
640.548489	2554.307283
640.893086	2554.594629
641.237632	2553.510781
641.582125	2553.488096
641.926566	2552.888199
642.270955	2554.972716
642.615292	2554.566903
642.959576	2555.078580
643.303809	2554.476162
643.647990	2554.385421
643.992118	2556.117058
644.336195	2556.245607
644.680219	2555.025648
645.024192	2554.524053
645.368112	2554.524053
645.711981	2557.377346
646.055797	2559.555125
646.399562	2557.994887
646.743274	2562.657955
647.086935	2565.533933
647.430544	2562.824313
647.774101	2560.646534
648.117606	2564.271124
648.461059	2566.065775
648.804460	2564.180383
649.147810	2564.195507
649.491108	2560.197872
649.834354	2557.417675
650.177548	2555.567572
650.520690	2553.528425
650.863781	2550.891902
651.206820	2552.603373
651.549807	2551.136398
651.892742	2550.193702
652.235626	2546.569112
652.578458	2546.962322
652.921238	2545.765048
653.263967	2544.187167
653.606644	2542.702547
653.949269	2543.546941
654.291843	2543.809081
654.634365	2546.921993
654.976836	2540.358411
655.319255	2541.800181
655.661622	2539.599717
656.003938	2541.114584
656.346203	2539.955118
656.688416	2541.417053
657.030577	2536.708615
657.372687	2540.481919
657.714746	2537.532844
658.056753	2538.281455
658.398708	2534.997144
658.740612	2535.236598
659.082465	2534.326670
659.424266	2534.971938
659.766016	2532.610157
660.107715	2537.369007
660.449362	2538.873791
660.790958	2536.983358
661.132503	2535.791125
661.473996	2536.769109
661.815438	2537.923533
662.156829	2537.197607
662.498168	2534.911444
662.839456	2534.553522
663.180693	2538.062165
663.521879	2537.978986
663.863013	2536.839685
664.204097	2536.433873
664.545129	2538.972093
664.886110	2537.139634
665.227040	2539.665252
665.567918	2540.746580
665.908746	2539.466127
666.249522	2540.804553
666.590248	2539.221631
666.930922	2539.894625
667.271545	2540.030736
667.612118	2542.382434
667.952639	2540.917979
668.293109	2540.164326
668.633528	2540.756662
668.973896	2540.618030
669.314213	2537.623585
669.654480	2536.527134
669.994695	2534.493028
670.334859	2536.454037
670.674973	2533.429345
671.015035	2536.398584
671.355047	2535.234078
671.695008	2536.537216
672.034918	2536.638039
672.374777	2535.622247
672.714585	2534.329191
673.054342	2535.206352
673.394049	2532.567307
673.733705	2537.510159
674.073310	2535.092926
674.412864	2535.604603
674.752368	2533.197452
675.091820	2535.181146
675.431223	2531.496062
675.770574	2531.559077
676.109875	2527.168232
676.449125	2525.812161
676.788324	2525.441637
677.127473	2528.264683
677.466571	2520.783610
677.805619	2524.846780
678.144616	2526.956503
678.483562	2524.483817
678.822458	2523.969620
679.161303	2527.248890
679.500098	2524.188910
679.838842	2524.443488
680.177535	2522.381656
680.516179	2523.329393
680.854771	2525.492048
681.193314	2528.335259
681.531805	2531.493542
681.870247	2533.338604
682.208638	2535.884387
682.546978	2536.529654
682.885268	2536.088553
683.223508	2538.699871
683.561697	2534.850950
683.899836	2536.877494
684.237925	2534.246012
684.575963	2535.355066
684.913951	2531.498583
685.251889	2532.368182
685.589776	2530.389529
685.927614	2531.758202
686.265401	2532.403470
686.603137	2531.284334
686.940824	2533.424304
687.278460	2535.473533
687.616046	2535.627288
687.953582	2536.343132
688.291068	2540.035777
688.628504	2536.108718
688.965889	2539.050231
689.303224	2536.771630
689.640510	2537.739531
689.977745	2532.998326
690.314930	2531.498583
690.652065	2530.424817
690.989150	2525.492048
691.326185	2525.303005
691.663170	2520.680267
692.000105	2519.770338
692.336990	2513.882271
692.673825	2514.005779
693.010610	2513.932682
693.347345	2505.869357
693.684030	2503.532782
694.020665	2504.548574
694.357251	2501.367606
694.693786	2507.873215
695.030272	2503.948677
695.366707	2503.467247
695.703093	2500.014057
696.039429	2499.275528
696.375716	2498.910044
696.711952	2500.107318
697.048139	2499.351145
697.384276	2500.555981
697.720363	2498.234529
698.056400	2498.839468
698.392388	2497.846360
698.728326	2496.823006
699.064214	2494.846874
699.400053	2494.564569
699.735842	2493.498365
700.071581	2495.880310
700.407270	2492.422079
700.742910	2491.784373
701.078501	2491.774291
701.414042	2490.755977
701.749533	2487.925370
702.084974	2488.091728
702.420366	2487.950575
702.755709	2485.119967
703.091002	2487.224649
703.426246	2487.562407
703.761440	2487.007880
704.096584	2483.184164
704.431679	2484.603249
704.766725	2483.784062
705.101721	2485.961840
705.436668	2484.746922
705.771565	2484.540235
706.106413	2482.123002
706.441212	2484.562920
706.775961	2486.241624
707.110661	2481.767600
707.445311	2485.878661
707.779913	2484.386480
708.114465	2484.053763
708.448967	2486.894454
708.783421	2490.927377
709.117825	2490.035092
709.452180	2493.876452
709.786485	2493.332007
710.120742	2498.630260
710.454949	2497.059940
710.789107	2497.503562
711.123216	2496.301247
711.457275	2500.193018
711.791286	2502.181753
712.125247	2502.290138
712.459159	2504.041938
712.793023	2506.781806
713.126837	2500.891217
713.460602	2504.548574
713.794318	2499.129334
714.127985	2500.596310
714.461602	2497.869046
714.795171	2495.653458
715.128691	2490.698004
715.462162	2492.510299
715.795584	2489.435195
716.128957	2488.069043
716.462281	2486.672643
716.795556	2486.675163
717.128782	2480.015799
717.461960	2480.827425
717.795088	2481.646612
718.128167	2480.260295
718.461198	2478.967239
718.794180	2481.540748
719.127113	2476.602938
719.459997	2478.135449
719.792833	2476.146714
720.125619	2477.149903
720.458357	2472.774182
720.791046	2474.372227
721.123686	2471.496249
721.456278	2469.210086
721.788821	2469.570528
722.121315	2471.750828
722.453761	2473.585808
722.786158	2470.765282
723.118506	2469.996506
723.450805	2469.391568
723.783056	2471.849130
724.115259	2470.692185
724.447412	2470.672021
724.779518	2471.458441
725.111574	2471.478605
725.443582	2471.992803
725.775542	2473.230406
726.107453	2474.611682
726.439315	2474.115129
726.771129	2483.922693
727.102895	2476.038329
727.434612	2480.920686
727.766281	2478.102681
728.097901	2478.231231
728.429473	2478.304327
728.760996	2479.078145
729.092471	2478.702579
729.423897	2479.539410
729.755276	2479.945223
730.086606	2480.277939
730.417887	2482.995121
730.749120	2485.540904
731.080305	2484.643578
731.411442	2488.691625
731.742530	2485.762715
732.073570	2489.430154
732.404562	2486.836480
732.735506	2490.471152
733.066401	2486.904536
733.397249	2484.822539
733.728048	2482.445635
734.058798	2475.932465
734.389501	2476.607979
734.720156	2474.994810
735.050762	2472.259984
735.381320	2471.581949
735.711831	2470.694706
736.042293	2469.482308
736.372707	2467.375106
736.703073	2469.782257
737.033391	2468.330405
737.363661	2466.059365
737.693883	2470.898873
738.024056	2469.716722
738.354182	2470.241002
738.684260	2469.585652
739.014290	2475.705613
739.344272	2475.254429
739.674207	2477.470017
740.004093	2478.821046
740.333931	2476.602938
740.663722	2476.771817
740.993464	2477.873309
741.323159	2475.425829
741.652806	2476.050932
741.982405	2474.127732
742.311956	2473.616054
742.641460	2470.482977
742.970915	2470.109932
743.300323	2469.126907
743.629683	2469.704119
743.958996	2469.298306
744.288260	2464.728500
744.617477	2464.680609
744.946647	2459.974692
745.275768	2463.117852
745.604842	2457.706173
745.933869	2460.025104
746.262847	2454.321038
746.591778	2462.439816
746.920662	2462.069292
747.249498	2463.753037
747.578286	2463.674899
747.907027	2465.419138
748.235720	2463.294292
748.564365	2465.973665
748.892963	2464.912502
749.221514	2463.959724
749.550017	2461.045937
749.878473	2465.131792
750.206881	2463.813531
750.535242	2460.282202
750.863555	2461.421503
751.191821	2462.407049
751.520039	2463.261524
751.848210	2462.535598
752.176334	2457.827161
752.504411	2458.911009
752.832440	2460.216667
753.160421	2461.424024
753.488356	2460.375464
753.816243	2460.067953
754.144082	2456.103086
754.471875	2460.985443
754.799620	2457.557459
755.127318	2462.056689
755.454969	2456.322376
755.782572	2459.694908
756.110129	2456.077880
756.437638	2458.258179
756.765100	2456.208950
757.092515	2459.379836
757.419882	2456.745833
757.747203	2457.640638
758.074477	2458.842953
758.401703	2458.389249
758.728882	2461.565176
759.056014	2460.703139
759.383099	2458.734568
759.710138	2459.357151
760.037129	2461.202213
760.364073	2462.071812
760.690970	2462.923767
761.017820	2460.751030
761.344623	2463.468212
761.671379	2465.562811
761.998088	2463.289251
762.324751	2473.547999
762.651366	2489.044506
762.977935	2506.058400
763.304456	2513.201715
763.630931	2522.069105
763.957359	2515.850841
764.283740	2508.962105
764.610074	2498.446258
764.936362	2489.543580
765.262602	2479.504122
765.588796	2475.110757
765.914943	2468.620271
766.241044	2463.405197
766.567097	2462.777574
766.893104	2456.518981
767.219064	2452.798610
767.544978	2454.028651
767.870845	2449.242076
768.196665	2451.465224
768.522438	2452.007148
768.848165	2447.139914
769.173846	2448.395162
769.499479	2447.906170
769.825066	2446.708896
770.150607	2445.383072
770.476101	2444.233689
770.801548	2447.802826
771.126949	2442.749069
771.452303	2443.396858
771.777611	2440.977104
772.102872	2442.849893
772.428087	2439.668924
772.753256	2442.605397
773.078378	2441.050201
773.403453	2441.372834
773.728482	2437.818821
774.053465	2438.600200
774.378401	2437.836465
774.703291	2438.494336
775.028135	2438.322936
775.352932	2436.331681
775.677683	2438.300251
776.002388	2436.067020
776.327046	2436.742535
776.651658	2436.553491
776.976224	2436.140117
777.300743	2434.779005
777.625216	2431.915630
777.949643	2435.940991
778.274024	2435.993923
778.598359	2433.909406
778.922647	2429.422779
779.246889	2432.598706
779.571086	2428.079312
779.895236	2438.113728
780.219339	2432.255908
780.543397	2436.470312
780.867409	2431.905548
781.191374	2433.375044
781.515294	2433.438058
781.839167	2436.243460
782.162995	2432.190373
782.486776	2435.716660
782.810511	2437.037442
783.134201	2433.634663
783.457844	2437.108018
783.781441	2435.600713
784.104993	2433.105342
784.428498	2431.794642
784.751958	2434.625250
785.075372	2435.736824
785.398739	2434.721032
785.722061	2433.659869
786.045337	2432.240784
786.368568	2434.562236
786.691752	2435.509973
787.014891	2434.806732
787.337983	2436.223296
787.661030	2439.880653
787.984031	2442.486929
788.306987	2444.571447
788.629897	2442.789399
788.952760	2444.745366
789.275579	2444.218566
789.598351	2445.141097
789.921078	2440.087340
790.243759	2438.111208
790.566395	2438.784202
790.888984	2436.319078
791.211529	2435.356217
791.534027	2436.888728
791.856480	2433.286824
792.178888	2433.354879
792.501249	2434.703388
792.823566	2434.335384
793.145836	2430.937646
793.468062	2430.494024
793.790241	2433.012081
794.112375	2433.183480
794.434464	2434.380754
794.756507	2434.776485
795.078505	2437.970056
795.400457	2432.502924
795.722364	2435.971238
796.044226	2436.182967
796.366042	2435.809921
796.687812	2436.039294
797.009538	2441.859306
797.331218	2438.534665
797.652852	2437.891918
797.974442	2438.317895
798.295986	2436.987031
798.617484	2438.532144
798.938938	2435.131886
799.260346	2437.423090
799.581709	2433.271700
799.903026	2435.598193
800.224299	2432.172729
800.545526	2431.867739
800.866708	2432.439910
801.187845	2431.608119
801.508936	2430.219282
801.829983	2432.548295
802.150984	2430.247008
802.471940	2430.836823
802.792851	2430.935125
803.113717	2429.758016
803.434538	2431.600558
803.755314	2429.183324
804.076045	2431.182142
804.396731	2427.766760
804.717372	2432.334046
805.037967	2429.011925
805.358518	2429.705084
805.679024	2429.039652
805.999485	2430.113417
806.319901	2429.879004
806.640272	2430.534354
806.960598	2430.247008
807.280879	2431.159457
807.601115	2429.934456
807.921306	2431.179621
808.241453	2431.887903
808.561554	2430.446133
808.881611	2431.335897
809.201623	2431.938315
809.521590	2429.455547
809.841513	2428.601071
810.161390	2430.642738
810.481223	2431.663572
810.801011	2430.060485
811.120755	2431.809766
811.440453	2431.774477
811.760107	2428.530495
812.079716	2427.444126
812.399281	2424.560586
812.718801	2423.451533
813.038276	2424.222829
813.357707	2429.516041
813.677093	2427.192069
813.996434	2426.037644
814.315731	2427.834816
814.634983	2431.111566
814.954191	2429.231215
815.273354	2427.812131
815.592473	2428.759867
815.911547	2430.516710
816.230577	2431.983685
816.549562	2430.347831
816.868502	2433.271700
817.187399	2431.237595
817.506250	2436.031732
817.825058	2431.073757
818.143821	2435.036104
818.462539	2436.682041
818.781213	2442.910386
819.099843	2442.433997
819.418429	2447.570933
819.736970	2450.608228
820.055466	2462.608695
820.373919	2468.915178
820.692327	2479.627630
821.010691	2507.127125
821.329011	2560.701987
821.647286	2642.101498
821.965517	2724.751216
822.283704	2776.211314
822.601847	2791.813685
822.919945	2758.252203
823.237999	2714.300904
823.556010	2673.707012
823.873976	2634.267545
824.191897	2596.229519
824.509775	2569.760941
824.827609	2545.747404
825.145398	2530.177801
825.463144	2522.563138
825.780845	2524.972809
826.098502	2532.133768
826.416116	2555.426420
826.733685	2574.456775
827.051210	2578.257805
827.368692	2568.709860
827.686129	2546.566592
828.003522	2523.888961
828.320872	2504.538492
828.638177	2489.561224
828.955439	2473.979018
829.272656	2465.285548
829.589830	2456.045113
829.906960	2458.205247
830.224046	2449.163938
830.541088	2445.123453
830.858086	2444.624379
831.175041	2444.044646
831.491952	2439.094233
831.808819	2439.694130
832.125642	2443.348967
832.442421	2450.164607
832.759157	2457.350772
833.075849	2476.789461
833.392497	2493.223622
833.709101	2504.757782
834.025662	2501.523882
834.342179	2491.973416
834.658653	2479.524287
834.975083	2469.288224
835.291469	2466.755044
835.607811	2452.213836
835.924110	2449.443722
836.240366	2444.337033
836.556578	2441.680345
836.872746	2437.846547
837.188871	2432.573500
837.504952	2430.710794
837.820990	2429.901689
838.136984	2429.233736
838.452935	2424.875658
838.768842	2425.994795
839.084706	2429.301792
839.400526	2437.140786
839.716303	2445.582198
840.032037	2453.476645
840.347727	2450.361212
840.663373	2443.795109
840.978977	2439.235385
841.294537	2437.080292
841.610054	2431.436720
841.925527	2432.762544
842.240957	2426.718200
842.556344	2425.271389
842.871687	2423.340627
843.186987	2419.849628
843.502244	2420.250400
843.817458	2418.783424
844.132629	2418.188568
844.447756	2416.532549
844.762840	2410.221024
845.077881	2416.585481
845.392879	2413.802764
845.707833	2415.907446
846.022745	2413.238155
846.337613	2415.645306
846.652438	2414.377456
846.967221	2413.772517
847.281960	2416.035995
847.596656	2417.770152
847.911309	2413.160017
848.225919	2414.609349
848.540485	2414.468196
848.855009	2414.122877
849.169490	2413.742270
849.483928	2414.742939
849.798323	2414.858886
850.112675	2415.511715
850.426984	2414.022054
850.741251	2416.144380
851.055474	2415.032806
851.369654	2411.337640
851.683792	2413.369225
851.997887	2416.300656
852.311938	2414.175809
852.625947	2414.591705
852.939914	2414.052301
853.253837	2415.794020
853.567718	2410.450397
853.881555	2413.230593
854.195350	2412.265212
854.509103	2417.016500
854.822812	2414.483320
855.136479	2414.521128
855.450103	2413.149935
855.763685	2412.585325
856.077224	2413.744791
856.390720	2414.538772
856.704173	2414.874009
857.017584	2415.363001
857.330953	2413.235634
857.644278	2415.186561
857.957561	2414.894174
858.270802	2414.740419
858.584000	2412.764286
858.897155	2414.453073
859.210268	2411.193967
859.523339	2414.629513
859.836367	2412.297980
860.149352	2414.516087
860.462295	2414.579102
860.775195	2410.513411
861.088054	2411.677918
861.400869	2413.197826
861.713642	2407.042577
862.026373	2414.110274
862.339062	2413.568350
862.651708	2415.557086
862.964312	2410.755387
863.276873	2413.243196
863.589392	2411.763617
863.901869	2416.552713
864.214303	2414.231262
864.526696	2417.152611
864.839045	2416.446849
865.151353	2416.182189
865.463619	2415.501633
865.775842	2413.354101
866.088023	2415.264699
866.400162	2416.446849
866.712258	2416.403999
867.024313	2416.139339
867.336325	2416.381314
867.648296	2416.724113
867.960224	2414.556417
868.272110	2413.422157
868.583954	2418.576737
868.895755	2414.982394
869.207515	2414.952147
869.519233	2417.036664
869.830909	2416.933321
870.142542	2417.477765
870.454134	2415.915008
870.765684	2416.542631
871.077191	2420.580595
871.388657	2418.347364
871.700081	2417.313928
872.011463	2421.629155
872.322803	2419.403486
872.634101	2420.114289
872.945357	2419.229566
873.256571	2418.223856
873.567744	2420.313414
873.878874	2421.329207
874.189963	2419.688311
874.501010	2420.678898
874.812015	2420.086562
875.122979	2421.049423
875.433900	2422.251738
875.744780	2421.349371
876.055618	2421.218301
876.366415	2423.542273
876.677169	2421.019176
876.987882	2420.459608
877.298554	2417.775193
877.609183	2421.782911
877.919771	2422.130750
878.230317	2425.533529
878.540822	2425.697367
878.851285	2430.940167
879.161707	2435.494849
879.472087	2441.599686
879.782425	2449.985646
880.092722	2473.774851
880.402977	2497.440548
880.713191	2533.021011
881.023363	2566.746331
881.333494	2587.299115
881.643583	2595.339755
881.953631	2589.408838
882.263637	2582.532704
882.573602	2568.031825
882.883526	2555.343241
883.193408	2538.331867
883.503248	2525.600433
883.813048	2513.869668
884.122806	2500.477843
884.432522	2489.949393
884.742197	2477.049080
885.051831	2470.845940
885.361424	2460.060392
885.670975	2453.083435
885.980485	2451.467745
886.289954	2443.263267
886.599382	2441.324943
886.908768	2436.684561
887.218113	2435.255394
887.527417	2430.257090
887.836680	2429.778181
888.145901	2428.832964
888.455082	2424.058992
888.764221	2425.130237
889.073319	2425.397418
889.382376	2424.124527
889.691392	2423.320463
890.000366	2423.121337
890.309300	2420.000863
890.618193	2420.192427
890.927044	2423.075967
891.235855	2423.010432
891.544625	2422.440781
891.853353	2425.399938
892.162041	2424.452202
892.470687	2424.432037
892.779293	2427.668458
893.087858	2431.590475
893.396381	2433.639704
893.704864	2441.019954
894.013306	2448.657302
894.321707	2461.209775
894.630068	2471.450879
894.938387	2470.729994
895.246665	2465.368727
895.554903	2463.995012
895.863100	2456.889506
896.171256	2453.282560
896.479371	2448.064966
896.787446	2445.778803
897.095480	2441.198915
897.403473	2441.317382
897.711425	2433.082657
898.019336	2438.033070
898.327207	2431.524940
898.635038	2428.964034
898.942827	2429.644590
899.250576	2426.221647
899.558284	2426.014959
899.865952	2422.339958
900.173579	2424.676533
900.481165	2422.614701
900.788711	2422.251738
901.096216	2419.295101
901.403681	2418.854000
901.711105	2420.154618
902.018489	2418.554052
902.325832	2421.689649
902.633135	2421.006573
902.940397	2423.723755
903.247619	2429.619384
903.554800	2447.641509
903.861941	2462.215485
904.169041	2478.576550
904.476101	2479.877167
904.783121	2476.996148
905.090100	2470.661938
905.397039	2464.846967
905.703938	2458.948817
906.010796	2451.916408
906.317614	2448.861468
906.624391	2443.054059
906.931129	2437.279417
907.237826	2433.080136
907.544483	2431.098963
907.851099	2425.679723
908.157675	2422.108065
908.464211	2419.330389
908.770707	2415.252096
909.077163	2415.299987
909.383578	2411.491395
909.689954	2411.579615
909.996289	2407.715571
910.302584	2410.934347
910.608839	2411.952661
910.915054	2413.369225
911.221229	2410.011816
911.527363	2412.363515
911.833458	2417.651685
912.139513	2414.009451
912.445527	2413.749832
912.751502	2415.768814
913.057436	2413.185223
913.363331	2417.394586
913.669186	2415.839390
913.975000	2421.792993
914.280775	2422.095462
914.586510	2432.437389
914.892205	2438.932916
915.197859	2450.285594
915.503475	2459.147943
915.809050	2470.314099
916.114585	2477.001189
916.420081	2481.142497
916.725536	2479.433546
917.030952	2475.703092
917.336328	2469.590693
917.641665	2463.422841
917.946961	2460.556945
918.252218	2459.026955
918.557435	2454.953703
918.862612	2448.407765
919.167750	2443.971549
919.472848	2440.233534
919.777906	2437.470981
920.082925	2433.919488
920.387904	2429.064857
920.692843	2426.728282
920.997743	2424.505134
921.302603	2421.974474
921.607423	2420.978847
921.912204	2419.310225
922.216946	2417.024061
922.521647	2414.984915
922.826310	2417.568506
923.130932	2413.860737
923.435516	2413.951478
923.740059	2412.376117
924.044564	2413.636406
924.349028	2411.123391
924.653454	2407.380334
924.957840	2407.849161
925.262186	2405.759603
925.566493	2409.157341
925.870761	2406.341856
926.174989	2411.118350
926.479178	2408.055849
926.783328	2408.970818
927.087438	2408.872516
927.391509	2406.858575
927.695541	2407.022412
927.999533	2406.422515
928.303486	2405.867988
928.607400	2407.934861
928.911275	2407.423184
929.215110	2404.917730
929.518906	2405.837741
929.822663	2406.941754
930.126381	2406.999727
930.430060	2407.771023
930.733699	2405.263049
931.037299	2408.693555
931.340861	2404.826990
931.644383	2407.700447
931.947866	2407.161044
932.251309	2407.103071
932.554714	2404.358162
932.858080	2406.672052
933.161407	2405.489901
933.464694	2404.688358
933.767943	2404.930333
934.071153	2406.160375
934.374323	2402.752555
934.677455	2407.085427
934.980548	2407.531569
935.283602	2406.172978
935.586617	2405.177350
935.889593	2407.244223
936.192530	2406.036867
936.495428	2403.901938
936.798287	2407.236661
937.101108	2408.227248
937.403890	2407.040056
937.706632	2410.004255
938.009336	2409.041394
938.312002	2410.621796
938.614628	2407.781106
938.917216	2408.585170
939.219765	2410.594070
939.522275	2410.357135
939.824747	2412.731519
940.127179	2410.294121
940.429573	2408.328071
940.731929	2411.017527
941.034246	2407.639953
941.336524	2413.797723
941.638763	2407.584501
941.940964	2411.751014
942.243126	2410.641961
942.545250	2410.130283
942.847335	2409.202711
943.149381	2410.261353
943.451389	2407.395458
943.753359	2407.758421
944.055290	2406.770354
944.357182	2408.093657
944.659036	2407.597104
944.960851	2409.981569
945.262628	2407.806312
945.564367	2407.460993
945.866067	2405.197514
946.167729	2406.596435
946.469352	2407.057700
946.770937	2409.255643
947.072484	2404.532082
947.373992	2408.063410
947.675462	2407.440828
947.976893	2408.910324
948.278286	2404.786660
948.579641	2406.866136
948.880958	2408.471744
949.182236	2403.475960
949.483476	2407.677762
949.784678	2406.215827
950.085841	2407.486198
950.386967	2408.983421
950.688054	2406.452762
950.989103	2409.709347
951.290114	2408.849830
951.591087	2406.172978
951.892021	2405.804973
952.192917	2407.196332
952.493776	2409.046435
952.794596	2407.317320
953.095378	2407.897052
953.396122	2406.480488
953.696828	2409.895870
953.997496	2405.701630
954.298126	2407.241702
954.598718	2410.495767
954.899272	2407.045097
955.199788	2407.161044
955.500266	2406.838410
955.800706	2406.193142
956.101108	2402.316495
956.401472	2402.883625
956.701798	2401.945970
957.002087	2403.576783
957.302337	2399.624519
957.602550	2403.112997
957.902724	2401.603172
958.202861	2403.528892
958.502960	2400.786505
958.803022	2399.841288
959.103045	2401.504869
959.403031	2402.346742
959.702979	2404.000240
960.002889	2404.025446
960.302762	2401.502349
960.602596	2403.750703
960.902393	2400.128634
961.202153	2400.804149
961.501875	2403.100394
961.801559	2403.264232
962.101205	2401.225085
962.400814	2400.179046
962.700385	2401.514952
962.999918	2403.458316
963.299414	2401.225085
963.598873	2402.624005
963.898293	2402.566032
964.197677	2402.843296
964.497022	2401.018398
964.796331	2399.193500
965.095601	2401.613254
965.394835	2404.274983
965.694030	2401.613254
965.993189	2399.047307
966.292309	2398.651576
966.591393	2399.437996
966.890439	2400.746176
967.189447	2401.008316
967.488419	2399.891700
967.787353	2402.238357
968.086249	2398.606206
968.385108	2399.790877
968.683930	2399.425393
968.982714	2402.651732
969.281462	2401.807338
969.580172	2399.473284
969.878844	2399.692574
970.177480	2404.695920
970.476078	2401.711557
970.774639	2400.108470
971.073162	2402.818090
971.371649	2398.283572
971.670098	2397.562687
971.968510	2398.646535
972.266885	2394.548077
972.565223	2403.244067
972.863524	2400.509241
973.161788	2400.589900
973.460014	2399.972358
973.758204	2399.702657
974.056356	2402.709705
974.354471	2400.884807
974.652550	2400.509241
974.950591	2401.933367
975.248595	2403.465878
975.546563	2400.433624
975.844493	2402.124931
976.142386	2402.268604
976.440243	2402.503018
976.738062	2405.230282
977.035845	2399.589231
977.333590	2399.203583
977.631299	2402.258522
977.928971	2401.197359
978.226606	2401.474622
978.524204	2400.105949
978.821765	2399.644683
979.119290	2398.434807
979.416777	2399.727863
979.714228	2398.608726
980.011642	2400.587379
980.309020	2401.691392
980.606360	2399.274159
980.903664	2402.165260
981.200931	2401.126783
981.498162	2405.472257
981.795356	2403.244067
982.092513	2405.326064
982.389633	2407.156003
982.686717	2406.810684
982.983764	2407.874367
983.280775	2408.179357
983.577749	2408.166754
983.874686	2407.345046
984.171587	2409.810170
984.468451	2408.527197
984.765279	2408.897721
985.062070	2407.564336
985.358824	2406.041908
985.655543	2406.021743
985.952224	2404.821948
986.248869	2405.752041
986.545478	2400.506721
986.842050	2399.460681
987.138586	2396.836761
987.435086	2398.490259
987.731549	2399.498490
988.027975	2400.287431
988.324366	2397.214847
988.620719	2397.900444
988.917037	2400.032852
989.213318	2398.926319
989.509563	2399.944632
989.805772	2398.933881
990.101944	2400.794067
990.398080	2398.112173
990.694180	2400.383213
990.990244	2398.896072
991.286271	2397.265259
991.582262	2402.182904
991.878217	2399.064951
992.174136	2401.719118
992.470019	2399.276679
992.765865	2399.717780
993.061676	2398.228119
993.357450	2398.291134
993.653188	2396.587224
993.948890	2401.726680
994.244556	2400.050496
994.540186	2399.369941
994.835780	2401.903120
995.131337	2405.321023
995.426859	2399.511093
995.722345	2404.522000
996.017795	2403.937226
996.313208	2406.732546
996.608586	2404.446382
996.903928	2403.639798
997.199234	2405.489901
997.494504	2405.298337
997.789738	2403.012174
998.084936	2404.716084
998.380099	2404.370765
998.675225	2405.126938
998.970316	2401.114180
999.265371	2399.400188
999.560390	2400.670558
999.855373	2399.894221
1000.150320	2399.841288
1000.445232	2400.486556
1000.740108	2399.750548
1001.034948	2397.280382
1001.329752	2400.042935
1001.624521	2398.583521
1001.919254	2396.463715
1002.213951	2398.644014
1002.508613	2396.914899
1002.803239	2397.025804
1003.097829	2395.415155
1003.392384	2399.674930
1003.686903	2397.943294
1003.981386	2399.816083
1004.275834	2398.260887
1004.570246	2399.763151
1004.864623	2398.202913
1005.158964	2397.182080
1005.453270	2397.298026
1005.747540	2398.490259
1006.041775	2400.163922
1006.335974	2399.317008
1006.630138	2398.356669
1006.924266	2399.359858
1007.218359	2399.465723
1007.512416	2395.460526
1007.806438	2398.878428
1008.100425	2400.993192
1008.394376	2399.054868
1008.688292	2398.155022
1008.982172	2399.246432
1009.276017	2395.669734
1009.569827	2397.590413
1009.863602	2398.457492
1010.157341	2395.737789
1010.451045	2398.384395
1010.744714	2401.149468
1011.038347	2397.608057
1011.331945	2398.092008
1011.625508	2396.040258
1011.919036	2398.424724
1012.212528	2399.069992
1012.505986	2396.960269
1012.799408	2397.832389
1013.092795	2398.593603
1013.386147	2396.728376
1013.679464	2396.516647
1013.972745	2398.008829
1014.265992	2395.473129
1014.559204	2398.197872
1014.852380	2397.547563
1015.145521	2397.020763
1015.438628	2397.045969
1015.731699	2394.943808
1016.024736	2399.034704
1016.317737	2399.299364
1016.610703	2400.015208
1016.903635	2396.657800
1017.196531	2393.197048
1017.489393	2396.619991
1017.782219	2394.472460
1018.075011	2397.126627
1018.367768	2399.715260
1018.660490	2398.848181
1018.953177	2398.848181
1019.245829	2398.848181
