Dividing Wavelength (nm)	Counts (n)	Blue Motor Position (mm): 0.000000	Red Motor Position (mm): 31.000000	
326.493990	1987.936169
326.888308	1987.936169
327.282561	1987.936169
327.676750	1964.469598
328.070874	1965.354321
328.464933	1971.073510
328.858929	1980.964254
329.252859	1995.177787
329.646726	2009.164468
330.040528	2024.527385
330.434265	2041.901721
330.827938	2062.005843
331.221547	2080.736250
331.615091	2102.002358
332.008571	2123.833074
332.401986	2143.044912
332.795338	2163.688437
333.188625	2184.904133
333.581847	2201.423994
333.975006	2223.113558
334.368100	2238.645353
334.761129	2256.120513
335.154095	2270.636515
335.546996	2292.605864
335.939833	2324.619711
336.332606	2338.586228
336.725315	2348.741633
337.117960	2356.812520
337.510540	2362.879548
337.903056	2373.647453
338.295508	2380.483258
338.687896	2388.743188
339.080220	2393.970865
339.472480	2400.007647
339.864676	2404.060734
340.256807	2407.740777
340.648875	2408.968297
341.040879	2412.524832
341.432818	2409.008627
341.824694	2413.616241
342.216506	2413.051632
342.608253	2413.064235
342.999937	2410.757907
343.391557	2412.328227
343.783113	2406.288924
344.174605	2407.196332
344.566033	2404.932854
344.957397	2405.295817
345.348697	2405.263049
345.739934	2400.753737
346.131106	2400.461350
346.522215	2400.156361
346.913260	2396.183931
347.304241	2393.491955
347.695159	2391.601523
348.086012	2394.356513
348.476802	2391.515823
348.867528	2391.263765
349.258191	2388.153373
349.648789	2387.253527
350.039324	2385.204298
350.429796	2388.473487
350.820203	2387.266130
351.210548	2386.303270
351.600828	2385.539535
351.991045	2389.101110
352.381198	2384.319576
352.771288	2385.395862
353.161314	2386.189844
353.551276	2383.744884
353.941175	2383.777652
354.331010	2385.201778
354.720782	2384.001983
355.110490	2386.618342
355.500135	2386.464587
355.889717	2384.644730
356.279235	2386.174720
356.668689	2384.362426
357.058080	2387.314021
357.447408	2385.398383
357.836672	2382.240100
358.225873	2386.852756
358.615010	2386.966182
359.004084	2390.401728
359.393095	2391.460370
359.782043	2393.786863
360.170927	2392.738303
360.559748	2393.892727
360.948505	2394.399363
361.337199	2395.447923
361.725830	2397.398849
362.114398	2400.915054
362.502903	2398.404560
362.891344	2399.069992
363.279722	2401.963614
363.668037	2398.674261
364.056289	2401.991341
364.444478	2403.881773
364.832603	2404.272463
365.220665	2403.924623
365.608665	2404.627864
365.996601	2406.001578
366.384474	2407.322361
366.772284	2407.057700
367.160031	2410.236148
367.547715	2410.846127
367.935336	2411.617424
368.322893	2412.933165
368.710388	2413.006262
369.097820	2413.127249
369.485189	2414.453073
369.872495	2415.864596
370.259738	2415.985584
370.646918	2422.705442
371.034035	2421.087231
371.421090	2426.582089
371.808081	2428.979158
372.195010	2434.965528
372.581875	2438.660694
372.968678	2447.734771
373.355418	2451.440019
373.742096	2465.731690
374.128710	2475.408185
374.515262	2486.055102
374.901751	2501.052534
375.288177	2520.960051
375.674540	2537.369007
376.060841	2558.042778
376.447079	2582.948599
376.833254	2612.199894
377.219367	2636.364665
377.605417	2670.664676
377.991404	2697.281968
378.377329	2739.413412
378.763191	2774.646036
379.148991	2820.475165
379.534727	2872.136910
379.920402	2921.066349
380.306013	2969.529482
380.691563	3032.097763
381.077049	3088.241093
381.462474	3146.650422
381.847835	3222.703790
382.233134	3294.182310
382.618371	3355.127339
383.003545	3441.038683
383.388657	3526.929862
383.773706	3619.382103
384.158693	3693.971016
384.543618	3788.714461
384.928480	3870.247563
385.313280	3976.845282
385.698017	4084.168926
386.082692	4203.908933
386.467305	4266.714148
386.851856	4395.828181
387.236344	4553.707037
387.620770	4617.260863
388.005133	4741.507662
388.389435	4886.304723
388.773674	4975.056758
389.157851	5111.730000
389.541965	5243.173045
389.926018	5265.767497
390.310008	5450.384633
390.693936	5576.907512
391.077802	5692.859092
391.461606	5829.925544
391.845348	5947.202948
392.229027	6066.254837
392.612645	6292.259846
392.996200	6410.348875
393.379694	6589.420742
393.763125	6815.811399
394.146494	6910.537201
394.529801	7050.580454
394.913047	7292.873432
395.296230	7289.639532
395.679351	7350.216557
396.062410	7618.423585
396.445408	7506.411668
396.828343	7671.045670
397.211217	7808.066752
397.594028	7688.425048
397.976778	7895.974393
398.359466	8059.154022
398.742092	8031.626802
399.124656	8187.065739
399.507158	8373.401909
399.889598	8397.803614
400.271977	8607.510573
400.654294	8636.648442
401.036549	8836.537754
401.418742	8862.998770
401.800874	9173.095267
402.182944	9254.446887
402.564952	9628.084607
402.946898	9442.081154
403.328783	9502.017952
403.710606	9701.309887
404.092367	9962.897881
404.474067	10329.840949
404.855705	10110.570921
405.237282	10066.896885
405.618797	10498.177679
406.000250	10748.050031
406.381642	11120.818152
406.762972	11071.470297
407.144240	10873.214319
407.525447	11125.251847
407.906593	11066.237579
408.287677	11326.325830
408.668700	11480.322998
409.049661	11457.950357
409.430560	11622.004626
409.811399	11583.706981
410.192176	11750.090263
410.572891	11828.691934
410.953545	12311.828557
411.334138	11786.081581
411.714669	12400.436918
412.095139	11704.674508
412.475547	12206.513812
412.855894	12057.099053
413.236180	12379.077549
413.616405	12054.099567
413.996568	12335.680776
414.376670	12310.699338
414.756711	12190.087212
415.136691	12477.226294
415.516609	12650.974703
415.896466	12725.966907
416.276262	13025.484542
416.655997	13466.083909
417.035670	13497.137417
417.415283	14151.738805
417.794834	14250.802520
418.174324	13990.200072
418.553753	13893.939239
418.933121	14387.679929
419.312428	14193.164487
419.691674	14112.042239
420.070859	14561.884562
420.449983	14214.937231
420.829045	14769.985913
421.208047	14516.506615
421.586988	14969.688702
421.965867	15235.360030
422.344686	15227.810903
422.723444	15796.924404
423.102141	14468.159429
423.480777	15678.593400
423.859352	15181.149983
424.237866	16297.909232
424.616319	15991.223076
424.994712	16659.274263
425.373044	16443.659072
425.751314	17130.990152
426.129524	16247.076758
426.507673	17364.045215
426.885762	17044.715845
427.263789	17239.793376
427.641756	17407.036175
428.019662	17477.924881
428.397508	17513.913678
428.775292	17823.478333
429.153016	17779.511909
429.530679	17866.376031
429.908282	17892.390906
430.285824	17595.885360
430.663305	18308.959092
431.040726	17914.151046
431.418086	17729.428046
431.795385	18393.600065
432.172624	18808.376121
432.549802	18363.156537
432.926920	18556.469664
433.303977	18435.245037
433.680974	18699.862764
434.057910	18981.696032
434.434786	19001.341408
434.811601	18918.984078
435.188355	19969.926023
435.565050	19615.061560
435.941683	19564.178673
436.318257	20452.372008
436.694770	20262.743965
437.071222	20856.279336
437.447614	19917.558517
437.823946	19953.638055
438.200218	20107.443659
438.576429	19884.244052
438.952580	20154.986781
439.328670	20121.763056
439.704700	20534.321005
440.080670	20100.552402
440.456580	20689.223060
440.832429	20877.716843
441.208218	19860.633808
441.583947	20310.224072
441.959616	20416.468910
442.335224	20657.796507
442.710773	20781.924838
443.086261	21332.184424
443.461689	20686.609221
443.837057	20803.919392
444.212365	21457.210081
444.587612	21455.465841
444.962800	21020.875530
445.337927	21456.443825
445.712995	20171.373051
446.088002	22041.439482
446.462949	22231.430488
446.837837	22419.899066
447.212664	22352.874405
447.587431	25208.851896
447.962139	28158.620055
448.336786	30565.624823
448.711374	29009.161011
449.085901	25302.365300
449.460369	25240.129735
449.834776	25155.907178
450.209124	27644.399678
450.583412	27179.244850
450.957640	27717.014978
451.331808	26357.788831
451.705917	24985.569110
452.079965	25009.537276
452.453954	25375.419181
452.827883	25260.264104
453.201752	25068.770834
453.575562	25230.763272
453.949311	26360.581630
454.323001	26402.904637
454.696632	26167.772619
455.070202	27730.636176
455.443713	27858.810033
455.817164	28459.234141
456.190556	28994.314813
456.563888	28425.029912
456.937160	28878.345590
457.310373	27197.652624
457.683526	27650.527200
458.056619	27639.756775
458.429653	27558.410196
458.802628	28140.194638
459.175542	28252.612368
459.548398	29557.603262
459.921194	31123.713321
460.293930	31794.572431
460.666607	33815.878518
461.039224	35580.904947
461.411782	35989.508110
461.784280	34805.704035
462.156719	34322.695962
462.529099	33761.048409
462.901419	32466.729638
463.273680	31393.160474
463.645882	31474.237351
464.018024	31451.068208
464.390106	32279.594446
464.762130	34984.546529
465.134094	39016.665542
465.505999	44305.027491
465.877845	48913.841901
466.249631	50114.012082
466.621358	48410.056712
466.993026	46314.517113
467.364634	44233.637191
467.736184	42243.646751
468.107674	41001.027534
468.479105	40207.582686
468.850477	39519.709682
469.221790	38072.331398
469.593043	36317.793090
469.964238	35427.419457
470.335373	35327.097974
470.706449	37047.452218
471.077467	39604.433834
471.448425	44159.081046
471.819324	46995.120774
472.190164	45169.857598
472.560945	41618.906637
472.931667	38496.819237
473.302330	37372.926755
473.672934	36547.657103
474.043479	37042.002731
474.413965	36243.030258
474.784393	35863.002875
475.154761	36750.344255
475.525070	36769.712368
475.895321	36296.973125
476.265513	36891.236943
476.635645	37852.126236
477.005719	37664.426435
477.375734	38101.255018
477.745691	38792.238414
478.115588	40113.718922
478.485427	42046.855228
478.855207	45373.114400
479.224928	47954.041497
479.594591	49589.535477
479.964194	48586.655893
480.333739	48727.788036
480.703226	48731.662163
481.072653	49327.554273
481.442022	49780.869951
481.811333	50036.527027
482.180584	48703.010765
482.549777	48164.018157
482.918912	47603.313300
483.287988	47254.155423
483.657005	46411.254335
484.025964	45729.796199
484.394864	45720.454941
484.763706	45238.253453
485.132489	44341.268346
485.501213	44124.428154
485.869879	44228.717024
486.238487	43745.098971
486.607036	43898.387857
486.975527	43293.577945
487.343959	43429.810086
487.712333	43441.003968
488.080648	43293.759426
488.448905	43674.994165
488.817104	43427.357565
489.185244	44278.072441
489.553326	45797.219112
489.921350	48346.598667
490.289315	51152.018427
490.657222	51659.876868
491.025070	51868.068960
491.392861	50842.247084
491.760593	49500.939719
492.128267	47724.091784
492.495883	46136.564383
492.863440	44665.661555
493.230939	43243.972991
493.598380	42067.539083
493.965763	41615.516461
494.333088	40711.125899
494.700354	40134.848918
495.067563	39718.535310
495.434713	39461.139036
495.801805	39368.003718
496.168839	38867.180207
496.535815	38425.098741
496.902733	38300.932602
497.269593	37750.930114
497.636395	37544.900677
498.003139	37746.932479
498.369825	37089.876048
498.736453	37207.433236
499.103023	36632.025853
499.469535	36323.466909
499.835989	36255.194562
500.202385	35766.444614
500.568723	35619.736955
500.935003	35596.101505
501.301226	35227.376390
501.667390	35579.483342
502.033497	35617.914578
502.399546	34916.553967
502.765537	34142.169722
503.131470	34276.307264
503.497345	34371.733786
503.863163	33032.402552
504.228923	33360.425392
504.594625	33469.936898
504.960269	32667.917047
505.325856	33032.944476
505.691385	32298.675213
506.056856	32170.524041
506.422270	32311.288180
506.787625	31742.227610
507.152924	31672.722702
507.518164	31520.336183
507.883347	30675.174137
508.248472	30648.692956
508.613540	30779.979726
508.978550	30769.335329
509.343503	30331.238896
509.708398	30231.930685
510.073236	30374.071059
510.438016	30115.233015
510.802738	29485.073661
511.167403	29670.008390
511.532010	29584.190307
511.896561	29543.629183
512.261053	29900.802495
512.625488	29297.880495
512.989866	28943.789849
513.354186	28571.341841
513.718449	28291.827504
514.082655	28483.187184
514.446803	27994.439757
514.810894	28069.552949
515.174927	27738.064316
515.538904	27401.907575
515.902822	27558.775679
516.266684	26928.865862
516.630488	26930.683198
516.994235	26546.048201
517.357925	26635.831151
517.721558	26463.895037
518.085133	26351.152152
518.448651	26167.628946
518.812112	25761.995023
519.175516	25541.797423
519.538863	25456.886748
519.902152	25134.545289
520.265385	25134.915813
520.628560	24870.686255
520.991678	24477.929959
521.354739	24324.154602
521.717743	24222.986206
522.080690	23887.449527
522.443580	23885.710329
522.806413	23634.476865
523.169189	23323.921623
523.531908	23152.008195
523.894569	22809.595382
524.257174	22609.648097
524.619722	22484.914827
524.982213	22212.750493
525.344647	21895.694683
525.707025	21643.959625
526.069345	21559.865617
526.431608	21251.946899
526.793815	21140.204683
527.155964	20668.229174
527.518057	20473.945626
527.880093	20116.863055
528.242072	20079.535831
528.603995	19700.914930
528.965860	19452.607857
529.327669	19249.043544
529.689421	18954.806517
530.051117	18682.924487
530.412755	18488.648500
530.774337	18280.952962
531.135862	17971.721023
531.497331	17782.259338
531.858743	17514.816044
532.220098	17399.479486
532.581396	17057.754790
532.942638	16717.602934
533.303824	16593.799757
533.664953	16365.858945
534.026025	16050.323043
534.387040	15980.984493
534.747999	15749.202321
535.108902	15590.698362
535.469748	15235.017232
535.830537	15052.686259
536.191270	14917.139714
536.551947	14614.859527
536.912567	14499.767464
537.273131	14340.809801
537.633638	13999.180887
537.994089	13899.484508
538.354483	13603.465434
538.714821	13566.448241
539.075103	13465.912510
539.435328	13222.797824
539.795497	13003.754649
540.155609	12822.633553
540.515665	12751.190320
540.875665	12432.649891
541.235609	12332.983759
541.595496	12159.260556
541.955328	12129.689148
542.315102	11828.691934
542.674821	11614.246291
543.034483	11456.468258
543.394090	11292.499687
543.753640	11134.477158
544.113134	11178.012563
544.472571	10826.926445
544.831953	10904.792107
545.191278	10609.551891
545.550548	10403.436754
545.909761	10344.551036
546.268918	10230.215146
546.628019	10139.897834
546.987064	9923.428167
547.346053	9660.781531
547.704986	9663.569289
548.063863	9457.675963
548.422684	9361.284061
548.781449	9212.489364
549.140158	9131.130182
549.498811	8986.716248
549.857408	8769.608875
550.215949	8771.038042
550.574434	8630.707442
550.932864	8480.849062
551.291237	8459.313253
551.649555	8295.720249
552.007817	8202.514355
552.366022	8044.832104
552.724173	7952.994884
553.082267	7890.131695
553.440305	7812.560941
553.798288	7620.271168
554.156215	7549.884058
554.514086	7467.675441
554.871902	7337.545617
555.229661	7241.546924
555.587365	7114.242666
555.945014	7029.480705
556.302606	6918.386277
556.660143	6852.755495
557.017625	6770.672908
557.375050	6656.450444
557.732421	6595.936433
558.089735	6503.327916
558.446994	6407.142701
558.804197	6362.982193
559.161345	6268.659684
559.518437	6121.894052
559.875474	6061.339712
560.232455	5991.323126
560.589381	5926.196459
560.946251	5826.406819
561.303065	5799.116533
561.659825	5708.095979
562.016528	5607.688798
562.373177	5517.063975
562.729770	5477.911854
563.086307	5376.269589
563.442789	5336.396583
563.799216	5277.674702
564.155587	5192.587587
564.511904	5131.534173
564.868164	5077.883693
565.224370	5023.774468
565.580520	4950.269404
565.936615	4905.020007
566.292654	4839.248073
566.648638	4794.109581
567.004567	4736.837032
567.360441	4690.128222
567.716260	4625.288901
568.072023	4591.954271
568.427732	4536.836815
568.783385	4472.577227
569.138982	4443.336014
569.494525	4395.860948
569.850013	4343.959749
570.205445	4301.868635
570.560823	4260.894136
570.916145	4215.528793
571.271412	4179.386240
571.626625	4134.121720
571.981782	4097.033951
572.336884	4052.316396
572.691931	4029.883261
573.046923	3984.754852
573.401860	3945.348152
573.756743	3914.145931
574.111570	3882.868092
574.466342	3847.842155
574.821059	3825.106551
575.175722	3783.433853
575.530330	3756.055346
575.884882	3721.929255
576.239380	3695.211140
576.593823	3670.494362
576.948211	3641.109477
577.302544	3609.037656
577.656823	3588.124429
578.011047	3571.710432
578.365216	3543.260680
578.719330	3518.385107
579.073389	3495.175634
579.427394	3483.762462
579.781344	3462.357723
580.135239	3437.777057
580.489080	3421.998245
580.842866	3395.355747
581.196597	3387.927607
581.550273	3371.606871
581.903895	3355.346630
582.257463	3349.322451
582.610975	3326.372598
582.964434	3314.566216
583.317837	3295.137609
583.671186	3280.248561
584.024481	3268.711880
584.377721	3249.016092
584.730906	3243.770772
585.084037	3234.358937
585.437113	3216.117522
585.790135	3204.865667
586.143103	3189.427133
586.496016	3180.680731
586.848874	3165.910150
587.201679	3161.592402
587.554428	3140.089360
587.907124	3138.627426
588.259765	3124.436578
588.612352	3122.672174
588.964884	3107.405039
589.317362	3100.687702
589.669786	3092.826022
590.022155	3083.235227
590.374470	3080.351687
590.726731	3064.267886
591.078937	3049.184754
591.431090	3046.412119
591.783188	3034.855274
592.135232	3025.524098
592.487222	3022.000332
592.839157	3018.191740
593.191038	3006.569360
593.542866	3001.833196
593.894639	2986.419868
594.246358	2980.468786
594.598022	2972.407981
594.949633	2966.358596
595.301190	2957.715538
595.652692	2954.035495
596.004141	2952.742439
596.355535	2936.462033
596.706876	2928.605395
597.058162	2922.407296
597.409395	2923.216401
597.760573	2919.511153
598.111698	2909.295255
598.462768	2907.646798
598.813785	2899.885941
599.164748	2895.414438
599.515657	2889.642317
599.866511	2879.197046
600.217312	2884.333982
600.568060	2870.586755
600.918753	2874.274359
601.269392	2868.620705
601.619978	2859.642410
601.970510	2857.182327
602.320988	2856.705938
602.671412	2855.957327
603.021783	2852.927593
603.372100	2843.072137
603.722363	2840.337312
604.072572	2840.271777
604.422728	2838.197342
604.772830	2827.696618
605.122878	2822.993222
605.472872	2823.509940
605.822813	2820.651606
606.172701	2817.639516
606.522534	2816.684218
606.872314	2816.560709
607.222041	2808.988896
607.571714	2808.547795
607.921333	2801.777526
608.270899	2799.932463
608.620411	2802.914306
608.969870	2795.773512
609.319276	2792.496762
609.668627	2790.780249
610.017926	2792.252266
610.367171	2789.194806
610.716362	2785.741615
611.065500	2780.360184
611.414585	2784.917387
611.763616	2778.999072
612.112594	2780.423198
612.461518	2778.409257
612.810389	2781.227262
613.159207	2774.451951
613.507971	2772.344749
613.856682	2771.802825
614.205340	2767.976589
614.553945	2771.906169
614.902496	2762.582555
615.250994	2765.592123
615.599439	2764.662031
615.947830	2766.028183
616.296169	2760.755136
616.644454	2757.314549
616.992686	2756.659199
617.340864	2759.043665
617.688990	2753.722727
618.037063	2754.037799
618.385082	2754.347830
618.733048	2754.466297
619.080961	2750.072931
619.428821	2748.414392
619.776628	2746.715523
620.124382	2743.900038
620.472083	2741.394585
620.819731	2742.869122
621.167326	2738.047259
621.514868	2737.212948
621.862357	2731.329921
622.209793	2728.433778
622.557176	2725.061247
622.904506	2720.937583
623.251783	2714.868033
623.599007	2712.365101
623.946179	2707.555840
624.293297	2707.268494
624.640363	2702.701209
624.987376	2702.807073
625.334336	2696.858511
625.681243	2695.600743
626.028097	2694.131247
626.374899	2689.654702
626.721647	2689.498427
627.068343	2687.363498
627.414987	2683.181861
627.761577	2683.741429
628.108115	2683.771676
628.454600	2679.605162
628.801032	2676.837569
629.147412	2678.488547
629.493739	2675.491581
629.840014	2674.498473
630.186236	2674.632064
630.532405	2671.168791
630.878521	2670.173163
631.224585	2670.100067
631.570597	2667.362720
631.916556	2667.100580
632.262462	2664.859787
632.608316	2663.942297
632.954117	2663.639828
633.299866	2661.893068
633.645562	2659.858963
633.991206	2656.602377
634.336797	2653.106337
634.682336	2656.468787
635.027823	2650.416882
635.373257	2649.953095
635.718639	2645.458907
636.063968	2646.104174
636.409245	2639.636374
636.754470	2639.190232
637.099642	2639.709471
637.444762	2637.027577
637.789829	2630.736217
638.134845	2632.835857
638.479808	2633.024901
638.824719	2630.590023
639.169577	2625.957203
639.514383	2626.110958
639.859137	2626.307563
640.203839	2627.527523
640.548489	2621.911677
640.893086	2620.686677
641.237632	2618.410596
641.582125	2619.191975
641.926566	2616.600822
642.270955	2618.841614
642.615292	2617.654423
642.959576	2617.515791
643.303809	2615.269957
643.647990	2618.413116
643.992118	2616.013527
644.336195	2616.966305
644.680219	2616.159721
645.024192	2617.430091
645.368112	2619.635596
645.711981	2621.533591
646.055797	2621.178189
646.399562	2621.647017
646.743274	2628.445012
647.086935	2627.769498
647.430544	2626.615074
647.774101	2628.934004
648.117606	2623.915536
648.461059	2632.097328
648.804460	2628.913840
649.147810	2623.479476
649.491108	2621.190792
649.834354	2620.096862
650.177548	2616.061418
650.520690	2613.891201
650.863781	2614.183588
651.206820	2614.546551
651.549807	2607.657815
651.892742	2607.867022
652.235626	2605.454830
652.578458	2606.644543
652.921238	2600.164139
653.263967	2601.926023
653.606644	2600.149016
653.949269	2598.593820
654.291843	2599.244129
654.634365	2598.878645
654.976836	2597.109200
655.319255	2595.730445
655.661622	2594.553335
656.003938	2595.329673
656.346203	2592.201637
656.688416	2596.292533
657.030577	2593.676174
657.372687	2591.964703
657.714746	2589.895309
658.056753	2594.142481
658.398708	2585.547314
658.740612	2588.740885
659.082465	2586.603436
659.424266	2587.997315
659.766016	2588.967737
660.107715	2589.434043
660.449362	2590.538056
660.790958	2592.211719
661.132503	2591.730289
661.473996	2590.444795
661.815438	2592.040320
662.156829	2590.820361
662.498168	2587.536049
662.839456	2591.364805
663.180693	2591.016966
663.521879	2594.243304
663.863013	2592.902357
664.204097	2589.000504
664.545129	2589.534867
664.886110	2589.302973
665.227040	2593.814806
665.567918	2592.299939
665.908746	2591.833633
666.249522	2592.115937
666.590248	2591.831112
666.930922	2593.930753
667.271545	2591.949579
667.612118	2595.178438
667.952639	2590.901019
668.293109	2593.222471
668.633528	2592.899837
668.973896	2592.975454
669.314213	2589.872624
669.654480	2589.733992
669.994695	2589.968406
670.334859	2589.827253
670.674973	2586.852973
671.015035	2589.234918
671.355047	2588.904722
671.695008	2589.232397
672.034918	2589.141657
672.374777	2585.582602
672.714585	2586.379104
673.054342	2589.784404
673.394049	2587.256265
673.733705	2587.997315
674.073310	2586.737026
674.412864	2585.446491
674.752368	2581.736202
675.091820	2586.842890
675.431223	2585.728795
675.770574	2582.872982
676.109875	2577.506673
676.449125	2578.961046
676.788324	2575.417115
677.127473	2576.866447
677.466571	2572.825962
677.805619	2578.202353
678.144616	2578.083886
678.483562	2572.110118
678.822458	2572.742783
679.161303	2571.820252
679.500098	2570.663307
679.838842	2572.445355
680.177535	2572.969635
680.516179	2573.914851
680.854771	2575.459965
681.193314	2577.602455
681.531805	2582.504977
681.870247	2587.861203
682.208638	2588.627459
682.546978	2591.057295
682.885268	2592.267172
683.223508	2589.350864
683.561697	2585.290215
683.899836	2588.609815
684.237925	2582.930955
684.575963	2584.937334
684.913951	2577.547003
685.251889	2580.669997
685.589776	2582.842735
685.927614	2579.266036
686.265401	2582.613362
686.603137	2584.097982
686.940824	2584.755853
687.278460	2589.292891
687.616046	2590.588468
687.953582	2591.284147
688.291068	2594.076946
688.628504	2591.788262
688.965889	2592.705752
689.303224	2592.337748
689.640510	2588.703076
689.977745	2584.279464
690.314930	2582.961202
690.652065	2578.819894
690.989150	2575.162537
691.326185	2574.237485
691.663170	2568.914027
692.000105	2566.027966
692.336990	2561.407749
692.673825	2556.154866
693.010610	2557.052192
693.347345	2550.435677
693.684030	2544.847558
694.020665	2548.399051
694.357251	2542.924358
694.693786	2546.720347
695.030272	2544.771941
695.366707	2543.060469
695.703093	2543.897301
696.039429	2541.608617
696.375716	2537.016126
696.711952	2538.956970
697.048139	2539.375386
697.384276	2539.619882
697.720363	2538.906558
698.056400	2539.423277
698.392388	2535.153419
698.728326	2539.957639
699.064214	2535.327339
699.400053	2534.082174
699.735842	2532.312729
700.071581	2534.062010
700.407270	2529.789632
700.742910	2530.676875
701.078501	2528.466329
701.414042	2527.415248
701.749533	2529.535053
702.084974	2526.154960
702.420366	2523.906605
702.755709	2525.824764
703.091002	2520.420647
703.426246	2522.696728
703.761440	2521.655730
704.096584	2520.173631
704.431679	2517.642972
704.766725	2520.508868
705.101721	2518.353774
705.436668	2519.067097
705.771565	2519.951820
706.106413	2518.542818
706.441212	2517.418640
706.775961	2521.496934
707.110661	2520.040040
707.445311	2523.470545
707.779913	2519.586336
708.114465	2521.481810
708.448967	2527.140505
708.783421	2528.582275
709.117825	2528.781401
709.452180	2529.875331
709.786485	2532.348017
710.120742	2535.851619
710.454949	2538.349511
710.789107	2539.178781
711.123216	2539.365303
711.457275	2541.664070
711.791286	2540.476878
712.125247	2545.397044
712.459159	2546.322096
712.793023	2548.174720
713.126837	2544.272867
713.460602	2548.124308
713.794318	2545.772610
714.127985	2540.728936
714.461602	2535.856660
714.795171	2538.757844
715.128691	2530.210568
715.462162	2529.862728
715.795584	2525.880217
716.128957	2527.269055
716.462281	2524.650175
716.795556	2521.572551
717.128782	2521.504495
717.461960	2519.551048
717.795088	2516.770852
718.128167	2514.905625
718.461198	2511.689369
718.794180	2514.005779
719.127113	2507.648884
719.459997	2509.796416
719.792833	2505.937412
720.125619	2507.293483
720.458357	2505.670231
720.791046	2503.595796
721.123686	2502.370796
721.456278	2503.381547
721.788821	2500.671927
722.121315	2502.310302
722.453761	2501.826351
722.786158	2503.195025
723.118506	2502.723677
723.450805	2501.700322
723.783056	2504.651918
724.115259	2503.807525
724.447412	2504.009171
724.779518	2503.747031
725.111574	2505.350118
725.443582	2505.831548
725.775542	2503.373986
726.107453	2508.183246
726.439315	2507.764831
726.771129	2511.757424
727.102895	2508.465551
727.434612	2514.353619
727.766281	2511.374297
728.097901	2513.884791
728.429473	2511.202898
728.760996	2514.754390
729.092471	2509.456138
729.423897	2515.843280
729.755276	2514.605676
730.086606	2514.081396
730.417887	2519.235976
730.749120	2521.610360
731.080305	2523.788138
731.411442	2525.255114
731.742530	2524.821575
732.073570	2527.828623
732.404562	2528.557070
732.735506	2527.309384
733.066401	2526.379291
733.397249	2523.505833
733.728048	2518.391583
734.058798	2517.582478
734.389501	2509.809018
734.720156	2511.109636
735.050762	2505.529079
735.381320	2504.137720
735.711831	2501.904489
736.042293	2499.784684
736.372707	2500.046824
736.703073	2498.635301
737.033391	2499.472132
737.363661	2500.772750
737.693883	2502.287617
738.024056	2505.859274
738.354182	2502.345590
738.684260	2504.021774
739.014290	2505.297186
739.344272	2509.630058
739.674207	2509.506549
740.004093	2511.596107
740.333931	2511.918741
740.663722	2508.291631
740.993464	2512.163237
741.323159	2509.446055
741.652806	2504.626712
741.982405	2506.282731
742.311956	2507.863133
742.641460	2503.885663
742.970915	2503.699140
743.300323	2502.930364
743.629683	2499.779643
743.958996	2501.523882
744.288260	2500.039262
744.617477	2495.260248
744.946647	2490.438385
745.275768	2492.931235
745.604842	2488.565596
745.933869	2487.441419
746.262847	2487.126347
746.591778	2491.484424
746.920662	2490.738333
747.249498	2492.026348
747.578286	2492.366626
747.907027	2493.450474
748.235720	2494.672954
748.564365	2495.131699
748.892963	2491.560042
749.221514	2492.147336
749.550017	2493.274034
749.878473	2492.583396
750.206881	2492.580875
750.535242	2491.108858
750.863555	2491.108858
751.191821	2488.482417
751.520039	2492.359064
751.848210	2491.355875
752.176334	2489.442757
752.504411	2492.306132
752.832440	2488.081645
753.160421	2488.497541
753.488356	2486.728096
753.816243	2492.714466
754.144082	2486.302118
754.471875	2485.828250
754.799620	2485.051912
755.127318	2486.972592
755.454969	2486.786069
755.782572	2487.307828
756.110129	2487.995946
756.437638	2485.571151
756.765100	2485.346819
757.092515	2486.559217
757.419882	2485.959320
757.747203	2486.733137
758.074477	2487.126347
758.401703	2484.794813
758.728882	2486.564258
759.056014	2489.619197
759.383099	2487.887561
759.710138	2491.471821
760.037129	2491.713797
760.364073	2490.740854
760.690970	2490.665237
761.017820	2490.607263
761.344623	2493.372336
761.671379	2495.419045
761.998088	2496.394508
762.324751	2511.588546
762.651366	2526.565814
762.977935	2556.941286
763.304456	2571.669017
763.630931	2578.892991
763.957359	2570.065930
764.283740	2557.180741
764.610074	2547.748742
764.936362	2529.288037
765.262602	2520.619773
765.588796	2508.957063
765.914943	2499.940960
766.241044	2496.331494
766.567097	2489.631800
766.893104	2482.624596
767.219064	2481.213073
767.544978	2479.869606
767.870845	2476.562609
768.196665	2477.003710
768.522438	2472.509521
768.848165	2472.862402
769.173846	2471.975159
769.499479	2472.587659
769.825066	2470.309057
770.150607	2466.850826
770.476101	2465.290589
770.801548	2467.034828
771.126949	2464.289920
771.452303	2466.424848
771.777611	2465.114148
772.102872	2463.813531
772.428087	2462.974179
772.753256	2459.639455
773.078378	2462.465022
773.403453	2462.180197
773.728482	2462.107100
774.053465	2460.582151
774.378401	2457.164249
774.703291	2458.316152
775.028135	2455.795576
775.352932	2456.745833
775.677683	2453.726182
776.002388	2455.359516
776.327046	2454.620987
776.651658	2456.219033
776.976224	2453.527056
777.300743	2455.180555
777.625216	2452.775924
777.949643	2453.738785
778.274024	2454.089145
778.598359	2451.860955
778.922647	2448.327106
779.246889	2450.341047
779.571086	2449.962961
779.895236	2454.154680
780.219339	2452.554114
780.543397	2453.012859
780.867409	2452.029834
781.191374	2454.752057
781.515294	2452.838939
781.839167	2455.031841
782.162995	2453.214505
782.486776	2452.899433
782.810511	2451.737447
783.134201	2453.123764
783.457844	2453.113682
783.781441	2453.511933
784.104993	2452.549073
784.428498	2449.955399
784.751958	2452.092848
785.075372	2453.791717
785.398739	2450.456994
785.722061	2451.601336
786.045337	2449.897426
786.368568	2454.454629
786.691752	2451.092179
787.014891	2456.771039
787.337983	2460.435958
787.661030	2462.351596
787.984031	2464.194138
788.306987	2468.774026
788.629897	2465.308233
788.952760	2468.776547
789.275579	2466.026597
789.598351	2466.727318
789.921078	2462.091977
790.243759	2461.373612
790.566395	2459.697429
790.888984	2453.902622
791.211529	2456.045113
791.534027	2452.473455
791.856480	2452.201233
792.178888	2451.762653
792.501249	2451.359360
792.823566	2450.714092
793.145836	2450.013372
793.468062	2449.864658
793.790241	2449.486572
794.112375	2450.583022
794.434464	2449.055553
794.756507	2452.039916
795.078505	2453.406069
795.400457	2451.422375
795.722364	2450.875409
796.044226	2457.038220
796.366042	2454.038733
796.687812	2459.339507
797.009538	2460.743468
797.331218	2459.725155
797.652852	2460.801441
797.974442	2457.232304
798.295986	2455.888837
798.617484	2457.280195
798.938938	2456.072839
799.260346	2453.930349
799.581709	2454.739454
799.903026	2453.065791
800.224299	2453.968157
800.545526	2448.077569
800.866708	2449.993208
801.187845	2448.180913
801.508936	2450.320882
801.829983	2448.662343
802.150984	2446.350974
802.471940	2446.897939
802.792851	2448.745522
803.113717	2446.338371
803.434538	2447.475151
803.755314	2447.011365
804.076045	2444.052208
804.396731	2446.174533
804.717372	2448.216201
805.037967	2446.948351
805.358518	2446.396344
805.679024	2447.765018
805.999485	2447.394493
806.319901	2448.561520
806.640272	2449.073197
806.960598	2444.790737
807.280879	2448.193516
807.601115	2449.075718
807.921306	2448.561520
808.241453	2448.170830
808.561554	2448.276695
808.881611	2447.646550
809.201623	2449.602518
809.521590	2449.834411
809.841513	2447.109668
810.161390	2449.484051
810.481223	2445.632609
810.801011	2449.789041
811.120755	2447.341561
811.440453	2450.096551
811.760107	2446.965995
812.079716	2443.550613
812.399281	2442.892742
812.718801	2443.480037
813.038276	2442.360901
813.357707	2443.227979
813.677093	2443.469954
813.996434	2441.917279
814.315731	2444.072372
814.634983	2445.380552
814.954191	2448.453135
815.273354	2446.928186
815.592473	2446.474482
815.911547	2448.490944
816.230577	2449.027827
816.549562	2450.676284
816.868502	2450.028496
817.187399	2451.681994
817.506250	2455.316666
817.825058	2454.444546
818.143821	2457.002932
818.462539	2459.354630
818.781213	2462.805300
819.099843	2465.638428
819.418429	2474.631847
819.736970	2482.967395
820.055466	2492.038951
820.373919	2504.714933
820.692327	2525.139167
821.010691	2558.688046
821.329011	2633.778553
821.647286	2752.535535
821.965517	2874.609596
822.283704	2947.746656
822.601847	2974.109370
822.919945	2920.685742
823.237999	2861.477390
823.556010	2799.153605
823.873976	2743.451376
824.191897	2692.709642
824.509775	2653.565082
824.827609	2618.037550
825.145398	2594.800352
825.463144	2583.278795
825.780845	2584.627303
826.098502	2603.665221
826.416116	2632.593882
826.733685	2659.241421
827.051210	2664.345590
827.368692	2649.461583
827.686129	2621.039557
828.003522	2586.676532
828.320872	2555.542366
828.638177	2535.791125
828.955439	2516.470903
829.272656	2502.257370
829.589830	2486.226501
829.906960	2481.739874
830.224046	2474.173102
830.541088	2468.700929
830.858086	2463.286730
831.175041	2462.764971
831.491952	2461.424024
831.808819	2462.281020
832.125642	2463.334621
832.442421	2474.034470
832.759157	2487.943014
833.075849	2515.528208
833.392497	2537.159799
833.709101	2553.198230
834.025662	2552.270657
834.342179	2539.022505
834.658653	2521.237314
834.975083	2506.144100
835.291469	2494.153715
835.607811	2481.868423
835.924110	2473.868112
836.240366	2466.540795
836.556578	2458.812706
836.872746	2456.113168
837.188871	2451.311469
837.504952	2446.676128
837.820990	2443.278391
838.136984	2441.879470
838.452935	2445.057918
838.768842	2444.901642
839.084706	2448.367435
839.400526	2458.301029
839.716303	2471.105560
840.032037	2480.189719
840.347727	2476.401292
840.663373	2472.658235
840.978977	2462.565845
841.294537	2455.871193
841.610054	2450.822477
841.925527	2444.470623
842.240957	2447.432301
842.556344	2440.460386
842.871687	2438.867381
843.186987	2434.375713
843.502244	2431.623243
843.817458	2430.990578
844.132629	2432.145002
844.447756	2429.884045
844.762840	2422.445822
845.077881	2429.710125
845.392879	2424.769794
845.707833	2425.021852
846.022745	2419.617735
846.337613	2427.063519
846.652438	2425.510844
846.967221	2425.089907
847.281960	2424.918508
847.596656	2426.236770
847.911309	2420.484813
848.225919	2423.673343
848.540485	2423.179310
848.855009	2425.770463
849.169490	2422.667633
849.483928	2421.848446
849.798323	2423.370874
850.112675	2424.779877
850.426984	2423.756522
850.741251	2422.438261
851.055474	2422.065215
851.369654	2423.388518
851.683792	2420.288208
851.997887	2423.343148
852.311938	2422.488672
852.625947	2422.229053
852.939914	2422.687798
853.253837	2423.262489
853.567718	2421.871131
853.881555	2423.950607
854.195350	2423.496903
854.509103	2421.976995
854.822812	2420.512540
855.136479	2421.467838
855.450103	2422.831471
855.763685	2423.133940
856.077224	2423.174269
856.390720	2422.375246
856.704173	2422.571851
857.017584	2423.383477
857.330953	2423.668302
857.644278	2424.915988
857.957561	2424.676533
858.270802	2424.936152
858.584000	2424.263158
858.897155	2422.740730
859.210268	2420.920873
859.523339	2423.156625
859.836367	2421.558579
860.149352	2422.695359
860.462295	2424.169897
860.775195	2420.739392
861.088054	2419.136305
861.400869	2420.298291
861.713642	2419.088414
862.026373	2425.110072
862.339062	2423.874989
862.651708	2423.862387
862.964312	2423.174269
863.276873	2424.142171
863.589392	2424.384146
863.901869	2426.435896
864.214303	2425.977151
864.526696	2427.073602
864.839045	2425.639393
865.151353	2424.182500
865.463619	2424.389187
865.775842	2423.217119
866.088023	2424.313570
866.400162	2429.092584
866.712258	2426.778694
867.024313	2425.682243
867.336325	2426.932449
867.648296	2424.661409
867.960224	2427.103848
868.272110	2429.009405
868.583954	2426.062850
868.895755	2426.655186
869.207515	2427.343303
869.519233	2430.128541
869.830909	2425.757860
870.142542	2425.752819
870.454134	2428.326328
870.765684	2426.151070
871.077191	2430.678027
871.388657	2429.284147
871.700081	2429.079981
872.011463	2427.880186
872.322803	2429.289189
872.634101	2428.860691
872.945357	2432.129879
873.256571	2435.068872
873.567744	2432.313881
873.878874	2431.270362
874.189963	2433.871597
874.501010	2433.480908
874.812015	2432.845723
875.122979	2435.144489
875.433900	2433.425455
875.744780	2435.583069
876.055618	2435.227668
876.366415	2436.624067
876.677169	2438.592638
876.987882	2433.105342
877.298554	2433.256577
877.609183	2434.902513
877.919771	2435.603234
878.230317	2440.104984
878.540822	2445.640171
878.851285	2449.194185
879.161707	2453.741305
879.472087	2464.804117
879.782425	2479.491519
880.092722	2509.115860
880.402977	2546.916952
880.713191	2597.235229
881.023363	2646.038639
881.333494	2674.138031
881.643583	2684.416944
881.953631	2683.292766
882.263637	2670.480674
882.573602	2650.794968
882.883526	2632.528347
883.193408	2610.826180
883.503248	2591.556369
883.813048	2569.284552
884.122806	2554.241748
884.432522	2535.770961
884.742197	2519.772859
885.051831	2502.708553
885.361424	2495.739158
885.670975	2486.100472
885.980485	2475.231744
886.289954	2465.923254
886.599382	2460.960238
886.908768	2458.865638
887.218113	2454.626028
887.527417	2451.863476
887.836680	2447.278546
888.145901	2443.192691
888.455082	2440.548606
888.764221	2439.600869
889.073319	2440.102464
889.382376	2439.114398
889.691392	2438.038111
890.000366	2436.886207
890.309300	2436.838317
890.618193	2437.748245
890.927044	2438.771599
891.235855	2439.358893
891.544625	2437.773451
891.853353	2436.034253
892.162041	2439.933585
892.470687	2444.034564
892.779293	2443.379214
893.087858	2447.845676
893.396381	2450.605708
893.704864	2466.850826
894.013306	2476.245016
894.321707	2495.393839
894.630068	2504.694768
894.938387	2509.990500
895.246665	2502.799294
895.554903	2496.379385
895.863100	2489.200782
896.171256	2484.429329
896.479371	2477.172588
896.787446	2471.702937
897.095480	2463.513582
897.403473	2462.777574
897.711425	2455.727520
898.019336	2453.877417
898.327207	2452.778445
898.635038	2448.110337
898.942827	2444.344595
899.250576	2442.585232
899.558284	2439.842844
899.865952	2442.093719
900.173579	2437.652463
900.481165	2436.863522
900.788711	2432.772626
901.096216	2437.213883
901.403681	2430.662903
901.711105	2434.660538
902.018489	2434.942843
902.325832	2434.642894
902.633135	2435.174736
902.940397	2441.445931
903.247619	2449.728547
903.554800	2472.615385
903.861941	2498.300064
904.169041	2518.951151
904.476101	2525.633200
904.783121	2519.959382
905.090100	2511.323885
905.397039	2498.405928
905.703938	2490.143477
906.010796	2478.947075
906.317614	2470.735035
906.624391	2462.984261
906.931129	2456.430761
907.237826	2453.781635
907.544483	2445.988011
907.851099	2444.863833
908.157675	2438.335539
908.464211	2432.399581
908.770707	2427.252563
909.077163	2426.501431
909.383578	2423.378436
909.689954	2422.344999
909.996289	2420.290729
910.302584	2421.724937
910.608839	2422.319793
910.915054	2422.029927
911.221229	2421.452715
911.527363	2421.858528
911.833458	2421.311563
912.139513	2423.731317
912.445527	2423.038158
912.751502	2426.032603
913.057436	2423.030596
913.363331	2431.598037
913.669186	2431.774478
913.975000	2434.161464
914.280775	2442.179419
914.586510	2452.070163
914.892205	2464.322687
915.197859	2476.292907
915.503475	2493.231184
915.809050	2511.712054
916.114585	2521.068436
916.420081	2521.194464
916.725536	2520.415606
917.030952	2513.887312
917.336328	2508.795747
917.641665	2501.859119
917.946961	2495.925681
918.252218	2487.302787
918.557435	2480.638382
918.862612	2475.085551
919.167750	2468.869808
919.472848	2465.731690
919.777906	2458.797583
920.082925	2455.304063
920.387904	2446.749225
920.692843	2445.161262
920.997743	2440.765375
921.302603	2437.019798
921.607423	2434.801690
921.912204	2433.707760
922.216946	2428.303643
922.521647	2428.719538
922.826310	2425.510844
923.130932	2427.618046
923.435516	2426.692994
923.740059	2425.392377
924.044564	2424.207706
924.349028	2424.805082
924.653454	2418.150759
924.957840	2416.474576
925.262186	2416.509864
925.566493	2417.732343
925.870761	2413.580953
926.174989	2417.601273
926.479178	2414.531211
926.783328	2413.694379
927.087438	2417.714699
927.391509	2415.826787
927.695541	2416.109092
927.999533	2416.346026
928.303486	2412.343350
928.607400	2415.483989
928.911275	2411.814029
929.215110	2416.454411
929.518906	2412.323185
929.822663	2417.404668
930.126381	2411.990469
930.430060	2413.162537
930.733699	2413.656571
931.037299	2417.558424
931.340861	2413.374266
931.644383	2412.101375
931.947866	2413.999369
932.251309	2413.482651
932.554714	2412.529873
932.858080	2413.717064
933.161407	2412.983577
933.464694	2413.903587
933.767943	2414.074986
934.071153	2415.146232
934.374323	2411.924934
934.677455	2414.770666
934.980548	2410.876374
935.283602	2414.112795
935.586617	2411.864440
935.889593	2411.549368
936.192530	2413.941396
936.495428	2414.596746
936.798287	2413.399472
937.101108	2414.337126
937.403890	2415.627662
937.706632	2416.625810
938.009336	2418.740574
938.312002	2417.714699
938.614628	2420.686460
938.917216	2417.528177
939.219765	2418.639751
939.522275	2420.580595
939.824747	2422.622263
940.127179	2416.565316
940.429573	2417.364339
940.731929	2418.266706
941.034246	2418.087745
941.336524	2417.807961
941.638763	2418.700245
941.940964	2419.713517
942.243126	2417.795358
942.545250	2416.640934
942.847335	2417.419792
943.149381	2417.813002
943.451389	2418.574216
943.753359	2417.901222
944.055290	2417.301325
944.357182	2416.325862
944.659036	2414.876530
944.960851	2416.487178
945.262628	2414.301838
945.564367	2413.061714
945.866067	2413.686817
946.167729	2413.835532
946.469352	2414.901736
946.770937	2415.173958
947.072484	2413.628844
947.373992	2414.435429
947.675462	2411.113308
947.976893	2412.247568
948.278286	2414.722775
948.579641	2412.875192
948.880958	2414.584143
949.182236	2414.453073
949.483476	2413.926272
949.784678	2413.228073
950.085841	2411.897208
950.386967	2414.619431
950.688054	2415.037847
950.989103	2413.522980
951.290114	2414.606828
951.591087	2415.552044
951.892021	2416.156983
952.192917	2416.401479
952.493776	2418.193609
952.794596	2416.121695
953.095378	2415.559606
953.396122	2417.117323
953.696828	2418.881727
953.997496	2414.765624
954.298126	2417.286201
954.598718	2417.192940
954.899272	2417.727302
955.199788	2415.899884
955.500266	2411.514080
955.800706	2410.042063
956.101108	2408.963256
956.401472	2411.632547
956.701798	2408.703637
957.002087	2408.716240
957.302337	2411.647671
957.602550	2408.907804
957.902724	2411.110788
958.202861	2410.977197
958.502960	2408.297824
958.803022	2409.394275
959.103045	2407.715571
959.403031	2408.643143
959.702979	2406.162895
960.002889	2408.852351
960.302762	2405.802453
960.602596	2406.916548
960.902393	2406.155334
961.202153	2407.307237
961.501875	2405.232803
961.801559	2406.364542
962.101205	2406.876219
962.400814	2405.852864
962.700385	2406.868657
962.999918	2408.252454
963.299414	2404.874881
963.598873	2404.635426
963.898293	2405.588204
964.197677	2404.854716
964.497022	2404.549726
964.796331	2404.499315
965.095601	2404.574932
965.394835	2404.501835
965.694030	2402.271125
965.993189	2404.758934
966.292309	2404.005282
966.591393	2404.582494
966.890439	2404.703481
967.189447	2405.671383
967.488419	2404.877401
967.787353	2406.104922
968.086249	2406.722463
968.385108	2407.909655
968.683930	2405.736918
968.982714	2405.825138
969.281462	2402.412277
969.580172	2405.099212
969.878844	2406.288924
970.177480	2404.741290
970.476078	2405.792371
970.774639	2407.624830
971.073162	2405.971332
971.371649	2403.773388
971.670098	2402.283728
971.968510	2401.703995
972.266885	2403.773388
972.565223	2404.673234
972.863524	2405.474778
973.161788	2406.195663
973.460014	2406.480488
973.758204	2408.817063
974.056356	2405.106774
974.354471	2407.685324
974.652550	2405.515107
974.950591	2408.398647
975.248595	2407.004768
975.546563	2405.583163
975.844493	2405.071486
976.142386	2406.296486
976.440243	2407.105591
976.738062	2405.799932
977.035845	2404.572411
977.333590	2408.139028
977.631299	2403.929664
977.928971	2405.862947
978.226606	2406.709861
978.524204	2406.125087
978.821765	2404.761455
979.119290	2406.606517
979.416777	2402.392112
979.714228	2406.054511
980.011642	2403.332287
980.309020	2405.008471
980.606360	2404.050652
980.903664	2406.299007
981.200931	2406.747669
981.498162	2409.847979
981.795356	2409.308575
982.092513	2412.915521
982.389633	2414.768145
982.686717	2419.272416
982.983764	2416.204874
983.280775	2418.269226
983.577749	2419.990780
983.874686	2419.007755
984.171587	2417.268557
984.468451	2416.996335
984.765279	2414.619431
985.062070	2415.385686
985.358824	2411.887126
985.655543	2414.125398
985.952224	2411.549368
986.248869	2407.334964
986.545478	2402.339180
986.842050	2404.504356
987.138586	2404.305230
987.435086	2403.498646
987.731549	2400.395815
988.027975	2405.089130
988.324366	2404.358162
988.620719	2403.508728
988.917037	2404.907648
989.213318	2404.426218
989.509563	2404.249778
989.805772	2403.453275
990.101944	2403.715415
990.398080	2406.188101
990.694180	2402.808007
990.990244	2403.269273
991.286271	2400.363048
991.582262	2402.137534
991.878217	2403.372617
992.174136	2405.941085
992.470019	2403.647360
992.765865	2404.700961
993.061676	2402.760117
993.357450	2402.313974
993.653188	2403.803635
993.948890	2406.515776
994.244556	2402.896228
994.540186	2405.212638
994.835780	2403.770868
995.131337	2405.908317
995.426859	2405.699109
995.722345	2410.994841
996.017795	2410.755387
996.313208	2409.880746
996.608586	2409.268246
996.903928	2408.685993
997.199234	2411.037691
997.494504	2410.929306
997.789738	2410.505849
998.084936	2413.255799
998.380099	2408.912845
998.675225	2405.701630
998.970316	2409.336302
999.265371	2406.170457
999.560390	2407.271949
999.855373	2403.060065
1000.150320	2406.097360
1000.445232	2403.511248
1000.740108	2405.026115
1001.034948	2406.477967
1001.329752	2404.098543
1001.624521	2403.947308
1001.919254	2398.064282
1002.213951	2402.744993
1002.508613	2397.313150
1002.803239	2398.759961
1003.097829	2397.192162
1003.392384	2400.554612
1003.686903	2401.164591
1003.981386	2401.386402
1004.275834	2402.901269
1004.570246	2398.812893
1004.864623	2401.101577
1005.158964	2402.528223
1005.453270	2402.959242
1005.747540	2400.380692
1006.041775	2400.010167
1006.335974	2402.250960
1006.630138	2400.408418
1006.924266	2398.212996
1007.218359	2398.454971
1007.512416	2404.622823
1007.806438	2401.517472
1008.100425	2400.567215
1008.394376	2403.203738
1008.688292	2401.043604
1008.982172	2400.017729
1009.276017	2400.143758
1009.569827	2401.225085
1009.863602	2401.928326
1010.157341	2402.503018
1010.451045	2403.410425
1010.744714	2400.040414
1011.038347	2401.109139
1011.331945	2401.043604
1011.625508	2399.856412
1011.919036	2402.808007
1012.212528	2401.918244
1012.505986	2402.218193
1012.799408	2403.488563
1013.092795	2399.571587
1013.386147	2400.398336
1013.679464	2399.806000
1013.972745	2399.821124
1014.265992	2403.130641
1014.559204	2400.168963
1014.852380	2401.265414
1015.145521	2403.460837
1015.438628	2400.053017
1015.731699	2400.869684
1016.024736	2402.704664
1016.317737	2401.867832
1016.610703	2401.232647
1016.903635	2399.138048
1017.196531	2400.408418
1017.489393	2399.490928
1017.782219	2397.232491
1018.075011	2401.623336
1018.367768	2400.602503
1018.660490	2403.296999
1018.953177	2403.296999
1019.245829	2403.296999
