Dividing Wavelength (nm)	Counts (n)	Blue Motor Position (mm): 0.000000	Red Motor Position (mm): 48.000000	
326.493990	1999.558550
326.888308	1999.558550
327.282561	1999.558550
327.676750	1974.688017
328.070874	1977.259006
328.464933	1982.176651
328.858929	1990.968423
329.252859	2003.188180
329.646726	2017.999090
330.040528	2035.983407
330.434265	2054.166849
330.827938	2071.946998
331.221547	2093.749989
331.615091	2113.753287
332.008571	2136.972842
332.401986	2156.424134
332.795338	2174.786537
333.188625	2193.769002
333.581847	2214.780531
333.975006	2234.773747
334.368100	2250.998701
334.761129	2265.799528
335.154095	2282.362239
335.546996	2327.346976
335.939833	2418.687642
336.332606	2427.439085
336.725315	2441.992896
337.117960	2448.569082
337.510540	2455.735082
337.903056	2467.133131
338.295508	2474.445324
338.687896	2477.785089
339.080220	2488.542911
339.472480	2492.848056
339.864676	2494.877121
340.256807	2497.685043
340.648875	2501.047493
341.040879	2502.244767
341.432818	2503.875580
341.824694	2504.372134
342.216506	2504.198214
342.608253	2508.127794
342.999937	2504.427587
343.391557	2503.958759
343.783113	2500.003974
344.174605	2500.361896
344.566033	2495.270331
344.957397	2497.183449
345.348697	2495.587923
345.739934	2494.491473
346.131106	2492.689260
346.522215	2493.349651
346.913260	2490.234218
347.304241	2487.824547
347.695159	2486.796151
348.086012	2483.043012
348.476802	2483.058136
348.867528	2479.801550
349.258191	2479.337764
349.648789	2479.932620
350.039324	2477.187712
350.429796	2478.778196
350.820203	2478.304327
351.210548	2476.741570
351.600828	2476.849955
351.991045	2478.405151
352.381198	2474.543627
352.771288	2475.088071
353.161314	2474.946919
353.551276	2473.933647
353.941175	2471.163533
354.331010	2475.783751
354.720782	2480.613176
355.110490	2480.777013
355.500135	2481.137456
355.889717	2479.622589
356.279235	2479.350367
356.668689	2480.693834
357.058080	2478.667291
357.447408	2477.603607
357.836672	2475.166209
358.225873	2478.468165
358.615010	2476.943216
359.004084	2485.354381
359.393095	2482.712817
359.782043	2485.921511
360.170927	2486.002169
360.559748	2487.123826
360.948505	2488.363950
361.337199	2489.626759
361.725830	2492.800165
362.114398	2492.734630
362.502903	2490.750936
362.891344	2492.049033
363.279722	2491.650782
363.668037	2492.447285
364.056289	2491.428972
364.444478	2495.640856
364.832603	2496.323932
365.220665	2497.422903
365.608665	2497.344766
365.996601	2496.734786
366.384474	2500.929026
366.772284	2504.074706
367.160031	2501.798625
367.547715	2503.628564
367.935336	2502.892555
368.322893	2503.895745
368.710388	2505.587052
369.097820	2508.533607
369.485189	2509.831704
369.872495	2511.109636
370.259738	2512.168278
370.646918	2516.130625
371.034035	2517.653054
371.421090	2521.312932
371.808081	2522.835360
372.195010	2525.943231
372.581875	2532.620240
372.968678	2541.706919
373.355418	2547.189174
373.742096	2559.086297
374.128710	2568.997206
374.515262	2585.000349
374.901751	2600.864860
375.288177	2618.773559
375.674540	2636.062196
376.060841	2657.920639
376.447079	2680.545337
376.833254	2704.906713
377.219367	2733.457288
377.605417	2766.459202
377.991404	2793.809982
378.377329	2836.695078
378.763191	2872.872918
379.148991	2921.502409
379.534727	2970.383957
379.920402	3023.653830
380.306013	3072.154771
380.691563	3140.434679
381.077049	3195.345448
381.462474	3250.543562
381.847835	3329.094821
382.233134	3401.901685
382.618371	3463.925522
383.003545	3555.654357
383.388657	3636.398518
383.773706	3733.579362
384.158693	3806.126607
384.543618	3904.832399
384.928480	3986.063031
385.313280	4096.857511
385.698017	4203.757698
386.082692	4331.689580
386.467305	4391.709558
386.851856	4522.953478
387.236344	4686.221327
387.620770	4751.458899
388.005133	4875.131006
388.389435	5025.606928
388.773674	5112.942398
389.157851	5253.202421
389.541965	5386.397267
389.926018	5412.487759
390.310008	5598.282005
390.693936	5726.902004
391.077802	5843.362740
391.461606	5984.056303
391.845348	6103.130877
392.229027	6225.393981
392.612645	6455.139527
392.996200	6577.125368
393.379694	6750.006698
393.763125	6988.624674
394.146494	7080.804692
394.529801	7226.448668
394.913047	7478.128274
395.296230	7473.162737
395.679351	7534.632047
396.062410	7808.008779
396.445408	7697.007612
396.828343	7861.976851
397.211217	8001.518510
397.594028	7883.008545
397.976778	8089.040503
398.359466	8262.274713
398.742092	8233.739262
399.124656	8386.473621
399.507158	8577.803053
399.889598	8594.990867
400.271977	8815.952202
400.654294	8850.655505
401.036549	9054.328203
401.418742	9084.683511
401.800874	9393.413855
402.182944	9475.272111
402.564952	9854.041726
402.946898	9669.112038
403.328783	9729.963806
403.710606	9934.773284
404.092367	10193.392038
404.474067	10568.489172
404.855705	10356.155772
405.237282	10307.206168
405.618797	10751.092367
406.000250	11006.595688
406.381642	11380.157791
406.762972	11322.010602
407.144240	11121.624737
407.525447	11375.409024
407.906593	11321.481281
408.287677	11590.668814
408.668700	11749.082033
409.049661	11711.830426
409.430560	11882.002136
409.811399	11851.856036
410.192176	12016.490038
410.572891	12085.095101
410.953545	12602.564502
411.334138	12055.770709
411.714669	12695.452803
412.095139	11969.491361
412.475547	12491.328922
412.855894	12327.662821
413.236180	12672.349195
413.616405	12337.200684
413.996568	12631.798153
414.376670	12606.584822
414.756711	12471.756642
415.136691	12772.436263
415.516609	12955.220940
415.896466	13035.541644
416.276262	13322.468998
416.655997	13770.178912
417.035670	13797.070947
417.415283	14469.263442
417.794834	14567.911261
418.174324	14300.014263
418.553753	14199.849057
418.933121	14712.894846
419.312428	14508.914638
419.691674	14418.894753
420.070859	14890.414037
420.449983	14535.980593
420.829045	15110.140289
421.208047	14844.300083
421.586988	15312.368697
421.965867	15581.102526
422.344686	15577.172946
422.723444	16148.623023
423.102141	14802.524041
423.480777	16031.655651
423.859352	15529.481110
424.237866	16671.678023
424.616319	16356.379055
424.994712	17044.393212
425.373044	16823.058831
425.751314	17524.313578
426.129524	16620.437214
426.507673	17760.784023
426.885762	17419.661745
427.263789	17643.856980
427.641756	17817.398701
428.019662	17879.296509
428.397508	17919.280420
428.775292	18242.458711
429.153016	18181.427982
429.530679	18279.029762
429.908282	18310.887333
430.285824	18006.464656
430.663305	18743.045288
431.040726	18331.210745
431.418086	18155.970155
431.795385	18815.655548
432.172624	19237.211956
432.549802	18788.526578
432.926920	18978.000866
433.303977	18862.893680
433.680974	19127.720615
434.057910	19414.148894
434.434786	19440.383058
434.811601	19348.366877
435.188355	20421.646175
435.565050	20058.272244
435.941683	20002.257463
436.318257	20908.803118
436.694770	20706.524300
437.071222	21319.281591
437.447614	20365.444872
437.823946	20400.997609
438.200218	20548.453880
438.576429	20325.614715
438.952580	20600.944894
439.328670	20571.343239
439.704700	21005.505052
440.080670	20547.574198
440.456580	21150.236579
440.832429	21339.625167
441.208218	20291.279416
441.583947	20767.862539
441.959616	20875.070237
442.335224	21113.993203
442.710773	21254.785068
443.086261	21806.534316
443.461689	21156.359060
443.837057	21277.142586
444.212365	21943.162188
444.587612	21934.105755
444.962800	21497.975371
445.337927	21951.545627
445.712995	20633.848505
446.088002	22540.095297
446.462949	22740.080391
446.837837	22928.256582
447.212664	22887.347618
447.587431	25812.575440
447.962139	28799.567478
448.336786	31219.371736
448.711374	29600.730333
449.085901	25829.881721
449.460369	25792.768746
449.834776	25723.145371
450.209124	28268.812116
450.583412	27771.582948
450.957640	28306.817375
451.331808	26931.215040
451.705917	25536.690734
452.079965	25590.469763
452.453954	25948.817664
452.827883	25827.693860
453.201752	25619.879855
453.575562	25783.445132
453.949311	26948.498636
454.323001	27023.137960
454.696632	26758.749605
455.070202	28358.343009
455.443713	28486.842020
455.817164	29108.542318
456.190556	29648.724638
456.563888	29060.174968
456.937160	29525.044970
457.310373	27809.452096
457.683526	28290.504201
458.056619	28266.289019
458.429653	28196.564820
458.802628	28796.189905
459.175542	28908.748788
459.548398	30225.520858
459.921194	31835.912413
460.293930	32518.146887
460.666607	34578.441258
461.039224	36345.980702
461.411782	36756.358351
461.784280	35554.958128
462.156719	35095.525011
462.529099	34527.349164
462.901419	33201.319015
463.273680	32132.954842
463.645882	32212.186657
464.018024	32192.969778
464.390106	33063.725762
464.762130	35803.764276
465.134094	39927.952402
465.505999	45284.657274
465.877845	49877.642461
466.249631	51062.926115
466.621358	49374.137056
466.993026	47283.873025
467.364634	45206.930243
467.736184	43215.777817
468.107674	41936.459000
468.479105	41124.863478
468.850477	40442.752513
469.221790	38979.703802
469.593043	37193.751544
469.964238	36301.580739
470.335373	36210.035906
470.706449	37999.348093
471.077467	40651.335294
471.448425	45240.544657
471.819324	48042.985094
472.190164	46159.418454
472.560945	42567.808067
472.931667	39418.906769
473.302330	38297.915471
473.672934	37466.314130
474.043479	38001.614092
474.413965	37181.496499
474.784393	36786.317928
475.154761	37718.180258
475.525070	37730.778102
475.895321	37261.245032
476.265513	37873.800677
476.635645	38870.036021
477.005719	38675.634005
477.375734	39162.362450
477.745691	39860.297597
478.115588	41225.729405
478.485427	43233.709202
478.855207	46618.165974
479.224928	49242.721737
479.594591	50870.517875
479.964194	49885.413399
480.333739	50073.637481
480.703226	50109.606114
481.072653	50740.564491
481.442022	51190.784900
481.811333	51474.271666
482.180584	50181.976918
482.549777	49671.607982
482.918912	49125.988778
483.287988	48828.253191
483.657005	48002.262654
484.025964	47369.071045
484.394864	47380.499341
484.763706	46957.206256
485.132489	46077.207317
485.501213	45897.480100
485.869879	46071.904023
486.238487	45632.043185
486.607036	45841.591348
486.975527	45307.960007
487.343959	45498.389594
487.712333	45582.284476
488.080648	45496.952865
488.448905	45953.941023
488.817104	45760.277536
489.185244	46746.478463
489.553326	48447.351168
489.921350	51158.461021
490.289315	53957.765861
490.657222	54533.528645
491.025070	54807.321272
491.392861	53927.871819
491.760593	52729.458479
492.128267	51099.045982
492.495883	49571.052087
492.863440	48178.614818
493.230939	46827.386462
493.598380	45711.683334
493.965763	45396.734727
494.333088	44557.352364
494.700354	44075.108026
495.067563	43769.513279
495.434713	43645.934434
495.801805	43703.930388
496.168839	43309.767610
496.535815	42969.729181
496.902733	43017.607539
497.269593	42602.569343
497.636395	42519.738144
498.003139	42942.005355
498.369825	42378.598439
498.736453	42694.714074
499.103023	42209.901267
499.469535	42072.396234
499.835989	42188.889738
500.202385	41856.586959
500.568723	41860.231713
500.935003	42044.158211
501.301226	41837.203722
501.667390	42481.634583
502.033497	42752.957045
502.399546	42177.264837
502.765537	41471.399955
503.131470	41864.320089
503.497345	42227.015984
503.863163	40869.181196
504.228923	41495.171516
504.594625	41924.564398
504.960269	41217.386295
505.325856	41910.015628
505.691385	41257.002202
506.056856	41391.497667
506.422270	41846.897861
506.787625	41414.482808
507.152924	41613.215174
507.518164	41718.111504
507.883347	40904.224777
508.248472	41178.690398
508.613540	41666.016220
508.978550	41977.340237
509.343503	41726.925961
509.708398	41923.934253
510.073236	42459.604741
510.438016	42468.056235
510.802738	41899.996334
511.167403	42553.506313
511.532010	42776.196764
511.896561	43090.076646
512.261053	43945.694045
512.625488	43492.143954
512.989866	43366.745252
513.354186	43206.063514
513.718449	43186.559290
514.082655	43871.941964
514.446803	43548.408272
514.810894	44071.218775
515.174927	43994.378988
515.538904	43897.193103
515.902822	44583.397486
516.266684	44006.356769
516.630488	44455.314369
516.994235	44308.536134
517.357925	44901.002781
517.721558	45070.120889
518.085133	45383.655453
518.448651	45526.272216
518.812112	45281.698116
519.175516	45384.746863
519.538863	45719.953347
519.902152	45686.555702
520.265385	46152.224727
520.628560	46204.834209
520.991678	45981.816083
521.354739	46222.740387
521.717743	46552.141982
522.080690	46429.417612
522.443580	47002.836260
522.806413	47039.004018
523.169189	46985.764392
523.531908	47171.248607
523.894569	47031.749797
524.257174	47211.066160
524.619722	47516.580248
524.982213	47507.044906
525.344647	47402.481292
525.707025	47442.750029
526.069345	47844.338427
526.431608	47781.931463
526.793815	48100.073641
527.155964	47631.919328
527.518057	47785.752658
527.880093	47575.014783
528.242072	48096.360831
528.603995	47786.304664
528.965860	47792.089388
529.327669	47908.620700
529.689421	47793.226168
530.051117	47761.073689
530.412755	47873.924959
530.774337	47967.735791
531.135862	47754.079088
531.497331	47961.267991
531.858743	47859.751755
532.220098	48205.884940
532.581396	47908.522398
532.942638	47573.469669
533.303824	47888.609840
533.664953	47839.740895
534.026025	47537.823670
534.387040	48034.359680
534.747999	47978.765836
535.108902	48142.116864
535.469748	47644.151687
535.830537	47768.166593
536.191270	47970.773086
536.551947	47605.095348
536.912567	47948.634859
537.273131	48064.692303
537.633638	47510.767798
537.994089	47883.931649
538.354483	47470.471334
538.714821	48031.932365
539.075103	48391.782529
539.435328	48146.845467
539.795497	48038.745484
540.155609	48022.548257
540.515665	48480.327876
540.875665	47931.966284
541.235609	48268.165875
541.595496	48233.770082
541.955328	48919.140153
542.315102	48283.243966
542.674821	48064.851099
543.034483	48123.056262
543.394090	48070.892922
543.753640	48035.012510
544.113134	49055.689888
544.472571	48040.671205
544.831953	49304.627106
545.191278	48499.421246
545.550548	48224.950584
545.909761	48676.887505
546.268918	48886.211337
546.628019	49220.596112
546.987064	48758.226523
547.346053	48035.302376
547.704986	48915.160163
548.063863	48451.593299
548.422684	48661.320422
548.781449	48506.998100
549.140158	48899.431763
549.498811	48755.922715
549.857408	48187.487249
550.215949	49027.449344
550.574434	48961.808480
550.932864	48705.859017
551.291237	49439.188105
551.649555	49041.710768
552.007817	49274.329771
552.366022	48909.829142
552.724173	49098.096074
553.082267	49493.763636
553.440305	49790.811106
553.798288	49096.346793
554.156215	49408.553013
554.514086	49642.906173
554.871902	49386.772708
555.229661	49384.587367
555.587365	49223.582996
555.945014	49303.119801
556.302606	49216.182582
556.660143	49462.127875
557.017625	49543.706348
557.375050	49339.516932
557.732421	49690.766887
558.089735	49672.996820
558.446994	49576.713302
558.804197	50062.307488
559.161345	50003.691471
559.518437	49249.209702
559.875474	49539.575122
560.232455	49707.548889
560.589381	49893.958155
560.946251	49581.378890
561.303065	50281.083482
561.659825	50079.916238
562.016528	49740.944012
562.373177	49470.589452
562.729770	49944.616710
563.086307	49451.163366
563.442789	49917.812895
563.799216	49983.050467
564.155587	49751.727040
564.511904	49773.608169
564.868164	49867.509741
565.224370	50107.599734
565.580520	49846.825887
565.936615	50059.297919
566.292654	49781.379107
566.648638	50021.496827
567.004567	49988.605818
567.360441	50027.921777
567.716260	49883.528008
568.072023	50163.861532
568.427732	50148.052473
568.783385	49692.864007
569.138982	50079.006310
569.494525	50053.530839
569.850013	49824.932156
570.205445	49783.256937
570.560823	49754.197206
570.916145	49647.087810
571.271412	49661.397125
571.626625	49425.695457
571.981782	49466.135593
572.336884	49167.923616
572.691931	49492.024438
573.046923	49078.755687
573.401860	48939.637485
573.756743	48929.587945
574.111570	49046.487261
574.466342	48876.330675
574.821059	49005.137197
575.175722	48519.074184
575.530330	48538.737205
575.884882	48242.042616
576.239380	48212.451043
576.593823	48182.413328
576.948211	48100.025750
577.302544	47616.143037
577.656823	47648.592944
578.011047	47872.914208
578.365216	47598.125953
578.719330	47398.478616
579.073389	47231.659274
579.427394	47314.697160
579.781344	47273.616797
580.135239	46927.672656
580.489080	47036.685087
580.842866	46503.739344
581.196597	46961.380331
581.550273	46878.919657
581.903895	46753.364679
582.257463	47182.437448
582.610975	46546.352217
582.964434	46823.378744
583.317837	46482.632032
583.671186	46314.118862
584.024481	46535.047430
584.377721	46073.343272
584.730906	46375.447019
585.084037	46397.691111
585.437113	46098.546521
585.790135	46141.038407
586.143103	45755.327123
586.496016	45862.444081
586.848874	45897.870789
587.201679	45925.340037
587.554428	45394.488892
587.907124	45569.101859
588.259765	45320.767059
588.612352	45580.240288
588.964884	44951.114371
589.317362	45259.643068
589.669786	45208.792949
590.022155	44966.958717
590.374470	45408.276448
590.726731	44926.654692
591.078937	44428.371922
591.431090	44524.194175
591.783188	44194.054051
592.135232	43847.031102
592.487222	44105.934681
592.839157	44197.474473
593.191038	43863.535840
593.542866	43616.632727
593.894639	42990.370185
594.246358	43281.017910
594.598022	43274.814770
594.949633	42865.500804
595.301190	42806.201712
595.652692	42617.637352
596.004141	42959.510762
596.355535	41963.724081
596.706876	41914.953438
597.058162	41758.791095
597.409395	42250.580858
597.760573	42309.653099
598.111698	41870.629093
598.462768	41898.350398
598.813785	41940.726337
599.164748	41365.263502
599.515657	41779.369085
599.866511	41227.957595
600.217312	41858.999151
600.568060	40790.670266
600.918753	41555.990517
601.269392	41512.432427
601.619978	41147.747796
601.970510	41374.708104
602.320988	41567.537279
602.671412	41878.609239
603.021783	41597.181785
603.372100	41261.761052
603.722363	41374.829091
604.072572	41436.989039
604.422728	41476.453712
604.772830	41275.881324
605.122878	41363.509180
605.472872	41293.979066
605.822813	41597.907711
606.172701	41396.574108
606.522534	41655.785198
606.872314	41933.199894
607.222041	41661.668225
607.571714	42049.726165
607.921333	41489.185146
608.270899	41788.304530
608.620411	42130.868578
608.969870	41933.635954
609.319276	41930.908690
609.668627	41969.362611
610.017926	42477.382370
610.367171	42643.957216
610.716362	42713.562948
611.065500	42658.848785
611.414585	42857.891183
611.763616	43140.657063
612.112594	43064.727204
612.461518	43305.210407
612.810389	43575.562447
613.159207	43438.831231
613.507971	43531.157443
613.856682	44016.718861
614.205340	43876.627716
614.553945	44602.813490
614.902496	44028.283268
615.250994	44501.355227
615.599439	44576.186115
615.947830	44798.216174
616.296169	44821.927242
616.644454	44945.266632
616.992686	45128.807482
617.340864	45631.876827
617.688990	45360.501433
618.037063	45972.537839
618.385082	45932.947138
618.733048	46234.836636
619.080961	46245.667555
619.428821	46257.388237
619.776628	46384.085037
620.124382	46215.939871
620.472083	46348.020622
620.819731	46496.734660
621.167326	46163.269895
621.514868	46135.046995
621.862357	45709.979424
622.209793	45725.939717
622.557176	45407.991623
622.904506	45174.235840
623.251783	44806.753368
623.599007	44588.090800
623.946179	44359.053537
624.293297	44305.211493
624.640363	43698.488463
624.987376	43702.450810
625.334336	43424.983182
625.681243	43057.813262
626.028097	43000.117256
626.374899	42863.567522
626.721647	42825.015298
627.068343	42686.255017
627.414987	42453.920840
627.761577	42226.837023
628.108115	42561.607448
628.454600	42002.172961
628.801032	42169.635051
629.147412	42131.281952
629.493739	42141.074394
629.840014	41757.520724
630.186236	42088.422062
630.532405	41696.003523
630.878521	41907.411872
631.224585	41778.423868
631.570597	41489.480053
631.916556	41661.615292
632.262462	41594.399068
632.608316	41605.870213
632.954117	41500.963802
633.299866	41492.653460
633.645562	41404.604667
633.991206	40921.795719
634.336797	40478.708542
634.682336	40484.694913
635.027823	40232.695194
635.373257	40053.116691
635.718639	39808.701388
636.063968	39664.559676
636.409245	39083.576777
636.754470	39139.536106
637.099642	38864.944456
637.444762	38371.735607
637.789829	38522.415696
638.134845	38162.162239
638.479808	38103.573949
638.824719	38008.265894
639.169577	37591.428006
639.514383	37663.140940
639.859137	37336.325457
640.203839	37583.702438
640.548489	37195.014353
640.893086	37280.043495
641.237632	37003.836155
641.582125	37113.236755
641.926566	37045.410551
642.270955	37001.323140
642.615292	37020.817282
642.959576	37000.952615
643.303809	36974.569737
643.647990	37116.712631
643.992118	37087.400842
644.336195	37066.185146
644.680219	37152.247724
645.024192	37444.637168
645.368112	37981.487285
645.711981	37973.292890
646.055797	38856.631593
646.399562	38766.158005
646.743274	39744.603117
647.086935	40193.475017
647.430544	40088.440056
647.774101	40221.327392
648.117606	40466.929887
648.461059	40801.614611
648.804460	40436.453591
649.147810	39801.578237
649.491108	39556.963809
649.834354	39184.140235
650.177548	38314.185795
650.520690	37869.455203
650.863781	37885.188644
651.206820	37718.147491
651.549807	37275.801364
651.892742	36779.605632
652.235626	36554.233288
652.578458	36428.698475
652.921238	35781.379033
653.263967	36118.811186
653.606644	35787.390609
653.949269	35730.533955
654.291843	35308.347403
654.634365	35724.625723
654.976836	35300.727699
655.319255	35279.030572
655.661622	35302.023275
656.003938	35050.338628
656.346203	34908.125158
656.688416	35144.247763
657.030577	34933.779590
657.372687	34773.475938
657.714746	35050.416766
658.056753	35168.956978
658.398708	34610.165239
658.740612	34664.307231
659.082465	34930.747336
659.424266	34738.946555
659.766016	34865.015731
660.107715	34751.972897
660.449362	34868.358016
660.790958	34850.522413
661.132503	34869.683839
661.473996	34895.335750
661.815438	35021.840986
662.156829	35221.148044
662.498168	34971.011031
662.839456	35011.809089
663.180693	35139.562010
663.521879	35301.562010
663.863013	35252.297334
664.204097	35268.222339
664.545129	35729.180405
664.886110	35674.859452
665.227040	35720.764199
665.567918	35850.783118
665.908746	35902.177682
666.249522	36089.527123
666.590248	36090.467298
666.930922	36215.734930
667.271545	36173.343868
667.612118	36248.996463
667.952639	36025.391043
668.293109	36084.690136
668.633528	35985.152553
668.973896	35917.573366
669.314213	35963.299152
669.654480	35684.422521
669.994695	35718.402418
670.334859	35585.671358
670.674973	35493.710630
671.015035	35660.353532
671.355047	35595.173933
671.695008	35549.622067
672.034918	35431.172596
672.374777	35502.635993
672.714585	35325.908262
673.054342	35554.733797
673.394049	35307.805479
673.733705	35622.741483
674.073310	35265.742091
674.412864	35349.707549
674.752368	34916.445582
675.091820	35244.072691
675.431223	34823.474102
675.770574	34531.097262
676.109875	34389.118205
676.449125	34109.119917
676.788324	34010.628374
677.127473	33471.290447
677.466571	33388.434043
677.805619	33023.565410
678.144616	33016.704399
678.483562	32930.384722
678.822458	32592.879472
679.161303	32512.795702
679.500098	32418.032092
679.838842	32286.132822
680.177535	32448.175671
680.516179	32710.361042
680.854771	32954.698207
681.193314	33809.153619
681.531805	34951.169050
681.870247	35701.789296
682.208638	36450.198996
682.546978	36678.187699
682.885268	36809.923131
683.223508	36278.696421
683.561697	35958.016022
683.899836	35760.259119
684.237925	35237.110858
684.575963	35090.710709
684.913951	34581.975107
685.251889	34755.050521
685.589776	34722.671190
685.927614	34695.499371
686.265401	34834.589847
686.603137	34895.668467
686.940824	35405.979429
687.278460	35770.780007
687.616046	35915.476246
687.953582	36515.867586
688.291068	36383.113841
688.628504	36701.069496
688.965889	36637.936606
689.303224	36269.569412
689.640510	35954.290610
689.977745	35228.480402
690.314930	34436.744506
690.652065	33911.884773
690.989150	33176.960159
691.326185	32237.321850
691.663170	31536.830838
692.000105	30754.824368
692.336990	30048.674661
692.673825	29569.281095
693.010610	29031.410144
693.347345	28418.458768
693.684030	27724.178458
694.020665	27431.781452
694.357251	26740.639260
694.693786	26672.152664
695.030272	26413.480978
695.366707	25838.446641
695.703093	25540.642998
696.039429	25527.500710
696.375716	25240.333902
696.711952	25199.263622
697.048139	25016.037844
697.384276	24834.493291
697.720363	24951.470746
698.056400	24742.787141
698.392388	24527.353431
698.728326	24487.240970
699.064214	24267.207208
699.400053	24224.637184
699.735842	23863.930023
700.071581	23573.395724
700.407270	23265.560185
700.742910	23079.201331
701.078501	22797.126088
701.414042	22495.034943
701.749533	22191.267616
702.084974	21819.563178
702.420366	22037.366230
702.755709	21579.150551
703.091002	21267.385433
703.426246	21284.762290
703.761440	21181.829490
704.096584	20881.444776
704.431679	20836.533137
704.766725	20734.243084
705.101721	20662.293216
705.436668	20758.982547
705.771565	20408.937426
706.106413	20775.583066
706.441212	20746.810681
706.775961	20871.420442
707.110661	20931.523599
707.445311	21285.941920
707.779913	21111.850713
708.114465	21350.206549
708.448967	21630.232563
708.783421	22350.172347
709.117825	22617.676134
709.452180	22835.743847
709.786485	23234.262182
710.120742	24041.771849
710.454949	24057.122162
710.789107	24523.398646
711.123216	25254.711273
711.457275	25364.041297
711.791286	25936.066065
712.125247	26029.592072
712.459159	25734.664407
712.793023	26461.084594
713.126837	25318.897764
713.460602	25613.558248
713.794318	25262.812407
714.127985	24883.662185
714.461602	23974.560665
714.795171	23957.302275
715.128691	22885.908369
715.462162	22341.778825
715.795584	21895.616545
716.128957	21632.617029
716.462281	21214.705375
716.795556	20967.827468
717.128782	20437.767785
717.461960	19879.679287
717.795088	19788.623446
718.128167	19364.637201
718.461198	18885.031907
718.794180	18732.237054
719.127113	18354.952059
719.459997	18150.382036
719.792833	17779.375798
720.125619	17744.843894
720.458357	17387.975573
720.791046	17210.859673
721.123686	17035.566151
721.456278	16783.914272
721.788821	16737.303763
722.121315	16460.005014
722.453761	16536.622990
722.786158	16450.527644
723.118506	16461.978625
723.450805	16307.583207
723.783056	16475.269627
724.115259	16366.675612
724.447412	16278.762930
724.779518	16535.461004
725.111574	16546.410391
725.443582	16748.205258
725.775542	16723.274232
726.107453	17209.992595
726.439315	17073.276503
726.771129	17493.416346
727.102895	17875.752578
727.434612	18085.983816
727.766281	18213.525009
728.097901	18499.507146
728.429473	18532.630047
728.760996	18527.616620
729.092471	18627.290313
729.423897	18509.622221
729.755276	18388.357265
730.086606	18499.613010
730.417887	19024.959214
730.749120	19532.268170
731.080305	19709.605880
731.411442	20075.492826
731.742530	20168.108904
732.073570	20266.426528
732.404562	20594.673699
732.735506	20412.176368
733.066401	20129.463419
733.397249	19604.276011
733.728048	18953.389953
734.058798	18089.701667
734.389501	17370.293725
734.720156	16885.017133
735.050762	16331.931980
735.381320	15954.135308
735.711831	15690.369535
736.042293	15314.725436
736.372707	15311.955322
736.703073	15085.426033
737.033391	15269.637356
737.363661	15213.975456
737.693883	15310.896680
738.024056	15480.297093
738.354182	15653.085162
738.684260	15923.011224
739.014290	16152.003117
739.344272	16338.999677
739.674207	16639.369268
740.004093	16755.313285
740.333931	16758.146414
740.663722	16810.869321
740.993464	16815.204714
741.323159	16660.993297
741.652806	16385.700927
741.982405	16171.938359
742.311956	15836.154663
742.641460	15719.817436
742.970915	15403.543005
743.300323	15068.102107
743.629683	14846.704713
743.958996	14556.346854
744.288260	14284.840390
744.617477	13976.896467
744.946647	13887.925142
745.275768	13606.956433
745.604842	13422.858535
745.933869	13247.222215
746.262847	13185.175693
746.591778	13115.141463
746.920662	13000.384637
747.249498	12991.013132
747.578286	13110.584260
747.907027	13243.585022
748.235720	13468.957367
748.564365	13492.008043
748.892963	13388.767732
749.221514	13445.594139
749.550017	13291.632260
749.878473	13261.256787
750.206881	13032.312785
750.535242	12935.084051
750.863555	12842.924197
751.191821	12741.077766
751.520039	12767.178340
751.848210	12655.915033
752.176334	12687.041638
752.504411	12586.142943
752.832440	12416.941656
753.160421	12477.231335
753.488356	12342.088083
753.816243	12248.970410
754.144082	12099.038933
754.471875	12037.793954
754.799620	11980.433185
755.127318	11950.115686
755.454969	11913.282496
755.782572	11863.508663
756.110129	11875.075591
756.437638	11788.796242
756.765100	11772.964499
757.092515	11772.510795
757.419882	11789.370934
757.747203	11790.842951
758.074477	11865.205011
758.401703	11807.120837
758.728882	11976.243987
759.056014	12023.567818
759.383099	12137.419757
759.710138	12233.385683
760.037129	12325.104436
760.364073	12336.663801
760.690970	12323.718118
761.017820	12317.046151
761.344623	12533.916590
761.671379	12880.490875
761.998088	13536.188715
762.324751	15149.214273
762.651366	18110.148587
762.977935	21835.324345
763.304456	24113.948569
763.630931	24646.332224
763.957359	23500.447708
764.283740	21551.010830
764.610074	19648.829729
764.936362	17447.385571
765.262602	15864.997625
765.588796	14338.846272
765.914943	13286.512968
766.241044	12361.307482
766.567097	11699.905577
766.893104	11119.794798
767.219064	10738.776828
767.544978	10329.654426
767.870845	10001.765177
768.196665	9797.737078
768.522438	9595.128064
768.848165	9419.363194
769.173846	9248.974715
769.499479	9119.777503
769.825066	8955.806413
770.150607	8764.923122
770.476101	8700.078760
770.801548	8586.330165
771.126949	8431.047503
771.452303	8344.884102
771.777611	8169.693923
772.102872	8143.411867
772.428087	8029.358282
772.753256	7904.655260
773.078378	7807.708830
773.403453	7652.993298
773.728482	7540.827625
774.053465	7477.104920
774.378401	7386.056640
774.703291	7284.094262
775.028135	7177.763725
775.352932	7140.272664
775.677683	7062.908596
776.002388	6962.481250
776.327046	6960.555529
776.651658	6869.908021
776.976224	6790.613192
777.300743	6766.382886
777.625216	6700.421908
777.949643	6660.538820
778.274024	6662.928327
778.598359	6583.928405
778.922647	6587.593323
779.246889	6545.068670
779.571086	6550.147633
779.895236	6555.284568
780.219339	6548.189144
780.543397	6543.894081
780.867409	6593.614982
781.191374	6591.152378
781.515294	6558.367234
781.839167	6611.768177
782.162995	6584.077119
782.486776	6540.818977
782.810511	6496.373645
783.134201	6421.356234
783.457844	6404.881743
783.781441	6361.255598
784.104993	6316.021325
784.428498	6284.340193
784.751958	6268.919304
785.075372	6246.188741
785.398739	6203.895981
785.722061	6226.795422
786.045337	6225.986317
786.368568	6341.244738
786.691752	6361.603438
787.014891	6621.540453
787.337983	6896.752165
787.661030	7339.433529
787.984031	7784.632948
788.306987	8046.087351
788.629897	8139.089078
788.952760	8061.450268
789.275579	7892.100266
789.598351	7581.386228
789.921078	7317.217164
790.243759	7022.823861
790.566395	6822.115362
790.888984	6615.864114
791.211529	6472.312217
791.534027	6303.204191
791.856480	6159.042314
792.178888	6091.793322
792.501249	6018.842785
792.823566	5908.766670
793.145836	5899.201081
793.468062	5875.008583
793.790241	5837.729251
794.112375	5871.305856
794.434464	5980.651003
794.756507	6007.046485
795.078505	6123.103929
795.400457	6341.516960
795.722364	6580.689463
796.044226	6778.090966
796.366042	6948.786955
796.687812	6895.663276
797.009538	6937.729184
797.331218	6848.951945
797.652852	6781.675226
797.974442	6658.514796
798.295986	6578.617549
798.617484	6450.917560
798.938938	6334.630744
799.260346	6272.080107
799.581709	6121.140399
799.903026	6073.377987
800.224299	5991.950750
800.545526	5873.211412
800.866708	5802.607532
801.187845	5761.224700
801.508936	5672.316390
801.829983	5640.799096
802.150984	5531.605183
802.471940	5499.218290
802.792851	5480.530733
803.113717	5457.916117
803.434538	5429.899904
803.755314	5397.117281
804.076045	5377.706318
804.396731	5344.424620
804.717372	5355.225292
805.037967	5351.930898
805.358518	5375.979723
805.679024	5441.822233
805.999485	5440.342655
806.319901	5461.545748
806.640272	5476.417152
806.960598	5528.492271
807.280879	5516.668244
807.601115	5555.064193
807.921306	5518.793091
808.241453	5516.990878
808.561554	5533.851017
808.881611	5496.690152
809.201623	5496.153269
809.521590	5449.063851
809.841513	5435.735040
810.161390	5455.927382
810.481223	5367.026634
810.801011	5354.796794
811.120755	5329.260830
811.440453	5269.883599
811.760107	5243.667078
812.079716	5221.944747
812.399281	5170.451881
812.718801	5162.065921
813.038276	5126.586280
813.357707	5092.500519
813.677093	5113.355772
813.996434	5048.559301
814.315731	5072.920677
814.634983	5068.653340
814.954191	5072.938321
815.273354	5141.261079
815.592473	5180.007388
815.911547	5265.260861
816.230577	5319.352442
816.549562	5409.722686
816.868502	5465.586232
817.187399	5529.618969
817.506250	5617.440910
817.825058	5648.817051
818.143821	5811.943749
818.462539	5988.759699
818.781213	6226.669393
819.099843	6604.208967
819.418429	7262.029132
819.736970	7905.784478
820.055466	8643.582549
820.373919	9628.860945
820.692327	11174.985350
821.010691	14064.915013
821.329011	20603.911613
821.647286	30465.978856
821.965517	41009.095900
822.283704	46509.874428
822.601847	48076.012214
822.919945	43521.468346
823.237999	38416.740508
823.556010	33141.372134
823.873976	28280.197562
824.191897	23906.295880
824.509775	20680.227121
824.827609	17772.597967
825.145398	16110.227075
825.463144	15314.720395
825.780845	15622.702127
826.098502	16919.677586
826.416116	19407.938192
826.733685	21655.231645
827.051210	22117.502932
827.368692	20606.386820
827.686129	18014.868259
828.003522	15467.328725
828.320872	13206.487171
828.638177	11466.043929
828.955439	10165.718624
829.272656	9051.490033
829.589830	8173.084099
829.906960	7402.558857
830.224046	6845.750812
830.541088	6410.981540
830.858086	6135.908459
831.175041	5922.007261
831.491952	5860.721953
831.808819	5894.701851
832.125642	6153.867570
832.442421	6732.002217
832.759157	7904.004951
833.075849	9722.155059
833.392497	11587.755027
833.709101	12744.704876
834.025662	12466.624747
834.342179	11387.250695
834.658653	10059.955216
834.975083	8925.136033
835.291469	7986.170717
835.607811	7208.156841
835.924110	6664.586866
836.240366	6148.884389
836.556578	5677.521381
836.872746	5302.958609
837.188871	5014.962531
837.504952	4775.275831
837.820990	4607.851550
838.136984	4485.354032
838.452935	4431.867389
838.768842	4467.654541
839.084706	4761.800826
839.400526	5534.725657
839.716303	6468.213759
840.032037	7045.912346
840.347727	6890.528861
840.663373	6279.777949
840.978977	5681.304767
841.294537	5221.286876
841.610054	4872.756622
841.925527	4620.260350
842.240957	4399.818254
842.556344	4203.805589
842.871687	4035.816699
843.186987	3876.513717
843.502244	3750.442021
843.817458	3658.090603
844.132629	3581.311310
844.447756	3531.287940
844.762840	3480.258860
845.077881	3442.014147
845.392879	3402.597365
845.707833	3375.675083
846.022745	3349.236751
846.337613	3331.552383
846.652438	3311.324754
846.967221	3294.696508
847.281960	3276.790329
847.596656	3269.649535
847.911309	3253.301073
848.225919	3239.924371
848.540485	3230.643607
848.855009	3219.752194
849.169490	3208.278528
849.483928	3201.324256
849.798323	3192.635828
850.112675	3183.647450
850.426984	3183.329857
850.741251	3176.786440
851.055474	3173.061027
851.369654	3173.834844
851.683792	3170.169925
851.997887	3171.747807
852.311938	3168.249246
852.625947	3174.076820
852.939914	3161.892351
853.253837	3172.196469
853.567718	3165.022907
853.881555	3162.038544
854.195350	3169.025583
854.509103	3164.070129
854.822812	3160.362361
855.136479	3156.644510
855.450103	3159.843122
855.763685	3156.175682
856.077224	3157.498985
856.390720	3164.100376
856.704173	3177.429187
857.017584	3182.314065
857.330953	3187.140970
857.644278	3194.710262
857.957561	3196.484748
858.270802	3192.928214
858.584000	3196.104141
858.897155	3189.323789
859.210268	3177.973632
859.523339	3165.572393
859.836367	3162.996363
860.149352	3160.748009
860.462295	3156.644510
860.775195	3143.789567
861.088054	3140.331336
861.400869	3140.250677
861.713642	3136.628608
862.026373	3145.039773
862.339062	3149.181081
862.651708	3157.060405
862.964312	3175.248888
863.276873	3183.052594
863.589392	3217.123232
863.901869	3241.121645
864.214303	3261.099738
864.526696	3284.478089
864.839045	3301.905358
865.151353	3316.156700
865.463619	3319.163748
865.775842	3318.276505
866.088023	3325.394614
866.400162	3317.646361
866.712258	3321.366732
867.024313	3320.819767
867.336325	3319.887153
867.648296	3322.231290
867.960224	3319.473779
868.272110	3323.058039
868.583954	3324.129284
868.895755	3331.184379
869.207515	3328.948628
869.519233	3345.491174
869.830909	3354.638348
870.142542	3366.875748
870.454134	3371.652242
870.765684	3384.509705
871.077191	3405.848909
871.388657	3414.237389
871.700081	3437.293106
872.011463	3457.422433
872.322803	3477.370279
872.634101	3494.958865
872.945357	3515.269674
873.256571	3547.868295
873.567744	3561.136612
873.878874	3565.807241
874.189963	3584.676280
874.501010	3588.694079
874.812015	3584.764500
875.122979	3602.690843
875.433900	3599.335955
875.744780	3604.288889
876.055618	3614.721557
876.366415	3613.370527
876.677169	3618.512504
876.987882	3641.041421
877.298554	3661.942045
877.609183	3706.132799
877.919771	3759.032147
878.230317	3831.818847
878.540822	3943.929067
878.851285	4109.717494
879.161707	4348.436293
879.472087	4750.430504
879.782425	5424.387403
880.092722	6690.485794
880.402977	8726.849808
880.713191	11172.905874
881.023363	13613.225108
881.333494	14969.159381
881.643583	15457.475789
881.953631	15069.301902
882.263637	14239.515376
882.573602	13204.833673
882.883526	12200.401413
883.193408	11212.831813
883.503248	10255.347819
883.813048	9378.960867
884.122806	8576.862878
884.432522	7768.145855
884.742197	7058.570683
885.051831	6461.050280
885.361424	5932.263488
885.670975	5511.536350
885.980485	5163.275798
886.289954	4872.696129
886.599382	4640.051920
886.908768	4442.632773
887.218113	4273.418883
887.527417	4127.429588
887.836680	4003.286133
888.145901	3891.039802
888.455082	3809.325219
888.764221	3733.191193
889.073319	3670.774146
889.382376	3633.550266
889.691392	3605.271914
890.000366	3595.925615
890.309300	3587.887495
890.618193	3591.859924
890.927044	3589.427567
891.235855	3596.638938
891.544625	3612.780712
891.853353	3643.231802
892.162041	3707.708160
892.470687	3804.251297
892.779293	3933.345165
893.087858	4119.043629
893.396381	4423.229372
893.704864	4857.146690
894.013306	5447.692657
894.321707	6033.920876
894.630068	6396.957050
894.938387	6429.449807
895.246665	6242.317135
895.554903	5920.603299
895.863100	5575.800979
896.171256	5297.627589
896.479371	5048.100556
896.787446	4809.515347
897.095480	4600.743523
897.403473	4444.394657
897.711425	4288.504536
898.019336	4157.127025
898.327207	4030.100031
898.635038	3918.251950
898.942827	3810.393943
899.250576	3717.404819
899.558284	3629.797127
899.865952	3577.658994
900.173579	3506.782891
900.481165	3459.088535
900.788711	3415.510280
901.096216	3379.939899
901.403681	3351.142307
901.711105	3338.617561
902.018489	3334.476253
902.325832	3367.899103
902.633135	3434.124741
902.940397	3618.270529
903.247619	4049.760531
903.554800	4842.391232
903.861941	5846.725190
904.169041	6577.664771
904.476101	6801.829759
904.783121	6524.402460
905.090100	6115.496828
905.397039	5689.778947
905.703938	5309.784332
906.010796	4970.197085
906.317614	4696.233059
906.624391	4439.698822
906.931129	4230.564034
907.237826	4033.452398
907.544483	3853.084955
907.851099	3674.711287
908.157675	3499.982375
908.464211	3352.805888
908.770707	3240.425966
909.077163	3157.219201
909.383578	3092.846187
909.689954	3045.313148
909.996289	3011.378620
910.302584	2988.199395
910.608839	2976.017447
910.915054	2959.427009
911.221229	2954.647996
911.527363	2960.069757
911.833458	2968.014615
912.139513	2981.068683
912.445527	2993.464880
912.751502	3032.506096
913.057436	3083.109198
913.363331	3142.582211
913.669186	3239.929412
913.975000	3368.393136
914.280775	3569.237746
914.586510	3857.551417
914.892205	4262.003190
915.197859	4779.775060
915.503475	5383.049941
915.809050	5886.560387
916.114585	6178.576786
916.420081	6243.801755
916.725536	6182.894534
917.030952	5934.327841
917.336328	5724.744390
917.641665	5507.563921
917.946961	5274.647489
918.252218	5064.693514
918.557435	4825.641999
918.862612	4616.053507
919.167750	4437.069860
919.472848	4235.980754
919.777906	4059.704207
920.082925	3890.137435
920.387904	3727.852611
920.692843	3615.228193
920.997743	3506.871111
921.302603	3405.309505
921.607423	3338.857015
921.912204	3266.254318
922.216946	3212.596276
922.521647	3160.385046
922.826310	3114.442490
923.130932	3078.032757
923.435516	3033.000129
923.740059	3003.584997
924.044564	2967.823051
924.349028	2941.546037
924.653454	2912.753487
924.957840	2883.527397
925.262186	2859.710466
925.566493	2837.622650
925.870761	2811.229689
926.174989	2799.914819
926.479178	2783.324382
926.783328	2764.636825
927.087438	2749.672160
927.391509	2739.975500
927.695541	2726.041751
927.999533	2717.403734
928.303486	2706.978628
928.607400	2700.004191
928.911275	2691.451874
929.215110	2686.859383
929.518906	2680.878054
929.822663	2682.438291
930.126381	2680.981397
930.430060	2687.814681
930.733699	2686.158662
931.037299	2690.310052
931.340861	2688.911132
931.644383	2692.507996
931.947866	2690.032789
932.251309	2685.016841
932.554714	2685.762932
932.858080	2684.855524
933.161407	2680.951150
933.464694	2679.461489
933.767943	2675.166426
934.071153	2671.604851
934.374323	2665.086639
934.677455	2663.402894
934.980548	2658.762512
935.283602	2657.106493
935.586617	2653.451656
935.889593	2658.926349
936.192530	2659.269148
936.495428	2666.402380
936.798287	2674.508556
937.101108	2685.331913
937.403890	2711.540872
937.706632	2738.987434
938.009336	2769.062958
938.312002	2800.434058
938.614628	2823.978767
938.917216	2847.589011
939.219765	2854.679394
939.522275	2867.544419
939.824747	2870.117928
940.127179	2862.009232
940.429573	2856.474045
940.731929	2857.240300
941.034246	2847.094978
941.336524	2846.943744
941.638763	2840.067610
941.940964	2833.753565
942.243126	2816.472489
942.545250	2806.483443
942.847335	2791.150773
943.149381	2776.183588
943.451389	2762.683378
943.753359	2753.337078
944.055290	2740.492218
944.357182	2732.217164
944.659036	2728.098542
944.960851	2722.134857
945.262628	2714.260574
945.564367	2716.087993
945.866067	2715.646892
946.167729	2712.130687
946.469352	2714.701675
946.770937	2709.650439
947.072484	2703.535520
947.373992	2703.558205
947.675462	2701.072916
947.976893	2693.612008
948.278286	2691.434230
948.579641	2687.804599
948.880958	2682.501305
949.182236	2683.935513
949.483476	2679.675738
949.784678	2680.502488
950.085841	2678.801098
950.386967	2685.251255
950.688054	2688.104548
950.989103	2700.931764
951.290114	2708.312013
951.591087	2716.347612
951.892021	2728.201885
952.192917	2741.533217
952.493776	2752.807757
952.794596	2757.745567
953.095378	2757.667430
953.396122	2758.486617
953.696828	2754.123498
953.997496	2750.415730
954.298126	2739.441138
954.598718	2730.669530
954.899272	2723.105279
955.199788	2707.573484
955.500266	2695.802390
955.800706	2677.807991
956.101108	2662.377019
956.401472	2655.233704
956.701798	2636.667134
957.002087	2622.730865
957.302337	2615.607714
957.602550	2599.062647
957.902724	2589.673498
958.202861	2581.602611
958.502960	2571.348904
958.803022	2560.069322
959.103045	2554.274516
959.403031	2546.072559
959.702979	2540.436549
960.002889	2537.492515
960.302762	2530.777698
960.602596	2527.884076
960.902393	2522.300998
961.202153	2520.231604
961.501875	2520.095493
961.801559	2516.203722
962.101205	2513.511746
962.400814	2507.941271
962.700385	2505.198883
962.999918	2506.625530
963.299414	2504.364572
963.598873	2500.878614
963.898293	2499.482215
964.197677	2497.143119
964.497022	2499.038593
964.796331	2496.457522
965.095601	2497.334683
965.394835	2494.950217
965.694030	2495.613129
965.993189	2492.124651
966.292309	2494.012563
966.591393	2493.233705
966.890439	2493.389980
967.189447	2493.455515
967.488419	2494.743530
967.787353	2495.729076
968.086249	2493.258910
968.385108	2492.006184
968.683930	2495.250166
968.982714	2495.688747
969.281462	2497.271669
969.580172	2495.492142
969.878844	2499.129334
970.177480	2501.697802
970.476078	2506.436487
970.774639	2512.044770
971.073162	2514.189781
971.371649	2512.037208
971.670098	2512.022085
971.968510	2514.179699
972.266885	2515.240862
972.565223	2521.663292
972.863524	2521.943076
973.161788	2524.055319
973.460014	2522.769825
973.758204	2523.750329
974.056356	2525.413910
974.354471	2525.789476
974.652550	2526.439785
974.950591	2525.824764
975.248595	2524.413241
975.546563	2523.374763
975.844493	2522.248066
976.142386	2521.837212
976.440243	2519.903929
976.738062	2514.582991
977.035845	2514.593073
977.333590	2508.624347
977.631299	2508.770541
977.928971	2509.768689
978.226606	2503.368944
978.524204	2504.969511
978.821765	2500.823162
979.119290	2501.160919
979.416777	2498.300064
979.714228	2502.390961
980.011642	2503.273163
980.309020	2510.295490
980.606360	2512.422857
980.903664	2524.231760
981.200931	2534.437576
981.498162	2557.470607
981.795356	2588.415730
982.092513	2629.284365
982.389633	2673.170129
982.686717	2720.231821
982.983764	2751.459249
983.280775	2774.643515
983.577749	2772.115377
983.874686	2763.926022
984.171587	2747.474217
984.468451	2729.084087
984.765279	2711.331664
985.062070	2690.615042
985.358824	2671.239367
985.655543	2649.131387
985.952224	2625.080042
986.248869	2596.531988
986.545478	2566.446382
986.842050	2545.271015
987.138586	2526.661596
987.435086	2509.257012
987.731549	2499.656135
988.027975	2492.800165
988.324366	2488.313538
988.620719	2481.737353
988.917037	2479.491519
989.213318	2474.798205
989.509563	2471.145889
989.805772	2469.973821
990.101944	2469.136989
990.398080	2469.167236
990.694180	2468.025415
990.990244	2467.493573
991.286271	2470.049438
991.582262	2469.036166
991.878217	2470.193111
992.174136	2471.518934
992.470019	2469.731845
992.765865	2473.772330
993.061676	2477.137300
993.357450	2478.193422
993.653188	2482.344812
993.948890	2490.145998
994.244556	2492.525422
994.540186	2503.129490
994.835780	2517.655574
995.131337	2531.675023
995.426859	2549.014072
995.722345	2570.116342
996.017795	2590.734661
996.313208	2605.152361
996.608586	2614.523866
996.903928	2616.452107
997.199234	2617.500667
997.494504	2613.671911
997.789738	2606.523555
998.084936	2593.731627
998.380099	2581.022878
998.675225	2567.658779
998.970316	2557.432799
999.265371	2541.376724
999.560390	2530.470188
999.855373	2515.800430
1000.150320	2506.867505
1000.445232	2496.104642
1000.740108	2489.039465
1001.034948	2482.450677
1001.329752	2475.544296
1001.624521	2472.811990
1001.919254	2462.916205
1002.213951	2463.569035
1002.508613	2462.011318
1002.803239	2457.859928
1003.097829	2453.045626
1003.392384	2459.077367
1003.686903	2457.675926
1003.981386	2454.487396
1004.275834	2452.211315
1004.570246	2454.179886
1004.864623	2450.199895
1005.158964	2448.022116
1005.453270	2449.252158
1005.747540	2449.358022
1006.041775	2449.557148
1006.335974	2447.800306
1006.630138	2446.277877
1006.924266	2449.300049
1007.218359	2446.923145
1007.512416	2447.034050
1007.806438	2448.435491
1008.100425	2448.327106
1008.394376	2444.536158
1008.688292	2446.015737
1008.982172	2444.553803
1009.276017	2444.173195
1009.569827	2442.774275
1009.863602	2443.936261
1010.157341	2443.137238
1010.451045	2442.146652
1010.744714	2443.996755
1011.038347	2442.819646
1011.331945	2441.871909
1011.625508	2442.262598
1011.919036	2442.204625
1012.212528	2441.713112
1012.505986	2441.004830
1012.799408	2444.914245
1013.092795	2440.982145
1013.386147	2439.847885
1013.679464	2440.044490
1013.972745	2442.534820
1014.265992	2442.466765
1014.559204	2442.048349
1014.852380	2441.831579
1015.145521	2443.401899
1015.438628	2441.045159
1015.731699	2441.032557
1016.024736	2440.074737
1016.317737	2441.105653
1016.610703	2442.537341
1016.903635	2438.201949
1017.196531	2437.826383
1017.489393	2441.410643
1017.782219	2437.178594
1018.075011	2443.502722
1018.367768	2442.171857
1018.660490	2443.142279
1018.953177	2443.142279
1019.245829	2443.142279
