Dividing Wavelength (nm)	Counts (n)	Blue Motor Position (mm): 0.000000	Red Motor Position (mm): 45.800000	
326.493990	1999.082161
326.888308	1999.082161
327.282561	1999.082161
327.676750	1974.234313
328.070874	1975.222379
328.464933	1981.014665
328.858929	1989.206540
329.252859	2001.774137
329.646726	2016.002793
330.040528	2032.832686
330.434265	2051.918494
330.827938	2070.348953
331.221547	2091.514237
331.615091	2115.270674
332.008571	2133.416308
332.401986	2154.659730
332.795338	2173.677483
333.188625	2194.731862
333.581847	2212.948071
333.975006	2229.919116
334.368100	2246.638103
334.761129	2265.897831
335.154095	2279.105654
335.546996	2322.608291
335.939833	2401.701474
336.332606	2417.530697
336.725315	2428.412028
337.117960	2438.474171
337.510540	2442.691096
337.903056	2456.776080
338.295508	2462.344034
338.687896	2466.036680
339.080220	2477.056642
339.472480	2480.023361
339.864676	2487.030565
340.256807	2486.912098
340.648875	2489.243631
341.040879	2489.493168
341.432818	2492.981647
341.824694	2491.620535
342.216506	2494.788901
342.608253	2492.086842
342.999937	2490.846718
343.391557	2489.152891
343.783113	2488.822695
344.174605	2488.626090
344.566033	2486.765904
344.957397	2483.675677
345.348697	2482.682570
345.739934	2481.238279
346.131106	2480.071252
346.522215	2480.194760
346.913260	2476.416415
347.304241	2475.408185
347.695159	2472.474233
348.086012	2474.384830
348.476802	2469.628502
348.867528	2468.552215
349.258191	2470.145220
349.648789	2470.324181
350.039324	2466.676906
350.429796	2468.237143
350.820203	2465.988789
351.210548	2465.711525
351.600828	2464.456278
351.991045	2465.658593
352.381198	2465.434262
352.771288	2464.027780
353.161314	2464.572224
353.551276	2462.840588
353.941175	2464.045424
354.331010	2462.525516
354.720782	2468.229582
355.110490	2466.815538
355.500135	2465.625826
355.889717	2466.485342
356.279235	2464.073150
356.668689	2466.016515
357.058080	2469.421814
357.447408	2463.722790
357.836672	2465.855198
358.225873	2466.802935
358.615010	2466.918882
359.004084	2472.012968
359.393095	2471.899542
359.782043	2468.605147
360.170927	2474.949440
360.559748	2474.634367
360.948505	2477.999338
361.337199	2478.437918
361.725830	2477.790130
362.114398	2478.148052
362.502903	2482.407827
362.891344	2481.951602
363.279722	2479.310038
363.668037	2483.305152
364.056289	2482.485965
364.444478	2483.801706
364.832603	2484.401603
365.220665	2484.726758
365.608665	2484.913280
365.996601	2487.816985
366.384474	2487.305308
366.772284	2487.040647
367.160031	2490.264465
367.547715	2493.755464
367.935336	2492.240597
368.322893	2491.764208
368.710388	2494.536843
369.097820	2498.993223
369.485189	2495.787049
369.872495	2498.874756
370.259738	2500.104797
370.646918	2501.120590
371.034035	2505.471106
371.421090	2508.848679
371.808081	2512.130470
372.195010	2513.625172
372.581875	2521.454084
372.968678	2529.983716
373.355418	2536.862371
373.742096	2551.879968
374.128710	2559.335834
374.515262	2572.977197
374.901751	2585.171748
375.288177	2605.817793
375.674540	2626.030300
376.060841	2646.512508
376.447079	2671.960252
376.833254	2696.520754
377.219367	2721.698797
377.605417	2754.771287
377.991404	2784.234310
378.377329	2825.962461
378.763191	2862.677185
379.148991	2910.399268
379.534727	2962.718883
379.920402	3010.584639
380.306013	3058.215981
380.691563	3124.015641
381.077049	3181.938499
381.462474	3243.097777
381.847835	3317.928665
382.233134	3388.187226
382.618371	3454.927062
383.003545	3543.008623
383.388657	3626.197743
383.773706	3719.990931
384.158693	3795.978764
384.543618	3892.743712
384.928480	3975.083398
385.313280	4078.933688
385.698017	4190.507026
386.082692	4313.785922
386.467305	4376.076940
386.851856	4511.018546
387.236344	4670.220705
387.620770	4732.771342
388.005133	4864.310169
388.389435	5014.344990
388.773674	5093.607052
389.157851	5234.098968
389.541965	5368.581830
389.926018	5394.833638
390.310008	5579.453295
390.693936	5708.128747
391.077802	5828.950081
391.461606	5959.740297
391.845348	6079.240849
392.229027	6202.968408
392.612645	6433.888543
392.996200	6555.395474
393.379694	6735.460448
393.763125	6964.545602
394.146494	7068.340439
394.529801	7203.710544
394.913047	7453.761857
395.296230	7453.275385
395.679351	7516.294850
396.062410	7783.579347
396.445408	7675.829725
396.828343	7843.344747
397.211217	7986.649627
397.594028	7860.272941
397.976778	8067.232471
398.359466	8247.274760
398.742092	8212.528607
399.124656	8366.389664
399.507158	8555.344713
399.889598	8579.290194
400.271977	8791.668964
400.654294	8828.098862
401.036549	9027.907516
401.418742	9064.017301
401.800874	9375.295948
402.182944	9454.220252
402.564952	9832.238735
402.946898	9644.929623
403.328783	9710.409170
403.710606	9908.778574
404.092367	10174.941415
404.474067	10550.257839
404.855705	10328.137039
405.237282	10283.968970
405.618797	10727.396424
406.000250	10972.638476
406.381642	11347.365085
406.762972	11302.702983
407.144240	11100.323341
407.525447	11359.620130
407.906593	11290.006837
408.287677	11556.651108
408.668700	11722.268135
409.049661	11695.918024
409.430560	11854.006088
409.811399	11826.819145
410.192176	11990.424752
410.572891	12066.190774
410.953545	12583.904671
411.334138	12035.938810
411.714669	12666.894666
412.095139	11943.264758
412.475547	12465.336733
412.855894	12300.922021
413.236180	12651.173828
413.616405	12311.488279
413.996568	12608.744957
414.376670	12581.026172
414.756711	12436.647526
415.136691	12738.678177
415.516609	12934.887446
415.896466	12997.249040
416.276262	13296.827169
416.655997	13740.161361
417.035670	13771.250157
417.415283	14440.846458
417.794834	14534.042269
418.174324	14276.968629
418.553753	14171.356456
418.933121	14676.908569
419.312428	14486.970495
419.691674	14389.971133
420.070859	14865.646848
420.449983	14515.634496
420.829045	15075.991513
421.208047	14809.175843
421.586988	15280.760662
421.965867	15545.433842
422.344686	15549.968360
422.723444	16120.894156
423.102141	14771.016829
423.480777	15995.261041
423.859352	15490.923845
424.237866	16638.494627
424.616319	16328.022565
424.994712	16999.789082
425.373044	16792.791744
425.751314	17478.018142
426.129524	16585.839775
426.507673	17715.506900
426.885762	17384.802166
427.263789	17614.391436
427.641756	17774.465714
428.019662	17842.947269
428.397508	17885.013177
428.775292	18202.568061
429.153016	18165.848296
429.530679	18244.747395
429.908282	18268.652547
430.285824	17978.957600
430.663305	18694.776240
431.040726	18296.530127
431.418086	18118.027911
431.795385	18777.650289
432.172624	19188.463998
432.549802	18745.739785
432.926920	18930.677034
433.303977	18825.667279
433.680974	19076.515094
434.057910	19382.442557
434.434786	19396.837572
434.811601	19305.580084
435.188355	20374.282014
435.565050	20019.253713
435.941683	19963.869077
436.318257	20869.640915
436.694770	20673.577839
437.071222	21277.835744
437.447614	20330.731486
437.823946	20361.878255
438.200218	20506.042652
438.576429	20288.663057
438.952580	20568.714277
439.328670	20533.083402
439.704700	20957.664502
440.080670	20505.853609
440.456580	21110.519848
440.832429	21296.830812
441.208218	20260.304046
441.583947	20730.081612
441.959616	20827.264975
442.335224	21069.595761
442.710773	21213.314016
443.086261	21757.115885
443.461689	21096.742375
443.837057	21230.194320
444.212365	21895.404817
444.587612	21889.698231
444.962800	21453.570367
445.337927	21890.595556
445.712995	20591.717062
446.088002	22496.143997
446.462949	22693.558103
446.837837	22879.528788
447.212664	22828.509791
447.587431	25753.218374
447.962139	28740.676719
448.336786	31142.698307
448.711374	29535.039057
449.085901	25796.226978
449.460369	25735.861681
449.834776	25667.052452
450.209124	28210.869094
450.583412	27716.641933
450.957640	28240.521161
451.331808	26880.662349
451.705917	25474.941640
452.079965	25521.317735
452.453954	25890.655351
452.827883	25774.212259
453.201752	25578.171868
453.575562	25744.164462
453.949311	26898.916367
454.323001	26952.259337
454.696632	26705.459568
455.070202	28308.957345
455.443713	28421.932123
455.817164	29046.042093
456.190556	29595.011144
456.563888	29011.820220
456.937160	29451.663414
457.310373	27741.184790
457.683526	28227.162103
458.056619	28214.682727
458.429653	28149.798036
458.802628	28726.959740
459.175542	28855.927578
459.548398	30166.957774
459.921194	31780.134567
460.293930	32445.082923
460.666607	34504.999208
461.039224	36288.198996
461.411782	36691.473660
461.784280	35471.630376
462.156719	35000.416082
462.529099	34435.839618
462.901419	33138.007164
463.273680	32072.697930
463.645882	32159.284788
464.018024	32132.642290
464.390106	32996.287726
464.762130	35722.142954
465.134094	39840.435451
465.505999	45183.118353
465.877845	49786.180806
466.249631	50962.927266
466.621358	49277.422519
466.993026	47185.232767
467.364634	45117.747190
467.736184	43115.060605
468.107674	41848.609333
468.479105	41047.539740
468.850477	40355.941323
469.221790	38873.519458
469.593043	37118.338403
469.964238	36223.084933
470.335373	36126.854347
470.706449	37911.730319
471.077467	40548.679758
471.448425	45137.405170
471.819324	47951.551167
472.190164	46070.996615
472.560945	42478.753563
472.931667	39340.617650
473.302330	38226.172290
473.672934	37378.061170
474.043479	37913.277953
474.413965	37084.978568
474.784393	36702.226441
475.154761	37632.006774
475.525070	37645.539752
475.895321	37190.628549
476.265513	37780.839280
476.635645	38769.633880
477.005719	38591.282898
477.375734	39076.496477
477.745691	39778.656111
478.115588	41138.973668
478.485427	43130.466371
478.855207	46532.703293
479.224928	49136.804574
479.594591	50786.496964
479.964194	49790.049892
480.333739	49957.234718
480.703226	50010.910404
481.072653	50637.964407
481.442022	51114.948302
481.811333	51373.861963
482.180584	50093.040882
482.549777	49570.590821
482.918912	49025.137975
483.287988	48739.564171
483.657005	47914.060105
484.025964	47250.588807
484.394864	47284.669527
484.763706	46856.231944
485.132489	46001.829464
485.501213	45801.378063
485.869879	45960.260109
486.238487	45540.279062
486.607036	45753.713954
486.975527	45202.720880
487.343959	45411.243167
487.712333	45490.656464
488.080648	45407.633701
488.448905	45855.472165
488.817104	45680.264342
489.185244	46650.184863
489.553326	48354.220892
489.921350	51056.599467
490.289315	53889.526282
490.657222	54447.410613
491.025070	54744.516057
491.392861	53852.244429
491.760593	52648.250532
492.128267	51001.648369
492.495883	49489.352627
492.863440	48105.263509
493.230939	46740.454284
493.598380	45624.728471
493.965763	45304.312733
494.333088	44473.132327
494.700354	43984.994880
495.067563	43690.157956
495.434713	43562.185745
495.801805	43624.648162
496.168839	43234.977052
496.535815	42893.007860
496.902733	42950.731592
497.269593	42509.234900
497.636395	42446.323821
498.003139	42862.375289
498.369825	42298.802015
498.736453	42618.542239
499.103023	42149.747699
499.469535	42017.283820
499.835989	42107.722120
500.202385	41772.687035
500.568723	41796.014975
500.935003	41977.365443
501.301226	41776.719958
501.667390	42396.023188
502.033497	42685.360213
502.399546	42087.436517
502.765537	41405.091138
503.131470	41796.415746
503.497345	42148.845332
503.863163	40794.327623
504.228923	41418.936667
504.594625	41863.289173
504.960269	41130.123922
505.325856	41838.842097
505.691385	41190.887470
506.056856	41333.826867
506.422270	41769.039760
506.787625	41339.122599
507.152924	41538.255737
507.518164	41642.965544
507.883347	40833.653664
508.248472	41110.385284
508.613540	41598.802516
508.978550	41902.148907
509.343503	41633.891467
509.708398	41845.438447
510.073236	42376.397976
510.438016	42395.302303
510.802738	41842.668333
511.167403	42472.202584
511.532010	42698.943602
511.896561	43008.651929
512.261053	43891.393256
512.625488	43405.594904
512.989866	43279.823157
513.354186	43120.157211
513.718449	43110.195891
514.082655	43817.341227
514.446803	43473.562261
514.810894	43993.015356
515.174927	43913.425619
515.538904	43820.970857
515.902822	44519.163103
516.266684	43936.138537
516.630488	44385.733843
516.994235	44239.641205
517.357925	44814.826776
517.721558	44977.177136
518.085133	45292.128264
518.448651	45433.081446
518.812112	45216.314351
519.175516	45301.484645
519.538863	45648.603376
519.902152	45611.240864
520.265385	46071.931749
520.628560	46126.701365
520.991678	45901.034113
521.354739	46147.604510
521.717743	46480.267731
522.080690	46362.634927
522.443580	46920.105884
522.806413	46964.813357
523.169189	46900.813388
523.531908	47082.191583
523.894569	46950.809031
524.257174	47108.410624
524.619722	47427.545909
524.982213	47412.722397
525.344647	47332.915890
525.707025	47354.734004
526.069345	47753.847195
526.431608	47673.034978
526.793815	47999.190070
527.155964	47538.615132
527.518057	47694.711940
527.880093	47466.942527
528.242072	48017.139099
528.603995	47709.500165
528.965860	47713.207933
529.327669	47804.757808
529.689421	47700.582363
530.051117	47650.601844
530.412755	47799.555337
530.774337	47864.878608
531.135862	47644.998601
531.497331	47852.857977
531.858743	47748.629601
532.220098	48116.374212
532.581396	47800.205646
532.942638	47468.041498
533.303824	47767.037374
533.664953	47716.222543
534.026025	47446.069629
534.387040	47926.605017
534.747999	47873.171307
535.108902	48014.162297
535.469748	47538.932724
535.830537	47667.721602
536.191270	47830.364349
536.551947	47479.515164
536.912567	47800.815625
537.273131	47942.933314
537.633638	47399.978360
537.994089	47746.653468
538.354483	47335.209615
538.714821	47898.578722
539.075103	48259.537940
539.435328	48023.843833
539.795497	47904.426460
540.155609	47880.226401
540.515665	48344.204119
540.875665	47794.027712
541.235609	48128.677148
541.595496	48091.511241
541.955328	48776.261251
542.315102	48143.699787
542.674821	47918.216537
543.034483	47981.551073
543.394090	47946.799879
543.753640	47898.188033
544.113134	48912.800903
544.472571	47907.529291
544.831953	49165.176188
545.191278	48379.308194
545.550548	48066.401254
545.909761	48551.781190
546.268918	48757.603940
546.628019	49063.816228
546.987064	48623.937746
547.346053	47897.492353
547.704986	48774.433832
548.063863	48333.721040
548.422684	48532.463489
548.781449	48372.111947
549.140158	48780.112692
549.498811	48611.140777
549.857408	48053.901713
550.215949	48893.178211
550.574434	48822.980144
550.932864	48589.945246
551.291237	49314.792593
551.649555	48901.869160
552.007817	49140.731632
552.366022	48787.813055
552.724173	48969.032453
553.082267	49377.101254
553.440305	49672.601090
553.798288	48977.781376
554.156215	49292.742586
554.514086	49509.497078
554.871902	49262.742679
555.229661	49273.997055
555.587365	49091.577862
555.945014	49176.841417
556.302606	49093.001988
556.660143	49346.536738
557.017625	49430.436662
557.375050	49218.282223
557.732421	49564.672506
558.089735	49565.917671
558.446994	49456.592688
558.804197	49938.837027
559.161345	49887.069418
559.518437	49130.878697
559.875474	49435.082085
560.232455	49585.895764
560.589381	49774.760072
560.946251	49463.932608
561.303065	50160.741058
561.659825	49958.648762
562.016528	49634.832765
562.373177	49365.052896
562.729770	49836.509166
563.086307	49353.271720
563.442789	49813.574436
563.799216	49861.483042
564.155587	49637.784361
564.511904	49663.131282
564.868164	49762.152147
565.224370	49993.856180
565.580520	49728.477239
565.936615	49954.275561
566.292654	49673.175781
566.648638	49928.137178
567.004567	49868.328929
567.360441	49914.929355
567.716260	49776.108581
568.072023	50053.959337
568.427732	50040.106246
568.783385	49586.180589
569.138982	49992.958855
569.494525	49939.310896
569.850013	49718.596577
570.205445	49681.415547
570.560823	49635.425101
570.916145	49533.785357
571.271412	49549.536442
571.626625	49311.679680
571.981782	49362.318070
572.336884	49064.824458
572.691931	49406.428167
573.046923	48981.801696
573.401860	48817.533177
573.756743	48824.205144
574.111570	48937.971384
574.466342	48768.208007
574.821059	48900.029139
575.175722	48417.978885
575.530330	48444.770097
575.884882	48146.064088
576.239380	48129.261922
576.593823	48097.036346
576.948211	48009.446298
577.302544	47521.659211
577.656823	47551.444868
578.011047	47769.137015
578.365216	47502.243207
578.719330	47294.464489
579.073389	47146.869587
579.427394	47216.316522
579.781344	47195.869602
580.135239	46844.826333
580.489080	46953.629557
580.842866	46412.844819
581.196597	46854.437293
581.550273	46799.481155
581.903895	46665.121802
582.257463	47095.616176
582.610975	46464.264588
582.964434	46747.474091
583.317837	46375.305867
583.671186	46231.131388
584.024481	46462.404403
584.377721	45994.786972
584.730906	46281.580735
585.084037	46317.927454
585.437113	46019.884356
585.790135	46055.903401
586.143103	45657.717782
586.496016	45790.814326
586.848874	45817.164437
587.201679	45837.964237
587.554428	45317.447459
587.907124	45488.087996
588.259765	45241.318474
588.612352	45497.232649
588.964884	44887.374021
589.317362	45195.320466
589.669786	45123.809178
590.022155	44897.292492
590.374470	45337.465881
590.726731	44848.458834
591.078937	44356.991705
591.431090	44448.317248
591.783188	44120.180982
592.135232	43784.082214
592.487222	44038.494125
592.839157	44119.213081
593.191038	43785.438284
593.542866	43531.361610
593.894639	42933.470682
594.246358	43220.902150
594.598022	43211.581057
594.949633	42804.946464
595.301190	42744.974377
595.652692	42567.976945
596.004141	42907.554110
596.355535	41908.505802
596.706876	41865.260264
597.058162	41702.292363
597.409395	42176.536390
597.760573	42259.420521
598.111698	41812.000473
598.462768	41832.868330
598.813785	41879.854404
599.164748	41315.991264
599.515657	41724.251629
599.866511	41175.269975
600.217312	41801.285501
600.568060	40733.632131
600.918753	41493.465085
601.269392	41464.632206
601.619978	41110.067691
601.970510	41319.578045
602.320988	41503.653257
602.671412	41817.656648
603.021783	41563.302710
603.372100	41202.056146
603.722363	41327.071720
604.072572	41397.274829
604.422728	41414.606316
604.772830	41220.438714
605.122878	41320.374548
605.472872	41251.325863
605.822813	41546.187993
606.172701	41355.924764
606.522534	41624.885446
606.872314	41876.829712
607.222041	41622.150620
607.571714	42005.900894
607.921333	41425.568305
608.270899	41721.010167
608.620411	42076.789600
608.969870	41884.497307
609.319276	41869.492312
609.668627	41916.470825
610.017926	42422.446396
610.367171	42595.806635
610.716362	42660.955987
611.065500	42610.388173
611.414585	42798.201400
611.763616	43084.077673
612.112594	43018.489741
612.461518	43238.281528
612.810389	43521.851473
613.159207	43378.526428
613.507971	43455.658603
613.856682	43958.927073
614.205340	43830.377650
614.553945	44534.089960
614.902496	43976.442563
615.250994	44439.424652
615.599439	44500.893962
615.947830	44724.121295
616.296169	44752.717240
616.644454	44885.090379
616.992686	45061.866000
617.340864	45573.800214
617.688990	45292.985260
618.037063	45887.017185
618.385082	45846.972779
618.733048	46146.150137
619.080961	46153.237999
619.428821	46172.283478
619.776628	46284.678524
620.124382	46122.174409
620.472083	46245.307112
620.819731	46395.173054
621.167326	46068.591985
621.514868	46042.559466
621.862357	45607.991840
622.209793	45624.451207
622.557176	45301.635880
622.904506	45056.557665
623.251783	44726.140277
623.599007	44490.017672
623.946179	44252.135705
624.293297	44209.628695
624.640363	43594.066002
624.987376	43578.244341
625.334336	43320.439733
625.681243	42963.485712
626.028097	42916.484514
626.374899	42742.108482
626.721647	42714.798031
627.068343	42593.591048
627.414987	42340.260464
627.761577	42110.900567
628.108115	42451.206178
628.454600	41874.730071
628.801032	42064.920203
629.147412	42010.306863
629.493739	42017.614015
629.840014	41637.858855
630.186236	41973.206491
630.532405	41576.692015
630.878521	41768.195367
631.224585	41657.708398
631.570597	41358.427697
631.916556	41532.700386
632.262462	41465.075827
632.608316	41471.843577
632.954117	41365.530683
633.299866	41344.249452
633.645562	41261.186360
633.991206	40769.716710
634.336797	40338.463643
634.682336	40332.283188
635.027823	40091.184964
635.373257	39901.435933
635.718639	39647.124845
636.063968	39518.330926
636.409245	38927.941235
636.754470	38975.736414
637.099642	38712.313441
637.444762	38210.948005
637.789829	38358.298412
638.134845	37992.144284
638.479808	37941.475647
638.824719	37843.132818
639.169577	37428.956659
639.514383	37478.037333
639.859137	37178.328134
640.203839	37407.206601
640.548489	37018.659668
640.893086	37089.775225
641.237632	36819.995357
641.582125	36927.006450
641.926566	36855.144802
642.270955	36825.548188
642.615292	36825.162539
642.959576	36788.752806
643.303809	36781.533873
643.647990	36927.634074
643.992118	36879.097844
644.336195	36862.497325
644.680219	36939.047246
645.024192	37226.587100
645.368112	37745.097499
645.711981	37733.328925
646.055797	38615.825756
646.399562	38504.973303
646.743274	39470.772681
647.086935	39913.451523
647.430544	39810.690123
647.774101	39912.657542
648.117606	40161.065439
648.461059	40486.701292
648.804460	40113.295465
649.147810	39471.886776
649.491108	39241.979913
649.834354	38847.693627
650.177548	37996.741817
650.520690	37541.709627
650.863781	37547.320431
651.206820	37403.334995
651.549807	36949.608463
651.892742	36448.295960
652.235626	36238.369711
652.578458	36078.108910
652.921238	35455.110515
653.263967	35777.197396
653.606644	35437.151404
653.949269	35376.602105
654.291843	34969.163448
654.634365	35370.114140
654.976836	34932.108447
655.319255	34922.736942
655.661622	34923.351963
656.003938	34691.559709
656.346203	34540.267120
656.688416	34751.181436
657.030577	34539.359713
657.372687	34385.070158
657.714746	34648.241074
658.056753	34763.010503
658.398708	34194.839697
658.740612	34237.366871
659.082465	34519.802556
659.424266	34300.487158
659.766016	34421.724388
660.107715	34303.373219
660.449362	34417.164664
660.790958	34400.150770
661.132503	34402.568003
661.473996	34429.177734
661.815438	34528.191036
662.156829	34725.080862
662.498168	34493.162579
662.839456	34490.780634
663.180693	34631.149042
663.521879	34788.433042
663.863013	34728.183692
664.204097	34718.073658
664.545129	35167.762225
664.886110	35104.679746
665.227040	35164.437584
665.567918	35269.606135
665.908746	35325.590669
666.249522	35485.710318
666.590248	35463.940096
666.930922	35585.686482
667.271545	35549.090225
667.612118	35613.743023
667.952639	35377.325511
668.293109	35436.299449
668.633528	35326.051935
668.973896	35245.297692
669.314213	35289.997603
669.654480	35006.841032
669.994695	35034.408582
670.334859	34898.698200
670.674973	34796.508970
671.015035	34955.456551
671.355047	34890.390378
671.695008	34814.581507
672.034918	34707.772060
672.374777	34759.912714
672.714585	34569.213426
673.054342	34790.411695
673.394049	34527.581057
673.733705	34817.046631
674.073310	34472.168694
674.412864	34553.734563
674.752368	34134.497086
675.091820	34431.957930
675.431223	34005.441027
675.770574	33722.884353
676.109875	33571.314501
676.449125	33288.649443
676.788324	33210.428380
677.127473	32646.945847
677.466571	32583.686928
677.805619	32221.099417
678.144616	32210.271018
678.483562	32104.963835
678.822458	31760.101021
679.161303	31681.479186
679.500098	31564.814283
679.838842	31448.086366
680.177535	31577.530593
680.516179	31838.133042
680.854771	32049.085165
681.193314	32886.279667
681.531805	33976.096470
681.870247	34685.875808
682.208638	35407.307773
682.546978	35631.371938
682.885268	35743.582982
683.223508	35206.816044
683.561697	34876.086104
683.899836	34681.868091
684.237925	34160.746374
684.575963	33997.433154
684.913951	33506.092053
685.251889	33648.282838
685.589776	33610.668269
685.927614	33566.729572
686.265401	33684.798436
686.603137	33734.237032
686.940824	34209.401070
687.278460	34551.153492
687.616046	34646.685878
687.953582	35226.809260
688.291068	35079.410963
688.628504	35356.152665
688.965889	35311.851005
689.303224	34918.857774
689.640510	34612.484170
689.977745	33904.005449
690.314930	33121.905718
690.652065	32629.004380
690.989150	31919.209919
691.326185	31023.626253
691.663170	30332.683186
692.000105	29587.535113
692.336990	28912.915302
692.673825	28442.805021
693.010610	27909.201407
693.347345	27331.580958
693.684030	26655.693297
694.020665	26366.888114
694.357251	25696.253335
694.693786	25630.342769
695.030272	25370.524221
695.366707	24811.462780
695.703093	24514.727862
696.039429	24511.113354
696.375716	24229.174222
696.711952	24162.837679
697.048139	24001.077134
697.384276	23794.798160
697.720363	23913.426592
698.056400	23699.459859
698.392388	23473.893430
698.728326	23429.755607
699.064214	23229.253795
699.400053	23176.477956
699.735842	22817.744407
700.071581	22522.655425
700.407270	22234.203123
700.742910	22052.467006
701.078501	21789.346502
701.414042	21490.764001
701.749533	21191.601767
702.084974	20848.916731
702.420366	21057.398690
702.755709	20596.972465
703.091002	20289.134405
703.426246	20315.381173
703.761440	20199.222906
704.096584	19928.691905
704.431679	19880.574092
704.766725	19777.545510
705.101721	19698.742193
705.436668	19785.928949
705.771565	19438.517832
706.106413	19778.712537
706.441212	19739.643595
706.775961	19849.233238
707.110661	19907.647608
707.445311	20228.219623
707.779913	20048.409227
708.114465	20250.375494
708.448967	20518.451452
708.783421	21182.893173
709.117825	21414.546796
709.452180	21604.568049
709.786485	21966.759829
710.120742	22709.324311
710.454949	22702.364998
710.789107	23119.870839
711.123216	23793.200114
711.457275	23886.716039
711.791286	24418.469549
712.125247	24488.826413
712.459159	24201.094996
712.793023	24850.622463
713.126837	23788.569815
713.460602	24061.500404
713.794318	23714.008629
714.127985	23353.944215
714.461602	22496.207012
714.795171	22465.823977
715.128691	21497.486379
715.462162	20969.491049
715.795584	20560.106507
716.128957	20314.143569
716.462281	19918.589433
716.795556	19681.829122
717.128782	19181.335806
717.461960	18651.591196
717.795088	18573.299556
718.128167	18156.514600
718.461198	17693.877829
718.794180	17552.206282
719.127113	17196.734360
719.459997	17002.352509
719.792833	16648.171122
720.125619	16611.453878
720.458357	16285.739887
720.791046	16115.263187
721.123686	15954.152952
721.456278	15719.227621
721.788821	15666.504713
722.121315	15406.179528
722.453761	15460.903774
722.786158	15381.359407
723.118506	15379.521907
723.450805	15238.851029
723.783056	15382.705396
724.115259	15274.804539
724.447412	15190.302197
724.779518	15411.755045
725.111574	15421.802064
725.443582	15592.324134
725.775542	15560.136367
726.107453	15991.691904
726.439315	15870.479880
726.771129	16221.767645
727.102895	16559.010755
727.434612	16744.245432
727.766281	16841.227150
728.097901	17092.836179
728.429473	17116.552288
728.760996	17092.710151
729.092471	17184.229778
729.423897	17068.106799
729.755276	16947.739169
730.086606	17038.225360
730.417887	17512.797062
730.749120	17974.516343
731.080305	18125.841699
731.411442	18453.226833
731.742530	18518.872738
732.073570	18610.026882
732.404562	18900.478002
732.735506	18729.333350
733.066401	18466.154872
733.397249	17966.160631
733.728048	17372.809261
734.058798	16600.060870
734.389501	15951.423167
734.720156	15517.742784
735.050762	15017.856927
735.381320	14669.518237
735.711831	14426.862297
736.042293	14083.229525
736.372707	14078.705089
736.703073	13866.706926
737.033391	14024.300957
737.363661	13967.885404
737.693883	14035.842678
738.024056	14173.854347
738.354182	14325.913191
738.684260	14569.153906
739.014290	14750.297687
739.344272	14918.883954
739.674207	15166.442416
740.004093	15267.328507
740.333931	15264.298774
740.663722	15302.306553
740.993464	15303.022397
741.323159	15147.205373
741.652806	14900.345110
741.982405	14706.898393
742.311956	14398.848605
742.641460	14290.844405
742.970915	14002.409746
743.300323	13695.133775
743.629683	13497.250843
743.958996	13240.557809
744.288260	12983.176659
744.617477	12691.704705
744.946647	12604.961571
745.275768	12343.847446
745.604842	12172.546517
745.933869	12010.516271
746.262847	11959.953498
746.591778	11887.570090
746.920662	11786.613423
747.249498	11778.242587
747.578286	11864.133766
747.907027	11979.051909
748.235720	12165.551916
748.564365	12182.172601
748.892963	12077.566138
749.221514	12122.787808
749.550017	11987.513486
749.878473	11950.665172
750.206881	11743.985426
750.535242	11669.857779
750.863555	11581.803945
751.191821	11480.212092
751.520039	11503.751760
751.848210	11405.696277
752.176334	11424.245202
752.504411	11339.168169
752.832440	11184.087153
753.160421	11228.043494
753.488356	11115.900507
753.816243	11023.486074
754.144082	10895.571837
754.471875	10833.028761
754.799620	10771.761098
755.127318	10741.632642
755.454969	10704.580161
755.782572	10652.258026
756.110129	10663.724130
756.437638	10573.537888
756.765100	10565.300642
757.092515	10560.314941
757.419882	10561.630682
757.747203	10560.887112
758.074477	10622.507656
758.401703	10565.774511
758.728882	10710.637108
759.056014	10733.871786
759.383099	10837.744761
759.710138	10924.049315
760.037129	10987.628347
760.364073	11001.304997
760.690970	10978.922274
761.017820	10975.267438
761.344623	11138.643672
761.671379	11423.332753
761.998088	11963.988942
762.324751	13358.178011
762.651366	15848.954153
762.977935	19035.676707
763.304456	20971.706636
763.630931	21422.531983
763.957359	20439.864905
764.283740	18789.353327
764.610074	17116.935415
764.936362	15263.174597
765.262602	13924.155915
765.588796	12587.120927
765.914943	11693.578929
766.241044	10926.665673
766.567097	10340.137506
766.893104	9842.132000
767.219064	9514.255353
767.544978	9167.010594
767.870845	8875.203404
768.196665	8707.842137
768.522438	8527.976289
768.848165	8372.794450
769.173846	8218.799803
769.499479	8100.705733
769.825066	7962.626008
770.150607	7800.089126
770.476101	7733.613951
770.801548	7631.850699
771.126949	7500.415215
771.452303	7421.075015
771.777611	7272.804598
772.102872	7249.365753
772.428087	7149.273644
772.753256	7034.904987
773.078378	6956.706608
773.403453	6823.942780
773.728482	6732.284521
774.053465	6670.805129
774.378401	6594.499704
774.703291	6507.933010
775.028135	6419.682571
775.352932	6380.417024
775.677683	6309.873637
776.002388	6227.370114
776.327046	6220.138578
776.651658	6142.628318
776.976224	6074.146763
777.300743	6055.612961
777.625216	5992.298589
777.949643	5957.197035
778.274024	5956.771058
778.598359	5894.038939
778.922647	5895.024485
779.246889	5852.487228
779.571086	5857.883784
779.895236	5859.985945
780.219339	5850.168298
780.543397	5848.766857
780.867409	5888.551643
781.191374	5885.443772
781.515294	5848.469429
781.839167	5895.387448
782.162995	5869.770824
782.486776	5824.271890
782.810511	5789.213186
783.134201	5722.861519
783.457844	5714.389860
783.781441	5670.083159
784.104993	5629.852231
784.428498	5599.721254
784.751958	5588.459316
785.075372	5563.422426
785.398739	5525.003792
785.722061	5540.800248
786.045337	5541.039703
786.368568	5632.680318
786.691752	5649.636239
787.014891	5856.099215
787.337983	6086.704277
787.661030	6447.310615
787.984031	6797.585108
788.306987	7009.923549
788.629897	7074.271357
788.952760	7010.808271
789.275579	6861.524582
789.598351	6618.793025
789.921078	6395.316154
790.243759	6158.071892
790.566395	5981.949100
790.888984	5821.184184
791.211529	5702.835535
791.534027	5558.131735
791.856480	5443.823571
792.178888	5388.118821
792.501249	5327.635058
792.823566	5233.171396
793.145836	5222.857195
793.468062	5206.738106
793.790241	5168.526160
794.112375	5200.986149
794.434464	5278.756030
794.756507	5299.238238
795.078505	5392.739039
795.400457	5569.615483
795.722364	5759.697230
796.044226	5921.971973
796.366042	6054.831582
796.687812	6005.314848
797.009538	6038.785589
797.331218	5955.346932
797.652852	5899.067490
797.974442	5798.466224
798.295986	5734.700669
798.617484	5627.629082
798.938938	5539.098858
799.260346	5477.014528
799.581709	5363.596128
799.903026	5318.308923
800.224299	5259.675262
800.545526	5156.596269
800.866708	5101.191468
801.187845	5058.986928
801.508936	4997.149614
801.829983	4965.047547
802.150984	4876.844998
802.471940	4852.513869
802.792851	4836.936704
803.113717	4816.477181
803.434538	4798.689470
803.755314	4772.835912
804.076045	4757.639354
804.396731	4721.879929
804.717372	4734.601281
805.037967	4731.962237
805.358518	4752.981328
805.679024	4796.428512
805.999485	4800.968071
806.319901	4814.838806
806.640272	4826.388089
806.960598	4861.691290
807.280879	4847.069423
807.601115	4882.070154
807.921306	4852.604610
808.241453	4846.000698
808.561554	4854.021174
808.881611	4827.517308
809.201623	4824.762317
809.521590	4783.621461
809.841513	4775.127117
810.161390	4780.193476
810.481223	4711.311150
810.801011	4701.664902
811.120755	4679.786294
811.440453	4630.972802
811.760107	4613.721973
812.079716	4590.472172
812.399281	4547.778640
812.718801	4541.048699
813.038276	4511.643649
813.357707	4478.740038
813.677093	4499.305425
813.996434	4446.799287
814.315731	4459.477789
814.634983	4455.913693
814.954191	4457.859579
815.273354	4508.122403
815.592473	4540.133730
815.911547	4595.452832
816.230577	4638.385818
816.549562	4710.812076
816.868502	4751.355556
817.187399	4793.229900
817.506250	4854.248026
817.825058	4876.184607
818.143821	4995.544007
818.462539	5134.624400
818.781213	5311.561338
819.099843	5593.054328
819.418429	6094.074444
819.736970	6579.441778
820.055466	7130.197918
820.373919	7869.689817
820.692327	9043.741780
821.010691	11232.411654
821.329011	16379.218003
821.647286	24510.173179
821.965517	33341.374872
822.283704	37981.008376
822.601847	39114.229513
822.919945	35002.127553
823.237999	30599.682858
823.556010	26234.487249
823.873976	22335.936128
824.191897	18884.489983
824.509775	16324.748335
824.827609	14086.213888
825.145398	12774.281326
825.463144	12125.494908
825.780845	12345.339627
826.098502	13364.701264
826.416116	15235.478498
826.733685	16960.432794
827.051210	17295.543496
827.368692	16122.587984
827.686129	14148.590605
828.003522	12210.405583
828.320872	10503.334779
828.638177	9203.669865
828.955439	8220.322231
829.272656	7375.669343
829.589830	6711.570420
829.906960	6131.142048
830.224046	5709.739396
830.541088	5382.729828
830.858086	5174.804917
831.175041	5010.024721
831.491952	4958.625117
831.808819	4975.049196
832.125642	5159.623482
832.442421	5587.173822
832.759157	6450.829340
833.075849	7805.198335
833.392497	9222.034788
833.709101	10068.280682
834.025662	9856.426191
834.342179	9042.360504
834.658653	8050.221097
834.975083	7194.013884
835.291469	6507.756570
835.607811	5935.164672
835.924110	5533.966964
836.240366	5156.886136
836.556578	4803.796158
836.872746	4531.745250
837.188871	4318.353208
837.504952	4143.709994
837.820990	4014.311137
838.136984	3928.140174
838.452935	3885.779358
838.768842	3905.886000
839.084706	4130.476966
839.400526	4701.811096
839.716303	5386.424994
840.032037	5806.196833
840.347727	5686.534964
840.663373	5231.719544
840.978977	4796.151249
841.294537	4454.643323
841.610054	4201.504303
841.925527	4018.644009
842.240957	3857.614431
842.556344	3715.683265
842.871687	3592.502671
843.186987	3476.210814
843.502244	3384.068604
843.817458	3317.956392
844.132629	3262.975047
844.447756	3226.270406
844.762840	3191.196578
845.077881	3159.807834
845.392879	3131.836992
845.707833	3114.717233
846.022745	3090.605394
846.337613	3083.971236
846.652438	3062.931980
846.967221	3058.296639
847.281960	3039.679658
847.596656	3034.388967
847.911309	3022.373377
848.225919	3015.033457
848.540485	3003.106087
848.855009	2998.100221
849.169490	2990.286433
849.483928	2983.238900
849.798323	2978.059114
850.112675	2969.471508
850.426984	2971.742548
850.741251	2961.793831
851.055474	2960.644448
851.369654	2962.429017
851.683792	2960.019345
851.997887	2961.486321
852.311938	2961.660241
852.625947	2962.912967
852.939914	2954.375773
853.253837	2960.447843
853.567718	2955.908284
853.881555	2954.448870
854.195350	2955.835187
854.509103	2953.118005
854.822812	2949.261523
855.136479	2948.061728
855.450103	2950.524332
855.763685	2942.829010
856.077224	2945.949485
856.390720	2947.819753
856.704173	2957.440795
857.017584	2961.824078
857.330953	2963.908595
857.644278	2970.542754
857.957561	2976.156078
858.270802	2968.672486
858.584000	2969.905048
858.897155	2964.374902
859.210268	2957.808799
859.523339	2949.750515
859.836367	2944.474947
860.149352	2945.780606
860.462295	2940.134514
860.775195	2929.573296
861.088054	2925.699170
861.400869	2927.939963
861.713642	2924.600198
862.026373	2929.565735
862.339062	2937.019081
862.651708	2940.328598
862.964312	2950.824280
863.276873	2955.993984
863.589392	2978.583394
863.901869	2999.920078
864.214303	3011.734022
864.526696	3027.429654
864.839045	3037.577497
865.151353	3048.345402
865.463619	3050.586194
865.775842	3049.444373
866.088023	3052.605177
866.400162	3044.549413
866.712258	3049.462017
867.024313	3047.896739
867.336325	3046.175185
867.648296	3045.214845
867.960224	3044.118394
868.272110	3046.268446
868.583954	3046.785164
868.895755	3051.642316
869.207515	3050.185423
869.519233	3062.475756
869.830909	3065.631518
870.142542	3073.374730
870.454134	3077.989907
870.765684	3086.244796
871.077191	3100.717949
871.388657	3105.691047
871.700081	3123.791310
872.011463	3136.658855
872.322803	3152.644354
872.634101	3161.055519
872.945357	3179.032274
873.256571	3199.970706
873.567744	3210.415977
873.878874	3216.745146
874.189963	3224.818554
874.501010	3228.463308
874.812015	3220.931824
875.122979	3232.597054
875.433900	3233.993454
875.744780	3232.279461
876.055618	3239.153075
876.366415	3237.839854
876.677169	3241.472005
876.987882	3253.636310
877.298554	3265.934204
877.609183	3294.903195
877.919771	3323.047957
878.230317	3373.247767
878.540822	3450.135445
878.851285	3560.715676
879.161707	3719.731312
879.472087	3993.929752
879.782425	4456.110298
880.092722	5356.815777
880.402977	6888.330918
880.713191	8847.351029
881.023363	10783.557398
881.333494	11866.971936
881.643583	12186.785256
881.953631	11786.101746
882.263637	11065.433515
882.573602	10235.357123
882.883526	9470.203231
883.193408	8711.623003
883.503248	8001.664704
883.813048	7353.919284
884.122806	6763.040601
884.432522	6178.039903
884.742197	5662.450852
885.051831	5227.275767
885.361424	4840.016849
885.670975	4538.654151
885.980485	4291.322541
886.289954	4088.058177
886.599382	3928.782921
886.908768	3798.464053
887.218113	3671.555525
887.527417	3573.696647
887.836680	3484.642143
888.145901	3412.082296
888.455082	3354.522401
888.764221	3302.202786
889.073319	3258.667381
889.382376	3233.776684
889.691392	3217.438304
890.000366	3210.761296
890.309300	3206.393136
890.618193	3209.150647
890.927044	3201.107487
891.235855	3208.863302
891.544625	3218.897718
891.853353	3241.993765
892.162041	3281.871812
892.470687	3348.483099
892.779293	3434.117179
893.087858	3565.391346
893.396381	3765.583127
893.704864	4069.315167
894.013306	4477.368844
894.321707	4883.272469
894.630068	5130.331858
894.938387	5149.599148
895.246665	5010.468343
895.554903	4780.995020
895.863100	4541.996436
896.171256	4353.974001
896.479371	4181.095191
896.787446	4020.693238
897.095480	3880.584449
897.403473	3773.021349
897.711425	3669.103004
898.019336	3584.411619
898.327207	3495.452898
898.635038	3421.710899
898.942827	3346.436390
899.250576	3284.173099
899.558284	3227.744943
899.865952	3188.313038
900.173579	3144.969197
900.481165	3114.336626
900.788711	3082.728591
901.096216	3059.400652
901.403681	3038.116900
901.711105	3034.177239
902.018489	3027.613656
902.325832	3050.921431
902.633135	3092.533636
902.940397	3218.771690
903.247619	3512.214734
903.554800	4072.181062
903.861941	4786.888128
904.169041	5305.544721
904.476101	5451.534016
904.783121	5239.452674
905.090100	4936.375984
905.397039	4636.397083
905.703938	4375.789594
906.010796	4139.457781
906.317614	3958.598825
906.624391	3783.363276
906.931129	3640.537306
907.237826	3511.761031
907.544483	3383.665311
907.851099	3261.384563
908.157675	3145.521204
908.464211	3041.847354
908.770707	2965.441106
909.077163	2910.308527
909.383578	2864.867566
909.689954	2834.487052
909.996289	2814.181285
910.302584	2800.179480
910.608839	2791.478448
910.915054	2780.473610
911.221229	2780.949999
911.527363	2781.471758
911.833458	2785.837397
912.139513	2796.456588
912.445527	2803.499080
912.751502	2830.348265
913.057436	2858.470342
913.363331	2897.040210
913.669186	2959.638738
913.975000	3045.885318
914.280775	3177.777027
914.586510	3373.356152
914.892205	3649.881084
915.197859	4008.349972
915.503475	4431.196916
915.809050	4783.608858
916.114585	4985.534796
916.420081	5019.078633
916.725536	4963.512515
917.030952	4790.699241
917.336328	4642.401097
917.641665	4494.019775
917.946961	4327.369311
918.252218	4187.600800
918.557435	4026.041902
918.862612	3887.964698
919.167750	3761.046088
919.472848	3627.969709
919.777906	3507.108046
920.082925	3394.221488
920.387904	3282.723767
920.692843	3206.012529
920.997743	3135.663227
921.302603	3066.735531
921.607423	3021.672657
921.912204	2977.554999
922.216946	2941.568722
922.521647	2905.743762
922.826310	2878.087992
923.130932	2852.035309
923.435516	2822.148828
923.740059	2803.814152
924.044564	2781.408744
924.349028	2765.148502
924.653454	2742.833834
924.957840	2728.179200
925.262186	2714.694114
925.566493	2700.992257
925.870761	2682.828980
926.174989	2674.753052
926.479178	2661.338541
926.783328	2651.359577
927.087438	2645.287507
927.391509	2633.516413
927.695541	2629.538943
927.999533	2620.043930
928.303486	2612.330964
928.607400	2610.498505
928.911275	2604.839810
929.215110	2603.491301
929.518906	2596.385795
929.822663	2596.005187
930.126381	2594.361771
930.430060	2598.626587
930.733699	2600.711105
931.037299	2601.759665
931.340861	2601.268152
931.644383	2603.377875
931.947866	2603.899634
932.251309	2601.270673
932.554714	2598.795466
932.858080	2599.229005
933.161407	2595.145671
933.464694	2591.916812
933.767943	2593.552666
934.071153	2587.558734
934.374323	2585.630493
934.677455	2582.847776
934.980548	2580.740574
935.283602	2578.777044
935.586617	2578.772003
935.889593	2580.594380
936.192530	2580.785944
936.495428	2585.438929
936.798287	2590.492686
937.101108	2597.497369
937.403890	2612.822477
937.706632	2631.278141
938.009336	2651.551141
938.312002	2674.105263
938.614628	2690.431040
938.917216	2699.479911
939.219765	2705.940150
939.522275	2712.486088
939.824747	2716.052705
940.127179	2710.499874
940.429573	2703.454861
940.731929	2705.022660
941.034246	2698.771629
941.336524	2701.017463
941.638763	2694.963037
941.940964	2690.693180
942.243126	2677.364369
942.545250	2675.708350
942.847335	2664.922802
943.149381	2658.495331
943.451389	2648.730616
943.753359	2637.219141
944.055290	2633.685292
944.357182	2624.386884
944.659036	2624.109620
944.960851	2620.031327
945.262628	2615.542179
945.564367	2617.939248
945.866067	2616.081583
946.167729	2616.273147
946.469352	2614.037395
946.770937	2612.615789
947.072484	2605.265787
947.373992	2608.867692
947.675462	2605.779985
947.976893	2602.810745
948.278286	2599.337390
948.579641	2593.308170
948.880958	2596.128696
949.182236	2593.020824
949.483476	2592.226843
949.784678	2590.971595
950.085841	2588.846749
950.386967	2594.815475
950.688054	2597.583069
950.989103	2603.821497
951.290114	2605.648915
951.591087	2615.292642
951.892021	2622.335134
952.192917	2633.251753
952.493776	2638.224851
952.794596	2641.231899
953.095378	2643.192908
953.396122	2643.024029
953.696828	2641.360449
953.997496	2637.514048
954.298126	2628.991978
954.598718	2626.032820
954.899272	2619.214660
955.199788	2613.450100
955.500266	2602.467947
955.800706	2591.652151
956.101108	2577.675552
956.401472	2574.930644
956.701798	2562.766340
957.002087	2554.224104
957.302337	2550.629762
957.602550	2540.386137
957.902724	2534.006557
958.202861	2526.041534
958.502960	2523.044568
958.803022	2516.339833
959.103045	2511.149965
959.403031	2508.465551
959.702979	2502.993378
960.002889	2501.138234
960.302762	2494.612460
960.602596	2495.303098
960.902393	2492.792604
961.202153	2491.920484
961.501875	2485.898826
961.801559	2486.528970
962.101205	2484.091572
962.400814	2484.499906
962.700385	2481.828094
962.999918	2480.507312
963.299414	2480.686273
963.598873	2479.057980
963.898293	2476.429018
964.197677	2476.560088
964.497022	2476.333236
964.796331	2474.780561
965.095601	2475.665283
965.394835	2474.941878
965.694030	2474.137814
965.993189	2474.183184
966.292309	2469.809983
966.591393	2472.872484
966.890439	2471.904583
967.189447	2474.523462
967.488419	2472.975828
967.787353	2473.517752
968.086249	2471.080354
968.385108	2471.655046
968.683930	2470.029273
968.982714	2471.932309
969.281462	2475.773668
969.580172	2474.137814
969.878844	2475.214100
970.177480	2478.828607
970.476078	2479.622589
970.774639	2485.664412
971.073162	2484.136943
971.371649	2483.342961
971.670098	2483.395893
971.968510	2481.749956
972.266885	2486.072746
972.565223	2487.794300
972.863524	2487.925370
973.161788	2491.292860
973.460014	2489.896461
973.758204	2492.215392
974.056356	2488.517705
974.354471	2490.894609
974.652550	2491.953252
974.950591	2491.781852
975.248595	2490.113230
975.546563	2490.607263
975.844493	2487.834629
976.142386	2487.879999
976.440243	2487.799341
976.738062	2485.293887
977.035845	2487.441419
977.333590	2484.492344
977.631299	2479.637713
977.928971	2480.076293
978.226606	2478.009420
978.524204	2476.686117
978.821765	2479.025213
979.119290	2475.536734
979.416777	2477.096971
979.714228	2477.175109
980.011642	2477.903556
980.309020	2479.955305
980.606360	2481.656695
980.903664	2488.540390
981.200931	2498.582369
981.498162	2509.226765
981.795356	2531.218799
982.092513	2559.469425
982.389633	2587.992273
982.686717	2619.272633
982.983764	2647.286325
983.280775	2656.849394
983.577749	2657.000628
983.874686	2649.201963
984.171587	2638.146713
984.468451	2629.985085
984.765279	2615.421192
985.062070	2600.270004
985.358824	2586.704259
985.655543	2571.535427
985.952224	2558.403221
986.248869	2537.192566
986.545478	2517.569875
986.842050	2503.684017
987.138586	2487.471666
987.435086	2481.351705
987.731549	2474.289048
988.027975	2469.968780
988.324366	2464.554580
988.620719	2465.502317
988.917037	2459.122737
989.213318	2459.931842
989.509563	2456.271965
989.805772	2457.113837
990.101944	2455.183075
990.398080	2454.013528
990.694180	2455.858590
990.990244	2453.191820
991.286271	2452.218877
991.582262	2455.609053
991.878217	2454.000925
992.174136	2455.271296
992.470019	2456.624845
992.765865	2457.554938
993.061676	2461.408900
993.357450	2463.861422
993.653188	2461.151802
993.948890	2463.871504
994.244556	2469.318471
994.540186	2476.260140
994.835780	2483.474031
995.131337	2497.896772
995.426859	2504.503204
995.722345	2519.241017
996.017795	2529.681247
996.313208	2542.069883
996.608586	2546.070038
996.903928	2548.762014
997.199234	2548.580533
997.494504	2545.429812
997.789738	2540.242464
998.084936	2532.174097
998.380099	2526.976668
998.675225	2516.924607
998.970316	2509.428411
999.265371	2503.174860
999.560390	2490.201451
999.855373	2483.642909
1000.150320	2476.923051
1000.445232	2474.105046
1000.740108	2466.634056
1001.034948	2461.338324
1001.329752	2456.355144
1001.624521	2455.480503
1001.919254	2446.227466
1002.213951	2450.247786
1002.508613	2445.751077
1002.803239	2445.786365
1003.097829	2439.283276
1003.392384	2450.721654
1003.686903	2444.846189
1003.981386	2446.154369
1004.275834	2445.327620
1004.570246	2442.769234
1004.864623	2440.314192
1005.158964	2441.377876
1005.453270	2439.560540
1005.747540	2441.443411
1006.041775	2440.281425
1006.335974	2441.859306
1006.630138	2439.184974
1006.924266	2438.758996
1007.218359	2438.249840
1007.512416	2437.672627
1007.806438	2437.473502
1008.100425	2438.050714
1008.394376	2440.772937
1008.688292	2438.247319
1008.982172	2437.574325
1009.276017	2438.892587
1009.569827	2439.948708
1009.863602	2436.918975
1010.157341	2437.097936
1010.451045	2438.879984
1010.744714	2437.034922
1011.038347	2435.497370
1011.331945	2438.191866
1011.625508	2433.901844
1011.919036	2436.770261
1012.212528	2435.527617
1012.505986	2434.491659
1012.799408	2435.814962
1013.092795	2432.507965
1013.386147	2436.495518
1013.679464	2435.376382
1013.972745	2433.475867
1014.265992	2435.154571
1014.559204	2435.741866
1014.852380	2433.889242
1015.145521	2432.313881
1015.438628	2434.733635
1015.731699	2432.976793
1016.024736	2430.877152
1016.317737	2434.635332
1016.610703	2437.014757
1016.903635	2431.540064
1017.196531	2432.129879
1017.489393	2434.148861
1017.782219	2431.814807
1018.075011	2434.693306
1018.367768	2436.235899
1018.660490	2435.373861
1018.953177	2435.373861
1019.245829	2435.373861
