Dividing Wavelength (nm)	Counts (n)	Blue Motor Position (mm): 0.000000	Red Motor Position (mm): 35.200000	
326.493990	1991.472539
326.888308	1991.472539
327.282561	1991.472539
327.676750	1967.232151
328.070874	1969.125104
328.464933	1973.074848
328.858929	1984.435088
329.252859	1995.064361
329.646726	2008.448624
330.040528	2024.688702
330.434265	2044.807947
330.827938	2064.055072
331.221547	2082.997208
331.615091	2102.695516
332.008571	2122.955913
332.401986	2146.840900
332.795338	2166.632470
333.188625	2186.287929
333.581847	2205.968594
333.975006	2222.589278
334.368100	2240.124932
334.761129	2256.934659
335.154095	2275.413009
335.546996	2297.647018
335.939833	2334.689416
336.332606	2350.662312
336.725315	2361.195803
337.117960	2370.567308
337.510540	2376.639378
337.903056	2388.707900
338.295508	2392.430792
338.687896	2401.751886
339.080220	2407.334964
339.472480	2412.229924
339.864676	2415.627662
340.256807	2423.161666
340.648875	2420.837694
341.040879	2422.826429
341.432818	2422.939855
341.824694	2427.456729
342.216506	2423.721234
342.608253	2425.536050
342.999937	2425.200813
343.391557	2424.547983
343.783113	2423.149063
344.174605	2421.394742
344.566033	2419.763928
344.957397	2421.472880
345.348697	2416.870306
345.739934	2414.662281
346.131106	2412.524832
346.522215	2413.102044
346.913260	2408.728843
347.304241	2407.960067
347.695159	2407.221538
348.086012	2407.279511
348.476802	2404.814387
348.867528	2402.722308
349.258191	2402.082081
349.648789	2404.337998
350.039324	2399.443037
350.429796	2402.876063
350.820203	2399.642163
351.210548	2400.884807
351.600828	2397.943294
351.991045	2398.127296
352.381198	2399.163253
352.771288	2398.974210
353.161314	2398.989333
353.551276	2398.059241
353.941175	2397.378685
354.331010	2397.986144
354.720782	2397.754251
355.110490	2400.524365
355.500135	2397.562687
355.889717	2401.366237
356.279235	2398.548233
356.668689	2400.766340
357.058080	2399.735424
357.447408	2398.825496
357.836672	2398.666700
358.225873	2400.156361
358.615010	2398.911196
359.004084	2403.402864
359.393095	2404.758934
359.782043	2406.394788
360.170927	2405.389078
360.559748	2406.175498
360.948505	2411.554409
361.337199	2409.694224
361.725830	2411.309913
362.114398	2413.507857
362.502903	2411.609862
362.891344	2415.080697
363.279722	2411.025088
363.668037	2417.686973
364.056289	2413.699420
364.444478	2414.674884
364.832603	2416.240162
365.220665	2420.663774
365.608665	2417.654206
365.996601	2417.702097
366.384474	2419.695873
366.772284	2421.893816
367.160031	2422.995308
367.547715	2421.082190
367.935336	2422.980185
368.322893	2424.646286
368.710388	2425.369692
369.097820	2426.589651
369.485189	2429.873963
369.872495	2430.441092
370.259738	2431.895465
370.646918	2436.513162
371.034035	2437.392843
371.421090	2441.824018
371.808081	2442.456682
372.195010	2450.275512
372.581875	2452.985132
372.968678	2460.466205
373.355418	2466.510548
373.742096	2478.954636
374.128710	2487.002838
374.515262	2502.141423
374.901751	2518.752025
375.288177	2534.843388
375.674540	2553.263765
376.060841	2575.137331
376.447079	2603.027515
376.833254	2627.522481
377.219367	2652.430822
377.605417	2688.775021
377.991404	2715.886347
378.377329	2754.551997
378.763191	2788.899898
379.148991	2840.377641
379.534727	2890.063253
379.920402	2937.825665
380.306013	2988.048160
380.691563	3052.592574
381.077049	3110.386882
381.462474	3167.934174
381.847835	3241.373703
382.233134	3315.907163
382.618371	3377.245402
383.003545	3463.751602
383.388657	3549.978018
383.773706	3641.507728
384.158693	3716.988924
384.543618	3812.644818
384.928480	3892.721027
385.313280	3999.124661
385.698017	4106.692802
386.082692	4233.402204
386.467305	4293.548210
386.851856	4423.907407
387.236344	4581.403136
387.620770	4641.617198
388.005133	4772.359523
388.389435	4920.458541
388.773674	5002.946941
389.157851	5145.170494
389.541965	5275.963231
389.926018	5299.969205
390.310008	5484.291434
390.693936	5608.810454
391.077802	5730.186316
391.461606	5864.346543
391.845348	5981.565973
392.229027	6103.244303
392.612645	6331.361556
392.996200	6449.503517
393.379694	6630.007071
393.763125	6848.919177
394.146494	6956.225178
394.529801	7091.607885
394.913047	7341.770103
395.296230	7337.555699
395.679351	7395.024853
396.062410	7668.404105
396.445408	7557.463433
396.828343	7714.898667
397.211217	7852.912857
397.594028	7737.326761
397.976778	7945.652443
398.359466	8113.175027
398.742092	8083.039009
399.124656	8238.490550
399.507158	8426.712111
399.889598	8448.840256
400.271977	8660.926639
400.654294	8696.038276
401.036549	8890.294098
401.418742	8922.048326
401.800874	9228.757167
402.182944	9312.057193
402.564952	9684.323720
402.946898	9508.268983
403.328783	9557.329492
403.710606	9767.530484
404.092367	10030.640907
404.474067	10392.754549
404.855705	10178.404688
405.237282	10126.929466
405.618797	10567.395242
406.000250	10816.168622
406.381642	11196.569050
406.762972	11139.339351
407.144240	10932.261354
407.525447	11196.107785
407.906593	11130.119081
408.287677	11398.885678
408.668700	11553.807897
409.049661	11525.027950
409.430560	11691.691017
409.811399	11658.747076
410.192176	11827.978611
410.572891	11898.065773
410.953545	12398.498594
411.334138	11869.608459
411.714669	12475.933238
412.095139	11768.808068
412.475547	12283.207406
412.855894	12129.943726
413.236180	12464.767082
413.616405	12142.085345
413.996568	12419.104311
414.376670	12396.159499
414.756711	12272.303390
415.136691	12555.361658
415.516609	12742.116243
415.896466	12809.579485
416.276262	13110.483437
416.655997	13553.671437
417.035670	13585.869286
417.415283	14243.896139
417.794834	14337.515407
418.174324	14080.822374
418.553753	13981.219256
418.933121	14476.343743
419.312428	14284.747129
419.691674	14201.726887
420.070859	14656.872503
420.449983	14316.554289
420.829045	14870.231778
421.208047	14607.902735
421.586988	15074.464044
421.965867	15339.550598
422.344686	15330.148846
422.723444	15903.461629
423.102141	14566.282968
423.480777	15769.661844
423.859352	15280.727894
424.237866	16405.109369
424.616319	16102.872031
424.994712	16775.694670
425.373044	16564.795479
425.751314	17246.513234
426.129524	16351.925196
426.507673	17478.464284
426.885762	17161.975604
427.263789	17357.932816
427.641756	17529.473199
428.019662	17592.742201
428.397508	17645.228174
428.775292	17948.042724
429.153016	17908.641065
429.530679	17993.269435
429.908282	18016.703239
430.285824	17723.741624
430.663305	18448.243652
431.040726	18031.723357
431.418086	17860.883694
431.795385	18525.811887
432.172624	18934.599052
432.549802	18492.973810
432.926920	18675.806378
433.303977	18565.926868
433.680974	18823.872628
434.057910	19112.692935
434.434786	19137.853334
434.811601	19052.163801
435.188355	20108.913155
435.565050	19755.581203
435.941683	19698.583397
436.318257	20590.728996
436.694770	20380.835514
437.071222	20999.972386
437.447614	20057.324507
437.823946	20095.803635
438.200218	20236.834955
438.576429	20020.307315
438.952580	20289.520053
439.328670	20257.481000
439.704700	20678.261071
440.080670	20237.525593
440.456580	20845.186277
440.832429	21018.193636
441.208218	19986.985288
441.583947	20436.779719
441.959616	20549.131915
442.335224	20785.216711
442.710773	20914.555075
443.086261	21476.013584
443.461689	20825.982002
443.837057	20947.088161
444.212365	21604.275662
444.587612	21600.232656
444.962800	21162.935245
445.337927	21599.216864
445.712995	20311.141562
446.088002	22193.946989
446.462949	22386.168706
446.837837	22566.836098
447.212664	22524.505529
447.587431	25396.161009
447.962139	28369.529329
448.336786	30769.786513
448.711374	29187.108701
449.085901	25470.306299
449.460369	25410.248513
449.834776	25332.561812
450.209124	27837.828751
450.583412	27365.061781
450.957640	27886.307007
451.331808	26534.672837
451.705917	25153.031200
452.079965	25188.379771
452.453954	25550.216150
452.827883	25440.591218
453.201752	25231.837037
453.575562	25402.895990
453.949311	26539.565277
454.323001	26598.156088
454.696632	26353.869334
455.070202	27922.220187
455.443713	28056.743377
455.817164	28666.274330
456.190556	29184.699029
456.563888	28635.503127
456.937160	29067.938345
457.310373	27382.312610
457.683526	27845.634977
458.056619	27839.348658
458.429653	27756.421678
458.802628	28344.583179
459.175542	28465.311252
459.548398	29763.544479
459.921194	31348.125326
460.293930	32033.263504
460.666607	34078.406687
461.039224	35847.123241
461.411782	36232.776551
461.784280	35032.997059
462.156719	34562.959874
462.529099	34008.264073
462.901419	32710.615620
463.273680	31636.444038
463.645882	31724.570969
464.018024	31690.374302
464.390106	32537.015926
464.762130	35259.549033
465.134094	39326.373870
465.505999	44638.875384
465.877845	49260.249828
466.249631	50427.211409
466.621358	48732.299868
466.993026	46641.819068
467.364634	44576.475981
467.736184	42580.693256
468.107674	41334.535149
468.479105	40538.605012
468.850477	39823.106485
469.221790	38376.691062
469.593043	36624.083515
469.964238	35730.556640
470.335373	35657.114590
470.706449	37395.029694
471.077467	39996.789358
471.448425	44565.357717
471.819324	47376.118578
472.190164	45527.005704
472.560945	41962.211735
472.931667	38835.894807
473.302330	37726.934222
473.672934	36896.290700
474.043479	37400.622854
474.413965	36585.972392
474.784393	36221.257514
475.154761	37123.878631
475.525070	37155.862232
475.895321	36670.535227
476.265513	37278.967209
476.635645	38264.825337
477.005719	38087.273378
477.375734	38563.387674
477.745691	39262.159652
478.115588	40598.992994
478.485427	42571.863675
478.855207	45927.742146
479.224928	48552.068536
479.594591	50191.713907
479.964194	49195.276917
480.333739	49360.236074
480.703226	49390.674561
481.072653	50032.877232
481.442022	50495.634990
481.811333	50772.621188
482.180584	49462.606785
482.549777	48946.223753
482.918912	48408.010003
483.287988	48125.299575
483.657005	47278.473949
484.025964	46644.127917
484.394864	46657.146696
484.763706	46233.646923
485.132489	45362.810282
485.501213	45189.477768
485.869879	45340.745151
486.238487	44916.685810
486.607036	45105.635818
486.975527	44569.050362
487.343959	44760.611687
487.712333	44831.918808
488.080648	44761.312408
488.448905	45208.351848
488.817104	45004.532957
489.185244	45977.810886
489.553326	47651.617636
489.921350	50354.795234
490.289315	53214.374630
490.657222	53809.152646
491.025070	54084.288740
491.392861	53194.830076
491.760593	51954.126497
492.128267	50289.953393
492.495883	48778.076066
492.863440	47366.154738
493.230939	46014.853285
493.598380	44907.916723
493.965763	44583.382362
494.333088	43770.188794
494.700354	43266.380920
495.067563	42973.321003
495.434713	42841.852752
495.801805	42897.852409
496.168839	42508.549303
496.535815	42187.021990
496.902733	42217.450395
497.269593	41784.639611
497.636395	41719.374313
498.003139	42118.053965
498.369825	41555.740979
498.736453	41875.340051
499.103023	41395.296176
499.469535	41275.258741
499.835989	41352.582479
500.202385	41012.614626
500.568723	41040.640921
500.935003	41223.770916
501.301226	41002.149190
501.667390	41636.790130
502.033497	41891.025601
502.399546	41286.611420
502.765537	40617.458740
503.131470	41009.945335
503.497345	41353.908303
503.863163	40015.015650
504.228923	40623.112394
504.594625	41025.474609
504.960269	40314.014046
505.325856	40989.032108
505.691385	40362.653619
506.056856	40477.939767
506.422270	40907.713255
506.787625	40492.238999
507.152924	40675.837822
507.518164	40772.723758
507.883347	39962.219646
508.248472	40213.861443
508.613540	40688.990193
508.978550	40989.364824
509.343503	40732.951575
509.708398	40908.960941
510.073236	41432.973760
510.438016	41411.616912
510.802738	40863.023427
511.167403	41484.958138
511.532010	41702.307486
511.896561	41994.404543
512.261053	42817.282168
512.625488	42359.799977
512.989866	42216.172462
513.354186	42033.627241
513.718449	42006.447860
514.082655	42672.558202
514.446803	42333.991790
514.810894	42843.352495
515.174927	42744.994542
515.538904	42615.920839
515.902822	43264.808080
516.266684	42691.197869
516.630488	43096.783902
516.994235	42928.116976
517.357925	43496.580169
517.721558	43630.248884
518.085133	43903.824741
518.448651	44007.412891
518.812112	43766.352476
519.175516	43834.143392
519.538863	44115.235610
519.902152	44044.268767
520.265385	44479.211959
520.628560	44494.368188
520.991678	44239.863016
521.354739	44449.050736
521.717743	44727.871914
522.080690	44583.672228
522.443580	45072.404532
522.806413	45082.542292
523.169189	44984.806922
523.531908	45127.867307
523.894569	44939.179439
524.257174	45057.734774
524.619722	45303.133102
524.982213	45240.068268
525.344647	45101.865035
525.707025	45094.179796
526.069345	45409.108239
526.431608	45282.106450
526.793815	45519.045722
527.155964	45024.387542
527.518057	45124.000742
527.880093	44838.605899
528.242072	45288.296987
528.603995	44940.613647
528.965860	44871.771650
529.327669	44896.823664
529.689421	44741.442700
530.051117	44612.600890
530.412755	44694.209609
530.774337	44674.140775
531.135862	44410.261577
531.497331	44525.648548
531.858743	44349.941651
532.220098	44610.297082
532.581396	44245.204118
532.942638	43820.030682
533.303824	44038.410946
533.664953	43903.678548
534.026025	43549.292994
534.387040	43929.320377
534.747999	43788.720076
535.108902	43841.669835
535.469748	43302.679748
535.830537	43329.735621
536.191270	43412.062704
536.551947	42975.443328
536.912567	43183.113661
537.273131	43189.321842
537.633638	42607.297945
537.994089	42830.787419
538.354483	42358.885007
538.714821	42791.438693
539.075103	43006.010365
539.435328	42657.694360
539.795497	42456.317908
540.155609	42340.169724
540.515665	42657.245698
540.875665	42046.842625
541.235609	42239.986873
541.595496	42104.228600
541.955328	42624.268990
542.315102	41927.009357
542.674821	41599.909049
543.034483	41527.956660
543.394090	41373.082332
543.753640	41210.900851
544.113134	41995.972342
544.472571	40987.943219
544.831953	41987.654438
545.191278	41151.647128
545.550548	40771.450867
545.909761	41056.255895
546.268918	41107.148863
546.628019	41240.815057
546.987064	40722.493701
547.346053	39925.731774
547.704986	40577.608419
548.063863	40058.067104
548.422684	40092.614131
548.781449	39810.775823
549.140158	40021.009582
549.498811	39743.622612
549.857408	39104.626115
550.215949	39675.909834
550.574434	39463.334458
550.932864	39121.962643
551.291237	39604.338052
551.649555	39070.316022
552.007817	39131.029158
552.366022	38663.507510
552.724173	38671.676699
553.082267	38850.229327
553.440305	38930.139178
553.798288	38184.366001
554.156215	38271.698950
554.514086	38284.707648
554.871902	37919.077801
555.229661	37749.085052
555.587365	37425.921884
555.945014	37336.043152
556.302606	37087.794052
556.660143	37098.871988
557.017625	37008.486620
557.375050	36651.837588
557.732421	36749.396518
558.089735	36543.256175
558.446994	36298.712323
558.804197	36490.598803
559.161345	36257.100118
559.518437	35498.030898
559.875474	35537.041868
560.232455	35469.810519
560.589381	35426.648160
560.946251	34988.765975
561.303065	35318.989278
561.659825	34970.769056
562.016528	34530.298239
562.373177	34123.895539
562.729770	34292.144049
563.086307	33744.810852
563.442789	33879.427304
563.799216	33715.786409
564.155587	33352.054556
564.511904	33166.235105
564.868164	33018.572147
565.224370	32991.894361
565.580520	32585.219439
565.936615	32534.828065
566.292654	32133.370737
566.648638	32076.796388
567.004567	31843.643023
567.360441	31672.994924
567.716260	31343.285818
568.072023	31329.311740
568.427732	31099.362028
568.783385	30589.625757
569.138982	30627.913320
569.494525	30390.507741
569.850013	30033.682269
570.205445	29790.418870
570.560823	29547.604133
570.916145	29257.193342
571.271412	29051.915037
571.626625	28687.001034
571.981782	28504.775925
572.336884	28092.545652
572.691931	28076.129134
573.046923	27616.403630
573.401860	27312.101939
573.756743	27082.137104
574.111570	26941.594776
574.466342	26649.396896
574.821059	26479.782234
575.175722	26000.060993
575.530330	25789.779342
575.884882	25435.134169
576.239380	25202.810073
576.593823	24974.483613
576.948211	24706.667274
577.302544	24244.131326
577.656823	24047.115472
578.011047	23951.537716
578.365216	23590.974228
578.719330	23282.069964
579.073389	22990.025840
579.427394	22822.440242
579.781344	22604.901850
580.135239	22227.689952
580.489080	22068.487793
580.842866	21626.247531
581.196597	21613.006940
581.550273	21395.345041
581.903895	21115.366918
582.257463	21104.649425
582.610975	20627.214347
582.964434	20548.219466
583.317837	20187.829898
583.671186	19907.203987
584.024481	19818.139401
584.377721	19431.344270
584.730906	19349.601960
585.084037	19153.211209
585.437113	18845.680660
585.790135	18666.858330
586.143103	18318.504517
586.496016	18175.602929
586.848874	17987.419176
587.201679	17797.526473
587.554428	17393.145276
587.907124	17280.180580
588.259765	17002.786048
588.612352	16913.983603
588.964884	16528.935231
589.317362	16446.953466
589.669786	16244.462919
590.022155	15996.697769
590.374470	15963.111082
590.726731	15622.462673
591.078937	15289.038237
591.431090	15156.014789
591.783188	14889.340272
592.135232	14621.992760
592.487222	14529.049006
592.839157	14399.249377
593.191038	14131.198624
593.542866	13907.469696
593.894639	13584.737547
594.246358	13498.518693
594.598022	13341.199405
594.949633	13081.073346
595.301190	12912.905495
595.652692	12703.294318
596.004141	12641.799803
596.355535	12233.741084
596.706876	12073.616394
597.058162	11893.730380
597.409395	11870.687266
597.760573	11758.347673
598.111698	11514.819613
598.462768	11383.033769
598.813785	11262.091447
599.164748	11002.381284
599.515657	10956.138779
599.866511	10716.726822
600.217312	10720.600948
600.568060	10378.964473
600.918753	10402.962886
601.269392	10280.127610
601.619978	10085.128218
601.970510	10004.724335
602.320988	9920.383310
602.671412	9865.238128
603.021783	9699.081697
603.372100	9527.536273
603.722363	9435.399104
604.072572	9328.166200
604.422728	9223.206857
604.772830	9079.765865
605.122878	8987.429571
605.472872	8870.056386
605.822813	8807.810739
606.172701	8692.544756
606.522534	8618.538097
606.872314	8562.435096
607.222041	8421.005525
607.571714	8381.268629
607.921333	8206.464099
608.270899	8151.946541
608.620411	8107.382741
608.969870	7983.289698
609.319276	7891.878455
609.668627	7813.175961
610.017926	7789.981612
610.367171	7721.958803
610.716362	7645.083728
611.065500	7546.813995
611.414585	7484.379305
611.763616	7438.663601
612.112594	7350.002308
612.461518	7297.448279
612.810389	7247.112358
613.159207	7153.485528
613.507971	7090.035045
613.856682	7064.700726
614.205340	6977.541697
614.553945	6982.711400
614.902496	6847.361461
615.250994	6824.928326
615.599439	6761.150168
615.947830	6716.140226
616.296169	6651.111862
616.644454	6604.453463
616.992686	6555.995371
617.340864	6537.393513
617.688990	6452.082067
618.037063	6443.786848
618.385082	6381.818465
618.733048	6351.175811
619.080961	6292.610206
619.428821	6233.921093
619.776628	6183.297826
620.124382	6106.808399
620.472083	6052.502569
620.819731	6004.435167
621.167326	5915.370582
621.514868	5846.894068
621.862357	5757.136324
622.209793	5693.184246
622.557176	5615.890755
622.904506	5534.695411
623.251783	5445.890444
623.599007	5382.979365
623.946179	5311.029497
624.293297	5260.078555
624.640363	5167.976674
624.987376	5119.619406
625.334336	5055.599273
625.681243	4991.652236
626.028097	4943.113486
626.374899	4889.604159
626.721647	4847.964228
627.068343	4803.060150
627.414987	4751.849589
627.761577	4699.862690
628.108115	4679.372920
628.454600	4617.175164
628.801032	4592.884364
629.147412	4552.545051
629.493739	4516.894011
629.840014	4471.808451
630.186236	4456.649702
630.532405	4404.995519
630.878521	4387.154875
631.224585	4354.145400
631.570597	4308.008760
631.916556	4288.660812
632.262462	4261.108385
632.608316	4235.040579
632.954117	4199.568500
633.299866	4169.896268
633.645562	4137.360661
633.991206	4089.419288
634.336797	4035.327707
634.682336	4009.164119
635.027823	3967.670382
635.373257	3933.937501
635.718639	3897.711769
636.063968	3864.447715
636.409245	3815.125066
636.754470	3794.458856
637.099642	3761.479627
637.444762	3721.810788
637.789829	3703.692881
638.134845	3668.936646
638.479808	3649.117349
638.824719	3624.249338
639.169577	3594.372939
639.514383	3574.314188
639.859137	3544.558778
640.203839	3535.419166
640.548489	3508.471678
640.893086	3489.887464
641.237632	3467.464412
641.582125	3452.792133
641.926566	3430.222888
642.270955	3420.765683
642.615292	3404.593662
642.959576	3387.173954
643.303809	3373.078888
643.647990	3363.099924
643.992118	3343.799867
644.336195	3334.259483
644.680219	3319.667863
645.024192	3316.335661
645.368112	3319.690548
645.711981	3307.836275
646.055797	3315.128304
646.399562	3304.436017
646.743274	3317.094354
647.086935	3320.434119
647.430544	3306.749907
647.774101	3296.120634
648.117606	3290.093934
648.461059	3289.357926
648.804460	3267.852363
649.147810	3240.287334
649.491108	3219.706824
649.834354	3203.625543
650.177548	3175.206038
650.520690	3155.346412
650.863781	3148.198056
651.206820	3138.022487
651.549807	3118.361987
651.892742	3100.538988
652.235626	3087.976433
652.578458	3079.519897
652.921238	3060.746640
653.263967	3058.367215
653.606644	3043.780637
653.949269	3036.297044
654.291843	3021.876823
654.634365	3024.810775
654.976836	3005.974503
655.319255	3001.192969
655.661622	2995.017556
656.003938	2984.509270
656.346203	2973.678351
656.688416	2972.042497
657.030577	2962.239973
657.372687	2955.318469
657.714746	2950.809157
658.056753	2947.708847
658.398708	2932.086312
658.740612	2929.278389
659.082465	2924.375867
659.424266	2919.488468
659.766016	2914.182654
660.107715	2912.753487
660.449362	2913.819691
660.790958	2903.011457
661.132503	2899.643966
661.473996	2897.125910
661.815438	2893.382853
662.156829	2892.876217
662.498168	2883.222407
662.839456	2880.222921
663.180693	2875.791747
663.521879	2876.134545
663.863013	2871.184132
664.204097	2864.733976
664.545129	2866.528626
664.886110	2866.324460
665.227040	2858.369519
665.567918	2860.937987
665.908746	2855.438088
666.249522	2855.304497
666.590248	2850.971626
666.930922	2853.398941
667.271545	2847.805781
667.612118	2846.384176
667.952639	2842.653722
668.293109	2836.879080
668.633528	2834.492094
668.973896	2830.333142
669.314213	2826.252328
669.654480	2820.633962
669.994695	2816.018785
670.334859	2814.070379
670.674973	2808.421767
671.015035	2806.853968
671.355047	2802.453040
671.695008	2800.676034
672.034918	2800.509676
672.374777	2796.963224
672.714585	2794.520785
673.054342	2793.716721
673.394049	2787.962244
673.733705	2789.265382
674.073310	2783.664660
674.412864	2780.108126
674.752368	2776.891870
675.091820	2775.034205
675.431223	2769.199069
675.770574	2766.658327
676.109875	2761.050044
676.449125	2756.175248
676.788324	2752.913622
677.127473	2742.382651
677.466571	2738.281672
677.805619	2739.547002
678.144616	2737.938874
678.483562	2734.800756
678.822458	2730.785477
679.161303	2731.047617
679.500098	2726.717266
679.838842	2724.355485
680.177535	2721.844990
680.516179	2723.632079
680.854771	2722.724672
681.193314	2729.288254
681.531805	2739.216807
681.870247	2744.368866
682.208638	2748.858013
682.546978	2750.090575
682.885268	2749.248703
683.223508	2747.111253
683.561697	2739.035325
683.899836	2738.316961
684.237925	2728.673233
684.575963	2728.680795
684.913951	2722.618807
685.251889	2723.203581
685.589776	2720.809033
685.927614	2719.639486
686.265401	2722.107130
686.603137	2720.312480
686.940824	2723.969837
687.278460	2728.617781
687.616046	2725.436812
687.953582	2731.826475
688.291068	2731.188769
688.628504	2730.054509
688.965889	2731.813872
689.303224	2724.766339
689.640510	2722.429764
689.977745	2713.375852
690.314930	2706.620706
690.652065	2703.205324
690.989150	2694.027903
691.326185	2686.821574
691.663170	2677.676921
692.000105	2675.541992
692.336990	2667.098060
692.673825	2661.139416
693.010610	2657.340906
693.347345	2648.395379
693.684030	2644.269194
694.020665	2643.271046
694.357251	2632.666979
694.693786	2635.921044
695.030272	2632.341824
695.366707	2626.746144
695.703093	2627.530043
696.039429	2624.626338
696.375716	2622.395628
696.711952	2621.662140
697.048139	2619.864969
697.384276	2618.997890
697.720363	2621.024434
698.056400	2618.362705
698.392388	2613.671911
698.728326	2613.387086
699.064214	2610.828700
699.400053	2608.817280
699.735842	2609.071858
700.071581	2606.838627
700.407270	2602.735128
700.742910	2601.220261
701.078501	2597.215064
701.414042	2594.485280
701.749533	2591.939497
702.084974	2590.890937
702.420366	2589.766760
702.755709	2586.840370
703.091002	2582.494895
703.426246	2585.322982
703.761440	2581.564802
704.096584	2579.755028
704.431679	2576.657239
704.766725	2577.622620
705.101721	2576.465675
705.436668	2577.481468
705.771565	2574.202197
706.106413	2575.263360
706.441212	2576.178329
706.775961	2577.894842
707.110661	2579.800398
707.445311	2578.003227
707.779913	2577.665470
708.114465	2579.999524
708.448967	2582.633527
708.783421	2587.561255
709.117825	2589.892788
709.452180	2591.266503
709.786485	2591.858838
710.120742	2603.486260
710.454949	2599.423090
710.789107	2600.643049
711.123216	2604.272680
711.457275	2608.214862
711.791286	2611.544544
712.125247	2612.250306
712.459159	2611.778958
712.793023	2618.700462
713.126837	2609.616303
713.460602	2612.192332
713.794318	2606.727722
714.127985	2601.999119
714.461602	2600.650611
714.795171	2599.017277
715.128691	2588.715679
715.462162	2588.514033
715.795584	2582.066397
716.128957	2578.847620
716.462281	2574.691189
716.795556	2572.382341
717.128782	2573.314954
717.461960	2569.448389
717.795088	2566.153995
718.128167	2563.595609
718.461198	2557.785680
718.794180	2555.587737
719.127113	2555.736451
719.459997	2554.929866
719.792833	2547.905018
720.125619	2554.042623
720.458357	2547.831921
720.791046	2546.619524
721.123686	2545.949050
721.456278	2543.952753
721.788821	2544.353525
722.121315	2543.047866
722.453761	2544.345963
722.786158	2543.274718
723.118506	2544.141797
723.450805	2540.915458
723.783056	2542.793288
724.115259	2540.988555
724.447412	2538.344470
724.779518	2544.451828
725.111574	2544.353525
725.443582	2545.419729
725.775542	2542.447969
726.107453	2549.881150
726.439315	2549.230842
726.771129	2553.039433
727.102895	2554.524053
727.434612	2556.011193
727.766281	2555.421378
728.097901	2557.659651
728.429473	2552.071532
728.760996	2557.062274
729.092471	2553.039433
729.423897	2559.406411
729.755276	2558.153684
730.086606	2557.543704
730.417887	2560.381874
730.749120	2565.153326
731.080305	2569.221537
731.411442	2569.735735
731.742530	2573.156158
732.073570	2574.108936
732.404562	2574.146744
732.735506	2574.877712
733.066401	2571.837896
733.397249	2566.685837
733.728048	2563.845147
734.058798	2555.441543
734.389501	2550.027344
734.720156	2547.592467
735.050762	2540.492001
735.381320	2541.346477
735.711831	2540.804553
736.042293	2536.398584
736.372707	2537.457227
736.703073	2533.935981
737.033391	2539.226672
737.363661	2534.659386
737.693883	2538.873791
738.024056	2539.372865
738.354182	2543.420912
738.684260	2543.461241
739.014290	2543.189019
739.344272	2545.452497
739.674207	2548.363763
740.004093	2549.026675
740.333931	2552.368960
740.663722	2547.975594
740.993464	2550.770914
741.323159	2548.578012
741.652806	2546.435522
741.982405	2545.545758
742.311956	2541.873277
742.641460	2544.850079
742.970915	2539.962680
743.300323	2536.517052
743.629683	2532.910106
743.958996	2534.084695
744.288260	2533.199972
744.617477	2527.518592
744.946647	2524.642614
745.275768	2523.505833
745.604842	2519.019207
745.933869	2520.828981
746.262847	2517.703465
746.591778	2525.209743
746.920662	2521.885102
747.249498	2520.793693
747.578286	2520.244207
747.907027	2525.809641
748.235720	2524.176307
748.564365	2524.519105
748.892963	2525.615556
749.221514	2524.415762
749.550017	2527.790814
749.878473	2526.316277
750.206881	2524.108251
750.535242	2521.194464
750.863555	2520.881913
751.191821	2520.445853
751.520039	2518.898219
751.848210	2519.707324
752.176334	2518.726820
752.504411	2518.484844
752.832440	2518.268075
753.160421	2521.174300
753.488356	2517.642972
753.816243	2517.345543
754.144082	2517.287570
754.471875	2514.073835
754.799620	2516.009638
755.127318	2516.546521
755.454969	2515.535769
755.782572	2514.346057
756.110129	2516.566685
756.437638	2514.323372
756.765100	2514.789678
757.092515	2514.784637
757.419882	2514.900584
757.747203	2517.368229
758.074477	2513.826818
758.401703	2516.319669
758.728882	2518.079031
759.056014	2518.091634
759.383099	2518.746984
759.710138	2522.628673
760.037129	2522.807634
760.364073	2522.721934
760.690970	2523.248735
761.017820	2519.901408
761.344623	2525.754188
761.671379	2525.769312
761.998088	2529.666123
762.324751	2544.703885
762.651366	2571.704305
762.977935	2605.011209
763.304456	2625.574075
763.630931	2634.126393
763.957359	2624.701956
764.283740	2610.286776
764.610074	2593.096442
764.936362	2574.282856
765.262602	2558.587223
765.588796	2543.657846
765.914943	2536.138965
766.241044	2524.720752
766.567097	2520.478621
766.893104	2514.943434
767.219064	2508.223576
767.544978	2507.502691
767.870845	2499.419200
768.196665	2501.423059
768.522438	2497.279231
768.848165	2500.462719
769.173846	2495.340907
769.499479	2494.771257
769.825066	2492.810248
770.150607	2490.924856
770.476101	2490.854280
770.801548	2490.181286
771.126949	2487.683394
771.452303	2490.357726
771.777611	2485.490492
772.102872	2485.598877
772.428087	2483.567292
772.753256	2485.072077
773.078378	2484.928404
773.403453	2481.084524
773.728482	2478.962198
774.053465	2479.771303
774.378401	2478.334574
774.703291	2479.027733
775.028135	2475.894656
775.352932	2476.265181
775.677683	2477.802733
776.002388	2475.367855
776.327046	2473.999182
776.651658	2475.854327
776.976224	2473.739563
777.300743	2474.485653
777.625216	2473.921044
777.949643	2473.505149
778.274024	2472.958184
778.598359	2469.068934
778.922647	2470.470374
779.246889	2469.396609
779.571086	2466.787812
779.895236	2472.282669
780.219339	2469.459623
780.543397	2473.968935
780.867409	2470.719912
781.191374	2472.065900
781.515294	2470.596403
781.839167	2472.015488
782.162995	2469.046248
782.486776	2473.918524
782.810511	2471.007257
783.134201	2473.001034
783.457844	2469.890642
783.781441	2470.298975
784.104993	2468.900055
784.428498	2471.650004
784.751958	2469.099181
785.075372	2469.104222
785.398739	2468.542133
785.722061	2468.867288
786.045337	2471.939871
786.368568	2471.639922
786.691752	2470.404839
787.014891	2471.841568
787.337983	2477.250726
787.661030	2482.624596
787.984031	2488.000987
788.306987	2491.408807
788.629897	2492.916112
788.952760	2489.266317
789.275579	2487.365802
789.598351	2484.769607
789.921078	2481.760038
790.243759	2482.024699
790.566395	2476.860037
790.888984	2477.240644
791.211529	2472.280149
791.534027	2473.043883
791.856480	2469.802422
792.178888	2471.529017
792.501249	2470.798049
792.823566	2467.533902
793.145836	2466.644139
793.468062	2466.376958
793.790241	2466.117338
794.112375	2467.964921
794.434464	2470.719912
794.756507	2468.486680
795.078505	2472.602783
795.400457	2470.712350
795.722364	2470.949284
796.044226	2476.239975
796.366042	2477.182671
796.687812	2478.594194
797.009538	2480.913125
797.331218	2480.144349
797.652852	2478.271560
797.974442	2477.049080
798.295986	2476.517238
798.617484	2476.537403
798.938938	2474.760396
799.260346	2473.401805
799.581709	2472.567494
799.903026	2473.542958
800.224299	2467.932153
800.545526	2469.525158
800.866708	2466.394602
801.187845	2469.913327
801.508936	2471.932309
801.829983	2465.789663
802.150984	2464.801597
802.471940	2464.567183
802.792851	2465.938377
803.113717	2462.757409
803.434538	2461.451750
803.755314	2462.621298
804.076045	2465.285548
804.396731	2464.708336
804.717372	2462.049127
805.037967	2463.952163
805.358518	2461.567697
805.679024	2465.038531
805.999485	2461.585341
806.319901	2463.959724
806.640272	2465.615743
806.960598	2467.687657
807.280879	2464.070630
807.601115	2467.284365
807.921306	2466.702112
808.241453	2466.722277
808.561554	2466.392081
808.881611	2466.092132
809.201623	2463.233798
809.521590	2464.892338
809.841513	2462.873356
810.161390	2466.613892
810.481223	2463.606843
810.801011	2465.341000
811.120755	2465.449385
811.440453	2462.744806
811.760107	2462.243211
812.079716	2461.487038
812.399281	2458.353961
812.718801	2461.303036
813.038276	2457.590226
813.357707	2459.026955
813.677093	2460.433437
813.996434	2460.539301
814.315731	2459.140381
814.634983	2461.282872
814.954191	2461.986113
815.273354	2465.144395
815.592473	2463.223716
815.911547	2465.431741
816.230577	2464.494087
816.549562	2468.322843
816.868502	2467.274283
817.187399	2470.530868
817.506250	2471.208903
817.825058	2471.387864
818.143821	2472.494398
818.462539	2478.221148
818.781213	2482.075111
819.099843	2487.910246
819.418429	2496.530619
819.736970	2510.542506
820.055466	2519.694721
820.373919	2537.966383
820.692327	2559.739127
821.010691	2604.839810
821.329011	2696.641742
821.647286	2841.872343
821.965517	2998.054851
822.283704	3087.913418
822.601847	3116.012810
822.919945	3058.909139
823.237999	2979.916779
823.556010	2903.641601
823.873976	2831.679130
824.191897	2770.071189
824.509775	2720.496482
824.827609	2674.629543
825.145398	2651.316727
825.463144	2635.076650
825.780845	2637.229223
826.098502	2656.657830
826.416116	2691.466997
826.733685	2723.468242
827.051210	2733.399315
827.368692	2716.624876
827.686129	2678.632220
828.003522	2641.398257
828.320872	2600.801845
828.638177	2576.503484
828.955439	2549.563558
829.272656	2533.232740
829.589830	2515.558454
829.906960	2510.613082
830.224046	2498.627739
830.541088	2491.300422
830.858086	2486.796151
831.175041	2483.728609
831.491952	2479.234420
831.808819	2484.862869
832.125642	2485.586274
832.442421	2498.897441
832.759157	2519.356964
833.075849	2549.535831
833.392497	2581.353074
833.709101	2599.410487
834.025662	2597.046186
834.342179	2579.172775
834.658653	2556.686708
834.975083	2536.718698
835.291469	2527.964734
835.607811	2511.805315
835.924110	2498.627739
836.240366	2492.777480
836.556578	2482.881695
836.872746	2477.628813
837.188871	2471.897021
837.504952	2464.383181
837.820990	2462.107100
838.136984	2461.194651
838.452935	2458.074177
838.768842	2459.203396
839.084706	2463.609364
839.400526	2478.541262
839.716303	2491.885196
840.032037	2506.282731
840.347727	2502.058244
840.663373	2494.403252
840.978977	2481.631489
841.294537	2472.416260
841.610054	2468.920220
841.925527	2465.003243
842.240957	2459.331945
842.556344	2455.788014
842.871687	2452.687704
843.186987	2448.473300
843.502244	2446.338371
843.817458	2443.147321
844.132629	2441.264450
844.447756	2443.056580
844.762840	2435.457040
845.077881	2438.577515
845.392879	2435.550302
845.707833	2437.433173
846.022745	2431.630805
846.337613	2438.073399
846.652438	2434.030394
846.967221	2435.497370
847.281960	2436.545930
847.596656	2434.476536
847.911309	2434.660538
848.225919	2434.181628
848.540485	2435.830086
848.855009	2434.879828
849.169490	2432.137441
849.483928	2436.303954
849.798323	2434.726073
850.112675	2434.831937
850.426984	2436.956784
850.741251	2434.688264
851.055474	2433.869077
851.369654	2434.458892
851.683792	2432.767585
851.997887	2432.079467
852.311938	2436.379572
852.625947	2432.679365
852.939914	2433.213727
853.253837	2433.624581
853.567718	2433.304468
853.881555	2433.914447
854.195350	2432.654159
854.509103	2435.041145
854.822812	2432.265990
855.136479	2435.855292
855.450103	2435.600713
855.763685	2435.399067
856.077224	2433.619540
856.390720	2434.428645
856.704173	2435.338573
857.017584	2433.473346
857.330953	2436.346804
857.644278	2434.194231
857.957561	2437.584407
858.270802	2437.556681
858.584000	2434.272369
858.897155	2435.300765
859.210268	2433.838830
859.523339	2433.876639
859.836367	2435.628440
860.149352	2434.804211
860.462295	2433.153233
860.775195	2432.820517
861.088054	2427.333221
861.400869	2432.570980
861.713642	2430.446133
862.026373	2436.888728
862.339062	2432.245825
862.651708	2432.122317
862.964312	2434.244643
863.276873	2433.271700
863.589392	2435.719180
863.901869	2438.088523
864.214303	2434.940322
864.526696	2438.874943
864.839045	2437.889397
865.151353	2438.678338
865.463619	2438.423759
865.775842	2438.592638
866.088023	2439.890735
866.400162	2438.711105
866.712258	2439.116918
867.024313	2439.003492
867.336325	2440.853596
867.648296	2439.177412
867.960224	2438.486774
868.272110	2439.552978
868.583954	2439.368976
868.895755	2441.221600
869.207515	2439.255550
869.519233	2440.157916
869.830909	2439.805036
870.142542	2440.314192
870.454134	2441.962649
870.765684	2438.751434
871.077191	2444.611776
871.388657	2443.613627
871.700081	2439.764706
872.011463	2444.846189
872.322803	2441.640016
872.634101	2447.951540
872.945357	2446.025819
873.256571	2447.409616
873.567744	2449.426078
873.878874	2449.617642
874.189963	2446.224945
874.501010	2450.162086
874.812015	2450.618311
875.122979	2449.078238
875.433900	2447.822991
875.744780	2449.403393
876.055618	2448.695110
876.366415	2449.852055
876.677169	2451.034206
876.987882	2446.774431
877.298554	2445.337702
877.609183	2449.889864
877.919771	2448.934565
878.230317	2451.566047
878.540822	2459.281533
878.851285	2467.854016
879.161707	2474.770479
879.472087	2482.899339
879.782425	2505.221568
880.092722	2538.142824
880.402977	2592.178952
880.713191	2649.638023
881.023363	2707.956612
881.333494	2741.782754
881.643583	2756.732296
881.953631	2749.132756
882.263637	2733.701784
882.573602	2711.369473
882.883526	2689.329548
883.193408	2664.489262
883.503248	2641.970428
883.813048	2618.455966
884.122806	2592.995619
884.432522	2573.463668
884.742197	2553.563713
885.051831	2538.803215
885.361424	2522.648837
885.670975	2510.857578
885.980485	2499.197390
886.289954	2492.084322
886.599382	2485.039309
886.908768	2479.168885
887.218113	2471.337453
887.527417	2470.556074
887.836680	2463.569035
888.145901	2460.851853
888.455082	2457.824640
888.764221	2458.943776
889.073319	2455.011676
889.382376	2453.920266
889.691392	2451.593774
890.000366	2454.101748
890.309300	2456.269444
890.618193	2452.591922
890.927044	2451.629062
891.235855	2450.658640
891.544625	2454.131995
891.853353	2454.890688
892.162041	2455.535956
892.470687	2458.134671
892.779293	2464.002574
893.087858	2467.488532
893.396381	2474.684779
893.704864	2489.886378
894.013306	2505.345077
894.321707	2527.720238
894.630068	2538.263811
894.938387	2539.178781
895.246665	2533.620909
895.554903	2527.702594
895.863100	2516.682632
896.171256	2512.513598
896.479371	2502.766527
896.787446	2499.023470
897.095480	2489.175576
897.403473	2485.137612
897.711425	2476.640747
898.019336	2474.354583
898.327207	2468.917699
898.635038	2468.340487
898.942827	2461.965948
899.250576	2459.831019
899.558284	2455.548559
899.865952	2454.724330
900.173579	2449.990687
900.481165	2451.742488
900.788711	2448.143104
901.096216	2446.524894
901.403681	2445.662856
901.711105	2446.580346
902.018489	2445.985490
902.325832	2453.065791
902.633135	2450.673763
902.940397	2460.224229
903.247619	2470.868626
903.554800	2499.414159
903.861941	2526.654034
904.169041	2554.024979
904.476101	2563.280537
904.783121	2557.573951
905.090100	2543.859492
905.397039	2530.631504
905.703938	2517.791686
906.010796	2505.753410
906.317614	2494.567090
906.624391	2488.835298
906.931129	2481.119812
907.237826	2472.060858
907.544483	2465.005764
907.851099	2459.939404
908.157675	2455.445215
908.464211	2449.844493
908.770707	2438.708585
909.077163	2443.474996
909.383578	2436.107349
909.689954	2437.148347
909.996289	2433.387647
910.302584	2436.276228
910.608839	2433.029725
910.915054	2435.383944
911.221229	2435.124324
911.527363	2435.066351
911.833458	2437.481064
912.139513	2438.166661
912.445527	2436.286310
912.751502	2436.762699
913.057436	2441.642536
913.363331	2443.593463
913.669186	2448.364915
913.975000	2452.342385
914.280775	2460.083077
914.586510	2470.712350
914.892205	2483.050574
915.197859	2501.488594
915.503475	2521.380987
915.809050	2540.663401
916.114585	2550.692776
916.420081	2557.087480
916.725536	2554.539177
917.030952	2546.536345
917.336328	2541.744728
917.641665	2533.194931
917.946961	2525.751668
918.252218	2516.508712
918.557435	2508.498318
918.862612	2500.283758
919.167750	2492.477532
919.472848	2486.470997
919.777906	2476.817187
920.082925	2474.614203
920.387904	2463.700105
920.692843	2461.335804
920.997743	2457.471759
921.302603	2455.364557
921.607423	2453.244752
921.912204	2448.914401
922.216946	2446.325768
922.521647	2443.389296
922.826310	2442.774275
923.130932	2442.126487
923.435516	2436.392174
923.740059	2436.291351
924.044564	2436.704726
924.349028	2434.191711
924.653454	2429.947059
924.957840	2429.175763
925.262186	2425.011770
925.566493	2430.728438
925.870761	2424.830288
926.174989	2429.823551
926.479178	2427.597882
926.783328	2426.587130
927.087438	2426.730803
927.391509	2426.514033
927.695541	2425.074784
927.999533	2426.566966
928.303486	2425.132757
928.607400	2426.934970
928.911275	2424.684095
929.215110	2423.690987
929.518906	2420.903229
929.822663	2421.603950
930.126381	2422.465987
930.430060	2423.509506
930.733699	2423.708631
931.037299	2426.375402
931.340861	2426.773653
931.644383	2424.535381
931.947866	2422.839032
932.251309	2423.201995
932.554714	2425.515885
932.858080	2423.678384
933.161407	2422.128230
933.464694	2422.080339
933.767943	2424.933632
934.071153	2423.983374
934.374323	2421.750143
934.677455	2424.691656
934.980548	2423.872469
935.283602	2423.575041
935.586617	2423.149063
935.889593	2421.840884
936.192530	2421.530853
936.495428	2422.259300
936.798287	2421.820719
937.101108	2426.871955
937.403890	2424.041348
937.706632	2427.237439
938.009336	2427.302974
938.312002	2428.096956
938.614628	2429.022007
938.917216	2429.258942
939.219765	2430.942687
939.522275	2433.790939
939.824747	2433.687595
940.127179	2429.979827
940.429573	2428.061668
940.731929	2429.805907
941.034246	2427.620567
941.336524	2431.393870
941.638763	2431.454364
941.940964	2431.827410
942.243126	2427.416400
942.545250	2429.170722
942.847335	2428.291040
943.149381	2430.110897
943.451389	2425.374733
943.753359	2428.613674
944.055290	2428.356575
944.357182	2427.237439
944.659036	2426.844229
944.960851	2427.605443
945.262628	2425.026893
945.564367	2425.339445
945.866067	2426.808941
946.167729	2425.803231
946.469352	2425.659558
946.770937	2425.586461
947.072484	2426.834147
947.373992	2424.956317
947.675462	2425.102510
947.976893	2423.136460
948.278286	2424.361461
948.579641	2422.453384
948.880958	2423.081008
949.182236	2424.991605
949.483476	2421.762746
949.784678	2425.730134
950.085841	2426.176276
950.386967	2424.593354
950.688054	2422.995308
950.989103	2424.288364
951.290114	2424.134609
951.591087	2426.115782
951.892021	2425.150401
952.192917	2425.326842
952.493776	2424.633683
952.794596	2427.184507
953.095378	2425.856163
953.396122	2424.903385
953.696828	2426.168714
953.997496	2427.121493
954.298126	2423.993457
954.598718	2428.235587
954.899272	2425.531008
955.199788	2422.539084
955.500266	2420.978847
955.800706	2423.832140
956.101108	2419.032961
956.401472	2419.272416
956.701798	2413.946437
957.002087	2419.272416
957.302337	2416.086407
957.602550	2421.843404
957.902724	2416.986253
958.202861	2419.814340
958.502960	2418.125553
958.803022	2418.183527
959.103045	2414.969791
959.403031	2416.530028
959.702979	2417.061870
960.002889	2418.884247
960.302762	2413.858217
960.602596	2417.011458
960.902393	2414.105233
961.202153	2413.714544
961.501875	2412.915521
961.801559	2413.540624
962.101205	2414.765624
962.400814	2413.346540
962.700385	2412.814698
962.999918	2413.717064
963.299414	2412.202198
963.598873	2413.102044
963.898293	2415.473907
964.197677	2415.375604
964.497022	2411.201529
964.796331	2412.280336
965.095601	2410.334450
965.394835	2415.385686
965.694030	2414.198495
965.993189	2413.994328
966.292309	2410.667166
966.591393	2415.607497
966.890439	2412.822260
967.189447	2410.946950
967.488419	2411.143555
967.787353	2411.594739
968.086249	2414.241344
968.385108	2412.383679
968.683930	2414.765624
968.982714	2414.059863
969.281462	2414.193453
969.580172	2413.638927
969.878844	2413.926272
970.177480	2413.795202
970.476078	2414.236303
970.774639	2415.441139
971.073162	2413.860737
971.371649	2411.781261
971.670098	2408.567526
971.968510	2408.890160
972.266885	2406.014181
972.565223	2413.013823
972.863524	2413.351581
973.161788	2414.069945
973.460014	2409.759759
973.758204	2413.591036
974.056356	2414.392579
974.354471	2414.029616
974.652550	2414.816036
974.950591	2411.985428
975.248595	2413.119688
975.546563	2412.403844
975.844493	2413.719585
976.142386	2412.083731
976.440243	2414.942065
976.738062	2414.581622
977.035845	2413.873340
977.333590	2412.169430
977.631299	2413.623803
977.928971	2414.011972
978.226606	2412.330747
978.524204	2413.069276
978.821765	2411.738412
979.119290	2412.040881
979.416777	2413.724626
979.714228	2412.343350
980.011642	2410.526014
980.309020	2413.843093
980.606360	2411.688000
980.903664	2415.418454
981.200931	2413.815367
981.498162	2414.931983
981.795356	2418.813671
982.092513	2420.759556
982.389633	2423.660740
982.686717	2426.476225
982.983764	2428.391863
983.280775	2429.039652
983.577749	2425.888930
983.874686	2427.970927
984.171587	2427.073602
984.468451	2426.425813
984.765279	2422.642427
985.062070	2422.647468
985.358824	2422.304670
985.655543	2420.920873
985.952224	2417.364339
986.248869	2417.969278
986.545478	2411.241858
986.842050	2412.360994
987.138586	2407.397978
987.435086	2410.873854
987.731549	2408.862433
988.027975	2411.776220
988.324366	2409.900911
988.620719	2410.888977
988.917037	2409.517783
989.213318	2411.345202
989.509563	2407.942423
989.805772	2409.878226
990.101944	2409.295973
990.398080	2408.912845
990.694180	2409.984090
990.990244	2410.258833
991.286271	2409.111970
991.582262	2410.589028
991.878217	2408.862433
992.174136	2409.845458
992.470019	2410.760428
992.765865	2409.606003
993.061676	2408.597773
993.357450	2410.289080
993.653188	2409.328740
993.948890	2410.513411
994.244556	2409.928637
994.540186	2412.970974
994.835780	2413.160017
995.131337	2411.677918
995.426859	2411.698082
995.722345	2416.635893
996.017795	2414.569019
996.313208	2415.925090
996.608586	2416.252765
996.903928	2419.010276
997.199234	2418.357447
997.494504	2419.118661
997.789738	2418.773342
998.084936	2417.873496
998.380099	2415.796540
998.675225	2415.879719
998.970316	2415.680594
999.265371	2411.624986
999.560390	2411.877043
999.855373	2413.409554
1000.150320	2410.281518
1000.445232	2410.316806
1000.740108	2408.585170
1001.034948	2410.082393
1001.329752	2410.478123
1001.624521	2408.854872
1001.919254	2404.910169
1002.213951	2405.822618
1002.508613	2405.999058
1002.803239	2406.054511
1003.097829	2404.005282
1003.392384	2407.705488
1003.686903	2405.988976
1003.981386	2408.277659
1004.275834	2405.976373
1004.570246	2406.682134
1004.864623	2408.819583
1005.158964	2408.028122
1005.453270	2408.164233
1005.747540	2407.506363
1006.041775	2409.525345
1006.335974	2406.230951
1006.630138	2407.718091
1006.924266	2407.047618
1007.218359	2405.618451
1007.512416	2407.460993
1007.806438	2405.749521
1008.100425	2403.246588
1008.394376	2405.174829
1008.688292	2403.987637
1008.982172	2404.073337
1009.276017	2405.255488
1009.569827	2404.572411
1009.863602	2406.472926
1010.157341	2405.986455
1010.451045	2406.427556
1010.744714	2405.467216
1011.038347	2403.498646
1011.331945	2408.166754
1011.625508	2406.062072
1011.919036	2404.947977
1012.212528	2405.424366
1012.505986	2405.134500
1012.799408	2405.686506
1013.092795	2403.501166
1013.386147	2406.251116
1013.679464	2406.644326
1013.972745	2404.378327
1014.265992	2405.429407
1014.559204	2405.288255
1014.852380	2405.600807
1015.145521	2407.919738
1015.438628	2406.208266
1015.731699	2404.937895
1016.024736	2404.090981
1016.317737	2407.448390
1016.610703	2404.544685
1016.903635	2401.444375
1017.196531	2400.670558
1017.489393	2404.290107
1017.782219	2400.345404
1018.075011	2403.869170
1018.367768	2406.810684
1018.660490	2407.977711
1018.953177	2407.977711
1019.245829	2407.977711
