Dividing Wavelength (nm)	Counts (n)	Blue Motor Position (mm): 0.000000	Red Motor Position (mm): 27.600000	
326.493990	1988.641931
326.888308	1988.641931
327.282561	1988.641931
327.676750	1959.667899
328.070874	1963.536985
328.464933	1969.505711
328.858929	1979.305714
329.252859	1993.587303
329.646726	2007.052225
330.040528	2023.317508
330.434265	2041.833666
330.827938	2061.126162
331.221547	2080.930334
331.615091	2103.476895
332.008571	2119.522888
332.401986	2141.434263
332.795338	2161.072078
333.188625	2182.255006
333.581847	2202.099508
333.975006	2218.437888
334.368100	2237.178377
334.761129	2254.313259
335.154095	2268.204159
335.546996	2289.001439
335.939833	2316.866417
336.332606	2329.484425
336.725315	2338.102277
337.117960	2351.547035
337.510540	2352.950996
337.903056	2366.095805
338.295508	2375.633668
338.687896	2378.761704
339.080220	2389.257386
339.472480	2393.406256
339.864676	2397.136709
340.256807	2399.226268
340.648875	2400.274828
341.040879	2401.928326
341.432818	2402.563512
341.824694	2401.590569
342.216506	2403.975035
342.608253	2405.283214
342.999937	2401.222565
343.391557	2401.275497
343.783113	2401.867832
344.174605	2399.523696
344.566033	2397.923129
344.957397	2398.480177
345.348697	2394.003632
345.739934	2390.507592
346.131106	2389.849722
346.522215	2387.656820
346.913260	2386.910729
347.304241	2384.203629
347.695159	2386.535163
348.086012	2384.952241
348.476802	2382.499719
348.867528	2378.837321
349.258191	2381.035264
349.648789	2380.944523
350.039324	2377.483771
350.429796	2376.813298
350.820203	2378.406302
351.210548	2376.674666
351.600828	2375.280787
351.991045	2375.116949
352.381198	2373.796167
352.771288	2376.611652
353.161314	2375.472351
353.551276	2375.426980
353.941175	2376.183153
354.331010	2377.060314
354.720782	2375.820190
355.110490	2373.435725
355.500135	2376.609131
355.889717	2376.596528
356.279235	2377.203987
356.668689	2379.724564
357.058080	2379.091899
357.447408	2376.939327
357.836672	2374.317927
358.225873	2377.062835
358.615010	2378.408823
359.004084	2382.562734
359.393095	2385.375698
359.782043	2382.078783
360.170927	2384.072559
360.559748	2385.068187
360.948505	2385.882333
361.337199	2387.324103
361.725830	2387.805534
362.114398	2386.409134
362.502903	2388.614639
362.891344	2387.994577
363.279722	2390.419372
363.668037	2393.328118
364.056289	2392.231667
364.444478	2394.563200
364.832603	2393.688560
365.220665	2393.449105
365.608665	2396.907337
365.996601	2395.226112
366.384474	2396.390619
366.772284	2398.023952
367.160031	2400.282389
367.547715	2402.233316
367.935336	2401.212482
368.322893	2401.565363
368.710388	2403.564181
369.097820	2407.282032
369.485189	2403.337329
369.872495	2408.915365
370.259738	2408.295303
370.646918	2412.068607
371.034035	2412.096333
371.421090	2416.923238
371.808081	2420.920873
372.195010	2423.065884
372.581875	2429.284148
372.968678	2436.167843
373.355418	2442.854934
373.742096	2455.714917
374.128710	2465.779581
374.515262	2474.828452
374.901751	2489.490648
375.288177	2512.311951
375.674540	2526.792666
376.060841	2547.491643
376.447079	2575.719584
376.833254	2598.883686
377.219367	2623.880248
377.605417	2660.892399
377.991404	2686.302335
378.377329	2726.475290
378.763191	2762.874942
379.148991	2807.332877
379.534727	2856.670650
379.920402	2903.258473
380.306013	2955.845270
380.691563	3016.908766
381.077049	3070.657548
381.462474	3131.199286
381.847835	3205.067313
382.233134	3281.614713
382.618371	3337.379957
383.003545	3425.436312
383.388657	3506.964373
383.773706	3599.542643
384.158693	3672.979651
384.543618	3766.682098
384.928480	3845.422401
385.313280	3951.984831
385.698017	4062.252510
386.082692	4178.554450
386.467305	4243.481991
386.851856	4371.333214
387.236344	4526.199981
387.620770	4591.379579
388.005133	4712.105132
388.389435	4866.964337
388.773674	4951.053303
389.157851	5083.373510
389.541965	5213.825968
389.926018	5241.108693
390.310008	5421.350107
390.693936	5544.276123
391.077802	5659.438762
391.461606	5798.582170
391.845348	5916.887969
392.229027	6035.327358
392.612645	6258.403457
392.996200	6379.996087
393.379694	6560.333284
393.763125	6780.283868
394.146494	6879.145936
394.529801	7015.136102
394.913047	7261.048627
395.296230	7255.457988
395.679351	7312.720454
396.062410	7579.841114
396.445408	7465.671583
396.828343	7626.043289
397.211217	7764.624609
397.594028	7647.281671
397.976778	7851.471087
398.359466	8020.448043
398.742092	7995.317891
399.124656	8143.013616
399.507158	8331.237698
399.889598	8357.544959
400.271977	8566.432731
400.654294	8595.757123
401.036549	8797.965365
401.418742	8822.888830
401.800874	9128.082804
402.182944	9204.925112
402.564952	9573.811545
402.946898	9397.053568
403.328783	9451.624058
403.710606	9652.095623
404.092367	9910.515252
404.474067	10275.116703
404.855705	10059.559486
405.237282	10017.559112
405.618797	10448.708836
406.000250	10700.486744
406.381642	11066.983670
406.762972	11013.393684
407.144240	10811.787860
407.525447	11068.541387
407.906593	11004.795996
408.287677	11270.956317
408.668700	11421.265880
409.049661	11396.602035
409.430560	11559.779144
409.811399	11528.168589
410.192176	11699.358612
410.572891	11764.996955
410.953545	12254.195566
411.334138	11724.261912
411.714669	12330.753048
412.095139	11643.391722
412.475547	12139.652988
412.855894	11983.125162
413.236180	12308.327476
413.616405	11997.850372
413.996568	12274.287084
414.376670	12243.031930
414.756711	12122.132458
415.136691	12410.428485
415.516609	12583.272006
415.896466	12655.292451
416.276262	12947.984364
416.655997	13394.607909
417.035670	13424.214606
417.415283	14078.942023
417.794834	14172.962063
418.174324	13911.946240
418.553753	13816.224811
418.933121	14308.798474
419.312428	14117.892498
419.691674	14027.176935
420.070859	14479.355832
420.449983	14142.339574
420.829045	14689.438357
421.208047	14423.073870
421.586988	14894.288164
421.965867	15144.951977
422.344686	15138.317819
422.723444	15716.066817
423.102141	14388.584816
423.480777	15586.501602
423.859352	15086.124233
424.237866	16201.358533
424.616319	15894.090124
424.994712	16568.883854
425.373044	16347.917478
425.751314	17033.700924
426.129524	16156.640978
426.507673	17248.746465
426.885762	16943.360927
427.263789	17142.113458
427.641756	17301.839897
428.019662	17363.049587
428.397508	17414.837361
428.775292	17709.999439
429.153016	17670.242379
429.530679	17751.483094
429.908282	17782.040048
430.285824	17486.053741
430.663305	18202.724337
431.040726	17798.958160
431.418086	17628.473899
431.795385	18278.785266
432.172624	18709.088076
432.549802	18257.355321
432.926920	18434.962733
433.303977	18327.709664
433.680974	18590.154654
434.057910	18865.648670
434.434786	18901.385410
434.811601	18808.484506
435.188355	19854.919660
435.565050	19500.077882
435.941683	19458.642118
436.318257	20336.581745
436.694770	20148.486213
437.071222	20731.651931
437.447614	19804.102308
437.823946	19830.142389
438.200218	19979.194184
438.576429	19759.427603
438.952580	20026.172697
439.328670	19989.510906
439.704700	20411.891542
440.080670	19982.297015
440.456580	20574.617468
440.832429	20738.149978
441.208218	19736.981866
441.583947	20177.051911
441.959616	20290.298912
442.335224	20522.466732
442.710773	20648.402316
443.086261	21196.310204
443.461689	20559.206661
443.837057	20665.504431
444.212365	21320.279739
444.587612	21308.614509
444.962800	20877.369003
445.337927	21312.962504
445.712995	20049.452746
446.088002	21894.376422
446.462949	22082.124114
446.837837	22264.175303
447.212664	22214.590514
447.587431	25068.299486
447.962139	27992.330034
448.336786	30385.471629
448.711374	28815.109356
449.085901	25108.303562
449.460369	25057.052672
449.834776	24977.183151
450.209124	27463.092059
450.583412	27005.332604
450.957640	27514.136262
451.331808	26170.756982
451.705917	24806.106554
452.079965	24834.077396
452.453954	25189.347672
452.827883	25067.833179
453.201752	24866.096285
453.575562	25024.113773
453.949311	26146.199001
454.323001	26203.085902
454.696632	25964.304088
455.070202	27499.718562
455.443713	27633.069684
455.817164	28219.696154
456.190556	28731.242200
456.563888	28160.760025
456.937160	28593.759852
457.310373	26928.339062
457.683526	27365.772584
458.056619	27334.194796
458.429653	27247.552485
458.802628	27815.498960
459.175542	27925.438963
459.548398	29192.243116
459.921194	30720.279861
460.293930	31374.175488
460.666607	33358.144270
461.039224	35071.166155
461.411782	35424.926606
461.784280	34201.698187
462.156719	33688.133159
462.529099	33101.184055
462.901419	31808.783444
463.273680	30728.696068
463.645882	30765.693096
464.018024	30721.250283
464.390106	31490.842912
464.762130	34077.642952
465.134094	37993.996908
465.505999	43078.403855
465.877845	47534.317548
466.249631	48609.867886
466.621358	46839.434819
466.993026	44681.410119
467.364634	42545.828636
467.736184	40559.913969
468.107674	39262.822564
468.479105	38407.928571
468.850477	37636.047259
469.221790	36185.687133
469.593043	34421.661373
469.964238	33480.603979
470.335373	33312.516786
470.706449	34828.280843
471.077467	37123.097252
471.448425	41313.861377
471.819324	43898.902055
472.190164	42023.008050
472.560945	38558.061695
472.931667	35524.070979
473.302330	34374.241760
473.672934	33492.256606
474.043479	33820.410516
474.413965	32962.272541
474.784393	32502.181553
475.154761	33170.804911
475.525070	33049.179512
475.895321	32500.528054
476.265513	32902.429003
476.635645	33616.475678
477.005719	33297.499189
477.375734	33563.170517
477.745691	34006.746685
478.115588	35004.743912
478.485427	36539.311472
478.855207	39292.366246
479.224928	41381.674978
479.594591	42627.124803
479.964194	41543.652292
480.333739	41461.599952
480.703226	41234.276681
481.072653	41549.888200
481.442022	41730.444687
481.811333	41719.460012
482.180584	40327.357981
482.549777	39621.379672
482.918912	38916.248278
483.287988	38396.565811
483.657005	37443.354194
484.025964	36663.505338
484.394864	36410.706597
484.763706	35789.112163
485.132489	34852.732959
485.501213	34446.438644
485.869879	34309.054599
486.238487	33689.564847
486.607036	33584.630709
486.975527	32886.945099
487.343959	32763.283075
487.712333	32528.085522
488.080648	32182.007789
488.448905	32226.082597
488.817104	31790.042954
489.185244	32169.578825
489.553326	33056.826943
489.921350	34704.581009
490.289315	36592.692250
490.657222	36719.656231
491.025070	36587.073884
491.392861	35501.957957
491.760593	34208.382757
492.128267	32621.682104
492.495883	31211.726826
492.863440	29951.715628
493.230939	28731.426202
493.598380	27704.858236
493.965763	27160.910174
494.333088	26357.100714
494.700354	25750.201243
495.067563	25263.077068
495.434713	24889.386415
495.801805	24597.962353
496.168839	24064.101640
496.535815	23574.875303
496.902733	23273.593264
497.269593	22742.603488
497.636395	22389.642061
498.003139	22314.596924
498.369825	21721.237993
498.736453	21564.415258
499.103023	21027.101355
499.469535	20668.624905
499.835989	20402.081457
500.202385	19948.375090
500.568723	19660.497479
500.935003	19456.895358
501.301226	19067.032684
501.667390	19045.892605
502.033497	18868.345687
502.399546	18329.310230
502.765537	17729.264208
503.131470	17594.070545
503.497345	17446.861291
503.863163	16637.347765
504.228923	16589.320692
504.594625	16460.400744
504.960269	15921.871923
505.325856	15889.142232
505.691385	15404.281534
506.056856	15180.035887
506.422270	15059.390994
506.787625	14659.161187
507.152924	14462.031907
507.518164	14229.160846
507.883347	13734.285897
508.248472	13563.577304
508.613540	13446.826701
508.978550	13284.504068
509.343503	12958.611116
509.708398	12761.582659
510.073236	12656.557780
510.438016	12411.633321
510.802738	12040.624562
511.167403	11955.965945
511.532010	11771.053902
511.896561	11623.743824
512.261053	11584.906775
512.625488	11257.277146
512.989866	11003.452529
513.354186	10751.956925
513.718449	10538.615294
514.082655	10463.741557
514.446803	10190.876502
514.810894	10080.450027
515.174927	9870.606957
515.538904	9652.405654
515.902822	9572.430269
516.266684	9288.376373
516.630488	9169.770626
516.994235	8956.562586
517.357925	8865.834419
517.721558	8708.351294
518.085133	8580.401768
518.448651	8419.394876
518.812112	8224.317346
519.175516	8065.193324
519.538863	7948.558668
519.902152	7782.278729
520.265385	7673.498191
520.628560	7528.391098
520.991678	7342.720361
521.354739	7226.559573
521.717743	7119.258614
522.080690	6963.678524
522.443580	6879.813888
522.806413	6754.551298
523.169189	6612.826819
523.531908	6503.194326
523.894569	6355.596903
524.257174	6254.431028
524.619722	6161.066338
524.982213	6040.905395
525.344647	5917.238329
525.707025	5811.106917
526.069345	5733.042129
526.431608	5625.211848
526.793815	5545.130599
527.155964	5412.417183
527.518057	5325.810160
527.880093	5218.904931
528.242072	5163.948792
528.603995	5060.206887
528.965860	4974.903002
529.327669	4902.214605
529.689421	4812.212365
530.051117	4738.747630
530.412755	4672.050644
530.774337	4604.978092
531.135862	4528.864231
531.497331	4473.978668
531.858743	4402.900919
532.220098	4359.811657
532.581396	4287.390441
532.942638	4217.094071
533.303824	4175.265097
533.664953	4126.131491
534.026025	4064.727717
534.387040	4038.627142
534.747999	3989.019668
535.108902	3954.792754
535.469748	3892.867220
535.830537	3859.383876
536.191270	3824.063032
536.551947	3781.666928
536.912567	3757.509719
537.273131	3723.650809
537.633638	3678.156916
537.994089	3657.914163
538.354483	3620.576857
538.714821	3609.478757
539.075103	3589.130139
539.435328	3556.322310
539.795497	3528.749719
540.155609	3506.578724
540.515665	3494.905933
540.875665	3465.566417
541.235609	3450.100157
541.595496	3428.314811
541.955328	3426.510078
542.315102	3396.858011
542.674821	3375.170967
543.034483	3358.746888
543.394090	3341.191070
543.753640	3327.673216
544.113134	3329.563648
544.472571	3301.630615
544.831953	3311.128149
545.191278	3286.789458
545.550548	3266.178700
545.909761	3262.803648
546.268918	3255.776279
546.628019	3251.390476
546.987064	3233.580079
547.346053	3209.974876
547.704986	3214.244733
548.063863	3199.965665
548.422684	3190.773121
548.781449	3180.214424
549.140158	3178.898683
549.498811	3168.297137
549.857408	3145.405257
550.215949	3153.662667
550.574434	3141.299237
550.932864	3134.997795
551.291237	3135.706077
551.649555	3127.602422
552.007817	3120.408696
552.366022	3111.584156
552.724173	3108.214145
553.082267	3105.159205
553.440305	3105.635594
553.798288	3089.289653
554.156215	3088.498192
554.514086	3086.106164
554.871902	3076.056624
555.229661	3069.314081
555.587365	3058.878892
555.945014	3058.715055
556.302606	3052.252296
556.660143	3048.196688
557.017625	3045.098898
557.375050	3034.651107
557.732421	3038.777292
558.089735	3031.946528
558.446994	3026.439068
558.804197	3028.243801
559.161345	3023.311032
559.518437	3007.340656
559.875474	3008.545492
560.232455	3005.107425
560.589381	3002.339832
560.946251	2998.911847
561.303065	3000.131806
561.659825	2995.645179
562.016528	2985.895588
562.373177	2979.563898
562.729770	2980.047849
563.086307	2973.975779
563.442789	2971.785398
563.799216	2971.281283
564.155587	2964.584110
564.511904	2962.610498
564.868164	2960.483131
565.224370	2959.936166
565.580520	2951.078859
565.936615	2953.173458
566.292654	2945.934361
566.648638	2942.660132
567.004567	2942.829010
567.360441	2943.365893
567.716260	2935.078236
568.072023	2934.158226
568.427732	2930.387443
568.783385	2924.086000
569.138982	2923.546597
569.494525	2920.355547
569.850013	2915.490833
570.205445	2915.954619
570.560823	2913.681059
570.916145	2910.946233
571.271412	2905.494225
571.626625	2903.639080
571.981782	2899.868297
572.336884	2894.791855
572.691931	2896.883934
573.046923	2890.683315
573.401860	2884.268447
573.756743	2886.332799
574.111570	2883.189640
574.466342	2878.927344
574.821059	2876.724360
575.175722	2874.801160
575.530330	2867.660365
575.884882	2864.086187
576.239380	2863.075436
576.593823	2860.524612
576.948211	2856.070753
577.302544	2848.882067
577.656823	2848.100688
578.011047	2849.023220
578.365216	2845.938033
578.719330	2840.702795
579.073389	2834.938236
579.427394	2834.277845
579.781344	2834.567711
580.135239	2831.177535
580.489080	2827.275682
580.842866	2819.199753
581.196597	2820.094558
581.550273	2818.589774
581.903895	2814.221614
582.257463	2816.696821
582.610975	2811.542241
582.964434	2808.245326
583.317837	2804.076292
583.671186	2802.871456
584.024481	2803.047897
584.377721	2795.266876
584.730906	2796.328038
585.084037	2794.359468
585.437113	2788.168931
585.790135	2783.755401
586.143103	2780.292128
586.496016	2783.561316
586.848874	2775.200563
587.201679	2774.565377
587.554428	2769.393153
587.907124	2768.813421
588.259765	2764.377205
588.612352	2767.227978
588.964884	2761.566762
589.317362	2760.556011
589.669786	2758.612646
590.022155	2754.799013
590.374470	2755.897985
590.726731	2751.469331
591.078937	2743.302662
591.431090	2744.358783
591.783188	2738.566498
592.135232	2731.702967
592.487222	2734.694892
592.839157	2733.805128
593.191038	2725.731720
593.542866	2723.362378
593.894639	2718.958930
594.246358	2719.732747
594.598022	2713.592622
594.949633	2713.249823
595.301190	2710.293186
595.652692	2706.111549
596.004141	2707.830583
596.355535	2700.059644
596.706876	2698.270034
597.058162	2694.804241
597.409395	2695.242822
597.760573	2697.055116
598.111698	2691.043540
598.462768	2691.663602
598.813785	2689.165711
599.164748	2685.634382
599.515657	2685.278981
599.866511	2677.770182
600.217312	2682.055163
600.568060	2672.993689
600.918753	2679.980728
601.269392	2677.709688
601.619978	2669.638801
601.970510	2672.320695
602.320988	2672.461847
602.671412	2671.612413
603.021783	2667.937412
603.372100	2666.977072
603.722363	2666.291475
604.072572	2667.536640
604.422728	2663.123110
604.772830	2660.645383
605.122878	2655.884013
605.472872	2655.785710
605.822813	2654.424599
606.172701	2659.339724
606.522534	2656.234373
606.872314	2658.956596
607.222041	2655.072387
607.571714	2657.315701
607.921333	2652.186327
608.270899	2656.052892
608.620411	2652.773621
608.969870	2654.343940
609.319276	2652.723209
609.668627	2651.256234
610.017926	2653.416368
610.367171	2651.977119
610.716362	2652.667757
611.065500	2651.606594
611.414585	2651.609114
611.763616	2650.389155
612.112594	2646.688948
612.461518	2650.492499
612.810389	2648.922179
613.159207	2649.648106
613.507971	2645.844555
613.856682	2648.881850
614.205340	2646.772127
614.553945	2653.471821
614.902496	2647.969401
615.250994	2648.770945
615.599439	2646.908238
615.947830	2647.283804
616.296169	2647.982004
616.644454	2647.976963
616.992686	2648.750780
617.340864	2650.169865
617.688990	2647.866058
618.037063	2650.381593
618.385082	2647.377066
618.733048	2652.992911
619.080961	2649.953095
619.428821	2648.324803
619.776628	2647.535862
620.124382	2647.021664
620.472083	2646.338588
620.819731	2646.908238
621.167326	2643.051756
621.514868	2645.199287
621.862357	2639.671662
622.209793	2639.830458
622.557176	2636.770478
622.904506	2633.859212
623.251783	2629.405352
623.599007	2630.988275
623.946179	2623.045937
624.293297	2625.957203
624.640363	2626.496607
624.987376	2627.111627
625.334336	2622.509054
625.681243	2619.456635
626.028097	2621.697428
626.374899	2618.642489
626.721647	2620.658950
627.068343	2617.528394
627.414987	2614.722992
627.761577	2614.460852
628.108115	2617.891357
628.454600	2613.462703
628.801032	2613.992024
629.147412	2612.789709
629.493739	2612.872888
629.840014	2613.082096
630.186236	2612.386417
630.532405	2612.104112
630.878521	2612.472117
631.224585	2610.218721
631.570597	2608.706375
631.916556	2609.578494
632.262462	2609.205449
632.608316	2604.963318
632.954117	2605.001127
633.299866	2606.994903
633.645562	2604.824686
633.991206	2603.503904
634.336797	2598.465271
634.682336	2601.225302
635.027823	2596.171546
635.373257	2595.667430
635.718639	2596.587441
636.063968	2597.641042
636.409245	2589.701225
636.754470	2591.314394
637.099642	2587.452870
637.444762	2590.086873
637.789829	2590.890937
638.134845	2585.000349
638.479808	2585.118816
638.824719	2583.016655
639.169577	2583.616552
639.514383	2581.000193
639.859137	2578.590522
640.203839	2583.644278
640.548489	2583.561099
640.893086	2578.698906
641.237632	2575.321333
641.582125	2579.104719
641.926566	2575.712023
642.270955	2574.900397
642.615292	2576.057342
642.959576	2574.255129
643.303809	2574.965932
643.647990	2578.502301
643.992118	2577.131108
644.336195	2575.575912
644.680219	2576.372414
645.024192	2579.288721
645.368112	2577.773855
645.711981	2578.658577
646.055797	2579.505491
646.399562	2581.363156
646.743274	2583.619072
647.086935	2586.258117
647.430544	2586.232911
647.774101	2586.714341
648.117606	2586.207705
648.461059	2586.139649
648.804460	2588.138467
649.147810	2584.639906
649.491108	2581.179154
649.834354	2579.364339
650.177548	2576.889132
650.520690	2572.047104
650.863781	2574.965932
651.206820	2572.949470
651.549807	2572.291600
651.892742	2568.810683
652.235626	2570.622978
652.578458	2565.745662
652.921238	2565.881773
653.263967	2563.721638
653.606644	2564.611402
653.949269	2565.060065
654.291843	2563.784653
654.634365	2564.336659
654.976836	2561.561504
655.319255	2562.257183
655.661622	2562.020249
656.003938	2560.586041
656.346203	2563.696432
656.688416	2558.763663
657.030577	2560.412121
657.372687	2560.520506
657.714746	2559.829868
658.056753	2559.335834
658.398708	2550.962478
658.740612	2556.507747
659.082465	2553.876265
659.424266	2554.070349
659.766016	2552.016079
660.107715	2557.868859
660.449362	2557.054712
660.790958	2557.452963
661.132503	2556.253169
661.473996	2558.688046
661.815438	2554.607232
662.156829	2557.889023
662.498168	2559.197203
662.839456	2557.276523
663.180693	2557.959599
663.521879	2562.274827
663.863013	2558.251986
664.204097	2559.292985
664.545129	2563.479663
664.886110	2557.634445
665.227040	2560.686864
665.567918	2558.952707
665.908746	2558.209137
666.249522	2558.249466
666.590248	2557.488252
666.930922	2564.734910
667.271545	2558.511606
667.612118	2562.080743
667.952639	2560.044117
668.293109	2561.261555
668.633528	2555.595298
668.973896	2563.245249
669.314213	2554.834084
669.654480	2558.171328
669.994695	2556.933725
670.334859	2557.359702
670.674973	2557.654610
671.015035	2556.381718
671.355047	2556.840463
671.695008	2557.001780
672.034918	2557.508416
672.374777	2559.144271
672.714585	2557.142933
673.054342	2560.402038
673.394049	2558.254507
673.733705	2556.437171
674.073310	2555.136553
674.412864	2555.418858
674.752368	2555.179403
675.091820	2556.288457
675.431223	2554.506409
675.770574	2553.780483
676.109875	2548.325954
676.449125	2550.123126
676.788324	2546.876623
677.127473	2546.680018
677.466571	2544.124153
677.805619	2545.102137
678.144616	2545.497867
678.483562	2544.227496
678.822458	2544.839997
679.161303	2544.872764
679.500098	2542.962167
679.838842	2544.824873
680.177535	2544.507280
680.516179	2544.466951
680.854771	2546.909390
681.193314	2550.410472
681.531805	2551.496840
681.870247	2555.161759
682.208638	2559.537481
682.546978	2557.949517
682.885268	2560.139898
683.223508	2558.282233
683.561697	2560.379353
683.899836	2557.057233
684.237925	2553.664536
684.575963	2554.274516
684.913951	2553.339382
685.251889	2554.453477
685.589776	2552.898281
685.927614	2551.547252
686.265401	2552.497509
686.603137	2554.221584
686.940824	2553.193188
687.278460	2556.379198
687.616046	2560.076884
687.953582	2559.194682
688.291068	2560.449929
688.628504	2561.208623
688.965889	2559.744168
689.303224	2560.855742
689.640510	2559.844991
689.977745	2553.510781
690.314930	2550.569268
690.652065	2552.164793
690.989150	2545.969215
691.326185	2543.057949
691.663170	2541.719522
692.000105	2538.614172
692.336990	2534.659386
692.673825	2533.152081
693.010610	2531.521268
693.347345	2525.761750
693.684030	2521.862417
694.020665	2523.624301
694.357251	2515.487878
694.693786	2520.521470
695.030272	2519.183044
695.366707	2518.431912
695.703093	2512.725326
696.039429	2516.652385
696.375716	2517.118692
696.711952	2517.811850
697.048139	2516.632220
697.384276	2515.523166
697.720363	2518.704134
698.056400	2513.426046
698.392388	2508.463030
698.728326	2513.831859
699.064214	2513.947806
699.400053	2513.635254
699.735842	2512.611900
700.071581	2510.991169
700.407270	2508.331960
700.742910	2508.866323
701.078501	2507.956394
701.414042	2504.563698
701.749533	2502.060765
702.084974	2503.089160
702.420366	2507.177536
702.755709	2502.151506
703.091002	2500.046824
703.426246	2501.097905
703.761440	2500.571104
704.096584	2501.123110
704.431679	2502.625374
704.766725	2497.188490
705.101721	2502.559839
705.436668	2498.179077
705.771565	2498.272338
706.106413	2495.454333
706.441212	2496.986844
706.775961	2500.946670
707.110661	2499.499859
707.445311	2501.866681
707.779913	2501.037411
708.114465	2501.556650
708.448967	2503.563029
708.783421	2507.104439
709.117825	2507.394306
709.452180	2511.641478
709.786485	2508.788185
710.120742	2515.263547
710.454949	2513.496623
710.789107	2514.088958
711.123216	2514.640964
711.457275	2517.060718
711.791286	2517.305214
712.125247	2521.691018
712.459159	2521.353261
712.793023	2525.487007
713.126837	2518.746984
713.460602	2519.908970
713.794318	2521.779238
714.127985	2516.254134
714.461602	2514.514936
714.795171	2514.537621
715.128691	2508.609224
715.462162	2509.647702
715.795584	2508.268946
716.128957	2504.503204
716.462281	2502.317864
716.795556	2499.764519
717.128782	2500.447596
717.461960	2497.710249
717.795088	2495.940804
718.128167	2493.397542
718.461198	2495.328304
718.794180	2494.166318
719.127113	2490.582058
719.459997	2490.297233
719.792833	2489.349496
720.125619	2487.572489
720.458357	2489.639362
720.791046	2485.911429
721.123686	2485.815647
721.456278	2485.810606
721.788821	2486.876810
722.121315	2484.247848
722.453761	2482.977477
722.786158	2483.804226
723.118506	2484.782210
723.450805	2486.652478
723.783056	2485.581233
724.115259	2484.300780
724.447412	2483.703403
724.779518	2484.910760
725.111574	2487.973261
725.443582	2488.668940
725.775542	2485.230873
726.107453	2489.815802
726.439315	2489.001656
726.771129	2493.374857
727.102895	2492.550628
727.434612	2495.058602
727.766281	2492.475011
728.097901	2494.599857
728.429473	2493.599188
728.760996	2493.815958
729.092471	2490.403097
729.423897	2492.522902
729.755276	2494.136071
730.086606	2495.761843
730.417887	2496.278562
730.749120	2499.318377
731.080305	2502.461537
731.411442	2502.552278
731.742530	2501.717967
732.073570	2507.611075
732.404562	2507.416991
732.735506	2505.907165
733.066401	2501.171001
733.397249	2503.066475
733.728048	2498.088336
734.058798	2494.365444
734.389501	2487.781697
734.720156	2490.604743
735.050762	2488.512664
735.381320	2485.442601
735.711831	2487.146511
736.042293	2484.189875
736.372707	2480.754328
736.703073	2479.352887
737.033391	2482.594349
737.363661	2484.124340
737.693883	2484.386480
738.024056	2485.455204
738.354182	2484.557879
738.684260	2487.766573
739.014290	2488.802530
739.344272	2489.294043
739.674207	2491.469301
740.004093	2491.111379
740.333931	2492.127171
740.663722	2489.614156
740.993464	2488.852942
741.323159	2490.415700
741.652806	2490.975268
741.982405	2490.125833
742.311956	2487.259937
742.641460	2486.201295
742.970915	2486.866727
743.300323	2485.331696
743.629683	2481.139977
743.958996	2481.215594
744.288260	2477.432208
744.617477	2473.726960
744.946647	2473.706795
745.275768	2472.955663
745.604842	2471.536578
745.933869	2471.755869
746.262847	2470.336784
746.591778	2473.469861
746.920662	2471.448358
747.249498	2473.926085
747.578286	2474.531024
747.907027	2473.905921
748.235720	2476.194605
748.564365	2477.941364
748.892963	2477.328864
749.221514	2476.423977
749.550017	2476.920531
749.878473	2476.129070
750.206881	2474.336939
750.535242	2474.054635
750.863555	2473.028760
751.191821	2473.976497
751.520039	2472.907772
751.848210	2473.096816
752.176334	2476.499594
752.504411	2472.524645
752.832440	2472.683441
753.160421	2473.512711
753.488356	2471.760910
753.816243	2468.837041
754.144082	2471.647484
754.471875	2470.735035
754.799620	2469.930971
755.127318	2471.367700
755.454969	2470.004068
755.782572	2470.470374
756.110129	2469.454582
756.437638	2468.726135
756.765100	2468.877370
757.092515	2470.644294
757.419882	2471.506332
757.747203	2471.448358
758.074477	2471.450879
758.401703	2470.208234
758.728882	2470.500621
759.056014	2472.396095
759.383099	2472.522124
759.710138	2472.610344
760.037129	2473.517752
760.364073	2477.301138
760.690970	2470.268728
761.017820	2474.798205
761.344623	2474.591518
761.671379	2475.445993
761.998088	2477.948926
762.324751	2486.087869
762.651366	2506.194511
762.977935	2528.662934
763.304456	2536.776671
763.630931	2546.687579
763.957359	2539.466127
764.283740	2530.588655
764.610074	2519.752694
764.936362	2507.817763
765.262602	2497.206134
765.588796	2487.781697
765.914943	2479.718371
766.241044	2475.526652
766.567097	2468.542133
766.893104	2466.255970
767.219064	2466.170270
767.544978	2462.543160
767.870845	2463.574076
768.196665	2461.408900
768.522438	2461.164404
768.848165	2457.653241
769.173846	2454.774742
769.499479	2457.267592
769.825066	2454.736933
770.150607	2455.490586
770.476101	2453.615277
770.801548	2454.464711
771.126949	2451.477827
771.452303	2449.952878
771.777611	2448.377518
772.102872	2450.373815
772.428087	2448.226283
772.753256	2448.513629
773.078378	2448.458176
773.403453	2446.227466
773.728482	2446.141766
774.053465	2448.586726
774.378401	2443.870726
774.703291	2445.378031
775.028135	2443.830397
775.352932	2448.027158
775.677683	2444.241251
776.002388	2445.309976
776.327046	2442.670932
776.651658	2443.119594
776.976224	2443.414502
777.300743	2443.301076
777.625216	2442.542382
777.949643	2446.320727
778.274024	2443.916097
778.598359	2439.467278
778.922647	2439.331167
779.246889	2441.350149
779.571086	2435.812442
779.895236	2442.136569
780.219339	2439.605910
780.543397	2442.774275
780.867409	2442.169337
781.191374	2442.502053
781.515294	2440.606579
781.839167	2442.517176
782.162995	2439.900817
782.486776	2443.681683
782.810511	2439.613472
783.134201	2440.430139
783.457844	2441.100612
783.781441	2439.442073
784.104993	2438.980807
784.428498	2443.164965
784.751958	2438.690941
785.075372	2439.673966
785.398739	2440.881322
785.722061	2438.481733
786.045337	2441.493822
786.368568	2441.546754
786.691752	2442.418874
787.014891	2443.142279
787.337983	2444.909204
787.661030	2449.269802
787.984031	2451.198043
788.306987	2454.802468
788.629897	2451.593774
788.952760	2452.793568
789.275579	2455.369598
789.598351	2452.823815
789.921078	2450.308280
790.243759	2444.536158
790.566395	2447.344081
790.888984	2444.526076
791.211529	2444.493309
791.534027	2440.541044
791.856480	2439.157247
792.178888	2439.991558
792.501249	2441.778647
792.823566	2440.011723
793.145836	2443.548092
793.468062	2441.607248
793.790241	2438.012905
794.112375	2437.705395
794.434464	2439.888215
794.756507	2440.044490
795.078505	2443.074224
795.400457	2439.684048
795.722364	2441.955088
796.044226	2443.757300
796.366042	2442.668411
796.687812	2444.853751
797.009538	2449.582353
797.331218	2445.781323
797.652852	2446.603032
797.974442	2446.280398
798.295986	2446.000614
798.617484	2444.972218
798.938938	2439.595828
799.260346	2442.802002
799.581709	2440.379727
799.903026	2441.695468
800.224299	2439.366455
800.545526	2440.155396
800.866708	2440.772937
801.187845	2439.626075
801.508936	2439.217741
801.829983	2440.820828
802.150984	2437.433173
802.471940	2437.828903
802.792851	2435.557863
803.113717	2436.498039
803.434538	2435.260435
803.755314	2437.145827
804.076045	2435.570466
804.396731	2435.383944
804.717372	2434.176587
805.037967	2434.524427
805.358518	2434.632812
805.679024	2437.329829
805.999485	2435.774633
806.319901	2438.191866
806.640272	2437.211362
806.960598	2435.121804
807.280879	2437.344952
807.601115	2436.896290
807.921306	2435.724222
808.241453	2440.475509
808.561554	2436.273707
808.881611	2440.198246
809.201623	2439.570622
809.521590	2435.409149
809.841513	2439.646239
810.161390	2438.277566
810.481223	2435.212544
810.801011	2434.176587
811.120755	2435.754468
811.440453	2437.299582
811.760107	2436.218255
812.079716	2432.742379
812.399281	2433.117945
812.718801	2435.076433
813.038276	2429.574014
813.357707	2436.112390
813.677093	2434.360589
813.996434	2434.325301
814.315731	2436.293872
814.634983	2435.010898
814.954191	2431.910589
815.273354	2435.199942
815.592473	2434.325301
815.911547	2435.711619
816.230577	2437.662545
816.549562	2436.482915
816.868502	2439.028698
817.187399	2439.910900
817.506250	2441.254367
817.825058	2440.866198
818.143821	2444.039605
818.462539	2443.991714
818.781213	2449.244596
819.099843	2454.066460
819.418429	2457.227263
819.736970	2464.587348
820.055466	2473.212762
820.373919	2482.833804
820.692327	2499.323418
821.010691	2528.010104
821.329011	2593.356061
821.647286	2690.448684
821.965517	2791.100362
822.283704	2854.361802
822.601847	2868.411497
822.919945	2828.082267
823.237999	2777.274997
823.556010	2729.366392
823.873976	2679.685821
824.191897	2639.396919
824.509775	2607.428442
824.827609	2573.763617
825.145398	2560.795248
825.463144	2549.140101
825.780845	2550.596994
826.098502	2562.534447
826.416116	2586.658888
826.733685	2610.090171
827.051210	2615.199381
827.368692	2604.025663
827.686129	2577.514235
828.003522	2548.373845
828.320872	2523.752850
828.638177	2506.980931
828.955439	2491.880155
829.272656	2482.274236
829.589830	2469.444500
829.906960	2465.255301
830.224046	2460.075515
830.541088	2454.321038
830.858086	2449.819288
831.175041	2448.324586
831.491952	2449.695779
831.808819	2448.400203
832.125642	2452.440688
832.442421	2456.803806
832.759157	2473.026239
833.075849	2492.512820
833.392497	2509.317506
833.709101	2523.846111
834.025662	2523.359640
834.342179	2512.989987
834.658653	2497.317039
834.975083	2483.524442
835.291469	2479.090747
835.607811	2465.025928
835.924110	2456.708024
836.240366	2455.848508
836.556578	2445.252002
836.872746	2443.207814
837.188871	2437.319747
837.504952	2435.870415
837.820990	2434.731114
838.136984	2433.954777
838.452935	2430.504107
838.768842	2432.142482
839.084706	2435.560384
839.400526	2446.315686
839.716303	2454.759618
840.032037	2463.616926
840.347727	2462.845629
840.663373	2454.265585
840.978977	2448.594287
841.294537	2442.996086
841.610054	2437.188677
841.925527	2438.214552
842.240957	2430.383119
842.556344	2428.144847
842.871687	2426.410690
843.186987	2424.530339
843.502244	2422.942376
843.817458	2424.689136
844.132629	2421.944227
844.447756	2421.205698
844.762840	2418.047416
845.077881	2420.058836
845.392879	2417.094638
845.707833	2416.313259
846.022745	2415.547003
846.337613	2416.756880
846.652438	2418.571696
846.967221	2419.453897
847.281960	2418.014648
847.596656	2417.056829
847.911309	2416.467014
848.225919	2419.499268
848.540485	2417.321489
848.855009	2416.935841
849.169490	2415.781417
849.483928	2417.414751
849.798323	2415.854514
850.112675	2418.634710
850.426984	2418.433064
850.741251	2416.348547
851.055474	2418.614545
851.369654	2415.521798
851.683792	2413.107085
851.997887	2414.309400
852.311938	2416.928279
852.625947	2417.389545
852.939914	2417.787796
853.253837	2416.593043
853.567718	2415.932652
853.881555	2414.813515
854.195350	2416.121695
854.509103	2417.124884
854.822812	2419.458939
855.136479	2416.096489
855.450103	2417.825605
855.763685	2414.606828
856.077224	2417.618917
856.390720	2416.414082
856.704173	2415.526839
857.017584	2418.019689
857.330953	2416.164545
857.644278	2417.802920
857.957561	2422.405493
858.270802	2417.003897
858.584000	2419.713517
858.897155	2415.841911
859.210268	2418.060018
859.523339	2415.915007
859.836367	2416.467014
860.149352	2414.528690
860.462295	2416.033475
860.775195	2413.366704
861.088054	2413.933834
861.400869	2415.269740
861.713642	2410.364697
862.026373	2415.731005
862.339062	2417.596232
862.651708	2417.215625
862.964312	2414.616910
863.276873	2416.774524
863.589392	2417.810481
863.901869	2418.516243
864.214303	2416.721592
864.526696	2417.235790
864.839045	2415.907446
865.151353	2419.317786
865.463619	2419.022879
865.775842	2417.565985
866.088023	2420.719227
866.400162	2416.363670
866.712258	2420.988929
867.024313	2422.624783
867.336325	2417.770152
867.648296	2418.947262
867.960224	2420.928435
868.272110	2418.843918
868.583954	2421.576223
868.895755	2420.820050
869.207515	2419.015317
869.519233	2420.802406
869.830909	2419.058167
870.142542	2418.271747
870.454134	2419.627817
870.765684	2420.492375
871.077191	2419.277457
871.388657	2425.757860
871.700081	2419.368198
872.011463	2420.646130
872.322803	2421.172931
872.634101	2421.558579
872.945357	2424.522778
873.256571	2422.246697
873.567744	2425.359609
873.878874	2424.457243
874.189963	2422.607139
874.501010	2424.981523
874.812015	2425.982192
875.122979	2427.986050
875.433900	2425.195772
875.744780	2427.701225
876.055618	2426.715680
876.366415	2426.657706
876.677169	2425.205854
876.987882	2426.133426
877.298554	2421.508168
877.609183	2426.773653
877.919771	2425.467994
878.230317	2429.921853
878.540822	2433.092739
878.851285	2435.792277
879.161707	2440.011723
879.472087	2450.819957
879.782425	2459.886472
880.092722	2484.603249
880.402977	2520.047602
880.713191	2560.528067
881.023363	2601.147164
881.333494	2627.136833
881.643583	2636.294089
881.953631	2631.043727
882.263637	2615.968157
882.573602	2602.959459
882.883526	2584.997828
883.193408	2573.967783
883.503248	2550.844011
883.813048	2537.542926
884.122806	2523.735206
884.432522	2508.100067
884.742197	2493.425268
885.051831	2484.139463
885.361424	2472.759058
885.670975	2464.035342
885.980485	2458.870679
886.289954	2452.236521
886.599382	2448.057404
886.908768	2443.459872
887.218113	2438.811928
887.527417	2440.266301
887.836680	2433.881680
888.145901	2434.111052
888.455082	2431.371185
888.764221	2429.742893
889.073319	2429.364806
889.382376	2427.101328
889.691392	2426.771132
890.000366	2427.716349
890.309300	2427.376071
890.618193	2427.212233
890.927044	2428.815320
891.235855	2427.270207
891.544625	2425.987233
891.853353	2429.884045
892.162041	2426.214085
892.470687	2433.768254
892.779293	2434.587441
893.087858	2435.114242
893.396381	2440.823349
893.704864	2451.129988
894.013306	2458.968982
894.321707	2477.119656
894.630068	2486.286995
894.938387	2486.521408
895.246665	2484.641058
895.554903	2476.239975
895.863100	2470.515745
896.171256	2464.428552
896.479371	2461.391256
896.787446	2455.314145
897.095480	2450.769545
897.403473	2448.289298
897.711425	2444.425253
898.019336	2441.466096
898.327207	2436.591300
898.635038	2436.530806
898.942827	2434.042997
899.250576	2434.617688
899.558284	2429.684919
899.865952	2428.719538
900.173579	2426.677871
900.481165	2427.857501
900.788711	2424.331214
901.096216	2424.910947
901.403681	2424.235432
901.711105	2423.385998
902.018489	2423.353230
902.325832	2427.033272
902.633135	2426.045206
902.940397	2430.836823
903.247619	2440.848554
903.554800	2459.591564
903.861941	2476.020685
904.169041	2493.556338
904.476101	2497.644714
904.783121	2497.576659
905.090100	2487.479228
905.397039	2479.814153
905.703938	2468.116156
906.010796	2465.797225
906.317614	2456.856738
906.624391	2451.971860
906.931129	2445.514142
907.237826	2439.628595
907.544483	2436.392174
907.851099	2434.622729
908.157675	2428.285999
908.464211	2422.695359
908.770707	2418.191088
909.077163	2419.365677
909.383578	2416.449370
909.689954	2414.745460
909.996289	2412.280336
910.302584	2415.703279
910.608839	2415.378125
910.915054	2414.574061
911.221229	2417.326531
911.527363	2416.280491
911.833458	2415.148752
912.139513	2416.038516
912.445527	2415.579771
912.751502	2418.155800
913.057436	2419.103537
913.363331	2421.324166
913.669186	2423.774166
913.975000	2428.119641
914.280775	2431.734148
914.586510	2436.997113
914.892205	2447.878443
915.197859	2456.811368
915.503475	2471.917186
915.809050	2484.389000
916.114585	2492.845536
916.420081	2496.830568
916.725536	2496.301247
917.030952	2488.142139
917.336328	2485.493013
917.641665	2481.780203
917.946961	2474.556230
918.252218	2473.316106
918.557435	2464.352934
918.862612	2458.744651
919.167750	2456.675257
919.472848	2448.914401
919.777906	2444.284101
920.082925	2439.517690
920.387904	2433.745569
920.692843	2435.136927
920.997743	2431.272883
921.302603	2429.226174
921.607423	2425.457912
921.912204	2422.529001
922.216946	2423.615370
922.521647	2425.946904
922.826310	2419.466500
923.130932	2420.636048
923.435516	2419.264854
923.740059	2415.478948
924.044564	2415.252096
924.349028	2413.706982
924.653454	2412.358473
924.957840	2412.597928
925.262186	2409.323699
925.566493	2411.100706
925.870761	2407.735735
926.174989	2411.090623
926.479178	2410.712537
926.783328	2410.843607
927.087438	2408.123904
927.391509	2410.536096
927.695541	2406.775396
927.999533	2409.724471
928.303486	2408.552402
928.607400	2408.131466
928.911275	2406.430077
929.215110	2408.769172
929.518906	2409.517783
929.822663	2408.133987
930.126381	2408.050808
930.430060	2408.622978
930.733699	2408.149110
931.037299	2409.457289
931.340861	2407.080385
931.644383	2410.672208
931.947866	2408.156672
932.251309	2408.539799
932.554714	2409.048956
932.858080	2410.294121
933.161407	2405.870508
933.464694	2406.291445
933.767943	2407.733215
934.071153	2408.214645
934.374323	2406.107443
934.677455	2405.414284
934.980548	2408.398647
935.283602	2407.271949
935.586617	2406.135169
935.889593	2406.586352
936.192530	2406.162895
936.495428	2410.805798
936.798287	2405.333626
937.101108	2408.605334
937.403890	2408.759090
937.706632	2408.622978
938.009336	2407.337484
938.312002	2408.882598
938.614628	2413.487692
938.917216	2414.362332
939.219765	2415.055491
939.522275	2412.635737
939.824747	2415.269740
940.127179	2410.155489
940.429573	2411.814029
940.731929	2414.979873
941.034246	2407.904614
941.336524	2413.820408
941.638763	2413.192784
941.940964	2410.392423
942.243126	2412.635737
942.545250	2413.258319
942.847335	2414.843762
943.149381	2409.593401
943.451389	2410.415109
943.753359	2411.065417
944.055290	2412.277815
944.357182	2409.275808
944.659036	2410.556261
944.960851	2408.297824
945.262628	2410.861251
945.564367	2407.939902
945.866067	2412.345871
946.167729	2412.630696
946.469352	2409.172464
946.770937	2409.056518
947.072484	2408.249933
947.373992	2412.270253
947.675462	2408.181878
947.976893	2410.100037
948.278286	2409.769841
948.579641	2408.292783
948.880958	2410.135325
949.182236	2408.885118
949.483476	2408.411250
949.784678	2411.408216
950.085841	2407.438307
950.386967	2409.724471
950.688054	2407.279511
950.989103	2410.311765
951.290114	2408.028122
951.591087	2410.853689
951.892021	2408.323030
952.192917	2410.246230
952.493776	2411.314955
952.794596	2409.979049
953.095378	2409.835376
953.396122	2411.967784
953.696828	2409.111970
953.997496	2409.341343
954.298126	2409.689183
954.598718	2411.330078
954.899272	2409.656415
955.199788	2409.762279
955.500266	2408.965777
955.800706	2406.321692
956.101108	2403.307082
956.401472	2407.234141
956.701798	2401.046124
957.002087	2403.080230
957.302337	2403.228944
957.602550	2406.016702
957.902724	2404.441341
958.202861	2406.072155
958.502960	2402.213151
958.803022	2404.000240
959.103045	2405.767165
959.403031	2406.634243
959.702979	2403.468399
960.002889	2406.009140
960.302762	2404.343039
960.602596	2403.344890
960.902393	2402.815569
961.202153	2401.015877
961.501875	2400.302554
961.801559	2403.130641
962.101205	2400.481515
962.400814	2402.122411
962.700385	2403.780950
962.999918	2402.727349
963.299414	2400.126114
963.598873	2402.422359
963.898293	2404.516959
964.197677	2403.591907
964.497022	2400.809190
964.796331	2403.062586
965.095601	2400.907493
965.394835	2401.764489
965.694030	2399.329611
965.993189	2402.099725
966.292309	2399.944632
966.591393	2400.864643
966.890439	2400.564694
967.189447	2403.448234
967.488419	2399.737945
967.787353	2403.143244
968.086249	2400.257184
968.385108	2401.073851
968.683930	2400.587379
968.982714	2403.864129
969.281462	2400.289951
969.580172	2402.792884
969.878844	2401.378840
970.177480	2401.446896
970.476078	2401.227606
970.774639	2402.717267
971.073162	2401.736762
971.371649	2398.734755
971.670098	2398.790208
971.968510	2400.841958
972.266885	2397.197203
972.565223	2400.131155
972.863524	2401.106618
973.161788	2403.211300
973.460014	2402.455127
973.758204	2404.000240
974.056356	2402.243398
974.354471	2399.672410
974.652550	2402.069478
974.950591	2400.980589
975.248595	2400.945301
975.546563	2399.480846
975.844493	2401.940929
976.142386	2401.769530
976.440243	2399.201062
976.738062	2400.998233
977.035845	2400.710887
977.333590	2400.771381
977.631299	2402.107287
977.928971	2401.335991
978.226606	2402.029149
978.524204	2401.996382
978.821765	2401.177194
979.119290	2402.739952
979.416777	2401.215003
979.714228	2403.420508
980.011642	2403.037380
980.309020	2402.921433
980.606360	2403.627195
980.903664	2402.674417
981.200931	2403.637277
981.498162	2403.372617
981.795356	2402.984448
982.092513	2405.126938
982.389633	2407.017371
982.686717	2410.798236
982.983764	2412.325706
983.280775	2412.776889
983.577749	2412.237486
983.874686	2410.732701
984.171587	2410.992321
984.468451	2411.637588
984.765279	2410.546179
985.062070	2407.387896
985.358824	2409.220355
985.655543	2407.932340
985.952224	2406.188101
986.248869	2403.349932
986.545478	2402.114849
986.842050	2403.962432
987.138586	2397.008160
987.435086	2399.382543
987.731549	2394.623694
988.027975	2398.114693
988.324366	2401.920764
988.620719	2401.451937
988.917037	2399.261556
989.213318	2400.325239
989.509563	2399.574107
989.805772	2401.215003
990.101944	2397.978582
990.398080	2400.511762
990.694180	2398.475136
990.990244	2400.315157
991.286271	2399.402708
991.582262	2401.378840
991.878217	2399.490928
992.174136	2401.088974
992.470019	2398.828017
992.765865	2400.373130
993.061676	2397.532440
993.357450	2399.390105
993.653188	2399.629560
993.948890	2403.279355
994.244556	2399.788356
994.540186	2401.562843
994.835780	2400.680641
995.131337	2402.313974
995.426859	2402.571073
995.722345	2405.157185
996.017795	2405.116856
996.313208	2404.053172
996.608586	2406.840931
996.903928	2407.322361
997.199234	2403.917061
997.494504	2406.427556
997.789738	2404.887483
998.084936	2404.322874
998.380099	2403.342370
998.675225	2404.552247
998.970316	2403.929664
999.265371	2401.983779
999.560390	2404.098543
999.855373	2405.242885
1000.150320	2400.126114
1000.445232	2403.163409
1000.740108	2401.025960
1001.034948	2400.554612
1001.329752	2401.119221
1001.624521	2402.049314
1001.919254	2395.258880
1002.213951	2397.179559
1002.508613	2395.354662
1002.803239	2397.350958
1003.097829	2393.060937
1003.392384	2399.596793
1003.686903	2399.674930
1003.981386	2399.085115
1004.275834	2399.367420
1004.570246	2399.193500
1004.864623	2398.717111
1005.158964	2398.543191
1005.453270	2398.575959
1005.747540	2400.186608
1006.041775	2397.345917
1006.335974	2399.687533
1006.630138	2399.662328
1006.924266	2396.935063
1007.218359	2397.807183
1007.512416	2397.618140
1007.806438	2398.165105
1008.100425	2396.841802
1008.394376	2399.818603
1008.688292	2399.208624
1008.982172	2397.058572
1009.276017	2398.888510
1009.569827	2395.178221
1009.863602	2396.708211
1010.157341	2396.372975
1010.451045	2395.843653
1010.744714	2400.297513
1011.038347	2397.146792
1011.331945	2397.250135
1011.625508	2399.455640
1011.919036	2398.407080
1012.212528	2396.864487
1012.505986	2396.935063
1012.799408	2398.704508
1013.092795	2398.495300
1013.386147	2397.242574
1013.679464	2397.608057
1013.972745	2400.549571
1014.265992	2396.952707
1014.559204	2398.911196
1014.852380	2396.718294
1015.145521	2396.942625
1015.438628	2396.751061
1015.731699	2398.044117
1016.024736	2398.296175
1016.317737	2396.718294
1016.610703	2399.785836
1016.903635	2395.823489
1017.196531	2392.824002
1017.489393	2396.526730
1017.782219	2393.499517
1018.075011	2397.048489
1018.367768	2398.097049
1018.660490	2395.992367
1018.953177	2395.992367
1019.245829	2395.992367
