Dividing Wavelength (nm)	Counts (n)	Blue Motor Position (mm): 0.000000	Red Motor Position (mm): 21.200000	
326.493990	1985.372743
326.888308	1985.372743
327.282561	1985.372743
327.676750	1958.997426
328.070874	1962.311984
328.464933	1966.458333
328.858929	1976.344036
329.252859	1990.721407
329.646726	2005.597852
330.040528	2017.028668
330.434265	2038.236803
330.827938	2057.536860
331.221547	2077.552761
331.615091	2095.421131
332.008571	2115.215222
332.401986	2138.490229
332.795338	2161.629125
333.188625	2179.547907
333.581847	2196.642459
333.975006	2216.809595
334.368100	2234.680486
334.761129	2247.623648
335.154095	2265.439086
335.546996	2283.015069
335.939833	2301.468212
336.332606	2315.875830
336.725315	2327.503251
337.117960	2334.155054
337.510540	2340.088492
337.903056	2353.339165
338.295508	2357.475432
338.687896	2364.308716
339.080220	2370.075796
339.472480	2375.830273
339.864676	2380.861344
340.256807	2384.004504
340.648875	2385.355533
341.040879	2387.803013
341.432818	2387.155225
341.824694	2387.094731
342.216506	2387.412324
342.608253	2392.057747
342.999937	2386.131871
343.391557	2387.243445
343.783113	2384.453166
344.174605	2383.311345
344.566033	2380.876468
344.957397	2381.466283
345.348697	2380.674822
345.739934	2377.856817
346.131106	2374.554861
346.522215	2372.482947
346.913260	2372.392206
347.304241	2372.924048
347.695159	2368.253418
348.086012	2366.736031
348.476802	2366.768799
348.867528	2364.951463
349.258191	2363.239991
349.648789	2364.089425
350.039324	2362.935001
350.429796	2362.864425
350.820203	2361.944414
351.210548	2360.396780
351.600828	2357.510720
351.991045	2359.645648
352.381198	2360.578262
352.771288	2359.539784
353.161314	2359.169259
353.551276	2357.372088
353.941175	2359.401152
354.331010	2360.913498
354.720782	2359.456605
355.110490	2362.400639
355.500135	2360.767305
355.889717	2360.653879
356.279235	2360.273272
356.668689	2363.025742
357.058080	2362.829137
357.447408	2361.553725
357.836672	2357.054495
358.225873	2364.233098
358.615010	2359.532222
359.004084	2362.977851
359.393095	2366.531864
359.782043	2367.797194
360.170927	2368.944057
360.559748	2368.258460
360.948505	2371.046218
361.337199	2371.361290
361.725830	2370.221989
362.114398	2372.281300
362.502903	2374.753986
362.891344	2370.516897
363.279722	2372.157792
363.668037	2376.006713
364.056289	2375.487474
364.444478	2374.985879
364.832603	2376.450335
365.220665	2377.871940
365.608665	2377.259440
365.996601	2378.794471
366.384474	2379.028885
366.772284	2382.678680
367.160031	2381.239431
367.547715	2381.562065
367.935336	2382.156921
368.322893	2380.037116
368.710388	2382.910573
369.097820	2388.344937
369.485189	2383.560882
369.872495	2388.723024
370.259738	2389.766543
370.646918	2392.012377
371.034035	2394.144785
371.421090	2398.003788
371.808081	2396.506565
372.195010	2404.345559
372.581875	2407.428225
372.968678	2416.542631
373.355418	2420.903229
373.742096	2432.906217
374.128710	2444.858792
374.515262	2454.104268
374.901751	2469.603296
375.288177	2483.655512
375.674540	2503.895745
376.060841	2523.442819
376.447079	2545.124822
376.833254	2576.400140
377.219367	2599.760847
377.605417	2633.839047
377.991404	2661.416679
378.377329	2697.657534
378.763191	2734.100035
379.148991	2777.874895
379.534727	2829.450940
379.920402	2873.689585
380.306013	2924.264961
380.691563	2984.889878
381.077049	3040.962632
381.462474	3094.086311
381.847835	3166.179852
382.233134	3237.711305
382.618371	3295.901343
383.003545	3382.215980
383.388657	3460.986529
383.773706	3551.911300
384.158693	3625.426447
384.543618	3714.947257
384.928480	3790.481386
385.313280	3893.971233
385.698017	4000.513499
386.082692	4118.824338
386.467305	4181.246426
386.851856	4306.564469
387.236344	4457.587356
387.620770	4519.023898
388.005133	4639.467146
388.389435	4784.044918
388.773674	4867.082804
389.157851	5000.128936
389.541965	5129.905880
389.926018	5153.253984
390.310008	5332.124205
390.693936	5449.883038
391.077802	5563.853444
391.461606	5701.547521
391.845348	5812.276465
392.229027	5932.142500
392.612645	6150.600902
392.996200	6262.748931
393.379694	6442.047650
393.763125	6661.544530
394.146494	6752.035762
394.529801	6887.423510
394.913047	7127.878987
395.296230	7120.844057
395.679351	7176.175761
396.062410	7431.442148
396.445408	7327.307033
396.828343	7476.966288
397.211217	7609.488140
397.594028	7495.230388
397.976778	7703.334260
398.359466	7862.536419
398.742092	7836.735794
399.124656	7981.361457
399.507158	8171.460847
399.889598	8185.727313
400.271977	8390.062922
400.654294	8423.458046
401.036549	8618.500288
401.418742	8645.573805
401.800874	8938.477446
402.182944	9014.871092
402.564952	9383.092092
402.946898	9198.099390
403.328783	9256.906970
403.710606	9456.602198
404.092367	9703.359117
404.474067	10064.159538
404.855705	9855.901911
405.237282	9805.815527
405.618797	10234.003573
406.000250	10477.072888
406.381642	10832.663278
406.762972	10785.969590
407.144240	10584.152037
407.525447	10835.115799
407.906593	10773.260841
408.287677	11031.957733
408.668700	11182.504231
409.049661	11157.237968
409.430560	11313.095322
409.811399	11285.691609
410.192176	11449.564397
410.572891	11512.941783
410.953545	11983.001653
411.334138	11471.874024
411.714669	12055.818600
412.095139	11383.812628
412.475547	11877.664223
412.855894	11725.943136
413.236180	12036.707586
413.616405	11729.555123
413.996568	12004.451763
414.376670	11979.021662
414.756711	11855.437776
415.136691	12117.834875
415.516609	12294.078654
415.896466	12361.541896
416.276262	12643.586892
416.655997	13086.845467
417.035670	13117.281433
417.415283	13758.596861
417.794834	13845.057691
418.174324	13588.692332
418.553753	13489.331190
418.933121	13971.820025
419.312428	13781.871868
419.691674	13695.083364
420.070859	14133.762051
420.449983	13802.147389
420.829045	14327.501155
421.208047	14079.667949
421.586988	14519.364950
421.965867	14764.612043
422.344686	14752.780455
422.723444	15300.461491
423.102141	14018.662426
423.480777	15174.233519
423.859352	14682.960474
424.237866	15746.792650
424.616319	15442.269149
424.994712	16082.384782
425.373044	15864.319590
425.751314	16496.059346
426.129524	15626.626666
426.507673	16658.197977
426.885762	16349.875967
427.263789	16514.590628
427.641756	16644.581821
428.019662	16674.843867
428.397508	16681.455340
428.775292	16929.142352
429.153016	16855.501177
429.530679	16881.269035
429.908282	16858.326744
430.285824	16546.284362
430.663305	17146.302657
431.040726	16723.357411
431.418086	16502.075963
431.795385	17027.205397
432.172624	17342.048140
432.549802	16859.501333
432.926920	16949.934591
433.303977	16767.991787
433.680974	16911.400011
434.057910	17065.992035
434.434786	16993.767424
434.811601	16810.405535
435.188355	17633.507491
435.565050	17209.985033
435.941683	17043.198458
436.318257	17686.500100
436.694770	17390.712919
437.071222	17765.260568
437.447614	16841.942994
437.823946	16722.850775
438.200218	16704.319494
438.576429	16379.790174
438.952580	16449.708457
439.328670	16280.539937
439.704700	16454.333716
440.080670	15961.578571
440.456580	16247.880822
440.832429	16228.505147
441.208218	15311.546988
441.583947	15463.285719
441.959616	15370.503283
442.335224	15358.999370
442.710773	15281.075734
443.086261	15466.501975
443.461689	14854.851217
443.837057	14752.682152
444.212365	14988.552700
444.587612	14803.887673
444.962800	14346.380276
445.337927	14408.658691
445.712995	13438.775979
446.088002	14363.063975
446.462949	14284.366522
446.837837	14175.694368
447.212664	13942.251137
447.587431	15320.994111
447.962139	16734.523567
448.336786	17858.277418
448.711374	16722.729788
449.085901	14495.661444
449.460369	14177.357949
449.834776	13880.086148
450.209124	14857.270971
450.583412	14401.674172
450.957640	14412.217745
451.331808	13534.157130
451.705917	12626.308337
452.079965	12393.021381
452.453954	12318.384578
452.827883	12024.913806
453.201752	11719.039276
453.575562	11565.158055
453.949311	11766.584919
454.323001	11556.378886
454.696632	11243.323232
455.070202	11574.582492
455.443713	11409.943449
455.817164	11362.559123
456.190556	11308.064250
456.563888	10897.162321
456.937160	10799.247989
457.310373	10056.325585
457.683526	9954.247261
458.056619	9721.570285
458.429653	9487.484306
458.802628	9433.465822
459.175542	9256.896888
459.548398	9387.750118
459.921194	9574.459333
460.293930	9553.518380
460.666607	9823.210029
461.039224	10017.675059
461.411782	9860.708652
461.784280	9357.397331
462.156719	8997.078339
462.529099	8635.367989
462.901419	8159.694794
463.273680	7743.928152
463.645882	7557.506282
464.018024	7361.614606
464.390106	7319.762946
464.762130	7584.703307
465.134094	8099.563911
465.505999	8764.146785
465.877845	9260.970140
466.249631	9162.463473
466.621358	8616.206563
466.993026	8035.362297
467.364634	7519.984974
467.736184	7055.165384
468.107674	6720.329425
468.479105	6455.620957
468.850477	6203.769952
469.221790	5898.969188
469.593043	5579.133182
469.964238	5355.615982
470.335373	5212.336307
470.706449	5218.710846
471.077467	5288.331702
471.448425	5512.027862
471.819324	5608.795331
472.190164	5355.111867
472.560945	4981.821986
472.931667	4661.272657
473.302330	4483.390502
473.672934	4334.825178
474.043479	4267.384622
474.413965	4140.876866
474.784393	4038.042369
475.154761	4002.325794
475.525070	3924.659257
475.895321	3836.441585
476.265513	3789.352167
476.635645	3763.438116
477.005719	3694.575954
477.375734	3649.654232
477.745691	3615.402113
478.115588	3602.721090
478.485427	3608.147892
478.855207	3654.347547
479.224928	3681.494160
479.594591	3670.176770
479.964194	3585.818101
480.333739	3540.896379
480.703226	3488.833863
481.072653	3460.668936
481.442022	3432.899740
481.811333	3402.304978
482.180584	3334.947601
482.549777	3291.422278
482.918912	3250.823346
483.287988	3214.456462
483.657005	3171.286541
484.025964	3137.997282
484.394864	3112.368055
484.763706	3086.179261
485.132489	3053.862944
485.501213	3033.264790
485.869879	3018.373221
486.238487	2997.792711
486.607036	2982.273519
486.975527	2964.105200
487.343959	2952.215639
487.712333	2941.183074
488.080648	2930.130344
488.448905	2923.864190
488.817104	2913.149217
489.185244	2912.750966
489.553326	2923.062646
489.921350	2940.391613
490.289315	2963.240642
490.657222	2966.761888
491.025070	2958.239818
491.392861	2938.501180
491.760593	2917.093920
492.128267	2893.949983
492.495883	2868.134234
492.863440	2848.627489
493.230939	2829.481187
493.598380	2815.421409
493.965763	2801.003709
494.333088	2790.941566
494.700354	2782.182561
495.067563	2777.237189
495.434713	2766.479367
495.801805	2766.423914
496.168839	2757.438057
496.535815	2749.818353
496.902733	2747.907756
497.269593	2743.151427
497.636395	2737.885942
498.003139	2738.435428
498.369825	2729.328583
498.736453	2730.150291
499.103023	2723.929507
499.469535	2720.128477
499.835989	2720.803992
500.202385	2716.093034
500.568723	2712.647405
500.935003	2715.510781
501.301226	2711.321582
501.667390	2713.832076
502.033497	2714.691593
502.399546	2706.408977
502.765537	2706.562732
503.131470	2708.115408
503.497345	2708.992569
503.863163	2698.201979
504.228923	2701.753472
504.594625	2707.205480
504.960269	2702.159285
505.325856	2707.719677
505.691385	2702.406301
506.056856	2705.758668
506.422270	2709.065665
506.787625	2704.173226
507.152924	2706.779502
507.518164	2709.907538
507.883347	2706.792105
508.248472	2711.377034
508.613540	2711.132538
508.978550	2716.637478
509.343503	2717.582695
509.708398	2722.117213
510.073236	2724.862121
510.438016	2727.528891
510.802738	2723.175855
511.167403	2727.463356
511.532010	2732.328070
511.896561	2736.285376
512.261053	2746.022364
512.625488	2737.863257
512.989866	2738.672362
513.354186	2741.422311
513.718449	2741.324009
514.082655	2750.796337
514.446803	2748.048908
514.810894	2756.046699
515.174927	2756.974271
515.538904	2754.824219
515.902822	2761.728079
516.266684	2759.265475
516.630488	2763.247987
516.994235	2760.863521
517.357925	2766.242432
517.721558	2770.850047
518.085133	2774.996396
518.448651	2776.138217
518.812112	2775.568567
519.175516	2774.877929
519.538863	2778.452107
519.902152	2780.551747
520.265385	2785.043416
520.628560	2782.888322
520.991678	2784.166255
521.354739	2784.866975
521.717743	2790.079528
522.080690	2788.005093
522.443580	2794.359468
522.806413	2794.409879
523.169189	2793.855352
523.531908	2797.396763
523.894569	2794.840898
524.257174	2796.592699
524.619722	2798.031948
524.982213	2801.749799
525.344647	2801.480098
525.707025	2800.754172
526.069345	2801.512865
526.431608	2803.778864
526.793815	2803.360448
527.155964	2803.141158
527.518057	2803.073102
527.880093	2801.462454
528.242072	2805.565953
528.603995	2801.616209
528.965860	2801.676703
529.327669	2804.020839
529.689421	2803.418421
530.051117	2804.411529
530.412755	2804.343473
530.774337	2802.518575
531.135862	2800.378606
531.497331	2803.322639
531.858743	2800.247536
532.220098	2806.470840
532.581396	2802.327012
532.942638	2796.002884
533.303824	2802.884059
533.664953	2800.996147
534.026025	2799.261990
534.387040	2804.393885
534.747999	2802.059830
535.108902	2802.952115
535.469748	2800.406332
535.830537	2802.077474
536.191270	2804.156950
536.551947	2800.451702
536.912567	2799.874490
537.273131	2800.928091
537.633638	2798.916671
537.994089	2798.538584
538.354483	2794.669499
538.714821	2799.778708
539.075103	2799.992957
539.435328	2798.644449
539.795497	2797.429531
540.155609	2799.718214
540.515665	2801.890952
540.875665	2796.353244
541.235609	2796.890127
541.595496	2798.445323
541.955328	2802.269038
542.315102	2796.280147
542.674821	2793.832667
543.034483	2795.793676
543.394090	2793.575568
543.753640	2790.502985
544.113134	2800.134110
544.472571	2793.646145
544.831953	2801.061682
545.191278	2797.283337
545.550548	2790.629014
545.909761	2797.084212
546.268918	2793.351237
546.628019	2798.611681
546.987064	2794.293933
547.346053	2783.077366
547.704986	2791.362502
548.063863	2784.609876
548.422684	2787.521143
548.781449	2788.375618
549.140158	2787.495937
549.498811	2783.495781
549.857408	2780.279525
550.215949	2782.258178
550.574434	2781.401182
550.932864	2777.617796
551.291237	2780.551747
551.649555	2778.898249
552.007817	2777.408588
552.366022	2776.672580
552.724173	2776.659977
553.082267	2777.295162
553.440305	2778.772220
553.798288	2770.678648
554.156215	2771.006323
554.514086	2771.664193
554.871902	2767.500200
555.229661	2766.847371
555.587365	2757.642224
555.945014	2760.520723
556.302606	2755.421596
556.660143	2754.635176
557.017625	2752.840525
557.375050	2749.069742
557.732421	2745.235944
558.089735	2747.101171
558.446994	2742.002044
558.804197	2742.659915
559.161345	2738.826117
559.518437	2729.873028
559.875474	2730.109962
560.232455	2729.444530
560.589381	2725.565362
560.946251	2723.788355
561.303065	2722.961606
561.659825	2719.392469
562.016528	2713.932899
562.373177	2708.188505
562.729770	2706.557691
563.086307	2701.231712
563.442789	2700.236084
563.799216	2699.812627
564.155587	2694.645445
564.511904	2692.387008
564.868164	2689.609332
565.224370	2687.963395
565.580520	2684.250586
565.936615	2682.471058
566.292654	2676.988803
566.648638	2674.196004
567.004567	2673.709533
567.360441	2668.544871
567.716260	2666.278872
568.072023	2665.056392
568.427732	2657.522388
568.783385	2656.627583
569.138982	2650.840338
569.494525	2649.270019
569.850013	2645.249699
570.205445	2647.389669
570.560823	2643.636530
570.916145	2639.616209
571.271412	2639.243164
571.626625	2639.633853
571.981782	2635.406846
572.336884	2628.840743
572.691931	2630.973151
573.046923	2628.560959
573.401860	2623.250103
573.756743	2620.805144
574.111570	2618.909670
574.466342	2616.820112
574.821059	2616.580657
575.175722	2612.598145
575.530330	2611.814246
575.884882	2609.828031
576.239380	2604.413832
576.593823	2606.112701
576.948211	2604.456682
577.302544	2598.558532
577.656823	2600.847216
578.011047	2598.591299
578.365216	2593.535022
578.719330	2593.711462
579.073389	2594.455033
579.427394	2593.199785
579.781344	2587.528487
580.135239	2585.917839
580.489080	2586.379104
580.842866	2582.608321
581.196597	2585.754001
581.550273	2583.540935
581.903895	2582.716706
582.257463	2583.825760
582.610975	2582.573033
582.964434	2580.193608
583.317837	2580.022209
583.671186	2577.801581
584.024481	2578.104050
584.377721	2572.742783
584.730906	2574.237485
585.084037	2578.018351
585.437113	2572.906621
585.790135	2573.309913
586.143103	2572.508369
586.496016	2572.599110
586.848874	2565.304561
587.201679	2566.963100
587.554428	2563.419169
587.907124	2566.388409
588.259765	2561.072512
588.612352	2564.510579
588.964884	2564.911351
589.317362	2565.266752
589.669786	2567.114335
590.022155	2563.887996
590.374470	2565.690209
590.726731	2562.612584
591.078937	2563.146947
591.431090	2562.496638
591.783188	2561.443037
592.135232	2556.903478
592.487222	2554.700493
592.839157	2559.494631
593.191038	2556.850546
593.542866	2558.244425
593.894639	2555.764177
594.246358	2552.628579
594.598022	2554.100596
594.949633	2552.547921
595.301190	2552.391645
595.652692	2551.237221
596.004141	2555.005483
596.355535	2547.111036
596.706876	2546.488454
597.058162	2548.096582
597.409395	2549.319062
597.760573	2550.269319
598.111698	2546.412837
598.462768	2549.563558
598.813785	2549.155224
599.164748	2543.536858
599.515657	2545.913762
599.866511	2541.238092
600.217312	2544.716488
600.568060	2542.957126
600.918753	2546.964843
601.269392	2542.021992
601.619978	2543.010058
601.970510	2544.414019
602.320988	2543.257074
602.671412	2546.256561
603.021783	2542.092568
603.372100	2541.280942
603.722363	2543.229348
604.072572	2541.142310
604.422728	2541.492670
604.772830	2536.428831
605.122878	2536.799356
605.472872	2539.047711
605.822813	2536.723739
606.172701	2540.517207
606.522534	2540.635674
606.872314	2537.694161
607.222041	2536.980838
607.571714	2541.848072
607.921333	2538.810777
608.270899	2542.498381
608.620411	2541.724563
608.969870	2542.039636
609.319276	2539.272042
609.668627	2537.641229
610.017926	2538.074768
610.367171	2541.608617
610.716362	2539.524100
611.065500	2541.195242
611.414585	2539.211548
611.763616	2539.186342
612.112594	2536.980838
612.461518	2539.703061
612.810389	2538.183153
613.159207	2538.170550
613.507971	2539.640046
613.856682	2540.769265
614.205340	2538.251208
614.553945	2541.036446
614.902496	2537.089222
615.250994	2539.559388
615.599439	2538.551157
615.947830	2543.194060
616.296169	2538.198276
616.644454	2543.430994
616.992686	2541.855633
617.340864	2541.593493
617.688990	2540.880170
618.037063	2542.458051
618.385082	2541.863195
618.733048	2542.596683
619.080961	2542.342105
619.428821	2541.240613
619.776628	2540.181970
620.124382	2541.026364
620.472083	2539.314892
620.819731	2543.806560
621.167326	2536.600231
621.514868	2536.617875
621.862357	2536.017977
622.209793	2537.121990
622.557176	2533.986392
622.904506	2532.562266
623.251783	2530.271062
623.599007	2530.008922
623.946179	2529.303160
624.293297	2528.920033
624.640363	2527.132944
624.987376	2528.851977
625.334336	2526.681760
625.681243	2525.086235
626.028097	2525.303005
626.374899	2523.684794
626.721647	2523.531039
627.068343	2523.100021
627.414987	2523.939373
627.761577	2524.256965
628.108115	2521.378467
628.454600	2523.541122
628.801032	2523.001718
629.147412	2518.706655
629.493739	2522.462315
629.840014	2521.068436
630.186236	2520.092972
630.532405	2516.990142
630.878521	2518.293280
631.224585	2517.123733
631.570597	2517.131294
631.916556	2519.563651
632.262462	2516.637261
632.608316	2521.643127
632.954117	2514.628362
633.299866	2516.236490
633.645562	2514.744308
633.991206	2513.370594
634.336797	2512.332116
634.682336	2510.590397
635.027823	2510.144255
635.373257	2508.836076
635.718639	2508.339522
636.063968	2510.676097
636.409245	2507.606034
636.754470	2506.703668
637.099642	2506.199552
637.444762	2505.587052
637.789829	2503.502535
638.134845	2503.847854
638.479808	2503.978924
638.824719	2503.996568
639.169577	2502.559839
639.514383	2502.968173
639.859137	2501.327277
640.203839	2501.360045
640.548489	2498.461381
640.893086	2495.736638
641.237632	2498.458861
641.582125	2499.285610
641.926566	2495.040958
642.270955	2500.785353
642.615292	2497.710249
642.959576	2501.029849
643.303809	2496.210506
643.647990	2498.811741
643.992118	2495.366113
644.336195	2495.560197
644.680219	2496.455002
645.024192	2495.817296
645.368112	2497.569097
645.711981	2497.707729
646.055797	2502.000271
646.399562	2500.140085
646.743274	2499.325939
647.086935	2503.807525
647.430544	2501.392812
647.774101	2504.288955
648.117606	2501.521362
648.461059	2500.860970
648.804460	2505.818945
649.147810	2502.154026
649.491108	2502.272493
649.834354	2499.295692
650.177548	2498.267297
650.520690	2496.434837
650.863781	2492.938797
651.206820	2496.830568
651.549807	2491.950731
651.892742	2494.897285
652.235626	2491.441574
652.578458	2491.552480
652.921238	2489.828405
653.263967	2490.574496
653.606644	2490.715648
653.949269	2490.249342
654.291843	2486.534011
654.634365	2489.984681
654.976836	2490.735813
655.319255	2487.201964
655.661622	2486.844042
656.003938	2486.465956
656.346203	2486.954947
656.688416	2488.018631
657.030577	2486.130719
657.372687	2487.678353
657.714746	2484.850266
658.056753	2488.021152
658.398708	2478.800881
658.740612	2480.514873
659.082465	2483.688280
659.424266	2483.839514
659.766016	2481.951602
660.107715	2485.056953
660.449362	2484.807416
660.790958	2484.325986
661.132503	2484.693990
661.473996	2483.073259
661.815438	2484.988898
662.156829	2482.833804
662.498168	2482.856489
662.839456	2484.096613
663.180693	2483.368167
663.521879	2485.561068
663.863013	2483.524442
664.204097	2484.084010
664.545129	2486.496203
664.886110	2487.212046
665.227040	2484.741881
665.567918	2484.114257
665.908746	2487.703559
666.249522	2486.312200
666.590248	2487.806903
666.930922	2485.079638
667.271545	2485.162817
667.612118	2486.798672
667.952639	2483.030409
668.293109	2487.184320
668.633528	2483.065697
668.973896	2483.978146
669.314213	2482.186016
669.654480	2483.267343
669.994695	2482.264154
670.334859	2485.223311
670.674973	2482.410347
671.015035	2485.195585
671.355047	2481.601242
671.695008	2483.100985
672.034918	2480.829946
672.374777	2481.843217
672.714585	2482.065028
673.054342	2484.555358
673.394049	2481.147538
673.733705	2481.429843
674.073310	2481.752477
674.412864	2483.063177
674.752368	2480.161993
675.091820	2480.812302
675.431223	2481.076962
675.770574	2480.892960
676.109875	2473.515231
676.449125	2476.930613
676.788324	2473.545478
677.127473	2478.190902
677.466571	2473.391723
677.805619	2475.758545
678.144616	2476.537403
678.483562	2475.188894
678.822458	2477.538072
679.161303	2474.042032
679.500098	2476.199646
679.838842	2475.004892
680.177535	2477.149903
680.516179	2475.589666
680.854771	2476.935654
681.193314	2478.513535
681.531805	2481.013948
681.870247	2485.273723
682.208638	2482.468321
682.546978	2482.266674
682.885268	2484.386480
683.223508	2482.440594
683.561697	2484.293218
683.899836	2480.653505
684.237925	2478.879019
684.575963	2481.213073
684.913951	2479.184009
685.251889	2478.725264
685.589776	2481.417240
685.927614	2478.480768
686.265401	2476.028247
686.603137	2479.718371
686.940824	2482.065028
687.278460	2480.073772
687.616046	2483.204329
687.953582	2482.193578
688.291068	2481.381952
688.628504	2481.071921
688.965889	2482.329689
689.303224	2482.627117
689.640510	2481.833135
689.977745	2480.487147
690.314930	2479.476396
690.652065	2479.201653
690.989150	2475.327526
691.326185	2474.301651
691.663170	2472.058338
692.000105	2468.269911
692.336990	2470.460292
692.673825	2467.566670
693.010610	2469.502473
693.347345	2462.172635
693.684030	2460.430917
694.020665	2463.405197
694.357251	2455.626697
694.693786	2462.742286
695.030272	2460.468725
695.366707	2459.284054
695.703093	2460.660289
696.039429	2461.015690
696.375716	2459.291616
696.711952	2460.325052
697.048139	2461.171966
697.384276	2459.127778
697.720363	2458.106945
698.056400	2456.539146
698.392388	2458.366564
698.728326	2458.048971
699.064214	2460.027624
699.400053	2457.144084
699.735842	2454.865483
700.071581	2457.900257
700.407270	2455.805658
700.742910	2455.969495
701.078501	2455.694753
701.414042	2452.745678
701.749533	2449.635286
702.084974	2451.903805
702.420366	2453.385904
702.755709	2450.824998
703.091002	2450.152004
703.426246	2452.720472
703.761440	2450.764504
704.096584	2452.549073
704.431679	2448.327106
704.766725	2449.201746
705.101721	2448.039760
705.436668	2450.051181
705.771565	2448.564040
706.106413	2450.330965
706.441212	2448.750563
706.775961	2450.593105
707.110661	2450.184771
707.445311	2451.281222
707.779913	2450.724175
708.114465	2450.701490
708.448967	2452.972529
708.783421	2454.215174
709.117825	2455.785493
709.452180	2453.953034
709.786485	2456.362705
710.120742	2458.847994
710.454949	2460.206585
710.789107	2454.971347
711.123216	2454.084104
711.457275	2459.369754
711.791286	2457.776749
712.125247	2460.602316
712.459159	2459.586523
712.793023	2462.608695
713.126837	2459.556276
713.460602	2461.487038
713.794318	2458.414455
714.127985	2462.802779
714.461602	2457.799434
714.795171	2456.307253
715.128691	2452.576799
715.462162	2455.019238
715.795584	2453.920266
716.128957	2449.181582
716.462281	2450.462035
716.795556	2450.925821
717.128782	2450.247786
717.461960	2448.702672
717.795088	2448.894236
718.128167	2452.264247
718.461198	2446.865172
718.794180	2445.786365
719.127113	2443.767383
719.459997	2444.047167
719.792833	2445.509101
720.125619	2443.026333
720.458357	2444.145469
720.791046	2441.945005
721.123686	2442.096240
721.456278	2442.413833
721.788821	2441.024995
722.121315	2445.342743
722.453761	2440.450303
722.786158	2440.359563
723.118506	2441.675304
723.450805	2438.368307
723.783056	2442.222269
724.115259	2442.615479
724.447412	2439.023657
724.779518	2440.871240
725.111574	2440.674635
725.443582	2441.244285
725.775542	2441.272011
726.107453	2441.584563
726.439315	2443.792588
726.771129	2451.104782
727.102895	2446.421550
727.434612	2446.925665
727.766281	2445.395675
728.097901	2445.186467
728.429473	2443.293514
728.760996	2445.536827
729.092471	2444.165634
729.423897	2446.043463
729.755276	2446.661005
730.086606	2449.158897
730.417887	2446.963474
730.749120	2448.044802
731.080305	2447.916252
731.411442	2453.073352
731.742530	2449.622683
732.073570	2451.402210
732.404562	2451.271140
732.735506	2450.532611
733.066401	2448.702672
733.397249	2451.440019
733.728048	2449.287446
734.058798	2451.132508
734.389501	2441.327464
734.720156	2445.612445
735.050762	2442.320571
735.381320	2440.175560
735.711831	2440.914089
736.042293	2441.803853
736.372707	2441.675304
736.703073	2438.731270
737.033391	2438.481733
737.363661	2438.091043
737.693883	2439.694130
738.024056	2447.417178
738.354182	2439.447114
738.684260	2442.197063
739.014290	2442.832248
739.344272	2447.865841
739.674207	2443.984152
740.004093	2443.535489
740.333931	2444.357197
740.663722	2447.956581
740.993464	2444.198401
741.323159	2445.246961
741.652806	2445.070521
741.982405	2445.408278
742.311956	2444.178237
742.641460	2444.730243
742.970915	2439.086671
743.300323	2439.573142
743.629683	2438.559871
743.958996	2437.171033
744.288260	2438.431321
744.617477	2435.527617
744.946647	2435.073913
745.275768	2435.283121
745.604842	2433.082657
745.933869	2435.449479
746.262847	2433.433017
746.591778	2435.789757
746.920662	2435.419232
747.249498	2435.651125
747.578286	2434.726073
747.907027	2437.634819
748.235720	2437.733121
748.564365	2437.264294
748.892963	2437.052566
749.221514	2436.601382
749.550017	2437.518872
749.878473	2437.536516
750.206881	2435.139448
750.535242	2433.851433
750.863555	2436.424942
751.191821	2434.554674
751.520039	2437.566763
751.848210	2434.411001
752.176334	2437.039963
752.504411	2435.590631
752.832440	2434.166505
753.160421	2435.293203
753.488356	2432.548295
753.816243	2435.068872
754.144082	2431.726587
754.471875	2434.398398
754.799620	2434.277410
755.127318	2435.399067
755.454969	2434.146340
755.782572	2431.653490
756.110129	2435.676331
756.437638	2431.855136
756.765100	2433.261618
757.092515	2433.027204
757.419882	2433.339756
757.747203	2432.933943
758.074477	2436.266146
758.401703	2433.647266
758.728882	2435.487287
759.056014	2435.610796
759.383099	2433.425455
759.710138	2437.352514
760.037129	2435.202462
760.364073	2436.074582
760.690970	2434.234561
761.017820	2436.399736
761.344623	2438.101126
761.671379	2438.239757
761.998088	2434.272369
762.324751	2441.791250
762.651366	2449.058073
762.977935	2464.531895
763.304456	2467.952318
763.630931	2471.886939
763.957359	2468.466516
764.283740	2465.671196
764.610074	2456.163580
764.936362	2452.566717
765.262602	2448.465738
765.588796	2445.826694
765.914943	2440.359562
766.241044	2436.021650
766.567097	2434.761361
766.893104	2433.198603
767.219064	2429.357244
767.544978	2429.919333
767.870845	2429.445464
768.196665	2430.594848
768.522438	2428.686771
768.848165	2424.873138
769.173846	2427.179466
769.499479	2426.569486
769.825066	2423.292736
770.150607	2423.078487
770.476101	2424.379105
770.801548	2424.515216
771.126949	2424.731986
771.452303	2421.435071
771.777611	2422.218970
772.102872	2423.353230
772.428087	2422.692839
772.753256	2423.466656
773.078378	2421.828281
773.403453	2420.941038
773.728482	2421.351892
774.053465	2422.599577
774.378401	2419.360636
774.703291	2417.583629
775.028135	2423.184351
775.352932	2422.604619
775.677683	2420.361305
776.002388	2421.659402
776.327046	2419.418609
776.651658	2420.893147
776.976224	2419.690832
777.300743	2420.578075
777.625216	2416.761921
777.949643	2418.158321
778.274024	2417.873496
778.598359	2416.870306
778.922647	2415.184040
779.246889	2416.116654
779.571086	2414.831159
779.895236	2421.062026
780.219339	2417.729823
780.543397	2418.410379
780.867409	2419.171593
781.191374	2418.594381
781.515294	2420.981367
781.839167	2418.601942
782.162995	2419.834505
782.486776	2418.294432
782.810511	2419.451377
783.134201	2419.075811
783.457844	2416.668660
783.781441	2417.553383
784.104993	2419.373239
784.428498	2418.443146
784.751958	2417.744946
785.075372	2417.828125
785.398739	2418.223856
785.722061	2417.518094
786.045337	2417.011458
786.368568	2419.625297
786.691752	2417.271078
787.014891	2418.669998
787.337983	2420.373908
787.661030	2422.108065
787.984031	2421.513209
788.306987	2421.954310
788.629897	2423.504465
788.952760	2423.630493
789.275579	2421.724937
789.598351	2422.027407
789.921078	2421.051943
790.243759	2421.298960
790.566395	2421.757705
790.888984	2419.897519
791.211529	2419.642941
791.534027	2419.537077
791.856480	2418.881727
792.178888	2418.072621
792.501249	2417.588671
792.823566	2418.422982
793.145836	2418.599422
793.468062	2419.945410
793.790241	2415.161355
794.112375	2419.355595
794.434464	2419.726120
794.756507	2417.694535
795.078505	2420.908270
795.400457	2415.335275
795.722364	2416.905594
796.044226	2419.617735
796.366042	2414.851324
796.687812	2420.504978
797.009538	2421.142684
797.331218	2421.470359
797.652852	2420.709145
797.974442	2418.397776
798.295986	2420.275606
798.617484	2421.147725
798.938938	2417.497930
799.260346	2419.897519
799.581709	2419.534556
799.903026	2420.147056
800.224299	2420.205029
800.545526	2417.840728
800.866708	2416.784607
801.187845	2417.071952
801.508936	2415.965419
801.829983	2418.052457
802.150984	2414.279153
802.471940	2420.212591
802.792851	2415.063052
803.113717	2414.178330
803.434538	2413.386869
803.755314	2416.164545
804.076045	2416.479617
804.396731	2418.312076
804.717372	2416.126736
805.037967	2415.264699
805.358518	2414.838721
805.679024	2413.986766
805.999485	2416.298135
806.319901	2417.399627
806.640272	2415.998187
806.960598	2417.714699
807.280879	2414.732857
807.601115	2414.732857
807.921306	2416.346026
808.241453	2416.172106
808.561554	2416.124215
808.881611	2416.479617
809.201623	2417.802920
809.521590	2416.575399
809.841513	2416.043557
810.161390	2415.055491
810.481223	2415.725964
810.801011	2414.170768
811.120755	2414.357291
811.440453	2414.808474
811.760107	2412.562640
812.079716	2412.983577
812.399281	2410.417629
812.718801	2414.367373
813.038276	2410.775551
813.357707	2413.608680
813.677093	2412.812177
813.996434	2411.395613
814.315731	2413.719585
814.634983	2415.121026
814.954191	2416.716551
815.273354	2415.259657
815.592473	2414.742939
815.911547	2414.654719
816.230577	2415.219328
816.549562	2416.751839
816.868502	2418.727971
817.187399	2416.729154
817.506250	2417.467683
817.825058	2417.417271
818.143821	2418.924576
818.462539	2421.240987
818.781213	2423.171748
819.099843	2422.806265
819.418429	2428.389343
819.736970	2431.061154
820.055466	2434.574838
820.373919	2442.045828
820.692327	2448.203598
821.010691	2467.740590
821.329011	2498.834427
821.647286	2555.900288
821.965517	2612.600666
822.283704	2644.576705
822.601847	2655.720175
822.919945	2630.620270
823.237999	2604.249995
823.556010	2575.790161
823.873976	2547.516849
824.191897	2526.028931
824.509775	2507.399347
824.827609	2490.148518
825.145398	2479.947744
825.463144	2476.197125
825.780845	2475.481281
826.098502	2482.627117
826.416116	2499.293172
826.733685	2510.328257
827.051210	2514.766993
827.368692	2507.026302
827.686129	2494.254538
828.003522	2477.056642
828.320872	2459.538632
828.638177	2455.775411
828.955439	2441.851744
829.272656	2440.561209
829.589830	2430.370516
829.906960	2430.947728
830.224046	2426.113262
830.541088	2426.768612
830.858086	2422.965061
831.175041	2422.675195
831.491952	2422.644948
831.808819	2423.650658
832.125642	2424.537901
832.442421	2428.412028
832.759157	2432.691967
833.075849	2444.987342
833.392497	2455.311625
833.709101	2462.510392
834.025662	2462.742286
834.342179	2456.518981
834.658653	2446.413988
834.975083	2440.974583
835.291469	2444.344595
835.607811	2430.078129
835.924110	2428.659044
836.240366	2424.807603
836.556578	2422.448343
836.872746	2418.700245
837.188871	2417.172775
837.504952	2416.635893
837.820990	2412.693710
838.136984	2418.191088
838.452935	2414.410223
838.768842	2413.850655
839.084706	2416.398958
839.400526	2419.002714
839.716303	2424.474887
840.032037	2427.504620
840.347727	2429.160639
840.663373	2425.767943
840.978977	2423.176790
841.294537	2417.205543
841.610054	2415.882240
841.925527	2417.530697
842.240957	2411.325037
842.556344	2413.636406
842.871687	2412.086251
843.186987	2411.579615
843.502244	2408.993503
843.817458	2410.198339
844.132629	2408.171795
844.447756	2408.547361
844.762840	2401.013357
845.077881	2403.022257
845.392879	2407.128276
845.707833	2404.839593
846.022745	2400.524365
846.337613	2407.559295
846.652438	2408.086096
846.967221	2405.875550
847.281960	2407.342525
847.596656	2407.445869
847.911309	2403.387740
848.225919	2404.648029
848.540485	2403.067627
848.855009	2406.107443
849.169490	2403.856568
849.483928	2407.597104
849.798323	2402.392112
850.112675	2403.201218
850.426984	2404.978224
850.741251	2404.592576
851.055474	2405.381517
851.369654	2403.927144
851.683792	2406.097360
851.997887	2404.794222
852.311938	2405.656259
852.625947	2405.250447
852.939914	2403.453275
853.253837	2404.769016
853.567718	2404.232133
853.881555	2402.782802
854.195350	2406.203225
854.509103	2404.469068
854.822812	2407.435787
855.136479	2404.688358
855.450103	2408.065931
855.763685	2404.809346
856.077224	2403.304561
856.390720	2402.273645
856.704173	2404.978224
857.017584	2404.237175
857.330953	2403.055024
857.644278	2405.661301
857.957561	2407.587021
858.270802	2405.943605
858.584000	2406.785478
858.897155	2404.466547
859.210268	2406.551064
859.523339	2407.125756
859.836367	2404.171640
860.149352	2408.638102
860.462295	2406.283883
860.775195	2401.651063
861.088054	2401.048645
861.400869	2406.218348
861.713642	2397.391288
862.026373	2405.928482
862.339062	2403.080230
862.651708	2404.035528
862.964312	2407.743297
863.276873	2407.801270
863.589392	2405.994017
863.901869	2407.428225
864.214303	2402.583676
864.526696	2403.221382
864.839045	2405.837741
865.151353	2408.688513
865.463619	2405.956208
865.775842	2407.135838
866.088023	2406.321692
866.400162	2406.432597
866.712258	2406.982083
867.024313	2407.231620
867.336325	2406.107443
867.648296	2408.189439
867.960224	2406.694737
868.272110	2407.493760
868.583954	2405.754562
868.895755	2408.784295
869.207515	2404.053173
869.519233	2407.065262
869.830909	2404.751372
870.142542	2406.835889
870.454134	2408.580129
870.765684	2407.284552
871.077191	2408.476785
871.388657	2407.564336
871.700081	2410.158010
872.011463	2407.937382
872.322803	2407.985273
872.634101	2409.265726
872.945357	2408.605334
873.256571	2409.169944
873.567744	2407.874367
873.878874	2410.092475
874.189963	2410.899059
874.501010	2409.200191
874.812015	2408.892680
875.122979	2411.259502
875.433900	2413.059194
875.744780	2409.941240
876.055618	2408.933009
876.366415	2412.741601
876.677169	2411.738412
876.987882	2409.485016
877.298554	2406.603996
877.609183	2409.023750
877.919771	2407.536610
878.230317	2410.470561
878.540822	2415.841911
878.851285	2415.070614
879.161707	2419.942889
879.472087	2423.307860
879.782425	2428.734662
880.092722	2444.863833
880.402977	2461.136678
880.713191	2482.485965
881.023363	2504.813235
881.333494	2522.452232
881.643583	2528.884745
881.953631	2520.836543
882.263637	2518.749505
882.573602	2506.310458
882.883526	2498.635301
883.193408	2489.170535
883.503248	2479.055459
883.813048	2465.530044
884.122806	2462.520475
884.432522	2451.313990
884.742197	2447.059256
885.051831	2439.283276
885.361424	2437.234047
885.670975	2433.372523
885.980485	2428.051585
886.289954	2425.490679
886.599382	2420.739392
886.908768	2420.315935
887.218113	2418.453228
887.527417	2418.218815
887.836680	2413.971643
888.145901	2414.874009
888.455082	2411.894687
888.764221	2412.930644
889.073319	2411.514080
889.382376	2413.533062
889.691392	2410.906621
890.000366	2409.779923
890.309300	2408.277659
890.618193	2410.609193
890.927044	2410.833524
891.235855	2409.384193
891.544625	2410.689852
891.853353	2411.176323
892.162041	2413.956519
892.470687	2411.219173
892.779293	2416.320820
893.087858	2414.357291
893.396381	2416.739236
893.704864	2425.019331
894.013306	2427.814651
894.321707	2439.278235
894.630068	2442.093719
894.938387	2443.996755
895.246665	2441.629933
895.554903	2437.788574
895.863100	2433.170877
896.171256	2431.645928
896.479371	2426.556883
896.787446	2427.305495
897.095480	2422.987746
897.403473	2421.039340
897.711425	2421.256110
898.019336	2418.914494
898.327207	2416.270409
898.635038	2416.088927
898.942827	2414.833680
899.250576	2415.292425
899.558284	2410.707496
899.865952	2410.677249
900.173579	2411.239337
900.481165	2411.902249
900.788711	2411.781261
901.096216	2410.629358
901.403681	2408.456620
901.711105	2407.226579
902.018489	2406.518297
902.325832	2410.387382
902.633135	2407.531569
902.940397	2415.824267
903.247619	2415.242013
903.554800	2429.879004
903.861941	2438.035591
904.169041	2447.417178
904.476101	2449.536983
904.783121	2447.974225
905.090100	2444.233689
905.397039	2437.861671
905.703938	2433.811104
906.010796	2430.032759
906.317614	2427.212233
906.624391	2424.459763
906.931129	2419.295101
907.237826	2418.382652
907.544483	2417.611356
907.851099	2416.945923
908.157675	2411.181364
908.464211	2410.863771
908.770707	2402.818090
909.077163	2404.257339
909.383578	2403.932185
909.689954	2403.067627
909.996289	2401.242729
910.302584	2405.255488
910.608839	2403.581825
910.915054	2401.910682
911.221229	2403.014695
911.527363	2404.617782
911.833458	2402.913872
912.139513	2405.169788
912.445527	2403.816238
912.751502	2408.512073
913.057436	2405.963770
913.363331	2407.045097
913.669186	2405.215158
913.975000	2409.497619
914.280775	2410.364697
914.586510	2416.472055
914.892205	2419.413568
915.197859	2429.032090
915.503475	2436.840837
915.809050	2443.676642
916.114585	2447.092023
916.420081	2452.433126
916.725536	2449.486572
917.030952	2446.277877
917.336328	2442.514656
917.641665	2436.659356
917.946961	2438.529624
918.252218	2435.106680
918.557435	2427.602923
918.862612	2430.181473
919.167750	2425.999836
919.472848	2424.888261
919.777906	2420.648651
920.082925	2419.060687
920.387904	2416.673701
920.692843	2416.532549
920.997743	2409.265726
921.302603	2408.718760
921.607423	2408.330592
921.912204	2410.009296
922.216946	2409.578277
922.521647	2406.949315
922.826310	2405.656259
923.130932	2405.381517
923.435516	2404.254819
923.740059	2406.311609
924.044564	2403.876732
924.349028	2403.044942
924.653454	2399.463202
924.957840	2402.767678
925.262186	2397.892883
925.566493	2401.898079
925.870761	2397.020763
926.174989	2403.291958
926.479178	2402.598800
926.783328	2401.658624
927.087438	2400.322719
927.391509	2401.220044
927.695541	2402.800446
927.999533	2399.437996
928.303486	2401.323388
928.607400	2398.931360
928.911275	2398.376833
929.215110	2399.251473
929.518906	2400.640311
929.822663	2398.679303
930.126381	2400.509241
930.430060	2398.943963
930.733699	2399.848850
931.037299	2401.666186
931.340861	2398.739796
931.644383	2400.143758
931.947866	2400.410939
932.251309	2403.622154
932.554714	2401.449417
932.858080	2396.851884
933.161407	2399.745507
933.464694	2401.197359
933.767943	2397.134189
934.071153	2398.170146
934.374323	2397.867677
934.677455	2401.124262
934.980548	2399.642163
935.283602	2398.336504
935.586617	2401.542678
935.889593	2398.969169
936.192530	2398.248284
936.495428	2398.616288
936.798287	2401.507390
937.101108	2401.275497
937.403890	2400.521844
937.706632	2403.886814
938.009336	2403.392781
938.312002	2398.492780
938.614628	2401.802297
938.917216	2400.287431
939.219765	2402.034190
939.522275	2404.897566
939.824747	2405.240364
940.127179	2405.285735
940.429573	2395.858777
940.731929	2399.702657
941.034246	2398.220557
941.336524	2402.117369
941.638763	2404.156516
941.940964	2403.692730
942.243126	2401.993861
942.545250	2401.487225
942.847335	2399.642163
943.149381	2403.735580
943.451389	2401.593089
943.753359	2401.426731
944.055290	2400.133675
944.357182	2400.910013
944.659036	2400.415980
944.960851	2403.871691
945.262628	2399.828686
945.564367	2400.405898
945.866067	2398.941443
946.167729	2398.742317
946.469352	2401.310785
946.770937	2399.039745
947.072484	2400.254663
947.373992	2402.666855
947.675462	2402.082081
947.976893	2399.627039
948.278286	2398.437327
948.579641	2400.110990
948.880958	2399.657286
949.182236	2400.100908
949.483476	2399.934550
949.784678	2401.638460
950.085841	2397.658469
950.386967	2401.222565
950.688054	2402.918913
950.989103	2402.419839
951.290114	2399.148130
951.591087	2402.324057
951.892021	2400.196690
952.192917	2401.212482
952.493776	2402.165260
952.794596	2402.303892
953.095378	2401.809859
953.396122	2402.979407
953.696828	2399.916906
953.997496	2402.376989
954.298126	2400.665517
954.598718	2402.303892
954.899272	2401.303223
955.199788	2399.679972
955.500266	2398.581000
955.800706	2395.803324
956.101108	2394.749723
956.401472	2398.515465
956.701798	2393.471791
957.002087	2394.293499
957.302337	2398.817934
957.602550	2398.961607
957.902724	2397.298026
958.202861	2399.816083
958.502960	2394.689229
958.803022	2396.531771
959.103045	2397.424055
959.403031	2396.751061
959.702979	2397.328273
960.002889	2398.533109
960.302762	2395.190824
960.602596	2398.250804
960.902393	2393.640669
961.202153	2397.877759
961.501875	2396.367933
961.801559	2398.714591
962.101205	2393.325597
962.400814	2398.369272
962.700385	2395.737789
962.999918	2399.362379
963.299414	2396.012532
963.598873	2396.511606
963.898293	2395.541184
964.197677	2393.686040
964.497022	2395.536143
964.796331	2394.815258
965.095601	2394.101935
965.394835	2393.675957
965.694030	2396.768705
965.993189	2395.838612
966.292309	2393.746533
966.591393	2395.072357
966.890439	2394.832902
967.189447	2397.008160
967.488419	2395.866339
967.787353	2396.191493
968.086249	2396.531771
968.385108	2395.916750
968.683930	2395.067316
968.982714	2394.946328
969.281462	2397.313150
969.580172	2396.330125
969.878844	2397.262738
970.177480	2395.755433
970.476078	2396.473798
970.774639	2392.488766
971.073162	2399.637122
971.371649	2394.406925
971.670098	2393.996071
971.968510	2395.873900
972.266885	2391.873745
972.565223	2397.953376
972.863524	2395.480690
973.161788	2397.056051
973.460014	2396.123438
973.758204	2398.691905
974.056356	2395.452964
974.354471	2393.804507
974.652550	2392.776111
974.950591	2399.044786
975.248595	2395.697460
975.546563	2394.212840
975.844493	2395.314332
976.142386	2395.316853
976.440243	2396.738458
976.738062	2396.176370
977.035845	2396.209137
977.333590	2398.328942
977.631299	2395.833571
977.928971	2398.354148
978.226606	2396.856925
978.524204	2396.032697
978.821765	2396.647718
979.119290	2396.967831
979.416777	2396.836761
979.714228	2395.430279
980.011642	2397.003119
980.309020	2396.362892
980.606360	2394.033879
980.903664	2396.095711
981.200931	2397.756771
981.498162	2396.002450
981.795356	2396.274672
982.092513	2400.426062
982.389633	2399.085115
982.686717	2399.062430
982.983764	2400.945301
983.280775	2401.222565
983.577749	2400.294992
983.874686	2402.354304
984.171587	2400.990672
984.468451	2400.736093
984.765279	2397.960938
985.062070	2401.335991
985.358824	2399.410270
985.655543	2399.599313
985.952224	2395.452964
986.248869	2397.877759
986.545478	2395.183262
986.842050	2394.220402
987.138586	2392.022459
987.435086	2392.087994
987.731549	2393.905330
988.027975	2393.219733
988.324366	2394.545556
988.620719	2396.279713
988.917037	2394.157388
989.213318	2397.668551
989.509563	2393.781822
989.805772	2394.613612
990.101944	2391.218395
990.398080	2394.338869
990.694180	2392.738303
990.990244	2395.034548
991.286271	2393.859959
991.582262	2397.252656
991.878217	2395.208468
992.174136	2393.529764
992.470019	2395.495814
992.765865	2398.021432
993.061676	2393.660834
993.357450	2395.115207
993.653188	2394.933725
993.948890	2396.468757
994.244556	2393.043292
994.540186	2395.200906
994.835780	2396.546894
995.131337	2395.173180
995.426859	2396.791390
995.722345	2399.354817
996.017795	2397.882800
996.313208	2397.877759
996.608586	2396.456154
996.903928	2397.731566
997.199234	2399.049827
997.494504	2396.191493
997.789738	2396.675444
998.084936	2399.092677
998.380099	2397.469426
998.675225	2397.787018
998.970316	2394.333828
999.265371	2397.204765
999.560390	2399.574107
999.855373	2395.936915
1000.150320	2395.770557
1000.445232	2396.791390
1000.740108	2395.127810
1001.034948	2396.715773
1001.329752	2393.476832
1001.624521	2394.091853
1001.919254	2389.766543
1002.213951	2393.202089
1002.508613	2390.094217
1002.803239	2392.100597
1003.097829	2389.658158
1003.392384	2392.763508
1003.686903	2392.942469
1003.981386	2395.155536
1004.275834	2394.096894
1004.570246	2394.243087
1004.864623	2393.406256
1005.158964	2395.735269
1005.453270	2394.094373
1005.747540	2393.587737
1006.041775	2394.742161
1006.335974	2394.613612
1006.630138	2392.624877
1006.924266	2393.318035
1007.218359	2393.849877
1007.512416	2395.619322
1007.806438	2392.312325
1008.100425	2394.172511
1008.394376	2394.258211
1008.688292	2393.814589
1008.982172	2396.004970
1009.276017	2392.844167
1009.569827	2394.568242
1009.863602	2394.127141
1010.157341	2392.360216
1010.451045	2393.824671
1010.744714	2394.696791
1011.038347	2392.687891
1011.331945	2394.074208
1011.625508	2398.641494
1011.919036	2389.625390
1012.212528	2396.226781
1012.505986	2394.875752
1012.799408	2394.532953
1013.092795	2394.658982
1013.386147	2394.550598
1013.679464	2394.822820
1013.972745	2392.657644
1014.265992	2394.313663
1014.559204	2393.938097
1014.852380	2394.643859
1015.145521	2395.581513
1015.438628	2391.294012
1015.731699	2395.447923
1016.024736	2393.330638
1016.317737	2396.284754
1016.610703	2395.374826
1016.903635	2392.145967
1017.196531	2390.258055
1017.489393	2393.217212
1017.782219	2388.108003
1018.075011	2395.064795
1018.367768	2393.058416
1018.660490	2393.353323
1018.953177	2393.353323
1019.245829	2393.353323
