Dividing Wavelength (nm)	Counts (n)	Blue Motor Position (mm): 0.000000	Red Motor Position (mm): 15.600000	
326.493990	1981.299490
326.888308	1981.299490
327.282561	1981.299490
327.676750	1958.016921
328.070874	1959.521706
328.464933	1965.497994
328.858929	1973.221041
329.252859	1987.207723
329.646726	2001.706081
330.040528	2015.901970
330.434265	2035.940557
330.827938	2054.537373
331.221547	2073.905487
331.615091	2092.101531
332.008571	2116.573813
332.401986	2135.838582
332.795338	2156.161994
333.188625	2174.269818
333.581847	2196.657583
333.975006	2213.500078
334.368100	2229.024311
334.761129	2246.701117
335.154095	2261.464136
335.546996	2280.050870
335.939833	2296.217851
336.332606	2307.394089
336.725315	2319.482776
337.117960	2330.212872
337.510540	2336.196721
337.903056	2344.549913
338.295508	2351.110975
338.687896	2356.600791
339.080220	2364.260825
339.472480	2369.029756
339.864676	2371.157123
340.256807	2377.012423
340.648875	2379.283463
341.040879	2379.618700
341.432818	2380.410161
341.824694	2380.906715
342.216506	2381.035264
342.608253	2381.385624
342.999937	2379.679194
343.391557	2378.824718
343.783113	2376.110057
344.174605	2376.566281
344.566033	2374.133924
344.957397	2373.597042
345.348697	2372.240971
345.739934	2371.694006
346.131106	2366.420959
346.522215	2367.177132
346.913260	2364.369209
347.304241	2362.201513
347.695159	2361.901565
348.086012	2359.862418
348.476802	2358.511389
348.867528	2360.729496
349.258191	2355.045595
349.648789	2353.560976
350.039324	2354.924608
350.429796	2354.818743
350.820203	2354.854032
351.210548	2352.048629
351.600828	2352.285564
351.991045	2349.457476
352.381198	2351.368074
352.771288	2353.041737
353.161314	2350.405213
353.551276	2350.798423
353.941175	2350.921932
354.331010	2354.622138
354.720782	2353.157683
355.110490	2352.179699
355.500135	2356.336131
355.889717	2354.082735
356.279235	2352.401510
356.668689	2354.561645
357.058080	2354.969978
357.447408	2354.407889
357.836672	2352.315811
358.225873	2356.341172
358.615010	2354.760770
359.004084	2357.828312
359.393095	2358.541636
359.782043	2362.014991
360.170927	2356.913343
360.559748	2358.677747
360.948505	2362.798890
361.337199	2360.066585
361.725830	2363.267717
362.114398	2363.993643
362.502903	2362.781246
362.891344	2366.864581
363.279722	2365.586648
363.668037	2368.114787
364.056289	2363.449199
364.444478	2367.580424
364.832603	2368.697040
365.220665	2367.930785
365.608665	2372.155272
365.996601	2369.942205
366.384474	2368.230733
366.772284	2371.449510
367.160031	2371.726773
367.547715	2371.235261
367.935336	2373.624768
368.322893	2370.582432
368.710388	2373.791126
369.097820	2378.310520
369.485189	2375.414378
369.872495	2378.781868
370.259738	2380.445449
370.646918	2383.371839
371.034035	2383.087014
371.421090	2385.264792
371.808081	2390.641183
372.195010	2393.570093
372.581875	2395.866339
372.968678	2403.362534
373.355418	2409.699265
373.742096	2420.610842
374.128710	2431.577873
374.515262	2444.611776
374.901751	2454.575616
375.288177	2474.692341
375.674540	2490.627428
376.060841	2509.461179
376.447079	2535.491177
376.833254	2558.088149
377.219367	2587.316759
377.605417	2620.374125
377.991404	2646.779689
378.377329	2687.781914
378.763191	2717.466748
379.148991	2764.525919
379.534727	2811.809422
379.920402	2857.285671
380.306013	2905.307702
380.691563	2968.727938
381.077049	3021.274405
381.462474	3079.582911
381.847835	3152.740136
382.233134	3219.414437
382.618371	3277.637243
383.003545	3362.663864
383.388657	3443.614713
383.773706	3532.883465
384.158693	3604.082202
384.543618	3698.364381
384.928480	3772.696195
385.313280	3878.426835
385.698017	3980.399295
386.082692	4099.683077
386.467305	4160.607942
386.851856	4285.051345
387.236344	4439.688740
387.620770	4499.940610
388.005133	4623.534579
388.389435	4762.930045
388.773674	4847.026573
389.157851	4977.184124
389.541965	5105.589875
389.926018	5130.223473
390.310008	5304.155883
390.693936	5425.957722
391.077802	5541.082552
391.461606	5674.705897
391.845348	5783.413338
392.229027	5905.925980
392.612645	6125.972345
392.996200	6238.684983
393.379694	6410.477424
393.763125	6633.740046
394.146494	6718.635597
394.529801	6855.568459
394.913047	7096.429749
395.296230	7089.425065
395.679351	7139.493805
396.062410	7396.015439
396.445408	7290.481404
396.828343	7442.802388
397.211217	7567.439876
397.594028	7455.490973
397.976778	7656.038155
398.359466	7816.949265
398.742092	7791.816592
399.124656	7934.566946
399.507158	8112.577650
399.889598	8131.265207
400.271977	8336.392278
400.654294	8367.534006
401.036549	8555.138026
401.418742	8577.891273
401.800874	8869.499338
402.182944	8945.545144
402.564952	9300.533116
402.946898	9120.276578
403.328783	9168.288527
403.710606	9354.347433
404.092367	9595.733002
404.474067	9933.104662
404.855705	9721.043484
405.237282	9659.932097
405.618797	10057.036388
406.000250	10280.321695
406.381642	10607.495100
406.762972	10528.235559
407.144240	10311.791098
407.525447	10521.669456
407.906593	10430.137225
408.287677	10633.812444
408.668700	10738.993598
409.049661	10670.701087
409.430560	10774.400142
409.811399	10692.839314
410.192176	10787.204673
410.572891	10787.318099
410.953545	11153.439459
411.334138	10616.453230
411.714669	11062.171889
412.095139	10380.945646
412.475547	10729.460776
412.855894	10524.676504
413.236180	10694.109685
413.616405	10344.488022
413.996568	10469.680036
414.376670	10345.095481
414.756711	10152.341922
415.136691	10254.828580
415.516609	10279.242888
415.896466	10221.115863
416.276262	10311.859153
416.655997	10507.793680
417.035670	10406.156457
417.415283	10731.104192
417.794834	10647.083281
418.174324	10330.213994
418.553753	10105.917936
418.933121	10281.793712
419.312428	9995.867027
419.691674	9791.511253
420.070859	9920.491695
420.449983	9550.166013
420.829045	9717.217248
421.208047	9394.550635
421.586988	9487.302824
421.965867	9459.543711
422.344686	9280.318089
422.723444	9400.733610
423.102141	8561.086587
423.480777	8976.064289
423.859352	8567.173780
424.237866	8908.170029
424.616319	8596.220909
424.994712	8695.224129
425.373044	8429.605733
425.751314	8522.279785
426.129524	7986.561407
426.507673	8218.903146
426.885762	7933.780526
427.263789	7812.949109
427.641756	7686.128802
428.019662	7523.765840
428.397508	7361.488577
428.775292	7274.841224
429.153016	7080.731596
429.530679	6933.272804
429.908282	6766.871878
430.285824	6529.947729
430.663305	6538.946189
431.040726	6284.662827
431.418086	6084.897024
431.795385	6074.913018
432.172624	6011.449933
432.549802	5766.273415
432.926920	5657.876005
433.303977	5490.103884
433.680974	5392.121497
434.057910	5305.060771
434.434786	5169.433568
434.811601	5030.443915
435.188355	5048.957552
435.565050	4877.644021
435.941683	4743.942539
436.318257	4733.570365
436.694770	4594.784879
437.071222	4541.646076
437.447614	4330.620856
437.823946	4228.081266
438.200218	4142.762257
438.576429	4021.764483
438.952580	3954.535655
439.328670	3861.934700
439.704700	3810.131803
440.080670	3698.765153
440.456580	3656.406858
440.832429	3592.585850
441.208218	3461.581385
441.583947	3420.271650
441.959616	3363.777959
442.335224	3310.802994
442.710773	3258.064963
443.086261	3227.447515
443.461689	3153.950013
443.837057	3108.942591
444.212365	3081.664908
444.587612	3038.724359
444.962800	2987.458345
445.337927	2961.607308
445.712995	2891.484858
446.088002	2906.573032
446.462949	2876.933568
446.837837	2851.821060
447.212664	2820.502892
447.587431	2847.525997
447.962139	2873.790408
448.336786	2890.716082
448.711374	2841.950481
449.085901	2766.796959
449.460369	2738.034656
449.834776	2719.110164
450.209124	2732.587689
450.583412	2714.805019
450.957640	2704.677341
451.331808	2680.656243
451.705917	2651.180616
452.079965	2643.434883
452.453954	2632.997174
452.827883	2623.668519
453.201752	2614.415481
453.575562	2611.269801
453.949311	2609.344081
454.323001	2602.732607
454.696632	2597.940991
455.070202	2604.900303
455.443713	2598.248501
455.817164	2595.642224
456.190556	2592.766246
456.563888	2587.165524
456.937160	2579.810481
457.310373	2569.753379
457.683526	2572.173133
458.056619	2566.111145
458.429653	2562.363047
458.802628	2559.449260
459.175542	2559.292985
459.548398	2565.223902
459.921194	2570.242371
460.293930	2570.557443
460.666607	2580.758218
461.039224	2587.767942
461.411782	2586.981522
461.784280	2577.904925
462.156719	2570.774213
462.529099	2565.360013
462.901419	2554.428271
463.273680	2548.189843
463.645882	2547.988197
464.018024	2543.932589
464.390106	2546.821170
464.762130	2561.574107
465.134094	2576.954667
465.505999	2600.902668
465.877845	2623.925618
466.249631	2624.593571
466.621358	2614.831377
466.993026	2606.054728
467.364634	2593.928232
467.736184	2582.257961
468.107674	2575.127249
468.479105	2567.704150
468.850477	2564.674416
469.221790	2557.430278
469.593043	2547.632796
469.964238	2544.719009
470.335373	2541.795140
470.706449	2549.185471
471.077467	2559.519837
471.448425	2577.017682
471.819324	2590.689291
472.190164	2581.942889
472.560945	2566.000240
472.931667	2550.234031
473.302330	2544.867723
473.672934	2546.927034
474.043479	2541.590973
474.413965	2539.219110
474.784393	2537.550488
475.154761	2538.498225
475.525070	2535.967566
475.895321	2536.847247
476.265513	2539.657690
476.635645	2543.267157
477.005719	2546.911911
477.375734	2546.032229
477.745691	2548.709082
478.115588	2553.810730
478.485427	2559.819785
478.855207	2571.840417
479.224928	2584.765935
479.594591	2592.373036
479.964194	2589.454208
480.333739	2586.111923
480.703226	2587.536049
481.072653	2590.654003
481.442022	2593.257759
481.811333	2593.923191
482.180584	2588.246852
482.549777	2581.733681
482.918912	2584.619742
483.287988	2582.434401
483.657005	2577.814184
484.025964	2578.134297
484.394864	2577.390727
484.763706	2573.705643
485.132489	2570.935529
485.501213	2570.643142
485.869879	2568.656928
486.238487	2567.825137
486.607036	2568.382185
486.975527	2568.183059
487.343959	2566.534602
487.712333	2567.285734
488.080648	2565.755744
488.448905	2569.793708
488.817104	2570.315467
489.185244	2573.624985
489.553326	2578.835018
489.921350	2593.013263
490.289315	2604.297886
490.657222	2606.029522
491.025070	2605.946343
491.392861	2603.660180
491.760593	2598.797987
492.128267	2589.078642
492.495883	2585.126378
492.863440	2578.318299
493.230939	2572.158009
493.598380	2569.438307
493.965763	2565.354972
494.333088	2564.979406
494.700354	2559.169476
495.067563	2560.880948
495.434713	2560.316339
495.801805	2560.243242
496.168839	2562.189127
496.535815	2560.444888
496.902733	2561.727862
497.269593	2559.615618
497.636395	2558.085628
498.003139	2562.899930
498.369825	2560.429765
498.736453	2561.508572
499.103023	2562.683161
499.469535	2560.258366
499.835989	2561.503531
500.202385	2562.242060
500.568723	2561.503531
500.935003	2565.455795
501.301226	2565.097873
501.667390	2569.284552
502.033497	2574.040880
502.399546	2568.926630
502.765537	2565.760785
503.131470	2570.320509
503.497345	2574.567681
503.863163	2571.956363
504.228923	2570.068451
504.594625	2578.754359
504.960269	2575.749831
505.325856	2580.942220
505.691385	2579.790316
506.056856	2582.943558
506.422270	2587.228539
506.787625	2588.178796
507.152924	2587.997315
507.518164	2593.512337
507.883347	2591.032089
508.248472	2595.390167
508.613540	2597.414190
508.978550	2603.907196
509.343503	2601.706732
509.708398	2609.928854
510.073236	2611.141252
510.438016	2616.003445
510.802738	2613.702158
511.167403	2617.735081
511.532010	2624.555762
511.896561	2626.466360
512.261053	2632.233440
512.625488	2626.650362
512.989866	2630.975672
513.354186	2631.996505
513.718449	2634.600261
514.082655	2642.603093
514.446803	2639.800212
514.810894	2645.748773
515.174927	2650.837818
515.538904	2650.116933
515.902822	2652.685401
516.266684	2652.914773
516.630488	2655.589105
516.994235	2658.573468
517.357925	2658.780156
517.721558	2664.403563
518.085133	2667.919768
518.448651	2669.734583
518.812112	2668.759120
519.175516	2668.060920
519.538863	2669.474964
519.902152	2669.633760
520.265385	2679.806808
520.628560	2677.293793
520.991678	2674.889163
521.354739	2677.850841
521.717743	2678.370080
522.080690	2680.056346
522.443580	2684.409382
522.806413	2683.484330
523.169189	2683.020544
523.531908	2684.916018
523.894569	2686.657737
524.257174	2687.242510
524.619722	2688.424661
524.982213	2689.576565
525.344647	2690.768797
525.707025	2689.594209
526.069345	2694.199303
526.431608	2694.501772
526.793815	2694.829447
527.155964	2689.722758
527.518057	2693.057481
527.880093	2692.225691
528.242072	2693.690146
528.603995	2691.794672
528.965860	2689.674867
529.327669	2692.011442
529.689421	2687.481965
530.051117	2688.230577
530.412755	2688.739733
530.774337	2688.631348
531.135862	2685.528518
531.497331	2685.581450
531.858743	2678.533917
532.220098	2684.154804
532.581396	2679.539627
532.942638	2678.158351
533.303824	2679.385872
533.664953	2679.020388
534.026025	2675.673062
534.387040	2675.499142
534.747999	2675.352949
535.108902	2672.940757
535.469748	2666.999757
535.830537	2665.920950
536.191270	2665.883142
536.551947	2663.884324
536.912567	2657.877789
537.273131	2660.358037
537.633638	2655.405103
537.994089	2654.023827
538.354483	2647.457724
538.714821	2649.116264
539.075103	2648.244144
539.435328	2639.555716
539.795497	2638.328195
540.155609	2635.588328
540.515665	2637.715694
540.875665	2630.617750
541.235609	2629.052472
541.595496	2626.773870
541.955328	2626.123561
542.315102	2620.361522
542.674821	2616.568054
543.034483	2610.526231
543.394090	2610.475820
543.753640	2607.441045
544.113134	2607.914913
544.472571	2599.778491
544.831953	2601.429469
545.191278	2594.102152
545.550548	2592.302460
545.909761	2590.802717
546.268918	2582.895667
546.628019	2585.852304
546.987064	2580.332240
547.346053	2575.049111
547.704986	2574.723957
548.063863	2569.826476
548.422684	2569.153482
548.781449	2566.448903
549.140158	2560.374312
549.498811	2558.544373
549.857408	2555.801986
550.215949	2553.994732
550.574434	2549.949206
550.932864	2546.695141
551.291237	2543.791437
551.649555	2545.714637
552.007817	2546.443083
552.366022	2541.734646
552.724173	2539.075437
553.082267	2537.152237
553.440305	2536.975797
553.798288	2533.935981
554.156215	2529.555218
554.514086	2531.110414
554.871902	2528.325177
555.229661	2526.280989
555.587365	2522.605988
555.945014	2524.367871
556.302606	2521.471728
556.660143	2518.658764
557.017625	2518.313445
557.375050	2517.584998
557.732421	2516.967457
558.089735	2515.719771
558.446994	2515.127436
558.804197	2518.815040
559.161345	2515.515605
559.518437	2512.369925
559.875474	2510.691220
560.232455	2513.579802
560.589381	2509.632578
560.946251	2513.231962
561.303065	2510.499657
561.659825	2508.072341
562.016528	2508.710047
562.373177	2508.621827
562.729770	2506.834738
563.086307	2506.781806
563.442789	2506.794408
563.799216	2505.710560
564.155587	2505.715602
564.511904	2504.470437
564.868164	2504.757782
565.224370	2505.947495
565.580520	2503.368944
565.936615	2502.154026
566.292654	2501.554129
566.648638	2502.053203
567.004567	2502.396002
567.360441	2502.761485
567.716260	2500.616474
568.072023	2502.756444
568.427732	2495.587923
568.783385	2498.315188
569.138982	2493.969713
569.494525	2496.724704
569.850013	2497.448109
570.205445	2500.475322
570.560823	2498.191679
570.916145	2499.719149
571.271412	2497.869046
571.626625	2496.102121
571.981782	2498.373161
572.336884	2499.046155
572.691931	2496.243273
573.046923	2497.175887
573.401860	2493.911740
573.756743	2497.042296
574.111570	2494.400732
574.466342	2498.370640
574.821059	2495.295537
575.175722	2496.971720
575.530330	2493.727738
575.884882	2496.896103
576.239380	2493.369816
576.593823	2496.613798
576.948211	2492.180103
577.302544	2493.553818
577.656823	2492.467449
578.011047	2493.705053
578.365216	2492.986688
578.719330	2490.660196
579.073389	2492.104486
579.427394	2490.851759
579.781344	2489.775473
580.135239	2488.734475
580.489080	2487.844711
580.842866	2488.361429
581.196597	2489.697335
581.550273	2490.660196
581.903895	2490.972747
582.257463	2489.067191
582.610975	2486.667602
582.964434	2486.866727
583.317837	2484.870430
583.671186	2487.736326
584.024481	2488.915956
584.377721	2485.740029
584.730906	2486.264309
585.084037	2487.726244
585.437113	2484.877992
585.790135	2486.970071
586.143103	2485.044350
586.496016	2486.566779
586.848874	2480.340954
587.201679	2481.550831
587.554428	2478.863896
587.907124	2483.612663
588.259765	2479.690645
588.612352	2482.927066
588.964884	2485.288846
589.317362	2481.913794
589.669786	2485.208188
590.022155	2479.562095
590.374470	2481.689462
590.726731	2481.132415
591.078937	2482.312045
591.431090	2479.325161
591.783188	2477.860706
592.135232	2481.303814
592.487222	2480.378762
592.839157	2480.313227
593.191038	2479.546972
593.542866	2475.695530
593.894639	2478.916828
594.246358	2474.525983
594.598022	2477.515387
594.949633	2477.162506
595.301190	2473.956332
595.652692	2472.257463
596.004141	2473.285859
596.355535	2474.480612
596.706876	2471.639922
597.058162	2474.243678
597.409395	2474.064717
597.760573	2474.919193
598.111698	2473.777371
598.462768	2472.975828
598.813785	2473.933647
599.164748	2473.164871
599.515657	2471.264356
599.866511	2471.168574
600.217312	2472.060858
600.568060	2472.290231
600.918753	2476.953298
601.269392	2470.382154
601.619978	2473.275777
601.970510	2473.542958
602.320988	2472.796867
602.671412	2472.685962
603.021783	2469.394088
603.372100	2473.472382
603.722363	2472.554892
604.072572	2470.750158
604.422728	2473.076651
604.772830	2469.333594
605.122878	2465.489714
605.472872	2469.205045
605.822813	2464.582307
606.172701	2472.418780
606.522534	2469.941053
606.872314	2469.623461
607.222041	2472.229737
607.571714	2469.542802
607.921333	2470.215796
608.270899	2470.596403
608.620411	2469.068934
608.969870	2468.612709
609.319276	2466.966772
609.668627	2468.826958
610.017926	2470.230920
610.367171	2468.128758
610.716362	2472.922896
611.065500	2470.412401
611.414585	2471.859212
611.763616	2468.839561
612.112594	2468.206896
612.461518	2470.059520
612.810389	2468.751341
613.159207	2471.027422
613.507971	2470.293934
613.856682	2468.494242
614.205340	2468.653038
614.553945	2473.391723
614.902496	2469.023563
615.250994	2468.385857
615.599439	2470.606486
615.947830	2470.160343
616.296169	2468.295117
616.644454	2471.314768
616.992686	2469.787298
617.340864	2469.948615
617.688990	2470.593883
618.037063	2471.513893
618.385082	2470.601444
618.733048	2469.454582
619.080961	2469.010960
619.428821	2473.265694
619.776628	2470.298975
620.124382	2471.460961
620.472083	2467.133131
620.819731	2469.633543
621.167326	2469.598255
621.514868	2470.850982
621.862357	2467.780919
622.209793	2472.078503
622.557176	2468.022894
622.904506	2465.714046
623.251783	2460.927470
623.599007	2464.531895
623.946179	2461.474435
624.293297	2463.160701
624.640363	2464.226905
624.987376	2462.674230
625.334336	2464.478963
625.681243	2462.833026
626.028097	2462.727162
626.374899	2461.731534
626.721647	2462.621298
627.068343	2461.880248
627.414987	2461.431586
627.761577	2461.232460
628.108115	2464.899899
628.454600	2460.617439
628.801032	2457.338169
629.147412	2461.759261
629.493739	2459.641976
629.840014	2461.262707
630.186236	2461.978551
630.532405	2459.982254
630.878521	2459.856225
631.224585	2463.382512
631.570597	2460.672892
631.916556	2459.624332
632.262462	2458.890844
632.608316	2456.554269
632.954117	2458.437140
633.299866	2456.077880
633.645562	2459.702470
633.991206	2456.433282
634.336797	2456.680298
634.682336	2455.006635
635.027823	2455.276337
635.373257	2455.906481
635.718639	2454.719289
636.063968	2455.881275
636.409245	2452.619649
636.754470	2455.228446
637.099642	2454.636110
637.444762	2454.499999
637.789829	2450.598146
638.134845	2455.407407
638.479808	2450.731737
638.824719	2449.801644
639.169577	2452.657457
639.514383	2450.066304
639.859137	2451.044288
640.203839	2454.563013
640.548489	2449.872220
640.893086	2447.636468
641.237632	2447.235696
641.582125	2449.060594
641.926566	2445.874585
642.270955	2451.606377
642.615292	2451.676953
642.959576	2448.637137
643.303809	2449.824329
643.647990	2449.632765
643.992118	2451.467745
644.336195	2451.876078
644.680219	2450.701490
645.024192	2450.514967
645.368112	2449.055553
645.711981	2449.032868
646.055797	2449.237034
646.399562	2449.138732
646.743274	2452.070163
647.086935	2451.397169
647.430544	2452.014710
647.774101	2452.375153
648.117606	2452.735595
648.461059	2451.568568
648.804460	2455.205761
649.147810	2451.891202
649.491108	2449.307611
649.834354	2450.656119
650.177548	2449.088320
650.520690	2450.041098
650.863781	2447.669236
651.206820	2449.327775
651.549807	2446.035902
651.892742	2448.800975
652.235626	2446.028340
652.578458	2447.071859
652.921238	2449.055553
653.263967	2447.051694
653.606644	2446.736622
653.949269	2445.073041
654.291843	2444.584049
654.634365	2444.896601
654.976836	2443.298555
655.319255	2445.309976
655.661622	2445.854420
656.003938	2444.805860
656.346203	2444.896601
656.688416	2445.778803
657.030577	2442.350818
657.372687	2447.089503
657.714746	2443.880808
658.056753	2442.950716
658.398708	2439.870571
658.740612	2442.164296
659.082465	2439.134562
659.424266	2440.253698
659.766016	2437.798656
660.107715	2442.693617
660.449362	2445.108329
660.790958	2444.853751
661.132503	2443.142279
661.473996	2442.665890
661.815438	2445.677980
662.156829	2444.168154
662.498168	2440.699840
662.839456	2442.817125
663.180693	2444.798298
663.521879	2442.101281
663.863013	2443.845520
664.204097	2445.443566
664.545129	2440.231013
664.886110	2445.372990
665.227040	2444.236210
665.567918	2441.793771
665.908746	2441.995417
666.249522	2444.916766
666.590248	2441.697989
666.930922	2444.400047
667.271545	2442.116405
667.612118	2442.076075
667.952639	2443.936261
668.293109	2442.572629
668.633528	2443.885850
668.973896	2444.740325
669.314213	2443.303596
669.654480	2442.088678
669.994695	2442.484409
670.334859	2442.249995
670.674973	2443.190170
671.015035	2442.287804
671.355047	2440.886363
671.695008	2444.011878
672.034918	2444.344595
672.374777	2442.348298
672.714585	2440.677155
673.054342	2441.350149
673.394049	2442.141610
673.733705	2441.899635
674.073310	2443.351487
674.412864	2440.720005
674.752368	2441.498863
675.091820	2441.834100
675.431223	2440.256219
675.770574	2439.139603
676.109875	2438.758996
676.449125	2435.777154
676.788324	2436.868563
677.127473	2437.259253
677.466571	2434.456371
677.805619	2439.661363
678.144616	2440.354521
678.483562	2439.157247
678.822458	2439.810077
679.161303	2438.975766
679.500098	2439.726898
679.838842	2436.853440
680.177535	2437.990220
680.516179	2438.038111
680.854771	2436.833275
681.193314	2439.623554
681.531805	2441.829059
681.870247	2444.253854
682.208638	2446.378700
682.546978	2445.347784
682.885268	2441.072886
683.223508	2443.422063
683.561697	2443.679162
683.899836	2440.440221
684.237925	2445.153700
684.575963	2439.971394
684.913951	2440.760334
685.251889	2443.996755
685.589776	2438.738832
685.927614	2441.282094
686.265401	2437.995261
686.603137	2438.605241
686.940824	2441.476178
687.278460	2441.761003
687.616046	2441.947526
687.953582	2446.638320
688.291068	2440.926692
688.628504	2442.696137
688.965889	2442.136569
689.303224	2442.973401
689.640510	2441.556837
689.977745	2441.476178
690.314930	2437.962494
690.652065	2443.258226
690.989150	2439.414346
691.326185	2440.087340
691.663170	2435.817483
692.000105	2436.800508
692.336990	2430.660383
692.673825	2433.422935
693.010610	2436.588779
693.347345	2432.243305
693.684030	2426.980340
694.020665	2430.710794
694.357251	2425.851122
694.693786	2433.294385
695.030272	2430.234405
695.366707	2430.834302
695.703093	2432.374375
696.039429	2431.230033
696.375716	2434.211875
696.711952	2431.343459
697.048139	2429.901689
697.384276	2427.537388
697.720363	2429.125351
698.056400	2430.453695
698.392388	2429.422779
698.728326	2429.853798
699.064214	2428.490166
699.400053	2427.802048
699.735842	2428.096956
700.071581	2427.290371
700.407270	2426.241811
700.742910	2427.245001
701.078501	2427.905392
701.414042	2426.408169
701.749533	2426.614857
702.084974	2425.558735
702.420366	2425.180648
702.755709	2426.456060
703.091002	2425.276430
703.426246	2427.575196
703.761440	2425.107552
704.096584	2423.456574
704.431679	2423.547314
704.766725	2426.549322
705.101721	2423.827098
705.436668	2425.074784
705.771565	2420.867941
706.106413	2423.401121
706.441212	2423.885072
706.775961	2426.531677
707.110661	2424.409352
707.445311	2427.325659
707.779913	2426.279620
708.114465	2426.761050
708.448967	2423.055802
708.783421	2427.759198
709.117825	2426.382963
709.452180	2430.161308
709.786485	2428.714497
710.120742	2431.552667
710.454949	2430.219282
710.789107	2429.654672
711.123216	2427.040834
711.457275	2429.558890
711.791286	2428.424631
712.125247	2430.819179
712.459159	2431.300609
712.793023	2432.734817
713.126837	2430.431010
713.460602	2431.945877
713.794318	2430.955290
714.127985	2429.647111
714.461602	2428.086873
714.795171	2431.356062
715.128691	2429.700043
715.462162	2429.344641
715.795584	2426.176276
716.128957	2428.235588
716.462281	2428.243149
716.795556	2424.469846
717.128782	2422.796183
717.461960	2422.619742
717.795088	2422.660071
718.128167	2423.476738
718.461198	2421.790472
718.794180	2422.919691
719.127113	2423.373395
719.459997	2422.740730
719.792833	2421.672005
720.125619	2421.538415
720.458357	2419.905081
720.791046	2421.160328
721.123686	2421.745102
721.456278	2420.663774
721.788821	2421.661923
722.121315	2420.472211
722.453761	2421.833322
722.786158	2420.588157
723.118506	2420.900709
723.450805	2422.846594
723.783056	2421.656882
724.115259	2422.140832
724.447412	2421.432550
724.779518	2420.925914
725.111574	2421.185534
725.443582	2422.430699
725.775542	2422.458425
726.107453	2422.130750
726.439315	2422.216450
726.771129	2426.652665
727.102895	2423.532191
727.434612	2423.907757
727.766281	2424.616039
728.097901	2422.448343
728.429473	2420.605801
728.760996	2420.144536
729.092471	2418.627148
729.423897	2423.980854
729.755276	2422.309711
730.086606	2425.747778
730.417887	2421.094793
730.749120	2423.055802
731.080305	2426.514033
731.411442	2427.996133
731.742530	2425.044537
732.073570	2426.947573
732.404562	2427.701225
732.735506	2425.848601
733.066401	2426.645103
733.397249	2427.575196
733.728048	2425.261307
734.058798	2423.852304
734.389501	2422.939855
734.720156	2422.851635
735.050762	2421.760225
735.381320	2420.746953
735.711831	2424.815165
736.042293	2422.017324
736.372707	2418.664957
736.703073	2419.902560
737.033391	2419.050605
737.363661	2423.527150
737.693883	2418.894329
738.024056	2421.921542
738.354182	2421.493044
738.684260	2422.672674
739.014290	2422.216450
739.344272	2421.498085
739.674207	2425.266348
740.004093	2420.769639
740.333931	2424.270720
740.663722	2423.837181
740.993464	2423.754002
741.323159	2424.008580
741.652806	2423.335586
741.982405	2420.177303
742.311956	2422.561769
742.641460	2422.990267
742.970915	2419.645461
743.300323	2422.047571
743.629683	2420.242838
743.958996	2419.216963
744.288260	2418.707807
744.617477	2417.558424
744.946647	2414.536252
745.275768	2417.326531
745.604842	2416.242682
745.933869	2413.742270
746.262847	2413.948958
746.591778	2418.301994
746.920662	2415.592374
747.249498	2418.054977
747.578286	2418.478434
747.907027	2418.581778
748.235720	2417.450039
748.564365	2418.922056
748.892963	2419.534556
749.221514	2418.919535
749.550017	2420.172262
749.878473	2418.496078
750.206881	2417.155131
750.535242	2418.740574
750.863555	2412.822260
751.191821	2418.705286
751.520039	2417.109761
751.848210	2417.991963
752.176334	2418.632189
752.504411	2417.797878
752.832440	2417.172775
753.160421	2415.970460
753.488356	2417.787796
753.816243	2417.417271
754.144082	2416.774524
754.471875	2417.497930
754.799620	2416.779565
755.127318	2418.594381
755.454969	2416.134298
755.782572	2414.586663
756.110129	2417.878537
756.437638	2417.417271
756.765100	2416.073804
757.092515	2416.320820
757.419882	2416.981212
757.747203	2420.691501
758.074477	2414.679925
758.401703	2417.150090
758.728882	2416.666139
759.056014	2420.547828
759.383099	2416.933321
759.710138	2417.734864
760.037129	2418.208733
760.364073	2418.095307
760.690970	2417.742426
761.017820	2415.960378
761.344623	2418.778383
761.671379	2419.252251
761.998088	2416.207394
762.324751	2420.943558
762.651366	2424.369023
762.977935	2433.606937
763.304456	2433.899324
763.630931	2439.250509
763.957359	2436.233378
764.283740	2436.671958
764.610074	2430.952769
764.936362	2427.759198
765.262602	2423.380956
765.588796	2421.974474
765.914943	2423.824578
766.241044	2419.985739
766.567097	2417.868455
766.893104	2416.189750
767.219064	2414.793351
767.544978	2413.863258
767.870845	2411.191446
768.196665	2413.729667
768.522438	2412.421488
768.848165	2415.662950
769.173846	2413.119688
769.499479	2413.691859
769.825066	2411.133473
770.150607	2412.033319
770.476101	2409.943761
770.801548	2413.301169
771.126949	2409.031312
771.452303	2412.696231
771.777611	2411.325037
772.102872	2410.765469
772.428087	2411.846796
772.753256	2410.392423
773.078378	2410.606673
773.403453	2410.258833
773.728482	2408.822104
774.053465	2409.396796
774.378401	2410.815880
774.703291	2411.388051
775.028135	2409.679100
775.352932	2406.515776
775.677683	2409.600962
776.002388	2409.485016
776.327046	2408.713719
776.651658	2410.699934
776.976224	2408.781775
777.300743	2406.528379
777.625216	2409.926117
777.949643	2408.355797
778.274024	2408.312947
778.598359	2403.798594
778.922647	2403.566701
779.246889	2407.897052
779.571086	2402.949160
779.895236	2410.125242
780.219339	2409.976528
780.543397	2408.996024
780.867409	2407.939902
781.191374	2407.881929
781.515294	2406.805642
781.839167	2409.011147
782.162995	2408.930489
782.486776	2409.338822
782.810511	2406.281362
783.134201	2409.174985
783.457844	2408.098698
783.781441	2406.354459
784.104993	2410.349574
784.428498	2408.403688
784.751958	2408.781775
785.075372	2408.978380
785.398739	2406.878739
785.722061	2406.205745
786.045337	2408.587690
786.368568	2408.650705
786.691752	2407.304717
787.014891	2408.164233
787.337983	2407.324881
787.661030	2409.351425
787.984031	2412.965932
788.306987	2410.389903
788.629897	2412.376117
788.952760	2412.592887
789.275579	2411.173802
789.598351	2413.641447
789.921078	2409.558113
790.243759	2408.469223
790.566395	2409.464851
790.888984	2409.346384
791.211529	2409.621127
791.534027	2408.519635
791.856480	2408.781775
792.178888	2409.469892
792.501249	2408.444017
792.823566	2407.599624
793.145836	2408.272618
793.468062	2408.575088
793.790241	2405.568039
794.112375	2408.769172
794.434464	2407.997875
794.756507	2410.029460
795.078505	2407.904614
795.400457	2405.915879
795.722364	2405.179870
796.044226	2406.137690
796.366042	2405.620971
796.687812	2406.404871
797.009538	2410.649522
797.331218	2407.375293
797.652852	2409.432084
797.974442	2406.263718
798.295986	2408.544841
798.617484	2410.006775
798.938938	2410.452917
799.260346	2409.343863
799.581709	2408.219686
799.903026	2410.888977
800.224299	2408.630540
800.545526	2408.718760
800.866708	2407.019892
801.187845	2410.062228
801.508936	2407.224058
801.829983	2407.730694
802.150984	2405.227761
802.471940	2407.549213
802.792851	2405.416805
803.113717	2407.062741
803.434538	2406.810684
803.755314	2405.895714
804.076045	2404.932854
804.396731	2405.079047
804.717372	2406.699778
805.037967	2410.624317
805.358518	2403.596948
805.679024	2406.465365
805.999485	2407.418143
806.319901	2407.082906
806.640272	2407.420663
806.960598	2409.255643
807.280879	2401.109139
807.601115	2407.302196
807.921306	2406.558626
808.241453	2407.468554
808.561554	2404.804304
808.881611	2407.216497
809.201623	2408.597773
809.521590	2408.101219
809.841513	2404.484191
810.161390	2406.097360
810.481223	2406.447721
810.801011	2406.939233
811.120755	2404.975704
811.440453	2407.955026
811.760107	2403.841444
812.079716	2407.473595
812.399281	2399.201062
812.718801	2402.838254
813.038276	2401.847668
813.357707	2406.200704
813.677093	2406.150292
813.996434	2408.317989
814.315731	2408.350756
814.634983	2407.466034
814.954191	2405.230282
815.273354	2408.156672
815.592473	2405.394119
815.911547	2410.213462
816.230577	2407.196332
816.549562	2406.782957
816.868502	2409.923596
817.187399	2407.675242
817.506250	2406.142731
817.825058	2408.093657
818.143821	2406.336815
818.462539	2408.370921
818.781213	2411.700603
819.099843	2409.326219
819.418429	2412.396282
819.736970	2416.275450
820.055466	2417.263516
820.373919	2419.247210
820.692327	2428.883376
821.010691	2436.724891
821.329011	2455.629217
821.647286	2490.304794
821.965517	2520.181193
822.283704	2546.647250
822.601847	2548.252858
822.919945	2534.240971
823.237999	2518.517612
823.556010	2501.458347
823.873976	2483.456387
824.191897	2470.180508
824.509775	2457.890175
824.827609	2451.291305
825.145398	2446.348453
825.463144	2445.090685
825.780845	2440.530962
826.098502	2448.372477
826.416116	2453.143929
826.733685	2463.634570
827.051210	2463.100207
827.368692	2463.949642
827.686129	2450.393979
828.003522	2443.817794
828.320872	2431.792122
828.638177	2426.226688
828.955439	2422.496234
829.272656	2419.597570
829.589830	2412.797054
829.906960	2414.364853
830.224046	2412.797054
830.541088	2412.355953
830.858086	2410.573905
831.175041	2411.428381
831.491952	2411.272105
831.808819	2412.512229
832.125642	2411.932496
832.442421	2410.286559
832.759157	2420.295770
833.075849	2422.715524
833.392497	2430.715835
833.709101	2434.433686
834.025662	2434.385795
834.342179	2431.829930
834.658653	2425.735175
834.975083	2422.566810
835.291469	2426.085535
835.607811	2415.862075
835.924110	2413.651529
836.240366	2410.362177
836.556578	2411.022568
836.872746	2410.412588
837.188871	2407.226579
837.504952	2404.809346
837.820990	2403.556619
838.136984	2407.879408
838.452935	2405.079047
838.768842	2407.405540
839.084706	2404.953018
839.400526	2408.933009
839.716303	2410.866292
840.032037	2414.480799
840.347727	2415.083217
840.663373	2410.374779
840.978977	2408.527197
841.294537	2409.101888
841.610054	2409.195149
841.925527	2405.515107
842.240957	2406.573749
842.556344	2404.073337
842.871687	2403.533934
843.186987	2403.581825
843.502244	2401.454458
843.817458	2404.280024
844.132629	2398.631412
844.447756	2400.902451
844.762840	2397.401370
845.077881	2399.924468
845.392879	2398.356669
845.707833	2402.303892
846.022745	2395.654610
846.337613	2400.277348
846.652438	2400.564694
846.967221	2401.267935
847.281960	2401.086453
847.596656	2402.243398
847.911309	2400.552091
848.225919	2397.227450
848.540485	2400.789025
848.855009	2399.017060
849.169490	2400.257184
849.483928	2399.700136
849.798323	2398.394477
850.112675	2400.967986
850.426984	2397.298026
850.741251	2401.131824
851.055474	2399.604354
851.369654	2400.584859
851.683792	2399.299364
851.997887	2400.126114
852.311938	2399.155692
852.625947	2402.303892
852.939914	2399.004457
853.253837	2401.847668
853.567718	2398.298695
853.881555	2399.551422
854.195350	2399.541340
854.509103	2398.838099
854.822812	2402.276166
855.136479	2400.685682
855.450103	2400.877246
855.763685	2402.233316
856.077224	2398.404560
856.390720	2399.745507
856.704173	2402.631567
857.017584	2400.385733
857.330953	2397.146792
857.644278	2400.904972
857.957561	2399.223747
858.270802	2401.887997
858.584000	2397.484549
858.897155	2397.207286
859.210268	2397.943294
859.523339	2400.370610
859.836367	2398.099570
860.149352	2400.123593
860.462295	2400.731052
860.775195	2397.096380
861.088054	2396.355331
861.400869	2398.480177
861.713642	2392.695453
862.026373	2398.137378
862.339062	2397.902965
862.651708	2399.803480
862.964312	2401.608213
863.276873	2398.638973
863.589392	2401.338511
863.901869	2402.699623
864.214303	2399.390105
864.526696	2399.788356
864.839045	2401.391443
865.151353	2401.184756
865.463619	2401.159550
865.775842	2401.525034
866.088023	2399.279200
866.400162	2401.598131
866.712258	2399.064951
867.024313	2401.719118
867.336325	2399.808521
867.648296	2401.328429
867.960224	2399.778274
868.272110	2399.521175
868.583954	2397.839950
868.895755	2402.918913
869.207515	2400.594941
869.519233	2401.782133
869.830909	2400.781464
870.142542	2401.767009
870.454134	2402.792884
870.765684	2401.855229
871.077191	2400.773902
871.388657	2400.998233
871.700081	2400.912534
872.011463	2401.031001
872.322803	2401.439334
872.634101	2403.029818
872.945357	2400.763820
873.256571	2402.790363
873.567744	2398.959087
873.878874	2402.467730
874.189963	2403.944788
874.501010	2400.042935
874.812015	2403.728018
875.122979	2403.773388
875.433900	2401.928326
875.744780	2404.953018
876.055618	2400.683161
876.366415	2402.200548
876.677169	2403.980076
876.987882	2402.339180
877.298554	2399.501011
877.609183	2400.869684
877.919771	2398.822975
878.230317	2401.187277
878.540822	2404.322874
878.851285	2407.216497
879.161707	2407.304717
879.472087	2410.155489
879.782425	2410.599111
880.092722	2422.365164
880.402977	2432.334046
880.713191	2448.211160
881.023363	2459.568879
881.333494	2470.750158
881.643583	2472.131435
881.953631	2470.457772
882.263637	2465.749334
882.573602	2461.570217
882.883526	2454.326079
883.193408	2448.649740
883.503248	2443.684203
883.813048	2439.104315
884.122806	2434.728594
884.432522	2429.422779
884.742197	2423.925401
885.051831	2422.569331
885.361424	2418.745615
885.670975	2415.363001
885.980485	2411.473751
886.289954	2408.123904
886.599382	2411.435942
886.908768	2408.489388
887.218113	2409.144738
887.527417	2406.984603
887.836680	2405.931002
888.145901	2404.481671
888.455082	2402.235837
888.764221	2404.474109
889.073319	2404.721125
889.382376	2403.803635
889.691392	2403.334808
890.000366	2406.556105
890.309300	2402.981927
890.618193	2403.821279
890.927044	2402.288769
891.235855	2403.642318
891.544625	2399.594272
891.853353	2403.279355
892.162041	2403.929664
892.470687	2407.844120
892.779293	2403.339849
893.087858	2403.037380
893.396381	2405.769685
893.704864	2408.325550
894.013306	2410.969636
894.321707	2417.878537
894.630068	2419.544638
894.938387	2422.118147
895.246665	2424.306008
895.554903	2421.004052
895.863100	2417.387024
896.171256	2413.810326
896.479371	2413.134811
896.787446	2412.308062
897.095480	2409.177505
897.403473	2409.532907
897.711425	2407.274470
898.019336	2408.638102
898.327207	2409.714388
898.635038	2408.312947
898.942827	2403.067627
899.250576	2402.767678
899.558284	2404.796743
899.865952	2402.583676
900.173579	2400.720970
900.481165	2403.420508
900.788711	2399.793398
901.096216	2398.616288
901.403681	2402.515621
901.711105	2401.401526
902.018489	2400.915054
902.325832	2404.854716
902.633135	2405.636095
902.940397	2402.341701
903.247619	2405.043759
903.554800	2412.633216
903.861941	2418.075142
904.169041	2426.687953
904.476101	2428.326328
904.783121	2423.696028
905.090100	2424.255597
905.397039	2420.988929
905.703938	2418.644792
906.010796	2415.146232
906.317614	2411.383010
906.624391	2412.247568
906.931129	2406.914027
907.237826	2409.147258
907.544483	2405.757082
907.851099	2404.441341
908.157675	2404.910169
908.464211	2399.211144
908.770707	2394.548077
909.077163	2398.797770
909.383578	2393.363406
909.689954	2396.186452
909.996289	2395.014384
910.302584	2400.083264
910.608839	2399.377502
910.915054	2402.782802
911.221229	2397.502193
911.527363	2397.063613
911.833458	2397.887841
912.139513	2399.047307
912.445527	2398.429765
912.751502	2398.984292
913.057436	2400.176525
913.363331	2400.476474
913.669186	2402.608882
913.975000	2402.031670
914.280775	2403.236506
914.586510	2405.842782
914.892205	2407.435787
915.197859	2415.093299
915.503475	2418.798547
915.809050	2422.261820
916.114585	2422.707962
916.420081	2424.885741
916.725536	2423.446491
917.030952	2423.776687
917.336328	2422.672674
917.641665	2417.465162
917.946961	2417.954154
918.252218	2420.021027
918.557435	2419.567323
918.862612	2412.608011
919.167750	2409.227917
919.472848	2411.468710
919.777906	2407.453431
920.082925	2407.559295
920.387904	2404.146434
920.692843	2402.316495
920.997743	2405.479819
921.302603	2401.719118
921.607423	2402.034190
921.912204	2402.019067
922.216946	2400.133675
922.521647	2400.179046
922.826310	2396.763664
923.130932	2397.595454
923.435516	2396.383057
923.740059	2399.498490
924.044564	2394.563200
924.349028	2397.030845
924.653454	2392.929867
924.957840	2395.344579
925.262186	2394.306102
925.566493	2395.987326
925.870761	2393.998591
926.174989	2396.879611
926.479178	2395.352141
926.783328	2395.964641
927.087438	2399.102759
927.391509	2397.749210
927.695541	2394.253169
927.999533	2399.198541
928.303486	2396.650238
928.607400	2397.232491
928.911275	2396.551936
929.215110	2397.436658
929.518906	2394.187634
929.822663	2398.220558
930.126381	2393.469270
930.430060	2396.315001
930.733699	2394.969013
931.037299	2396.012532
931.340861	2397.103942
931.644383	2397.083777
931.947866	2393.794424
932.251309	2395.689898
932.554714	2394.386760
932.858080	2396.204096
933.161407	2396.080588
933.464694	2394.729558
933.767943	2394.573283
934.071153	2396.385578
934.374323	2397.328273
934.677455	2394.311143
934.980548	2398.001267
935.283602	2395.137892
935.586617	2396.241905
935.889593	2393.655793
936.192530	2391.740154
936.495428	2394.124620
936.798287	2394.285937
937.101108	2394.900958
937.403890	2395.460526
937.706632	2392.806358
938.009336	2394.938766
938.312002	2397.988664
938.614628	2397.325753
938.917216	2400.413459
939.219765	2395.405073
939.522275	2394.608571
939.824747	2400.166443
940.127179	2398.107132
940.429573	2393.839795
940.731929	2393.421379
941.034246	2392.614794
941.336524	2395.581513
941.638763	2398.084446
941.940964	2397.358520
942.243126	2395.949518
942.545250	2398.903634
942.847335	2394.729558
943.149381	2398.449930
943.451389	2393.887686
943.753359	2395.339538
944.055290	2395.959600
944.357182	2398.790208
944.659036	2395.019425
944.960851	2395.019425
945.262628	2396.108314
945.564367	2396.725855
945.866067	2394.364075
946.167729	2397.698798
946.469352	2396.337687
946.770937	2395.561349
947.072484	2396.395660
947.373992	2394.376678
947.675462	2396.244425
947.976893	2397.666031
948.278286	2395.233674
948.579641	2398.722152
948.880958	2393.328118
949.182236	2394.006153
949.483476	2394.333828
949.784678	2396.645197
950.085841	2395.813407
950.386967	2395.571431
950.688054	2396.635115
950.989103	2395.785680
951.290114	2397.585372
951.591087	2397.040927
951.892021	2396.730897
952.192917	2396.168808
952.493776	2394.245608
952.794596	2398.170146
953.095378	2395.420197
953.396122	2397.610578
953.696828	2395.584034
953.997496	2398.550753
954.298126	2395.165618
954.598718	2395.042110
954.899272	2396.292316
955.199788	2396.753582
955.500266	2395.589075
955.800706	2394.288458
956.101108	2390.926008
956.401472	2390.958775
956.701798	2392.458519
957.002087	2393.214692
957.302337	2395.122768
957.602550	2395.735269
957.902724	2394.394322
958.202861	2395.533623
958.502960	2395.165618
958.803022	2393.605381
959.103045	2393.567572
959.403031	2392.483724
959.702979	2394.495145
960.002889	2394.999260
960.302762	2391.599002
960.602596	2394.321225
960.902393	2390.696635
961.202153	2392.645041
961.501875	2393.081101
961.801559	2392.531615
962.101205	2393.612943
962.400814	2393.355844
962.700385	2393.872562
962.999918	2392.065309
963.299414	2391.987171
963.598873	2394.003632
963.898293	2394.054044
964.197677	2393.373488
964.497022	2389.854763
964.796331	2394.227964
965.095601	2393.328118
965.394835	2391.651934
965.694030	2392.466080
965.993189	2393.433982
966.292309	2393.965824
966.591393	2393.625546
966.890439	2389.937942
967.189447	2391.798128
967.488419	2392.947511
967.787353	2394.444733
968.086249	2392.274517
968.385108	2393.963303
968.683930	2394.850546
968.982714	2394.837943
969.281462	2393.605381
969.580172	2394.578324
969.878844	2392.992881
970.177480	2393.842315
970.476078	2394.394322
970.774639	2392.345093
971.073162	2392.455998
971.371649	2391.263765
971.670098	2389.390977
971.968510	2390.578168
972.266885	2388.022303
972.565223	2392.526574
972.863524	2394.754764
973.161788	2392.627397
973.460014	2393.265103
973.758204	2391.346944
974.056356	2394.575803
974.354471	2391.689743
974.652550	2393.113869
974.950591	2395.024466
975.248595	2392.876934
975.546563	2396.148643
975.844493	2393.186965
976.142386	2395.112686
976.440243	2391.236039
976.738062	2393.842315
977.035845	2393.683519
977.333590	2392.826523
977.631299	2391.296533
977.928971	2393.938097
978.226606	2392.496327
978.524204	2392.987840
978.821765	2396.579662
979.119290	2391.462891
979.416777	2392.176214
979.714228	2390.890720
980.011642	2390.971378
980.309020	2395.485732
980.606360	2392.524054
980.903664	2393.426420
981.200931	2394.414486
981.498162	2395.158057
981.795356	2394.656462
982.092513	2396.413304
982.389633	2392.937428
982.686717	2396.733417
982.983764	2393.920453
983.280775	2396.962790
983.577749	2393.320556
983.874686	2398.044117
984.171587	2395.878942
984.468451	2396.345248
984.765279	2395.846174
985.062070	2395.997409
985.358824	2396.246946
985.655543	2394.674106
985.952224	2393.549928
986.248869	2393.658313
986.545478	2386.681356
986.842050	2391.914074
987.138586	2389.905174
987.435086	2390.923487
987.731549	2385.169010
988.027975	2394.238046
988.324366	2392.118241
988.620719	2392.060268
988.917037	2391.485576
989.213318	2389.940462
989.509563	2390.563045
989.805772	2392.700494
990.101944	2391.069681
990.398080	2392.546739
990.694180	2392.491286
990.990244	2394.578324
991.286271	2392.450957
991.582262	2392.357696
991.878217	2391.571276
992.174136	2391.475494
992.470019	2390.663868
992.765865	2395.402552
993.061676	2390.623539
993.357450	2392.937428
993.653188	2394.041441
993.948890	2393.502038
994.244556	2390.510113
994.540186	2391.994733
994.835780	2391.765360
995.131337	2393.670916
995.426859	2391.755278
995.722345	2395.762995
996.017795	2394.139743
996.313208	2394.169990
996.608586	2397.441699
996.903928	2392.902140
997.199234	2393.552449
997.494504	2392.955072
997.789738	2391.538508
998.084936	2392.473642
998.380099	2391.581358
998.675225	2393.955741
998.970316	2395.768036
999.265371	2399.095198
999.560390	2390.938611
999.855373	2392.551780
1000.150320	2395.158057
1000.445232	2390.802500
1000.740108	2391.208313
1001.034948	2392.622356
1001.329752	2392.917264
1001.624521	2393.670916
1001.919254	2387.331665
1002.213951	2389.748898
1002.508613	2391.372150
1002.803239	2390.464742
1003.097829	2387.228322
1003.392384	2393.078581
1003.686903	2393.557490
1003.981386	2392.884496
1004.275834	2392.166132
1004.570246	2393.081101
1004.864623	2389.857283
1005.158964	2392.599671
1005.453270	2392.367778
1005.747540	2389.529608
1006.041775	2391.520864
1006.335974	2391.074722
1006.630138	2393.000443
1006.924266	2391.140257
1007.218359	2391.808210
1007.512416	2392.587068
1007.806438	2389.474156
1008.100425	2392.866852
1008.394376	2392.665206
1008.688292	2392.236708
1008.982172	2390.207643
1009.276017	2391.566234
1009.569827	2389.436347
1009.863602	2391.667057
1010.157341	2389.151522
1010.451045	2390.656306
1010.744714	2390.207643
1011.038347	2390.951214
1011.331945	2390.805020
1011.625508	2391.856101
1011.919036	2390.285781
1012.212528	2390.888199
1012.505986	2389.718652
1012.799408	2391.934239
1013.092795	2392.730741
1013.386147	2391.208313
1013.679464	2387.548435
1013.972745	2390.963817
1014.265992	2389.428785
1014.559204	2392.622356
1014.852380	2390.452139
1015.145521	2392.163611
1015.438628	2390.300905
1015.731699	2395.006822
1016.024736	2392.156049
1016.317737	2390.341234
1016.610703	2391.790566
1016.903635	2387.601367
1017.196531	2387.336706
1017.489393	2388.740668
1017.782219	2385.022817
1018.075011	2391.931718
1018.367768	2388.685215
1018.660490	2391.208312
1018.953177	2391.208312
1019.245829	2391.208312
