Dividing Wavelength (nm)	Counts (n)	Blue Motor Position (mm): 0.000000	Red Motor Position (mm): 39.800000	
326.493990	1993.771305
326.888308	1993.771305
327.282561	1993.771305
327.676750	1967.847171
328.070874	1973.271453
328.464933	1973.848665
328.858929	1987.742085
329.252859	2000.070227
329.646726	2012.171517
330.040528	2027.592406
330.434265	2046.121167
330.827938	2067.445248
331.221547	2086.513412
331.615091	2106.816659
332.008571	2130.341204
332.401986	2148.010448
332.795338	2169.647080
333.188625	2189.231963
333.581847	2205.613193
333.975006	2226.982644
334.368100	2243.767165
334.761129	2260.024887
335.154095	2273.507453
335.546996	2302.247071
335.939833	2349.107116
336.332606	2362.922398
336.725315	2374.625437
337.117960	2383.114740
337.510540	2390.260576
337.903056	2400.738614
338.295508	2407.256826
338.687896	2414.329565
339.080220	2420.918353
339.472480	2426.128385
339.864676	2430.854467
340.256807	2434.035435
340.648875	2436.412339
341.040879	2438.713626
341.432818	2438.247319
341.824694	2439.580704
342.216506	2439.134562
342.608253	2439.734459
342.999937	2437.347473
343.391557	2437.939809
343.783113	2438.345622
344.174605	2433.508634
344.566033	2432.104673
344.957397	2433.163315
345.348697	2432.253387
345.739934	2428.611153
346.131106	2425.994795
346.522215	2426.756009
346.913260	2425.662078
347.304241	2424.797521
347.695159	2423.156625
348.086012	2419.831984
348.476802	2421.220822
348.867528	2418.896850
349.258191	2416.925759
349.648789	2413.749832
350.039324	2413.117167
350.429796	2416.777045
350.820203	2414.876530
351.210548	2412.771848
351.600828	2412.045922
351.991045	2409.989131
352.381198	2413.041550
352.771288	2414.503484
353.161314	2413.807805
353.551276	2411.168761
353.941175	2410.130283
354.331010	2415.615059
354.720782	2409.162382
355.110490	2412.986097
355.500135	2412.166910
355.889717	2415.274781
356.279235	2414.480799
356.668689	2415.178999
357.058080	2416.570358
357.447408	2416.426685
357.836672	2413.061714
358.225873	2414.914338
358.615010	2414.019534
359.004084	2419.373239
359.393095	2419.474062
359.782043	2420.709145
360.170927	2422.413055
360.559748	2423.602767
360.948505	2423.577561
361.337199	2424.495051
361.725830	2426.829106
362.114398	2426.183838
362.502903	2427.197110
362.891344	2428.422110
363.279722	2427.265165
363.668037	2428.749785
364.056289	2430.395722
364.444478	2431.769436
364.832603	2432.540733
365.220665	2432.137441
365.608665	2435.492328
365.996601	2434.932760
366.384474	2434.312698
366.772284	2435.933429
367.160031	2436.992072
367.547715	2440.210848
367.935336	2435.565425
368.322893	2440.004161
368.710388	2441.602207
369.097820	2445.428443
369.485189	2444.717640
369.872495	2447.490275
370.259738	2447.344081
370.646918	2450.666202
371.034035	2451.064453
371.421090	2455.858590
371.808081	2459.601647
372.195010	2460.829168
372.581875	2469.164716
372.968678	2474.276446
373.355418	2484.109216
373.742096	2494.340238
374.128710	2504.664521
374.515262	2515.744977
374.901751	2532.607637
375.288177	2552.641182
375.674540	2568.253636
376.060841	2592.705752
376.447079	2618.022427
376.833254	2641.294914
377.219367	2671.730880
377.605417	2704.037114
377.991404	2732.254973
378.377329	2774.101591
378.763191	2809.223310
379.148991	2855.601925
379.534727	2908.503794
379.920402	2956.198150
380.306013	3007.685975
380.691563	3070.017322
381.077049	3126.203502
381.462474	3185.711803
381.847835	3262.488576
382.233134	3338.247036
382.618371	3395.469173
383.003545	3485.859582
383.388657	3568.995771
383.773706	3666.315246
384.158693	3738.912902
384.543618	3833.527798
384.928480	3919.081220
385.313280	4021.686345
385.698017	4130.786997
386.082692	4254.625461
386.467305	4319.545441
386.851856	4449.710553
387.236344	4611.831541
387.620770	4676.754040
388.005133	4797.091424
388.389435	4948.073982
388.773674	5035.580851
389.157851	5172.062529
389.541965	5305.887520
389.926018	5330.649668
390.310008	5520.169326
390.693936	5641.900588
391.077802	5763.606645
391.461606	5901.837604
391.845348	6017.227095
392.229027	6138.204705
392.612645	6367.836824
392.996200	6485.341079
393.379694	6669.363359
393.763125	6895.839717
394.146494	6999.352249
394.529801	7139.181254
394.913047	7386.391877
395.296230	7388.506641
395.679351	7443.062008
396.062410	7715.065025
396.445408	7604.000844
396.828343	7762.527489
397.211217	7904.390599
397.594028	7782.553472
397.976778	7992.751944
398.359466	8163.326946
398.742092	8137.233933
399.124656	8290.117006
399.507158	8476.833783
399.889598	8498.344386
400.271977	8719.162048
400.654294	8754.084642
401.036549	8953.210218
401.418742	8974.657808
401.800874	9289.245972
402.182944	9370.761430
402.564952	9743.758923
402.946898	9563.056243
403.328783	9626.040419
403.710606	9822.232045
404.092367	10092.395041
404.474067	10461.357091
404.855705	10244.864739
405.237282	10197.803048
405.618797	10634.979471
406.000250	10887.803418
406.381642	11260.879050
406.762972	11205.524660
407.144240	11002.751808
407.525447	11263.755028
407.906593	11206.306039
408.287677	11471.868983
408.668700	11632.046605
409.049661	11591.994637
409.430560	11759.229875
409.811399	11728.309958
410.192176	11903.603480
410.572891	11976.543935
410.953545	12478.350471
411.334138	11943.955396
411.714669	12567.929255
412.095139	11847.863442
412.475547	12360.049714
412.855894	12204.641023
413.236180	12544.369422
413.616405	12210.982795
413.996568	12502.878205
414.376670	12471.018113
414.756711	12350.128723
415.136691	12641.517498
415.516609	12825.053307
415.896466	12898.172722
416.276262	13189.811034
416.655997	13648.583761
417.035670	13666.270649
417.415283	14333.195138
417.794834	14439.447538
418.174324	14178.827446
418.553753	14076.237444
418.933121	14580.514146
419.312428	14374.701478
419.691674	14292.187872
420.070859	14754.441515
420.449983	14407.748762
420.829045	14970.036542
421.208047	14700.133165
421.586988	15177.608572
421.965867	15435.781184
422.344686	15435.657676
422.723444	16012.617733
423.102141	14671.360779
423.480777	15884.189298
423.859352	15380.192380
424.237866	16512.284300
424.616319	16205.078905
424.994712	16882.841875
425.373044	16674.012077
425.751314	17357.121190
426.129524	16460.735981
426.507673	17592.590966
426.885762	17274.673119
427.263789	17486.235223
427.641756	17645.722207
428.019662	17716.673927
428.397508	17759.503570
428.775292	18075.397393
429.153016	18038.191157
429.530679	18110.844267
429.908282	18146.233167
430.285824	17849.992281
430.663305	18581.128468
431.040726	18153.323549
431.418086	17980.908526
431.795385	18647.903592
432.172624	19074.680114
432.549802	18622.838975
432.926920	18802.551068
433.303977	18693.180715
433.680974	18961.980079
434.057910	19243.261340
434.434786	19272.159755
434.811601	19184.100879
435.188355	20239.582383
435.565050	19886.930987
435.941683	19833.772019
436.318257	20727.709749
436.694770	20535.097343
437.071222	21141.336422
437.447614	20198.660817
437.823946	20232.476877
438.200218	20387.280629
438.576429	20154.102058
438.952580	20436.595717
439.328670	20395.003677
439.704700	20818.752987
440.080670	20384.066894
440.456580	20978.862554
440.832429	21160.127323
441.208218	20127.144488
441.583947	20590.441650
441.959616	20694.291940
442.335224	20939.045000
442.710773	21067.176008
443.086261	21618.582456
443.461689	20975.694189
443.837057	21101.148343
444.212365	21754.754104
444.587612	21760.183427
444.962800	21325.986325
445.337927	21755.356522
445.712995	20455.268151
446.088002	22352.188808
446.462949	22542.855329
446.837837	22730.466910
447.212664	22684.695754
447.587431	25583.775111
447.962139	28561.907322
448.336786	30980.189151
448.711374	29390.534382
449.085901	25644.447918
449.460369	25594.326246
449.834776	25521.894947
450.209124	28053.973263
450.583412	27548.955512
450.957640	28094.786444
451.331808	26728.464873
451.705917	25340.267215
452.079965	25367.333170
452.453954	25744.396355
452.827883	25615.584792
453.201752	25422.294350
453.575562	25592.599651
453.949311	26733.458136
454.323001	26784.451928
454.696632	26555.649078
455.070202	28137.064081
455.443713	28275.693291
455.817164	28870.234373
456.190556	29415.455326
456.563888	28843.559107
456.937160	29290.810277
457.310373	27594.255320
457.683526	28052.896977
458.056619	28053.912769
458.429653	27972.793042
458.802628	28558.638133
459.175542	28686.138996
459.548398	29986.585289
459.921194	31593.770671
460.293930	32262.202465
460.666607	34315.905527
461.039224	36097.338391
461.411782	36513.609149
461.784280	35303.928831
462.156719	34822.181046
462.529099	34261.640027
462.901419	32962.191882
463.273680	31877.098640
463.645882	31956.602677
464.018024	31932.614347
464.390106	32794.939000
464.762130	35514.248290
465.134094	39608.504566
465.505999	44954.834742
465.877845	49570.056459
466.249631	50764.298243
466.621358	49077.913814
466.993026	46975.102352
467.364634	44873.805756
467.736184	42896.158581
468.107674	41628.164716
468.479105	40831.596873
468.850477	40124.819542
469.221790	38669.569497
469.593043	36904.119612
469.964238	36011.570720
470.335373	35925.382113
470.706449	37683.285391
471.077467	40287.384151
471.448425	44890.310493
471.819324	47712.202223
472.190164	45861.869389
472.560945	42272.043571
472.931667	39142.404522
473.302330	38014.400979
473.672934	37183.104627
474.043479	37697.786270
474.413965	36882.147743
474.784393	36496.698599
475.154761	37424.618746
475.525070	37439.328833
475.895321	36972.200394
476.265513	37583.815864
476.635645	38570.604085
477.005719	38379.982935
477.375734	38853.319555
477.745691	39539.806242
478.115588	40920.094329
478.485427	42907.044953
478.855207	46287.688093
479.224928	48917.005225
479.594591	50559.594629
479.964194	49560.576569
480.333739	49744.707234
480.703226	49774.818046
481.072653	50415.044584
481.442022	50873.444265
481.811333	51151.579846
482.180584	49851.995590
482.549777	49356.283809
482.918912	48795.095001
483.287988	48523.149957
483.657005	47669.894339
484.025964	47035.054274
484.394864	47057.923468
484.763706	46643.845612
485.132489	45756.516835
485.501213	45586.554333
485.869879	45726.884933
486.238487	45333.841291
486.607036	45507.279669
486.975527	44969.577597
487.343959	45170.313822
487.712333	45236.337814
488.080648	45156.957285
488.448905	45637.308670
488.817104	45441.626202
489.185244	46416.663493
489.553326	48077.043130
489.921350	50804.080509
490.289315	53648.889324
490.657222	54229.708385
491.025070	54505.744325
491.392861	53636.427591
491.760593	52402.595105
492.128267	50750.785430
492.495883	49243.946737
492.863440	47843.592336
493.230939	46470.757595
493.598380	45385.424898
493.965763	45029.663109
494.333088	44213.349067
494.700354	43723.704314
495.067563	43435.786374
495.434713	43291.208602
495.801805	43370.866395
496.168839	42960.844147
496.535815	42631.840803
496.902733	42642.790189
497.269593	42231.633681
497.636395	42168.236131
498.003139	42566.966194
498.369825	42010.258972
498.736453	42327.909638
499.103023	41849.738551
499.469535	41713.874414
499.835989	41813.439723
500.202385	41464.831332
500.568723	41486.107521
500.935003	41678.026769
501.301226	41469.910294
501.667390	42099.278187
502.033497	42373.859755
502.399546	41768.449945
502.765537	41087.642118
503.131470	41466.026085
503.497345	41826.536641
503.863163	40479.182411
504.228923	41090.258477
504.594625	41503.870027
504.960269	40800.308952
505.325856	41500.247958
505.691385	40839.839160
506.056856	40970.455456
506.422270	41414.119844
506.787625	40997.007213
507.152924	41175.234687
507.518164	41289.394137
507.883347	40469.742850
508.248472	40749.975552
508.613540	41221.683879
508.978550	41528.352391
509.343503	41262.633171
509.708398	41465.143883
510.073236	41989.456651
510.438016	41987.520848
510.802738	41427.584766
511.167403	42074.576533
511.532010	42305.789054
511.896561	42591.143568
512.261053	43459.812513
512.625488	42989.016635
512.989866	42854.279196
513.354186	42698.142058
513.718449	42695.286245
514.082655	43362.056979
514.446803	43040.943040
514.810894	43567.743617
515.174927	43484.662881
515.538904	43373.253381
515.902822	44050.106423
516.266684	43493.510106
516.630488	43923.666723
516.994235	43765.142599
517.357925	44365.423034
517.721558	44514.671435
518.085133	44834.595661
518.448651	44959.298684
518.812112	44750.657929
519.175516	44829.806565
519.538863	45161.504406
519.902152	45115.241737
520.265385	45586.425784
520.628560	45630.911446
520.991678	45430.644048
521.354739	45638.712632
521.717743	45968.202447
522.080690	45850.189036
522.443580	46405.860301
522.806413	46443.116948
523.169189	46392.463434
523.531908	46577.481342
523.894569	46426.042560
524.257174	46595.677387
524.619722	46906.439316
524.982213	46895.240393
525.344647	46800.454097
525.707025	46842.099069
526.069345	47232.574243
526.431608	47154.133889
526.793815	47479.734455
527.155964	47010.282044
527.518057	47147.885379
527.880093	46937.520550
528.242072	47469.362281
528.603995	47162.182092
528.965860	47157.506421
529.327669	47254.984693
529.689421	47144.424627
530.051117	47097.741022
530.412755	47227.787668
530.774337	47300.382804
531.135862	47101.252186
531.497331	47287.485012
531.858743	47197.082000
532.220098	47549.569559
532.581396	47253.459744
532.942638	46924.973118
533.303824	47221.904641
533.664953	47159.938778
534.026025	46876.545273
534.387040	47355.049076
534.747999	47294.688820
535.108902	47468.096951
535.469748	46972.092783
535.830537	47072.114316
536.191270	47278.141233
536.551947	46912.337466
536.912567	47229.370590
537.273131	47345.455760
537.633638	46806.667319
537.994089	47168.138215
538.354483	46765.725588
538.714821	47315.725555
539.075103	47675.187551
539.435328	47425.375693
539.795497	47313.136923
540.155609	47289.786298
540.515665	47745.955269
540.875665	47205.246148
541.235609	47529.702372
541.595496	47487.238212
541.955328	48158.382147
542.315102	47531.444090
542.674821	47314.964341
543.034483	47346.842078
543.394090	47315.609609
543.753640	47270.443391
544.113134	48267.253426
544.472571	47269.218391
544.831953	48521.088125
545.191278	47729.110253
545.550548	47425.282431
545.909761	47901.495029
546.268918	48083.702494
546.628019	48395.331501
546.987064	47954.858163
547.346053	47204.946200
547.704986	48099.193960
548.063863	47633.595511
548.422684	47813.083273
548.781449	47668.394596
549.140158	48047.703614
549.498811	47873.892192
549.857408	47310.069381
550.215949	48157.046241
550.574434	48076.644879
550.932864	47805.211512
551.291237	48534.593376
551.649555	48123.164646
552.007817	48346.331486
552.366022	47982.274479
552.724173	48150.086928
553.082267	48522.093835
553.440305	48831.671093
553.798288	48116.734655
554.156215	48415.682639
554.514086	48607.551475
554.871902	48359.670379
555.229661	48342.147328
555.587365	48143.719951
555.945014	48212.405672
556.302606	48127.530286
556.660143	48334.625927
557.017625	48400.458355
557.375050	48164.048404
557.732421	48507.303090
558.089735	48459.507910
558.446994	48357.265749
558.804197	48828.202779
559.161345	48730.853057
559.518437	47957.308164
559.875474	48236.000793
560.232455	48372.306031
560.589381	48524.057365
560.946251	48191.613433
561.303065	48855.019197
561.659825	48629.586359
562.016528	48282.187844
562.373177	47958.013926
562.729770	48393.466274
563.086307	47885.895179
563.442789	48289.736972
563.799216	48323.560594
564.155587	48083.523533
564.511904	48065.277077
564.868164	48122.877301
565.224370	48317.992640
565.580520	48013.690949
565.936615	48181.379891
566.292654	47855.935602
566.648638	48057.596879
567.004567	47965.570615
567.360441	47954.603585
567.716260	47773.303528
568.072023	47979.524529
568.427732	47923.454296
568.783385	47426.026002
569.138982	47763.034698
569.494525	47663.426539
569.850013	47380.045637
570.205445	47297.075807
570.560823	47194.942030
570.916145	47013.682302
571.271412	46977.832137
571.626625	46683.902620
571.981782	46654.986562
572.336884	46285.790098
572.691931	46542.473049
573.046923	46073.151708
573.401860	45847.943202
573.756743	45782.408202
574.111570	45825.666343
574.466342	45587.116422
574.821059	45616.032481
575.175722	45100.740858
575.530330	45027.286205
575.884882	44680.079255
576.239380	44567.515330
576.593823	44471.569570
576.948211	44302.010360
577.302544	43752.159107
577.656823	43706.299731
578.011047	43820.668388
578.365216	43476.599556
578.719330	43200.971949
579.073389	42965.529899
579.427394	42938.605097
579.781344	42815.147239
580.135239	42393.036304
580.489080	42403.030392
580.842866	41805.840183
581.196597	42125.633339
581.550273	41975.666574
581.903895	41723.477812
582.257463	42011.239476
582.610975	41332.720333
582.964434	41480.587458
583.317837	41047.015460
583.671186	40790.670266
584.024481	40892.713302
584.377721	40382.450230
584.730906	40519.128514
585.084037	40438.064240
585.437113	40087.943502
585.790135	40010.445844
586.143103	39548.134228
586.496016	39540.751458
586.848874	39439.767064
587.201679	39343.420532
587.554428	38759.808672
587.907124	38788.840677
588.259765	38461.480749
588.612352	38579.902494
588.964884	37909.184536
589.317362	38042.175216
589.669786	37872.207673
590.022155	37551.786893
590.374470	37810.733322
590.726731	37273.084182
591.078937	36749.641014
591.431090	36714.138688
591.783188	36312.842677
592.135232	35919.002533
592.487222	36009.118199
592.839157	35958.683975
593.191038	35578.903609
593.542866	35240.962299
593.894639	34619.957680
594.246358	34733.691152
594.598022	34592.972384
594.949633	34138.867766
595.301190	33981.936647
595.652692	33716.771954
596.004141	33881.831934
596.355535	32957.327169
596.706876	32792.373053
597.058162	32547.788871
597.409395	32804.086174
597.760573	32757.195882
598.111698	32257.050406
598.462768	32166.183608
598.813785	32068.556622
599.164748	31495.281648
599.515657	31690.122244
599.866511	31147.295839
600.217312	31498.918840
600.568060	30557.939584
600.918753	31000.366369
601.269392	30841.658243
601.619978	30452.292123
601.970510	30493.972383
602.320988	30490.264614
602.671412	30587.647104
603.021783	30263.858833
603.372100	29865.668173
603.722363	29820.791822
604.072572	29739.843494
604.422728	29627.640012
604.772830	29345.315232
605.122878	29274.590364
605.472872	29099.833725
605.822813	29157.554937
606.172701	28903.284178
606.522534	28929.223435
606.872314	28990.748197
607.222041	28649.547781
607.571714	28794.017168
607.921333	28245.542150
608.270899	28317.129055
608.620411	28418.370548
608.969870	28133.515109
609.319276	27975.137178
609.668627	27878.775523
610.017926	28063.674963
610.367171	28036.125058
610.716362	27925.355784
611.065500	27743.624709
611.414585	27702.461167
611.763616	27760.149611
612.112594	27554.649495
612.461518	27550.404843
612.810389	27582.209483
613.159207	27339.298964
613.507971	27231.352737
613.856682	27374.629891
614.205340	27160.464032
614.553945	27446.894832
614.902496	26940.324405
615.250994	27076.039828
615.599439	26960.688146
615.947830	26934.209485
616.296169	26785.959233
616.644454	26708.554836
616.992686	26645.890773
617.340864	26800.931460
617.688990	26463.385881
618.037063	26647.861865
618.385082	26464.923433
618.733048	26488.382442
619.080961	26334.055079
619.428821	26185.550248
619.776628	26095.530364
620.124382	25846.227662
620.472083	25774.408864
620.819731	25708.853699
621.167326	25374.564706
621.514868	25223.821603
621.862357	24846.012328
622.209793	24711.481576
622.557176	24405.526387
622.904506	24128.898111
623.251783	23803.998266
623.599007	23537.364077
623.946179	23287.607672
624.293297	23135.241317
624.640363	22675.180576
624.987376	22524.465200
625.334336	22257.261361
625.681243	21938.612547
626.028097	21770.868152
626.374899	21576.403122
626.721647	21416.671642
627.068343	21221.934389
627.414987	20970.484156
627.761577	20729.416179
628.108115	20746.334292
628.454600	20358.427585
628.801032	20310.176181
629.147412	20162.545991
629.493739	20029.000784
629.840014	19733.596731
630.186236	19754.946017
630.532405	19457.109607
630.878521	19421.095604
631.224585	19230.066120
631.570597	18985.860025
631.916556	18943.055587
632.262462	18782.451988
632.608316	18670.757663
632.954117	18503.078803
633.299866	18382.703611
633.645562	18231.650477
633.991206	17898.173109
634.336797	17604.273840
634.682336	17495.095051
635.027823	17271.101462
635.373257	17088.916682
635.718639	16876.248046
636.063968	16715.039507
636.409245	16379.694392
636.754470	16285.399609
637.099642	16086.526090
637.444762	15798.328366
637.789829	15738.726804
638.134845	15510.392781
638.479808	15388.202774
638.824719	15249.364356
639.169577	15002.370503
639.514383	14924.041054
639.859137	14715.637233
640.203839	14714.124887
640.548489	14471.957939
640.893086	14403.705757
641.237632	14219.141553
641.582125	14169.274459
641.926566	14051.046798
642.270955	13946.082414
642.615292	13861.436399
642.959576	13758.090225
643.303809	13665.927850
643.647990	13628.318322
643.992118	13531.739897
644.336195	13433.863374
644.680219	13372.091596
645.024192	13390.378381
645.368112	13464.634577
645.711981	13378.980332
646.055797	13569.835896
646.399562	13465.176501
646.743274	13674.800281
647.086935	13738.694386
647.430544	13617.331127
647.774101	13573.702461
648.117606	13553.653792
648.461059	13574.869488
648.804460	13374.380279
649.147810	13089.126589
649.491108	12921.041917
649.834354	12725.611506
650.177548	12388.408725
650.520690	12171.235817
650.863781	12093.675145
651.206820	11962.985752
651.549807	11761.019485
651.892742	11551.582228
652.235626	11415.859243
652.578458	11303.837243
652.921238	11073.660678
653.263967	11079.415156
653.606644	10916.802656
653.949269	10835.831643
654.291843	10664.500468
654.634365	10694.893584
654.976836	10521.309013
655.319255	10451.988107
655.661622	10382.241223
656.003938	10266.113203
656.346203	10166.510085
656.688416	10148.941664
657.030577	10036.922184
657.372687	9938.778481
657.714746	9932.214898
658.056753	9897.418334
658.398708	9702.797028
658.740612	9652.705603
659.082465	9649.663266
659.424266	9556.195233
659.766016	9518.449593
660.107715	9436.480432
660.449362	9404.272500
660.790958	9342.309158
661.132503	9288.053739
661.473996	9245.846679
661.815438	9208.360659
662.156829	9186.109006
662.498168	9082.223428
662.839456	9030.488586
663.180693	9000.269390
663.521879	8975.197211
663.863013	8912.671780
664.204097	8855.104323
664.545129	8888.789313
664.886110	8832.582969
665.227040	8791.295919
665.567918	8761.903471
665.908746	8725.718069
666.249522	8707.461530
666.590248	8662.050816
666.930922	8630.087380
667.271545	8572.572856
667.612118	8534.549953
667.952639	8446.712889
668.293109	8396.523161
668.633528	8326.010022
668.973896	8258.335052
669.314213	8211.832928
669.654480	8115.897250
669.994695	8070.380672
670.334859	7995.612798
670.674973	7927.121162
671.015035	7907.753049
671.355047	7851.435798
671.695008	7801.866133
672.034918	7729.971717
672.374777	7700.473405
672.714585	7635.535782
673.054342	7627.023794
673.394049	7546.377935
673.733705	7547.620580
674.073310	7452.385622
674.412864	7416.172493
674.752368	7312.700290
675.091820	7310.535114
675.431223	7207.032664
675.770574	7119.049406
676.109875	7048.311935
676.449125	6969.243958
676.788324	6910.612818
677.127473	6791.258459
677.466571	6739.478248
677.805619	6653.214023
678.144616	6612.783969
678.483562	6559.962759
678.822458	6480.378063
679.161303	6435.257216
679.500098	6383.436675
679.838842	6335.273491
680.177535	6323.348642
680.516179	6322.189176
680.854771	6320.288661
681.193314	6406.210087
681.531805	6532.954777
681.870247	6614.979392
682.208638	6675.654719
682.546978	6676.234452
682.885268	6650.726214
683.223508	6553.973868
683.561697	6491.743345
683.899836	6432.560199
684.237925	6341.015365
684.575963	6292.932840
684.913951	6214.492486
685.251889	6203.167534
685.589776	6174.992525
685.927614	6149.638042
686.265401	6149.839688
686.603137	6140.637062
686.940824	6174.148132
687.278460	6203.790117
687.616046	6208.634665
687.953582	6261.488643
688.291068	6234.694910
688.628504	6244.285705
688.965889	6210.540222
689.303224	6143.442464
689.640510	6073.546866
689.977745	5963.790864
690.314930	5841.537842
690.652065	5749.206589
690.989150	5636.786338
691.326185	5510.530640
691.663170	5399.816819
692.000105	5294.665911
692.336990	5194.291497
692.673825	5117.802070
693.010610	5042.693919
693.347345	4958.216783
693.684030	4869.328638
694.020665	4818.929702
694.357251	4733.033482
694.693786	4711.376685
695.030272	4670.087114
695.366707	4604.017752
695.703093	4556.454466
696.039429	4539.871590
696.375716	4501.863811
696.711952	4485.943847
697.048139	4453.420843
697.384276	4426.112912
697.720363	4422.442952
698.056400	4399.694746
698.392388	4364.953634
698.728326	4347.697764
699.064214	4316.863547
699.400053	4295.746153
699.735842	4248.187908
700.071581	4205.564952
700.407270	4166.513654
700.742910	4133.849498
701.078501	4096.981019
701.414042	4061.181265
701.749533	4019.811036
702.084974	3979.333091
702.420366	3980.704285
702.755709	3935.263324
703.091002	3899.516502
703.426246	3886.142321
703.761440	3865.597098
704.096584	3834.145340
704.431679	3816.098009
704.766725	3800.387253
705.101721	3784.759676
705.436668	3779.703399
705.771565	3748.874222
706.106413	3763.296963
706.441212	3753.229779
706.775961	3750.646188
707.110661	3747.137545
707.445311	3765.504989
707.779913	3744.924478
708.114465	3751.949326
708.448967	3766.818209
708.783421	3803.255669
709.117825	3819.725119
709.452180	3832.040658
709.786485	3853.805840
710.120742	3906.402718
710.454949	3908.477153
710.789107	3934.136626
711.123216	3979.207062
711.457275	3996.089886
711.791286	4030.122716
712.125247	4035.516751
712.459159	4010.074047
712.793023	4047.197104
713.126837	3960.534628
713.460602	3961.104279
713.794318	3922.494081
714.127985	3881.408677
714.461602	3806.809683
714.795171	3787.912918
715.128691	3709.896021
715.462162	3659.446674
715.795584	3619.656846
716.128957	3586.710385
716.462281	3551.248389
716.795556	3521.971888
717.128782	3485.577278
717.461960	3440.774023
717.795088	3430.033844
718.128167	3397.515882
718.461198	3364.501365
718.794180	3347.389168
719.127113	3320.363543
719.459997	3303.019453
719.792833	3276.119856
720.125619	3267.116355
720.458357	3242.828076
720.791046	3230.976323
721.123686	3212.747511
721.456278	3195.708411
721.788821	3188.635672
722.121315	3172.234278
722.453761	3169.184380
722.786158	3163.147598
723.118506	3159.923780
723.450805	3147.646050
723.783056	3149.037408
724.115259	3141.805873
724.447412	3134.823875
724.779518	3141.493322
725.111574	3138.362765
725.443582	3146.090854
725.775542	3142.045328
726.107453	3161.252124
726.439315	3152.735095
726.771129	3173.255112
727.102895	3186.122657
727.434612	3197.293854
727.766281	3198.934749
728.097901	3205.584031
728.429473	3202.327446
728.760996	3197.553473
729.092471	3194.448122
729.423897	3186.283974
729.755276	3172.461130
730.086606	3170.094308
730.417887	3189.628779
730.749120	3204.734597
731.080305	3207.212324
731.411442	3213.826318
731.742530	3212.513097
732.073570	3211.600648
732.404562	3221.231773
732.735506	3211.698951
733.066401	3192.645910
733.397249	3163.245901
733.728048	3127.284830
734.058798	3082.625248
734.389501	3047.107798
734.720156	3026.265148
735.050762	2996.184583
735.381320	2977.681028
735.711831	2965.264666
736.042293	2947.592901
736.372707	2944.900925
736.703073	2930.203441
737.033391	2936.958587
737.363661	2934.848864
737.693883	2935.930191
738.024056	2944.830348
738.354182	2947.567695
738.684260	2962.741568
739.014290	2966.083853
739.344272	2977.943168
739.674207	2985.099085
740.004093	2985.948520
740.333931	2987.644868
740.663722	2986.795434
740.993464	2980.466265
741.323159	2974.469813
741.652806	2955.220167
741.982405	2942.844134
742.311956	2926.712442
742.641460	2915.763055
742.970915	2902.966086
743.300323	2883.882798
743.629683	2874.589431
743.958996	2859.952441
744.288260	2847.669670
744.617477	2831.550580
744.946647	2823.303253
745.275768	2813.646922
745.604842	2804.449337
745.933869	2798.150416
746.262847	2790.374436
746.591778	2792.776546
746.920662	2785.635751
747.249498	2783.384876
747.578286	2785.769342
747.907027	2790.008952
748.235720	2794.828295
748.564365	2794.656896
748.892963	2791.813685
749.221514	2791.952317
749.550017	2786.298663
749.878473	2781.260030
750.206881	2774.613268
750.535242	2768.223606
750.863555	2761.672626
751.191821	2756.213057
751.520039	2757.427975
751.848210	2751.827253
752.176334	2751.920514
752.504411	2751.557551
752.832440	2742.649832
753.160421	2745.082189
753.488356	2737.772516
753.816243	2734.662124
754.144082	2728.688357
754.471875	2727.891854
754.799620	2725.777090
755.127318	2722.921277
755.454969	2720.589743
755.782572	2718.417006
756.110129	2719.445401
756.437638	2716.443394
756.765100	2714.318548
757.092515	2712.622199
757.419882	2711.941644
757.747203	2712.017261
758.074477	2713.857282
758.401703	2711.702189
758.728882	2717.189485
759.056014	2718.653940
759.383099	2719.573951
759.710138	2720.824157
760.037129	2722.109651
760.364073	2722.734754
760.690970	2722.366750
761.017820	2719.498333
761.344623	2723.201061
761.671379	2729.315980
761.998088	2740.666138
762.324751	2780.675256
762.651366	2854.777697
762.977935	2951.005762
763.304456	3005.256139
763.630931	3017.949764
763.957359	2991.682832
764.283740	2940.648711
764.610074	2891.883110
764.936362	2837.970490
765.262602	2796.534726
765.588796	2758.466452
765.914943	2729.336145
766.241044	2704.601724
766.567097	2688.591019
766.893104	2670.198369
767.219064	2661.882986
767.544978	2646.308341
767.870845	2640.324492
768.196665	2636.906589
768.522438	2629.357461
768.848165	2624.810341
769.173846	2619.565020
769.499479	2614.705348
769.825066	2611.451283
770.150607	2606.672269
770.476101	2600.663214
770.801548	2600.529623
771.126949	2594.485280
771.452303	2591.188365
771.777611	2584.697879
772.102872	2585.857345
772.428087	2582.278126
772.753256	2576.884091
773.078378	2576.465675
773.403453	2573.330077
773.728482	2569.365210
774.053465	2567.026115
774.378401	2564.651731
774.703291	2563.908161
775.028135	2556.570762
775.352932	2560.253324
775.677683	2555.912891
776.002388	2552.928528
776.327046	2552.462221
776.651658	2551.073383
776.976224	2549.926521
777.300743	2548.749411
777.625216	2547.564740
777.949643	2546.138094
778.274024	2547.484082
778.598359	2537.926054
778.922647	2539.191384
779.246889	2537.653832
779.571086	2537.411856
779.895236	2541.966539
780.219339	2541.659028
780.543397	2540.973432
780.867409	2540.048380
781.191374	2540.360931
781.515294	2537.749614
781.839167	2545.034081
782.162995	2539.960160
782.486776	2537.719367
782.810511	2538.543595
783.134201	2537.915972
783.457844	2536.136444
783.781441	2535.019829
784.104993	2536.771630
784.428498	2534.669469
784.751958	2532.600075
785.075372	2531.896834
785.398739	2531.556556
785.722061	2530.714683
786.045337	2532.751310
786.368568	2533.880528
786.691752	2535.065199
787.014891	2542.352187
787.337983	2549.661860
787.661030	2559.552604
787.984031	2568.621640
788.306987	2574.045921
788.629897	2575.094481
788.952760	2575.873340
789.275579	2574.086251
789.598351	2563.779612
789.921078	2555.378529
790.243759	2549.419885
790.566395	2546.725388
790.888984	2542.384955
791.211529	2532.600075
791.534027	2532.988244
791.856480	2526.666637
792.178888	2528.587317
792.501249	2525.439116
792.823566	2524.660258
793.145836	2525.620598
793.468062	2523.954496
793.790241	2519.578775
794.112375	2525.096317
794.434464	2524.128416
794.756507	2526.059178
795.078505	2528.294930
795.400457	2533.774664
795.722364	2534.818183
796.044226	2542.453010
796.366042	2544.613145
796.687812	2542.790768
797.009538	2548.880481
797.331218	2541.412012
797.652852	2541.462423
797.974442	2541.071734
798.295986	2537.941177
798.617484	2537.006043
798.938938	2533.870446
799.260346	2535.125693
799.581709	2529.920702
799.903026	2530.432379
800.224299	2526.023890
800.545526	2520.740761
800.866708	2522.295957
801.187845	2518.454597
801.508936	2514.887981
801.829983	2516.969977
802.150984	2512.760614
802.471940	2512.629544
802.792851	2513.804133
803.113717	2516.279339
803.434538	2510.177023
803.755314	2508.848679
804.076045	2509.244409
804.396731	2510.313134
804.717372	2510.718947
805.037967	2511.074348
805.358518	2512.785820
805.679024	2509.083092
805.999485	2514.217508
806.319901	2510.265243
806.640272	2515.150121
806.960598	2514.114164
807.280879	2512.932013
807.601115	2514.920748
807.921306	2514.396468
808.241453	2511.470079
808.561554	2511.356653
808.881611	2512.518639
809.201623	2511.182733
809.521590	2511.195336
809.841513	2510.842455
810.161390	2513.005110
810.481223	2512.316993
810.801011	2507.928668
811.120755	2509.735922
811.440453	2508.851199
811.760107	2509.083092
812.079716	2503.875580
812.399281	2500.676968
812.718801	2503.308451
813.038276	2503.883142
813.357707	2502.232164
813.677093	2505.022443
813.996434	2503.958759
814.315731	2506.391116
814.634983	2503.489932
814.954191	2507.091837
815.273354	2505.226610
815.592473	2508.402537
815.911547	2508.268946
816.230577	2510.439163
816.549562	2514.038547
816.868502	2512.584174
817.187399	2517.433764
817.506250	2515.876047
817.825058	2523.082377
818.143821	2523.599095
818.462539	2530.646628
818.781213	2537.434542
819.099843	2546.969884
819.418429	2563.192317
819.736970	2580.075141
820.055466	2598.152719
820.373919	2624.775052
820.692327	2662.354334
821.010691	2733.419480
821.329011	2887.739281
821.647286	3135.360758
821.965517	3401.949576
822.283704	3560.370357
822.601847	3604.160339
822.919945	3490.154645
823.237999	3359.329141
823.556010	3229.373236
823.873976	3109.424022
824.191897	3000.880418
824.509775	2922.540887
824.827609	2845.985924
825.145398	2802.836168
825.463144	2779.777930
825.780845	2781.859927
826.098502	2810.654998
826.416116	2866.687423
826.733685	2920.947882
827.051210	2933.442382
827.368692	2904.228895
827.686129	2844.125739
828.003522	2782.144752
828.320872	2724.973026
828.638177	2681.561130
828.955439	2644.813639
829.272656	2619.665843
829.589830	2591.659713
829.906960	2575.384348
830.224046	2556.696790
830.541088	2549.379556
830.858086	2539.302289
831.175041	2534.523275
831.491952	2530.278624
831.808819	2531.564118
832.125642	2536.544778
832.442421	2556.522871
832.759157	2585.519587
833.075849	2630.842081
833.392497	2678.198680
833.709101	2710.580532
834.025662	2704.720191
834.342179	2677.008968
834.658653	2647.200625
834.975083	2617.455297
835.291469	2597.512492
835.607811	2570.113821
835.924110	2557.644527
836.240366	2541.822866
836.556578	2529.966072
836.872746	2519.465349
837.188871	2510.136693
837.504952	2504.944305
837.820990	2498.816783
838.136984	2496.235712
838.452935	2493.989878
838.768842	2493.163128
839.084706	2500.634118
839.400526	2522.709331
839.716303	2548.993907
840.032037	2565.909499
840.347727	2563.162070
840.663373	2545.586087
840.978977	2531.425486
841.294537	2516.372601
841.610054	2502.688389
841.925527	2502.295179
842.240957	2490.140957
842.556344	2486.818836
842.871687	2481.586119
843.186987	2477.409523
843.502244	2472.640591
843.817458	2471.483646
844.132629	2467.783439
844.447756	2465.444344
844.762840	2459.573920
845.077881	2460.589713
845.392879	2458.167438
845.707833	2460.262038
846.022745	2456.274485
846.337613	2458.525360
846.652438	2456.907150
846.967221	2457.519650
847.281960	2458.250617
847.596656	2458.565690
847.911309	2457.282716
848.225919	2457.806996
848.540485	2457.509568
848.855009	2459.823457
849.169490	2456.944959
849.483928	2456.740792
849.798323	2456.191306
850.112675	2455.190637
850.426984	2454.424382
850.741251	2457.310442
851.055474	2459.732717
851.369654	2457.207099
851.683792	2453.910184
851.997887	2454.386573
852.311938	2458.285906
852.625947	2456.657613
852.939914	2455.520833
853.253837	2456.458487
853.567718	2456.440843
853.881555	2453.821964
854.195350	2456.188786
854.509103	2453.675770
854.822812	2454.507561
855.136479	2456.075360
855.450103	2455.740123
855.763685	2455.974537
856.077224	2454.769701
856.390720	2454.116871
856.704173	2459.606688
857.017584	2454.552931
857.330953	2455.462859
857.644278	2455.853549
857.957561	2461.131637
858.270802	2456.811368
858.584000	2458.356482
858.897155	2455.714917
859.210268	2458.066615
859.523339	2457.073508
859.836367	2454.129474
860.149352	2459.410083
860.462295	2457.310442
860.775195	2450.661160
861.088054	2453.572427
861.400869	2453.017900
861.713642	2450.767025
862.026373	2458.991667
862.339062	2456.602160
862.651708	2456.438323
862.964312	2458.016204
863.276873	2457.159208
863.589392	2458.815227
863.901869	2458.681636
864.214303	2459.074846
864.526696	2459.273972
864.839045	2461.605505
865.151353	2462.439816
865.463619	2460.982923
865.775842	2460.256997
866.088023	2461.418983
866.400162	2462.107100
866.712258	2461.386215
867.024313	2460.398149
867.336325	2462.028962
867.648296	2462.512913
867.960224	2464.146247
868.272110	2461.441668
868.583954	2463.511062
868.895755	2462.936370
869.207515	2462.714559
869.519233	2462.941411
869.830909	2463.886628
870.142542	2462.545681
870.454134	2464.093315
870.765684	2464.892338
871.077191	2465.648511
871.388657	2464.756227
871.700081	2469.353759
872.011463	2469.220168
872.322803	2468.491722
872.634101	2469.094139
872.945357	2469.366362
873.256571	2471.687813
873.567744	2473.114460
873.878874	2474.473051
874.189963	2473.888277
874.501010	2471.186218
874.812015	2471.861733
875.122979	2476.565129
875.433900	2474.299131
875.744780	2473.003554
876.055618	2475.279635
876.366415	2479.037815
876.677169	2475.788792
876.987882	2475.496405
877.298554	2473.832824
877.609183	2478.879019
877.919771	2476.555047
878.230317	2485.230873
878.540822	2492.996770
878.851285	2498.443737
879.161707	2506.920437
879.472087	2525.242511
879.782425	2548.212528
880.092722	2593.497213
880.402977	2662.674447
880.713191	2742.538927
881.023363	2820.744867
881.333494	2871.509286
881.643583	2889.478479
881.953631	2877.541027
882.263637	2854.364322
882.573602	2825.150836
882.883526	2790.525670
883.193408	2760.369488
883.503248	2728.920250
883.813048	2699.305992
884.122806	2669.379182
884.432522	2641.347846
884.742197	2617.392283
885.051831	2592.342789
885.361424	2571.827814
885.670975	2554.619835
885.980485	2542.694986
886.289954	2529.895496
886.599382	2523.221008
886.908768	2513.136180
887.218113	2505.599655
887.527417	2502.201917
887.836680	2494.078098
888.145901	2491.721358
888.455082	2486.382777
888.764221	2484.424288
889.073319	2480.388845
889.382376	2482.458238
889.691392	2476.905407
890.000366	2481.979329
890.309300	2480.025882
890.618193	2479.345326
890.927044	2479.191571
891.235855	2478.934472
891.544625	2479.642754
891.853353	2479.383134
892.162041	2481.465131
892.470687	2488.384115
892.779293	2491.678509
893.087858	2497.478356
893.396381	2509.015037
893.704864	2525.096317
894.013306	2546.516180
894.321707	2576.289235
894.630068	2591.165680
894.938387	2593.935794
895.246665	2588.461101
895.554903	2575.434759
895.863100	2565.997719
896.171256	2553.533466
896.479371	2543.325130
896.787446	2533.116793
897.095480	2524.027593
897.403473	2520.874351
897.711425	2509.874553
898.019336	2507.905983
898.327207	2498.657986
898.635038	2495.290495
898.942827	2491.519712
899.250576	2486.539052
899.558284	2483.216932
899.865952	2482.922024
900.173579	2476.635706
900.481165	2477.424646
900.788711	2474.246199
901.096216	2474.102526
901.403681	2472.232258
901.711105	2471.478605
902.018489	2471.307206
902.325832	2477.038998
902.633135	2474.455407
902.940397	2486.314721
903.247619	2502.990858
903.554800	2537.996630
903.861941	2576.745459
904.169041	2607.120932
904.476101	2618.856738
904.783121	2609.245778
905.090100	2594.555856
905.397039	2579.966757
905.703938	2560.016390
906.010796	2547.557178
906.317614	2533.804911
906.624391	2523.321831
906.931129	2512.296828
907.237826	2505.524038
907.544483	2495.855105
907.851099	2489.757829
908.157675	2481.165182
908.464211	2471.692854
908.770707	2465.600620
909.077163	2462.888479
909.383578	2456.511419
909.689954	2459.352110
909.996289	2455.777932
910.302584	2455.830864
910.608839	2457.575103
910.915054	2455.097376
911.221229	2452.788527
911.527363	2458.590895
911.833458	2455.407407
912.139513	2456.859259
912.445527	2455.210802
912.751502	2460.526698
913.057436	2464.524333
913.363331	2464.176494
913.669186	2468.877370
913.975000	2476.915490
914.280775	2484.268012
914.586510	2499.358707
914.892205	2518.328568
915.197859	2541.946374
915.503475	2570.035683
915.809050	2588.171234
916.114585	2605.109511
916.420081	2606.969697
916.725536	2607.927516
917.030952	2597.585589
917.336328	2590.742223
917.641665	2581.857189
917.946961	2566.025446
918.252218	2561.085115
918.557435	2545.417209
918.862612	2538.687268
919.167750	2527.974816
919.472848	2520.483662
919.777906	2511.903618
920.082925	2503.152175
920.387904	2495.151864
920.692843	2489.921667
920.997743	2483.496716
921.302603	2480.472024
921.607423	2473.931127
921.912204	2470.959366
922.216946	2470.714870
922.521647	2465.419138
922.826310	2466.155147
923.130932	2463.271607
923.435516	2459.251287
923.740059	2455.467901
924.044564	2453.665688
924.349028	2453.990842
924.653454	2451.293825
924.957840	2452.531428
925.262186	2448.858948
925.566493	2446.935748
925.870761	2444.510953
926.174989	2448.135542
926.479178	2446.522373
926.783328	2448.064966
927.087438	2443.936261
927.391509	2445.945161
927.695541	2443.321240
927.999533	2441.637495
928.303486	2442.882660
928.607400	2440.054573
928.911275	2443.061621
929.215110	2440.984666
929.518906	2441.239244
929.822663	2442.754111
930.126381	2440.273863
930.430060	2438.285128
930.733699	2438.711105
931.037299	2442.431477
931.340861	2442.726384
931.644383	2442.973401
931.947866	2442.655808
932.251309	2440.752773
932.554714	2438.834613
932.858080	2442.532300
933.161407	2439.495005
933.464694	2439.026177
933.767943	2437.770930
934.071153	2442.350818
934.374323	2437.886877
934.677455	2439.842844
934.980548	2439.104315
935.283602	2442.408792
935.586617	2438.786723
935.889593	2442.754111
936.192530	2439.782350
936.495428	2441.239244
936.798287	2438.708585
937.101108	2440.931733
937.403890	2444.485747
937.706632	2447.248299
938.009336	2448.039760
938.312002	2449.907508
938.614628	2450.189812
938.917216	2448.737960
939.219765	2452.380194
939.522275	2453.537139
939.824747	2454.106789
940.127179	2449.985646
940.429573	2447.548248
940.731929	2448.884154
941.034246	2445.453648
941.336524	2452.642334
941.638763	2448.372477
941.940964	2450.010852
942.243126	2448.359874
942.545250	2447.989349
942.847335	2447.076900
943.149381	2447.331478
943.451389	2443.238061
943.753359	2445.413319
944.055290	2445.569595
944.357182	2444.909204
944.659036	2445.025150
944.960851	2444.679831
945.262628	2440.319233
945.564367	2443.091868
945.866067	2441.786209
946.167729	2442.418874
946.469352	2443.255705
946.770937	2444.359718
947.072484	2439.681527
947.373992	2443.366611
947.675462	2439.852927
947.976893	2443.575819
948.278286	2442.224789
948.579641	2442.292845
948.880958	2440.929213
949.182236	2442.650767
949.483476	2438.335539
949.784678	2442.459203
950.085841	2439.835282
950.386967	2441.314861
950.688054	2442.426436
950.989103	2441.398040
951.290114	2441.955088
951.591087	2443.162444
951.892021	2442.340736
952.192917	2443.550613
952.493776	2446.855089
952.794596	2443.490119
953.095378	2441.831579
953.396122	2446.363577
953.696828	2443.865685
953.997496	2445.095727
954.298126	2442.988524
954.598718	2442.234872
954.899272	2441.387958
955.199788	2441.435849
955.500266	2441.783688
955.800706	2435.333532
956.101108	2435.371341
956.401472	2435.988882
956.701798	2434.481577
957.002087	2434.554674
957.302337	2432.671803
957.602550	2435.194900
957.902724	2433.037287
958.202861	2433.173398
958.502960	2430.657862
958.803022	2433.100301
959.103045	2431.169539
959.403031	2432.780188
959.702979	2433.082657
960.002889	2431.930753
960.302762	2431.209868
960.602596	2429.642069
960.902393	2430.141144
961.202153	2427.676019
961.501875	2428.099476
961.801559	2426.675350
962.101205	2429.168201
962.400814	2427.668458
962.700385	2426.282140
962.999918	2424.555545
963.299414	2428.449837
963.598873	2428.258273
963.898293	2426.670309
964.197677	2426.481266
964.497022	2422.718045
964.796331	2424.384146
965.095601	2425.152922
965.394835	2426.713159
965.694030	2425.689805
965.993189	2428.409507
966.292309	2428.391863
966.591393	2427.471853
966.890439	2426.612336
967.189447	2426.521595
967.488419	2426.478745
967.787353	2427.799528
968.086249	2426.861873
968.385108	2426.597212
968.683930	2427.144178
968.982714	2427.030752
969.281462	2422.697880
969.580172	2426.882038
969.878844	2426.967737
970.177480	2427.169383
970.476078	2426.824064
970.774639	2428.860691
971.073162	2427.723910
971.371649	2425.689805
971.670098	2421.001532
971.968510	2426.148550
972.266885	2425.415062
972.565223	2428.338931
972.863524	2426.786256
973.161788	2428.064188
973.460014	2428.527974
973.758204	2426.781215
974.056356	2428.671647
974.354471	2426.511513
974.652550	2426.415731
974.950591	2429.556370
975.248595	2425.163004
975.546563	2426.370361
975.844493	2426.662747
976.142386	2427.426482
976.440243	2426.314908
976.738062	2425.500762
977.035845	2426.390525
977.333590	2423.113775
977.631299	2426.750968
977.928971	2425.188210
978.226606	2423.398600
978.524204	2426.420772
978.821765	2425.321801
979.119290	2424.994126
979.416777	2424.605957
979.714228	2427.015628
980.011642	2425.397418
980.309020	2428.142326
980.606360	2425.407500
980.903664	2426.640062
981.200931	2428.906061
981.498162	2430.438572
981.795356	2431.139292
982.092513	2435.628440
982.389633	2437.110539
982.686717	2441.355190
982.983764	2442.872578
983.280775	2442.980963
983.577749	2441.009871
983.874686	2444.410130
984.171587	2443.210335
984.468451	2439.507608
984.765279	2436.745055
985.062070	2439.583225
985.358824	2435.782195
985.655543	2435.187339
985.952224	2432.351690
986.248869	2428.737182
986.545478	2424.588313
986.842050	2424.747109
987.138586	2421.558579
987.435086	2423.607808
987.731549	2418.017169
988.027975	2423.479259
988.324366	2424.580751
988.620719	2423.295257
988.917037	2420.336099
989.213318	2421.636717
989.509563	2420.590678
989.805772	2422.045051
990.101944	2421.268713
990.398080	2420.348702
990.694180	2420.038671
990.990244	2423.736358
991.286271	2419.877354
991.582262	2421.329207
991.878217	2419.486665
992.174136	2422.748292
992.470019	2420.462128
992.765865	2421.107396
993.061676	2422.292067
993.357450	2421.949269
993.653188	2417.928948
993.948890	2424.374064
994.244556	2421.971954
994.540186	2425.152922
994.835780	2423.544794
995.131337	2425.873807
995.426859	2424.479928
995.722345	2428.359096
996.017795	2428.921184
996.313208	2428.984199
996.608586	2427.996133
996.903928	2428.132244
997.199234	2431.408994
997.494504	2432.883531
997.789738	2427.025711
998.084936	2428.606112
998.380099	2431.595517
998.675225	2426.254414
998.970316	2426.322470
999.265371	2425.740216
999.560390	2420.048754
999.855373	2423.922880
1000.150320	2423.154104
1000.445232	2421.432550
1000.740108	2421.964392
1001.034948	2418.675039
1001.329752	2419.267375
1001.624521	2417.863413
1001.919254	2414.049781
1002.213951	2416.310738
1002.508613	2410.465520
1002.803239	2416.010789
1003.097829	2414.707651
1003.392384	2416.303176
1003.686903	2419.113620
1003.981386	2416.560275
1004.275834	2418.228897
1004.570246	2418.664957
1004.864623	2416.570358
1005.158964	2418.669998
1005.453270	2419.254772
1005.747540	2418.213774
1006.041775	2416.935841
1006.335974	2416.199833
1006.630138	2417.621438
1006.924266	2417.946593
1007.218359	2414.276633
1007.512416	2414.327044
1007.806438	2415.274781
1008.100425	2414.725295
1008.394376	2414.649678
1008.688292	2417.311407
1008.982172	2411.045253
1009.276017	2414.833680
1009.569827	2415.660429
1009.863602	2414.989956
1010.157341	2414.624472
1010.451045	2414.402661
1010.744714	2413.790161
1011.038347	2415.388207
1011.331945	2414.652198
1011.625508	2417.321489
1011.919036	2414.702610
1012.212528	2416.023392
1012.505986	2414.132960
1012.799408	2411.874523
1013.092795	2413.570871
1013.386147	2414.790830
1013.679464	2413.525501
1013.972745	2414.558937
1014.265992	2411.753535
1014.559204	2412.539955
1014.852380	2413.386869
1015.145521	2414.707651
1015.438628	2416.517425
1015.731699	2414.558937
1016.024736	2413.323854
1016.317737	2414.190933
1016.610703	2413.495254
1016.903635	2411.624986
1017.196531	2408.678431
1017.489393	2414.266550
1017.782219	2408.383524
1018.075011	2415.612538
1018.367768	2413.522980
1018.660490	2414.022054
1018.953177	2414.022054
1019.245829	2414.022054
