Dividing Wavelength (nm)	Counts (n)	Blue Motor Position (mm): 0.000000	Red Motor Position (mm): 24.400000	
326.493990	1984.666981
326.888308	1984.666981
327.282561	1984.666981
327.676750	1961.334001
328.070874	1961.210492
328.464933	1970.831534
328.858929	1978.693214
329.252859	1991.868269
329.646726	2003.054590
330.040528	2021.255676
330.434265	2039.671011
330.827938	2057.839329
331.221547	2078.513101
331.615091	2099.784250
332.008571	2120.447939
332.401986	2137.602986
332.795338	2161.268683
333.188625	2183.220387
333.581847	2198.560618
333.975006	2219.743547
334.368100	2233.596638
334.761129	2251.119688
335.154095	2267.072420
335.546996	2285.613783
335.939833	2308.356949
336.332606	2321.448826
336.725315	2331.337049
337.117960	2339.808708
337.510540	2345.732064
337.903056	2355.027951
338.295508	2364.013808
338.687896	2371.666280
339.080220	2377.788761
339.472480	2383.732281
339.864676	2385.605070
340.256807	2387.351830
340.648875	2392.181255
341.040879	2392.483724
341.432818	2394.414486
341.824694	2394.598488
342.216506	2395.672254
342.608253	2393.819630
342.999937	2394.210320
343.391557	2392.093035
343.783113	2391.510782
344.174605	2389.242263
344.566033	2388.342417
344.957397	2389.096069
345.348697	2384.894267
345.739934	2386.099103
346.131106	2381.194060
346.522215	2380.132898
346.913260	2379.265819
347.304241	2379.089379
347.695159	2376.465458
348.086012	2372.742566
348.476802	2372.740045
348.867528	2372.704757
349.258191	2372.145189
349.648789	2369.793491
350.039324	2368.712163
350.429796	2368.886083
350.820203	2367.207379
351.210548	2366.322657
351.600828	2367.739221
351.991045	2364.659076
352.381198	2365.828623
352.771288	2365.614374
353.161314	2365.052286
353.551276	2370.244674
353.941175	2366.461288
354.331010	2367.386340
354.720782	2365.710156
355.110490	2364.994313
355.500135	2368.205528
355.889717	2367.136803
356.279235	2365.937008
356.668689	2369.407843
357.058080	2370.337936
357.447408	2367.850126
357.836672	2362.151102
358.225873	2369.531351
358.615010	2368.399612
359.004084	2372.540920
359.393095	2373.183667
359.782043	2374.640560
360.170927	2373.423122
360.559748	2374.920344
360.948505	2375.754655
361.337199	2378.555016
361.725830	2377.508977
362.114398	2377.503936
362.502903	2380.049718
362.891344	2380.815974
363.279722	2382.986191
363.668037	2381.355377
364.056289	2384.120450
364.444478	2385.947868
364.832603	2381.899822
365.220665	2383.560882
365.608665	2384.364946
365.996601	2385.935266
366.384474	2388.052550
366.772284	2388.982643
367.160031	2391.261245
367.547715	2387.929042
367.935336	2389.247304
368.322893	2390.227808
368.710388	2393.136554
369.097820	2396.441030
369.485189	2392.239228
369.872495	2397.350958
370.259738	2396.254508
370.646918	2401.595610
371.034035	2402.233316
371.421090	2402.497977
371.808081	2408.665828
372.195010	2410.049625
372.581875	2417.255954
372.968678	2423.970771
373.355418	2431.126689
373.742096	2441.450972
374.128710	2450.691407
374.515262	2464.602471
374.901751	2477.207877
375.288177	2497.075064
375.674540	2513.889833
376.060841	2536.201979
376.447079	2560.510423
376.833254	2581.882395
377.219367	2610.153186
377.605417	2645.663073
377.991404	2670.732732
378.377329	2712.942313
378.763191	2744.177302
379.148991	2792.728655
379.534727	2838.978721
379.920402	2888.548386
380.306013	2937.503031
380.691563	2998.435458
381.077049	3056.585168
381.462474	3109.963425
381.847835	3185.772297
382.233134	3256.154366
382.618371	3314.667039
383.003545	3403.028383
383.388657	3478.169302
383.773706	3574.651945
384.158693	3645.964108
384.543618	3742.988675
384.928480	3817.945592
385.313280	3922.494081
385.698017	4026.997201
386.082692	4145.454234
386.467305	4207.508317
386.851856	4335.150332
387.236344	4493.210670
387.620770	4552.308117
388.005133	4674.946787
388.389435	4819.345597
388.773674	4904.969596
389.157851	5037.604874
389.541965	5168.291746
389.926018	5192.673287
390.310008	5371.387232
390.693936	5492.125387
391.077802	5611.240291
391.461606	5743.076546
391.845348	5862.420822
392.229027	5979.602443
392.612645	6199.336257
392.996200	6314.859339
393.379694	6493.124621
393.763125	6715.651234
394.146494	6806.833104
394.529801	6944.355781
394.913047	7185.799324
395.296230	7187.165477
395.679351	7238.691110
396.062410	7494.748958
396.445408	7390.112248
396.828343	7543.403654
397.211217	7683.673760
397.594028	7557.186169
397.976778	7767.079651
398.359466	7931.862367
398.742092	7902.016216
399.124656	8053.933907
399.507158	8240.537258
399.889598	8254.944876
400.271977	8466.625446
400.654294	8497.439499
401.036549	8693.812606
401.418742	8719.779590
401.800874	9020.066001
402.182944	9096.051313
402.564952	9467.062592
402.946898	9283.221793
403.328783	9339.513838
403.710606	9538.551194
404.092367	9791.576788
404.474067	10156.868878
404.855705	9947.018247
405.237282	9895.467407
405.618797	10326.014713
406.000250	10572.252393
406.381642	10935.039030
406.762972	10881.544826
407.144240	10677.340287
407.525447	10932.833525
407.906593	10873.829340
408.287677	11127.386776
408.668700	11288.048349
409.049661	11250.211968
409.430560	11420.179512
409.811399	11390.287990
410.192176	11546.208358
410.572891	11619.789039
410.953545	12105.985642
411.334138	11577.133316
411.714669	12168.790858
412.095139	11489.354225
412.475547	11992.582366
412.855894	11835.038747
413.236180	12157.047490
413.616405	11847.606343
413.996568	12127.155968
414.376670	12091.827562
414.756711	11973.577216
415.136691	12246.807755
415.516609	12426.464395
415.896466	12484.213333
416.276262	12789.566104
416.655997	13224.123648
417.035670	13267.187705
417.415283	13900.633891
417.794834	13985.141274
418.174324	13737.703799
418.553753	13630.906955
418.933121	14125.822233
419.312428	13934.460033
419.691674	13844.130118
420.070859	14292.013952
420.449983	13952.353609
420.829045	14493.319828
421.208047	14243.878495
421.586988	14685.917111
421.965867	14953.047853
422.344686	14945.158447
422.723444	15494.533311
423.102141	14198.538357
423.480777	15376.149375
423.859352	14890.323297
424.237866	15980.082126
424.616319	15678.918554
424.994712	16336.108576
425.373044	16129.708614
425.751314	16796.396169
426.129524	15933.610250
426.507673	17014.962955
426.885762	16712.745782
427.263789	16895.938792
427.641756	17061.971715
428.019662	17122.029501
428.397508	17167.155390
428.775292	17452.290613
429.153016	17414.136640
429.530679	17508.065939
429.908282	17510.044592
430.285824	17233.789362
430.663305	17937.605015
431.040726	17545.040282
431.418086	17366.744753
431.795385	18007.790479
432.172624	18414.152849
432.549802	17975.554821
432.926920	18175.645779
433.303977	18042.554276
433.680974	18303.123957
434.057910	18581.123427
434.434786	18613.298591
434.811601	18525.476650
435.188355	19544.122443
435.565050	19195.345173
435.941683	19140.368870
436.318257	20015.848414
436.694770	19814.388783
437.071222	20399.328987
437.447614	19469.699889
437.823946	19489.294854
438.200218	19635.906731
438.576429	19392.567714
438.952580	19660.764661
439.328670	19619.283526
439.704700	20018.356388
440.080670	19578.815664
440.456580	20140.400202
440.832429	20291.662544
441.208218	19293.362848
441.583947	19714.026972
441.959616	19794.140988
442.335224	20006.295427
442.710773	20098.384705
443.086261	20597.360634
443.461689	19950.121850
443.837057	20038.480674
444.212365	20629.513113
444.587612	20578.317675
444.962800	20147.238527
445.337927	20502.002168
445.712995	19243.959540
446.088002	20977.420784
446.462949	21105.254363
446.837837	21217.165458
447.212664	21110.204776
447.587431	23716.892169
447.962139	26407.837407
448.336786	28571.152798
448.711374	26996.727355
449.085901	23471.375373
449.460369	23316.921981
449.834776	23124.526345
450.209124	25314.522043
450.583412	24789.518637
450.957640	25139.785568
451.331808	23797.318737
451.705917	22433.845418
452.079965	22332.553514
452.453954	22531.789996
452.827883	22298.760139
453.201752	22002.060509
453.575562	22008.114935
453.949311	22838.403055
454.323001	22727.764852
454.696632	22368.660778
455.070202	23533.636144
455.443713	23479.405932
455.817164	23789.893117
456.190556	24050.666965
456.563888	23401.883068
456.937160	23564.717378
457.310373	22036.703318
457.683526	22206.789328
458.056619	21984.149289
458.429653	21742.688102
458.802628	21979.118218
459.175542	21877.884287
459.548398	22633.613742
459.921194	23607.307566
460.293930	23876.976530
460.666607	25122.683454
461.039224	26152.450032
461.411782	26151.056153
461.784280	25023.173597
462.156719	24385.787749
462.529099	23704.306928
462.901419	22544.193755
463.273680	21547.865150
463.645882	21339.179025
464.018024	21061.174514
464.390106	21339.824293
464.762130	22799.384525
465.134094	25131.757531
465.505999	28236.825995
465.877845	30882.625180
466.249631	31250.521026
466.621358	29673.295222
466.993026	27867.521147
467.364634	26163.691805
467.736184	24612.806030
468.107674	23524.657849
468.479105	22723.003482
468.850477	21996.167400
469.221790	20874.334229
469.593043	19632.355238
469.964238	18857.744141
470.335373	18504.230707
470.706449	19031.066572
471.077467	19970.467947
471.448425	21896.866752
471.819324	22981.662565
472.190164	21744.883525
472.560945	19704.249654
472.931667	17955.546481
473.302330	17124.479502
473.672934	16470.556149
474.043479	16392.952626
474.413965	15780.018895
474.784393	15342.129148
475.154761	15424.998156
475.525070	15164.988043
475.895321	14719.904570
476.265513	14661.243183
476.635645	14742.859464
477.005719	14419.063632
477.375734	14309.252178
477.745691	14266.230971
478.115588	14436.934522
478.485427	14810.829342
478.855207	15623.675070
479.224928	16181.650142
479.594591	16394.386835
479.964194	15725.728188
480.333739	15429.535194
480.703226	15113.538027
481.072653	14991.479090
481.442022	14842.654146
481.811333	14615.671153
482.180584	13952.444350
482.549777	13519.431920
482.918912	13099.085388
483.287988	12723.945404
483.657005	12252.433682
484.025964	11828.023981
484.394864	11579.434603
484.763706	11236.517674
485.132489	10808.586727
485.501213	10531.754284
485.869879	10331.877575
486.238487	10031.714672
486.607036	9844.156023
486.975527	9543.667966
487.343959	9369.329742
487.712333	9177.259260
488.080648	8967.879976
488.448905	8832.424172
488.817104	8609.315306
489.185244	8552.861945
489.553326	8608.077703
489.921350	8818.634096
490.289315	9064.052589
490.657222	8963.993247
491.025070	8800.422928
491.392861	8466.592679
491.760593	8083.248217
492.128267	7674.234200
492.495883	7309.010165
492.863440	6980.034548
493.230939	6682.911460
493.598380	6425.855464
493.965763	6251.393732
494.333088	6041.596033
494.700354	5870.499271
495.067563	5720.227516
495.434713	5587.032670
495.801805	5478.446216
496.168839	5338.670143
496.535815	5207.015369
496.902733	5101.362867
497.269593	4978.744362
497.636395	4872.839802
498.003139	4802.641734
498.369825	4680.038352
498.736453	4612.237353
499.103023	4504.651569
499.469535	4413.199997
499.835989	4343.306919
500.202385	4257.612345
500.568723	4184.215666
500.935003	4126.191985
501.301226	4054.857137
501.667390	4013.338194
502.033497	3969.896051
502.399546	3887.682393
502.765537	3808.004436
503.131470	3770.344497
503.497345	3734.670771
503.863163	3644.318171
504.228923	3618.008389
504.594625	3588.550407
504.960269	3530.577137
505.325856	3512.648274
505.691385	3462.004842
506.056856	3430.719441
506.422270	3411.502563
506.787625	3374.810525
507.152924	3348.069724
507.518164	3324.298163
507.883347	3282.154117
508.248472	3262.939759
508.613540	3253.041453
508.978550	3235.631829
509.343503	3216.493088
509.708398	3199.864842
510.073236	3191.458718
510.438016	3175.523631
510.802738	3152.019251
511.167403	3150.088489
511.532010	3138.246819
511.896561	3130.218781
512.261053	3134.304636
512.625488	3111.856378
512.989866	3099.046806
513.354186	3086.396031
513.718449	3073.866243
514.082655	3076.679207
514.446803	3067.400963
514.810894	3064.237639
515.174927	3057.873182
515.538904	3046.356666
515.902822	3048.799105
516.266684	3034.366282
516.630488	3033.544574
516.994235	3025.380425
517.357925	3022.910260
517.721558	3020.051926
518.085133	3018.620238
518.448651	3015.043539
518.812112	3004.638598
519.175516	3001.434944
519.538863	2998.667351
519.902152	2993.711897
520.265385	2995.529233
520.628560	2992.282730
520.991678	2983.790906
521.354739	2983.871564
521.717743	2982.023982
522.080690	2974.900831
522.443580	2977.950729
522.806413	2974.931078
523.169189	2970.905717
523.531908	2967.240798
523.894569	2964.679892
524.257174	2959.500106
524.619722	2956.866103
524.982213	2954.627831
525.344647	2950.978036
525.707025	2950.534414
526.069345	2949.311934
526.431608	2947.222376
526.793815	2948.961574
527.155964	2936.971190
527.518057	2938.909513
527.880093	2935.098401
528.242072	2935.436158
528.603995	2934.382557
528.965860	2926.288985
529.327669	2927.103131
529.689421	2921.837646
530.051117	2919.838828
530.412755	2921.114240
530.774337	2921.610794
531.135862	2914.953950
531.497331	2911.853641
531.858743	2909.035636
532.220098	2912.957653
532.581396	2905.242167
532.942638	2898.411404
533.303824	2904.155799
533.664953	2902.494738
534.026025	2896.856208
534.387040	2904.435583
534.747999	2898.728997
535.108902	2900.579100
535.469748	2892.936711
535.830537	2894.575086
536.191270	2893.972668
536.551947	2891.615928
536.912567	2890.706000
537.273131	2888.873541
537.633638	2880.885833
537.994089	2884.475134
538.354483	2881.639485
538.714821	2887.043602
539.075103	2889.629714
539.435328	2884.901112
539.795497	2881.480689
540.155609	2883.187119
540.515665	2884.631410
540.875665	2875.522045
541.235609	2880.787530
541.595496	2878.609752
541.955328	2885.790875
542.315102	2878.939947
542.674821	2874.067672
543.034483	2873.611447
543.394090	2874.334853
543.753640	2873.568598
544.113134	2880.850544
544.472571	2867.897300
544.831953	2880.306100
545.191278	2872.441900
545.550548	2865.318749
545.909761	2874.521376
546.268918	2871.547095
546.628019	2876.747045
546.987064	2869.901158
547.346053	2860.622915
547.704986	2868.000643
548.063863	2862.256248
548.422684	2864.330683
548.781449	2861.762215
549.140158	2865.800180
549.498811	2863.347658
549.857408	2853.439270
550.215949	2859.818851
550.574434	2856.085876
550.932864	2856.670650
551.291237	2860.222143
551.649555	2858.026720
552.007817	2860.743902
552.366022	2856.615197
552.724173	2856.027903
553.082267	2860.995960
553.440305	2863.105683
553.798288	2854.838191
554.156215	2857.832636
554.514086	2856.095958
554.871902	2853.532532
555.229661	2851.750484
555.587365	2849.340812
555.945014	2852.438601
556.302606	2845.441480
556.660143	2850.699403
557.017625	2847.621779
557.375050	2848.201512
557.732421	2850.384331
558.089735	2844.730677
558.446994	2844.050121
558.804197	2849.038343
559.161345	2845.524659
559.518437	2838.588031
559.875474	2839.717250
560.232455	2840.596931
560.589381	2838.146930
560.946251	2836.586693
561.303065	2839.770182
561.659825	2836.763133
562.016528	2834.552587
562.373177	2829.370281
562.729770	2832.694922
563.086307	2826.214519
563.442789	2827.825168
563.799216	2825.022286
564.155587	2822.388283
564.511904	2823.683860
564.868164	2820.281081
565.224370	2820.316369
565.580520	2814.836635
565.936615	2817.795792
566.292654	2812.179947
566.648638	2809.556026
567.004567	2807.436221
567.360441	2805.999492
567.716260	2802.589152
568.072023	2803.932619
568.427732	2798.936836
568.783385	2791.181020
569.138982	2793.167235
569.494525	2790.850825
569.850013	2782.653909
570.205445	2785.766821
570.560823	2781.617952
570.916145	2779.031840
571.271412	2777.794236
571.626625	2773.184101
571.981782	2768.843668
572.336884	2766.819644
572.691931	2765.377874
573.046923	2758.660537
573.401860	2755.923190
573.756743	2753.321955
574.111570	2748.855493
574.466342	2743.237127
574.821059	2744.928434
575.175722	2740.043556
575.530330	2735.032649
575.884882	2733.051475
576.239380	2729.749520
576.593823	2725.383880
576.948211	2721.217367
577.302544	2718.774928
577.656823	2716.498847
578.011047	2713.461552
578.365216	2708.881663
578.719330	2705.514172
579.073389	2703.563246
579.427394	2699.442103
579.781344	2700.349510
580.135239	2693.513706
580.489080	2694.549663
580.842866	2686.274609
581.196597	2688.737212
581.550273	2683.580112
581.903895	2682.952488
582.257463	2681.311593
582.610975	2677.129956
582.964434	2674.745490
583.317837	2672.277845
583.671186	2670.087464
584.024481	2670.556291
584.377721	2664.305260
584.730906	2664.176711
585.084037	2663.322235
585.437113	2657.809734
585.790135	2655.702531
586.143103	2655.994918
586.496016	2654.217912
586.848874	2644.788433
587.201679	2650.505102
587.554428	2641.940181
587.907124	2643.260964
588.259765	2639.177629
588.612352	2640.616878
588.964884	2636.047072
589.317362	2640.052269
589.669786	2637.425828
590.022155	2637.178812
590.374470	2634.464150
590.726731	2631.673872
591.078937	2628.593727
591.431090	2628.094652
591.783188	2626.471401
592.135232	2624.583489
592.487222	2621.493261
592.839157	2621.687346
593.191038	2621.261368
593.542866	2617.719958
593.894639	2614.143259
594.246358	2613.336674
594.598022	2613.787858
594.949633	2610.677466
595.301190	2611.148814
595.652692	2610.863988
596.004141	2608.923144
596.355535	2604.484408
596.706876	2604.199583
597.058162	2600.925354
597.409395	2603.433328
597.760573	2603.536671
598.111698	2603.072885
598.462768	2600.927874
598.813785	2601.285796
599.164748	2596.353027
599.515657	2597.797318
599.866511	2594.886051
600.217312	2597.492328
600.568060	2589.766760
600.918753	2594.087028
601.269392	2593.267841
601.619978	2593.303129
601.970510	2596.416042
602.320988	2593.638366
602.671412	2593.529981
603.021783	2593.799683
603.372100	2589.877665
603.722363	2593.472008
604.072572	2590.598550
604.422728	2592.010073
604.772830	2586.573189
605.122878	2586.401789
605.472872	2588.367839
605.822813	2587.498240
606.172701	2588.778693
606.522534	2587.934300
606.872314	2592.030238
607.222041	2588.083014
607.571714	2590.238107
607.921333	2587.503282
608.270899	2589.771801
608.620411	2589.814651
608.969870	2591.954620
609.319276	2585.751481
609.668627	2587.009248
610.017926	2587.596543
610.367171	2588.183837
610.716362	2589.771801
611.065500	2589.534867
611.414585	2587.142839
611.763616	2591.082501
612.112594	2587.412541
612.461518	2588.433374
612.810389	2590.182655
613.159207	2589.819692
613.507971	2590.101996
613.856682	2591.009404
614.205340	2589.106368
614.553945	2592.942687
614.902496	2588.551842
615.250994	2590.810278
615.599439	2589.176945
615.947830	2591.752974
616.296169	2591.783221
616.644454	2593.774477
616.992686	2591.397573
617.340864	2593.247676
617.688990	2592.128540
618.037063	2594.402101
618.385082	2591.591657
618.733048	2595.823706
619.080961	2593.086359
619.428821	2593.940835
619.776628	2592.811617
620.124382	2592.675505
620.472083	2593.010742
620.819731	2592.481421
621.167326	2588.652665
621.514868	2590.250710
621.862357	2589.623087
622.209793	2589.310535
622.557176	2584.017324
622.904506	2581.544638
623.251783	2577.713361
623.599007	2580.843917
623.946179	2577.652867
624.293297	2578.434246
624.640363	2576.924420
624.987376	2575.316292
625.334336	2573.420818
625.681243	2575.459965
626.028097	2573.309913
626.374899	2573.282187
626.721647	2572.349573
627.068343	2569.269428
627.414987	2568.364541
627.761577	2570.713719
628.108115	2570.345714
628.454600	2568.520817
628.801032	2566.017884
629.147412	2567.941084
629.493739	2564.319015
629.840014	2564.538305
630.186236	2566.267421
630.532405	2563.696433
630.878521	2565.375137
631.224585	2563.691391
631.570597	2561.748027
631.916556	2562.090825
632.262462	2561.437996
632.608316	2559.582851
632.954117	2556.674105
633.299866	2559.759291
633.645562	2560.281051
633.991206	2555.620504
634.336797	2556.716955
634.682336	2556.522871
635.027823	2553.846018
635.373257	2551.345606
635.718639	2550.972560
636.063968	2549.765204
636.409245	2549.349309
636.754470	2552.396686
637.099642	2548.260419
637.444762	2545.296221
637.789829	2547.763866
638.134845	2543.940151
638.479808	2542.621889
638.824719	2544.013247
639.169577	2542.074924
639.514383	2541.953936
639.859137	2538.538554
640.203839	2538.712474
640.548489	2538.974614
640.893086	2537.409336
641.237632	2533.802390
641.582125	2536.925385
641.926566	2533.121834
642.270955	2538.646939
642.615292	2536.330529
642.959576	2536.660724
643.303809	2535.891948
643.647990	2535.455889
643.992118	2537.908410
644.336195	2537.346321
644.680219	2534.175436
645.024192	2538.997299
645.368112	2537.409336
645.711981	2537.636188
646.055797	2540.451672
646.399562	2541.558205
646.743274	2542.400078
647.086935	2545.306303
647.430544	2545.041643
647.774101	2542.021992
648.117606	2544.497198
648.461059	2545.938968
648.804460	2546.130532
649.147810	2539.483771
649.491108	2539.559388
649.834354	2541.774975
650.177548	2535.574356
650.520690	2534.182997
650.863781	2534.351876
651.206820	2535.551671
651.549807	2531.886752
651.892742	2529.935825
652.235626	2529.983716
652.578458	2530.019004
652.921238	2527.032121
653.263967	2527.324508
653.606644	2526.396935
653.949269	2526.359127
654.291843	2524.967768
654.634365	2523.485669
654.976836	2525.522295
655.319255	2524.272089
655.661622	2523.397449
656.003938	2523.092459
656.346203	2522.684125
656.688416	2523.594054
657.030577	2522.560617
657.372687	2521.368384
657.714746	2523.533560
658.056753	2522.994156
658.398708	2516.773372
658.740612	2519.021727
659.082465	2517.272447
659.424266	2520.133302
659.766016	2515.029133
660.107715	2521.759074
660.449362	2518.913342
660.790958	2519.914011
661.132503	2518.840246
661.473996	2522.374094
661.815438	2520.292098
662.156829	2520.559279
662.498168	2517.143897
662.839456	2521.519619
663.180693	2519.591378
663.521879	2523.510875
663.863013	2518.303363
664.204097	2518.207581
664.545129	2520.791172
664.886110	2521.433919
665.227040	2520.284536
665.567918	2521.433919
665.908746	2519.379649
666.249522	2522.250586
666.590248	2520.798734
666.930922	2521.824609
667.271545	2522.028775
667.612118	2523.707480
667.952639	2520.602129
668.293109	2524.020031
668.633528	2519.054495
668.973896	2522.908457
669.314213	2518.862931
669.654480	2520.471059
669.994695	2518.023579
670.334859	2516.591891
670.674973	2518.409227
671.015035	2517.063239
671.355047	2519.513240
671.695008	2519.062056
672.034918	2517.050636
672.374777	2517.380832
672.714585	2520.677746
673.054342	2520.181192
673.394049	2515.210615
673.733705	2518.671367
674.073310	2518.469721
674.412864	2518.394103
674.752368	2513.786489
675.091820	2513.136180
675.431223	2516.183558
675.770574	2514.441839
676.109875	2507.757269
676.449125	2510.552589
676.788324	2508.004285
677.127473	2509.501508
677.466571	2506.260046
677.805619	2508.798267
678.144616	2509.224245
678.483562	2510.340860
678.822458	2504.966990
679.161303	2508.092506
679.500098	2507.104439
679.838842	2506.194511
680.177535	2506.428925
680.516179	2507.984121
680.854771	2507.326250
681.193314	2509.435973
681.531805	2515.205574
681.870247	2513.557116
682.208638	2520.466018
682.546978	2517.325379
682.885268	2516.571726
683.223508	2522.079187
683.561697	2516.730523
683.899836	2516.695235
684.237925	2514.703979
684.575963	2515.545852
684.913951	2513.264729
685.251889	2514.081396
685.589776	2512.627023
685.927614	2511.253309
686.265401	2510.655932
686.603137	2514.393948
686.940824	2514.729185
687.278460	2515.578619
687.616046	2518.268075
687.953582	2517.080883
688.291068	2517.660616
688.628504	2516.813702
688.965889	2518.825122
689.303224	2516.992663
689.640510	2514.371263
689.977745	2514.615759
690.314930	2513.393279
690.652065	2510.056035
690.989150	2509.209121
691.326185	2505.430776
691.663170	2501.975065
692.000105	2502.559839
692.336990	2494.980464
692.673825	2501.382730
693.010610	2496.772595
693.347345	2491.781852
693.684030	2485.790441
694.020665	2487.282623
694.357251	2485.518219
694.693786	2488.694146
695.030272	2485.931593
695.366707	2485.598877
695.703093	2485.112406
696.039429	2484.026037
696.375716	2483.776500
696.711952	2485.457725
697.048139	2484.636017
697.384276	2485.621562
697.720363	2483.887405
698.056400	2484.517550
698.392388	2480.935810
698.728326	2483.310193
699.064214	2480.262816
699.400053	2481.326499
699.735842	2478.362301
700.071581	2480.401448
700.407270	2479.995635
700.742910	2475.219141
701.078501	2476.118987
701.414042	2476.378607
701.749533	2473.056486
702.084974	2472.191928
702.420366	2474.742752
702.755709	2471.808801
703.091002	2473.318626
703.426246	2473.719398
703.761440	2472.033132
704.096584	2471.287041
704.431679	2472.186887
704.766725	2471.894500
705.101721	2470.631691
705.436668	2472.456589
705.771565	2472.123873
706.106413	2473.328709
706.441212	2470.341825
706.775961	2473.797536
707.110661	2471.544140
707.445311	2473.757207
707.779913	2470.377113
708.114465	2474.220993
708.448967	2472.809470
708.783421	2475.385499
709.117825	2474.798205
709.452180	2477.953967
709.786485	2477.023874
710.120742	2481.550831
710.454949	2481.555872
710.789107	2483.237097
711.123216	2482.387662
711.457275	2485.616521
711.791286	2483.388331
712.125247	2487.912767
712.459159	2486.508805
712.793023	2491.295381
713.126837	2483.340440
713.460602	2487.607777
713.794318	2484.888074
714.127985	2484.235245
714.461602	2481.366828
714.795171	2484.822539
715.128691	2475.758545
715.462162	2479.446149
715.795584	2477.228041
716.128957	2474.125211
716.462281	2472.169243
716.795556	2471.796198
717.128782	2470.871146
717.461960	2470.223358
717.795088	2468.055662
718.128167	2470.732514
718.461198	2465.709005
718.794180	2467.793522
719.127113	2462.830506
719.459997	2464.967955
719.792833	2464.090794
720.125619	2463.609364
720.458357	2462.059209
720.791046	2462.941411
721.123686	2463.506020
721.456278	2458.295988
721.788821	2460.980402
722.121315	2458.580813
722.453761	2456.944959
722.786158	2459.105093
723.118506	2458.895885
723.450805	2458.621142
723.783056	2459.394959
724.115259	2462.414611
724.447412	2459.722634
724.779518	2461.671040
725.111574	2461.106431
725.443582	2461.179528
725.775542	2458.543004
726.107453	2467.372585
726.439315	2460.156174
726.771129	2469.550364
727.102895	2465.429221
727.434612	2467.944756
727.766281	2467.876701
728.097901	2466.848305
728.429473	2464.486525
728.760996	2464.345373
729.092471	2464.917543
729.423897	2468.446351
729.755276	2465.381330
730.086606	2469.651187
730.417887	2470.520786
730.749120	2472.340643
731.080305	2469.830148
731.411442	2473.306023
731.742530	2471.614716
732.073570	2472.824593
732.404562	2475.551858
732.735506	2474.863740
733.066401	2475.556899
733.397249	2472.333081
733.728048	2467.619602
734.058798	2465.968624
734.389501	2462.641463
734.720156	2460.405711
735.050762	2460.314970
735.381320	2456.919753
735.711831	2459.740278
736.042293	2459.752881
736.372707	2457.935545
736.703073	2456.743313
737.033391	2458.840432
737.363661	2458.812706
737.693883	2457.111317
738.024056	2460.982923
738.354182	2459.591564
738.684260	2461.512244
739.014290	2461.192131
739.344272	2466.258490
739.674207	2461.718931
740.004093	2465.393932
740.333931	2465.204889
740.663722	2466.024077
740.993464	2462.795218
741.323159	2462.472584
741.652806	2463.982409
741.982405	2463.732872
742.311956	2462.041565
742.641460	2461.071143
742.970915	2457.643158
743.300323	2459.122737
743.629683	2457.781790
743.958996	2458.497634
744.288260	2454.245421
744.617477	2454.245421
744.946647	2449.279884
745.275768	2449.718465
745.604842	2447.911211
745.933869	2449.330296
746.262847	2446.323247
746.591778	2452.145780
746.920662	2451.014041
747.249498	2452.589402
747.578286	2450.015893
747.907027	2454.492437
748.235720	2453.340534
748.564365	2454.023610
748.892963	2454.820112
749.221514	2453.332972
749.550017	2452.473455
749.878473	2454.505040
750.206881	2452.007148
750.535242	2451.800461
750.863555	2452.317179
751.191821	2450.361212
751.520039	2448.853907
751.848210	2452.246603
752.176334	2449.095882
752.504411	2449.567230
752.832440	2449.413475
753.160421	2449.350460
753.488356	2450.512446
753.816243	2451.956737
754.144082	2447.908690
754.471875	2448.221242
754.799620	2450.376335
755.127318	2450.197374
755.454969	2447.596139
755.782572	2447.137394
756.110129	2447.081941
756.437638	2445.713268
756.765100	2447.205449
757.092515	2450.280553
757.419882	2450.152004
757.747203	2449.358022
758.074477	2447.071859
758.401703	2448.566561
758.728882	2448.516149
759.056014	2448.049843
759.383099	2448.710234
759.710138	2452.256686
760.037129	2450.338527
760.364073	2453.930349
760.690970	2451.157714
761.017820	2453.960596
761.344623	2449.975563
761.671379	2456.874383
761.998088	2451.581171
762.324751	2463.087605
762.651366	2470.997175
762.977935	2491.512151
763.304456	2497.528768
763.630931	2503.318533
763.957359	2500.359376
764.283740	2492.979126
764.610074	2483.935296
764.936362	2476.310551
765.262602	2470.379634
765.588796	2460.136009
765.914943	2458.626183
766.241044	2453.978240
766.567097	2449.715944
766.893104	2446.406427
767.219064	2445.589760
767.544978	2443.197732
767.870845	2444.102619
768.196665	2440.919131
768.522438	2441.453493
768.848165	2442.665890
769.173846	2440.316713
769.499479	2441.743359
769.825066	2436.886208
770.150607	2438.587597
770.476101	2435.174736
770.801548	2439.905859
771.126949	2435.023501
771.452303	2434.320260
771.777611	2434.746238
772.102872	2435.565425
772.428087	2434.847061
772.753256	2431.807245
773.078378	2432.644077
773.403453	2435.862853
773.728482	2430.683068
774.053465	2432.845723
774.378401	2433.511155
774.703291	2431.494693
775.028135	2429.337080
775.352932	2428.089394
775.677683	2430.209199
776.002388	2431.328335
776.327046	2432.031576
776.651658	2430.473860
776.976224	2429.032090
777.300743	2429.498397
777.625216	2426.539239
777.949643	2427.678540
778.274024	2430.486463
778.598359	2426.274579
778.922647	2425.392377
779.246889	2427.358427
779.571086	2423.209557
779.895236	2429.392532
780.219339	2430.287337
780.543397	2426.128385
780.867409	2429.503438
781.191374	2428.994281
781.515294	2430.342790
781.839167	2430.279775
782.162995	2428.222985
782.486776	2429.183324
782.810511	2430.274734
783.134201	2426.614857
783.457844	2430.955290
783.781441	2426.980340
784.104993	2429.087543
784.428498	2427.292892
784.751958	2426.743406
785.075372	2425.079825
785.398739	2426.972778
785.722061	2428.971596
786.045337	2427.161822
786.368568	2428.119641
786.691752	2426.140988
787.014891	2429.823551
787.337983	2430.748603
787.661030	2431.227512
787.984031	2434.781526
788.306987	2437.758327
788.629897	2436.404777
788.952760	2438.748914
789.275579	2437.523913
789.598351	2435.961156
789.921078	2434.680703
790.243759	2432.518048
790.566395	2431.981165
790.888984	2428.245670
791.211529	2429.047213
791.534027	2427.484456
791.856480	2425.001687
792.178888	2426.776173
792.501249	2426.239291
792.823566	2423.610329
793.145836	2425.450350
793.468062	2425.266348
793.790241	2422.750812
794.112375	2426.771132
794.434464	2426.839188
794.756507	2427.940680
795.078505	2427.605443
795.400457	2427.187027
795.722364	2426.695515
796.044226	2427.628128
796.366042	2428.578386
796.687812	2427.920515
797.009538	2435.774633
797.331218	2431.308171
797.652852	2429.768098
797.974442	2431.799683
798.295986	2429.243818
798.617484	2429.710125
798.938938	2428.069229
799.260346	2429.879004
799.581709	2427.592840
799.903026	2429.044693
800.224299	2425.031934
800.545526	2429.604261
800.866708	2424.384146
801.187845	2426.337593
801.508936	2425.692325
801.829983	2425.498241
802.150984	2425.306677
802.471940	2426.216605
802.792851	2426.640062
803.113717	2426.824064
803.434538	2423.892633
803.755314	2424.789959
804.076045	2426.186358
804.396731	2423.925401
804.717372	2423.219639
805.037967	2423.990936
805.358518	2421.072108
805.679024	2425.896492
805.999485	2424.532860
806.319901	2425.657037
806.640272	2427.663417
806.960598	2428.316246
807.280879	2426.365319
807.601115	2424.991605
807.921306	2424.731986
808.241453	2426.660227
808.561554	2426.705597
808.881611	2422.960020
809.201623	2425.906574
809.521590	2423.615370
809.841513	2428.341452
810.161390	2423.438930
810.481223	2426.624939
810.801011	2421.770308
811.120755	2424.248035
811.440453	2424.737027
811.760107	2423.239804
812.079716	2422.155956
812.399281	2420.192427
812.718801	2422.289547
813.038276	2418.667477
813.357707	2422.468507
813.677093	2422.397931
813.996434	2423.794331
814.315731	2426.027562
814.634983	2421.407345
814.954191	2423.650658
815.273354	2425.180648
815.592473	2425.384815
815.911547	2427.181986
816.230577	2427.766760
816.549562	2425.243663
816.868502	2427.534867
817.187399	2426.072932
817.506250	2431.071237
817.825058	2428.361616
818.143821	2430.998140
818.462539	2431.497214
818.781213	2434.219437
819.099843	2434.297575
819.418429	2441.176229
819.736970	2444.936930
820.055466	2450.232662
820.373919	2458.507716
820.692327	2470.147741
821.010691	2492.633807
821.329011	2535.791125
821.647286	2610.564040
821.965517	2683.030626
822.283704	2727.526371
822.601847	2740.835017
822.919945	2712.571788
823.237999	2674.422856
823.556010	2636.977165
823.873976	2600.857298
824.191897	2569.652556
824.509775	2543.277239
824.827609	2523.329393
825.145398	2511.795233
825.463144	2505.667711
825.780845	2505.206445
826.098502	2515.538290
826.416116	2532.519417
826.733685	2548.898125
827.051210	2553.102448
827.368692	2545.762528
827.686129	2526.429703
828.003522	2506.098729
828.320872	2484.192395
828.638177	2475.635037
828.955439	2462.656586
829.272656	2456.675257
829.589830	2448.632096
829.906960	2445.614965
830.224046	2441.380396
830.541088	2437.554160
830.858086	2438.277566
831.175041	2432.200455
831.491952	2433.445620
831.808819	2431.293047
832.125642	2437.791095
832.442421	2440.253698
832.759157	2449.279884
833.075849	2463.906792
833.392497	2477.417084
833.709101	2488.242962
834.025662	2483.078300
834.342179	2477.318782
834.658653	2466.722277
834.975083	2459.135340
835.291469	2457.655761
835.607811	2444.621858
835.924110	2438.287648
836.240366	2437.264294
836.556578	2435.207503
836.872746	2428.583427
837.188871	2427.673499
837.504952	2422.760894
837.820990	2423.149063
838.136984	2423.811975
838.452935	2420.252920
838.768842	2421.258631
839.084706	2424.119485
839.400526	2433.518717
839.716303	2437.962494
840.032037	2444.538679
840.347727	2441.612289
840.663373	2439.394182
840.978977	2430.274734
841.294537	2425.941863
841.610054	2426.211564
841.925527	2424.495051
842.240957	2422.811306
842.556344	2420.378949
842.871687	2418.697724
843.186987	2416.315779
843.502244	2416.419123
843.817458	2413.286046
844.132629	2415.753691
844.447756	2411.380490
844.762840	2407.196332
845.077881	2412.620613
845.392879	2409.517783
845.707833	2409.222876
846.022745	2406.127607
846.337613	2409.553071
846.652438	2411.221693
846.967221	2410.954512
847.281960	2409.669018
847.596656	2410.831004
847.911309	2409.059038
848.225919	2410.863771
848.540485	2407.987793
848.855009	2410.515932
849.169490	2409.868143
849.483928	2406.571229
849.798323	2410.120201
850.112675	2409.477454
850.426984	2408.882598
850.741251	2411.781261
851.055474	2410.601631
851.369654	2409.386713
851.683792	2410.064748
851.997887	2410.077351
852.311938	2407.002247
852.625947	2408.239851
852.939914	2408.839748
853.253837	2409.555592
853.567718	2409.608524
853.881555	2409.810170
854.195350	2410.951992
854.509103	2411.509039
854.822812	2407.629871
855.136479	2408.290262
855.450103	2408.512073
855.763685	2409.681621
856.077224	2410.989800
856.390720	2410.800757
856.704173	2409.815211
857.017584	2409.784964
857.330953	2410.314286
857.644278	2411.246899
857.957561	2415.161355
858.270802	2409.656415
858.584000	2409.916034
858.897155	2413.149935
859.210268	2411.072979
859.523339	2411.072979
859.836367	2408.806981
860.149352	2408.353277
860.462295	2411.367887
860.775195	2407.284552
861.088054	2406.334295
861.400869	2409.928637
861.713642	2405.847823
862.026373	2410.599111
862.339062	2407.491239
862.651708	2409.212793
862.964312	2409.951322
863.276873	2409.868143
863.589392	2407.995355
863.901869	2413.538103
864.214303	2411.977866
864.526696	2408.401168
864.839045	2410.606673
865.151353	2412.618093
865.463619	2411.012485
865.775842	2410.589028
866.088023	2413.054153
866.400162	2413.394431
866.712258	2414.397620
867.024313	2411.075500
867.336325	2414.891653
867.648296	2414.032137
867.960224	2411.942578
868.272110	2412.325706
868.583954	2415.499112
868.895755	2414.737898
869.207515	2411.020047
869.519233	2408.998544
869.830909	2411.872002
870.142542	2412.754204
870.454134	2411.710685
870.765684	2412.708834
871.077191	2412.184554
871.388657	2416.338464
871.700081	2412.033319
872.011463	2414.621952
872.322803	2413.704462
872.634101	2415.189081
872.945357	2412.865109
873.256571	2412.739081
873.567744	2415.284863
873.878874	2415.909966
874.189963	2415.191602
874.501010	2416.227559
874.812015	2414.717733
875.122979	2416.487178
875.433900	2414.057342
875.744780	2416.847621
876.055618	2414.586663
876.366415	2419.368198
876.677169	2416.030954
876.987882	2412.943247
877.298554	2416.053639
877.609183	2418.231418
877.919771	2417.424833
878.230317	2417.197981
878.540822	2421.840884
878.851285	2422.992788
879.161707	2429.521082
879.472087	2433.440579
879.782425	2442.859975
880.092722	2457.847325
880.402977	2485.011583
880.713191	2514.023423
881.023363	2540.774306
881.333494	2562.625187
881.643583	2569.312278
881.953631	2564.873542
882.263637	2558.322562
882.573602	2544.116591
882.883526	2530.548325
883.193408	2520.886954
883.503248	2506.945643
883.813048	2495.945845
884.122806	2485.442601
884.432522	2476.595376
884.742197	2466.545836
885.051831	2458.288426
885.361424	2449.920111
885.670975	2444.473144
885.980485	2441.145982
886.289954	2436.273707
886.599382	2432.704570
886.908768	2430.330187
887.218113	2426.514033
887.527417	2424.968920
887.836680	2423.146543
888.145901	2420.762077
888.455082	2419.816861
888.764221	2418.637231
889.073319	2419.176634
889.382376	2419.789134
889.691392	2416.099010
890.000366	2418.780903
890.309300	2418.410379
890.618193	2416.673701
890.927044	2415.121026
891.235855	2415.299987
891.544625	2419.103537
891.853353	2419.736202
892.162041	2417.457601
892.470687	2421.576223
892.779293	2422.765936
893.087858	2421.049423
893.396381	2426.279620
893.704864	2434.138779
894.013306	2439.429470
894.321707	2452.896912
894.630068	2457.265072
894.938387	2458.076698
895.246665	2457.123920
895.554903	2454.273147
895.863100	2449.847014
896.171256	2445.309976
896.479371	2443.495160
896.787446	2437.970056
897.095480	2434.809252
897.403473	2431.015784
897.711425	2429.770619
898.019336	2426.594692
898.327207	2427.129054
898.635038	2423.643096
898.942827	2423.282654
899.250576	2421.117478
899.558284	2419.889957
899.865952	2420.774680
900.173579	2416.794689
900.481165	2417.424833
900.788711	2415.524318
901.096216	2416.920718
901.403681	2415.426016
901.711105	2415.297466
902.018489	2414.614390
902.325832	2417.492889
902.633135	2417.608835
902.940397	2420.966244
903.247619	2426.080494
903.554800	2438.068358
903.861941	2454.401697
904.169041	2468.665641
904.476101	2471.392906
904.783121	2466.855867
905.090100	2460.899744
905.397039	2453.234669
905.703938	2448.644699
906.010796	2440.656991
906.317614	2437.037442
906.624391	2433.639704
906.931129	2428.941349
907.237826	2427.784404
907.544483	2424.061512
907.851099	2423.822057
908.157675	2418.848959
908.464211	2414.379976
908.770707	2406.039387
909.077163	2411.062897
909.383578	2407.697927
909.689954	2408.194480
909.996289	2405.515107
910.302584	2411.630027
910.608839	2409.507701
910.915054	2411.892167
911.221229	2406.397309
911.527363	2411.640109
911.833458	2409.805129
912.139513	2408.557443
912.445527	2407.924779
912.751502	2413.621283
913.057436	2411.627506
913.363331	2412.280336
913.669186	2414.430388
913.975000	2416.918197
914.280775	2419.330389
914.586510	2425.901533
914.892205	2433.473346
915.197859	2438.958122
915.503475	2451.248455
915.809050	2464.652883
916.114585	2464.718418
916.420081	2469.285703
916.725536	2466.306381
917.030952	2464.292440
917.336328	2459.611729
917.641665	2457.038220
917.946961	2450.414144
918.252218	2451.684515
918.557435	2441.501384
918.862612	2440.883842
919.167750	2436.974428
919.472848	2433.969900
919.777906	2431.434200
920.082925	2427.502100
920.387904	2424.222829
920.692843	2423.416244
920.997743	2421.414906
921.302603	2414.054822
921.607423	2415.872158
921.912204	2414.982394
922.216946	2415.438618
922.521647	2410.442835
922.826310	2412.817218
923.130932	2409.742115
923.435516	2410.221024
923.740059	2408.217166
924.044564	2408.184398
924.349028	2408.484347
924.653454	2402.457647
924.957840	2406.573749
925.262186	2405.104253
925.566493	2408.484347
925.870761	2402.971845
926.174989	2405.315982
926.479178	2408.943092
926.783328	2403.939747
927.087438	2403.483522
927.391509	2405.837741
927.695541	2404.910169
927.999533	2402.240878
928.303486	2403.831362
928.607400	2402.719787
928.911275	2400.872204
929.215110	2402.155178
929.518906	2404.022926
929.822663	2405.038718
930.126381	2400.889848
930.430060	2403.357493
930.733699	2403.274314
931.037299	2403.609551
931.340861	2403.397822
931.644383	2403.634757
931.947866	2400.569735
932.251309	2403.337329
932.554714	2401.315826
932.858080	2403.944788
933.161407	2404.625343
933.464694	2401.731721
933.767943	2400.655435
934.071153	2404.060734
934.374323	2403.065106
934.677455	2404.884963
934.980548	2402.714746
935.283602	2403.130641
935.586617	2405.424366
935.889593	2403.886814
936.192530	2405.333626
936.495428	2402.162740
936.798287	2402.306413
937.101108	2404.015364
937.403890	2404.771537
937.706632	2404.758934
938.009336	2405.043759
938.312002	2409.351425
938.614628	2405.764644
938.917216	2407.624830
939.219765	2406.268760
939.522275	2408.559964
939.824747	2407.834038
940.127179	2405.600807
940.429573	2404.799263
940.731929	2407.811353
941.034246	2405.671383
941.336524	2407.171126
941.638763	2409.142217
941.940964	2405.492422
942.243126	2407.297155
942.545250	2408.050807
942.847335	2404.065775
943.149381	2408.471744
943.451389	2404.491753
943.753359	2406.397309
944.055290	2406.261198
944.357182	2402.939077
944.659036	2403.964952
944.960851	2405.767165
945.262628	2402.268604
945.564367	2404.343039
945.866067	2402.238357
946.167729	2404.693399
946.469352	2402.147616
946.770937	2404.743811
947.072484	2404.312792
947.373992	2403.972514
947.675462	2405.951167
947.976893	2408.459141
948.278286	2402.029149
948.579641	2403.947308
948.880958	2401.827503
949.182236	2403.433111
949.483476	2402.573594
949.784678	2404.917730
950.085841	2400.421021
950.386967	2405.454613
950.688054	2404.753893
950.989103	2404.418656
951.290114	2404.078378
951.591087	2403.254150
951.892021	2404.796743
952.192917	2404.358162
952.493776	2407.236661
952.794596	2403.390261
953.095378	2403.594428
953.396122	2402.397153
953.696828	2405.121897
953.997496	2406.677093
954.298126	2402.949160
954.598718	2407.934861
954.899272	2401.840106
955.199788	2404.693399
955.500266	2402.702143
955.800706	2401.804818
956.101108	2398.452451
956.401472	2401.792215
956.701798	2398.341545
957.002087	2396.955228
957.302337	2403.785991
957.602550	2403.193656
957.902724	2401.777092
958.202861	2402.606361
958.502960	2398.964128
958.803022	2401.038562
959.103045	2400.829355
959.403031	2399.926988
959.702979	2398.286093
960.002889	2399.785836
960.302762	2400.630229
960.602596	2399.979920
960.902393	2397.741648
961.202153	2400.733573
961.501875	2399.642163
961.801559	2397.003119
962.101205	2400.153840
962.400814	2397.446740
962.700385	2398.969169
962.999918	2398.240722
963.299414	2397.098901
963.598873	2400.415980
963.898293	2397.615619
964.197677	2398.477656
964.497022	2397.681154
964.796331	2400.375651
965.095601	2400.209293
965.394835	2398.301216
965.694030	2401.462019
965.993189	2400.486556
966.292309	2399.367420
966.591393	2399.725342
966.890439	2397.071174
967.189447	2399.896741
967.488419	2398.306257
967.787353	2401.285579
968.086249	2398.419683
968.385108	2398.452451
968.683930	2398.802811
968.982714	2401.235167
969.281462	2398.132337
969.580172	2397.020763
969.878844	2399.095198
970.177480	2398.419683
970.476078	2399.034704
970.774639	2397.958417
971.073162	2397.676113
971.371649	2395.589075
971.670098	2394.051523
971.968510	2398.132337
972.266885	2391.808210
972.565223	2396.625032
972.863524	2396.042779
973.161788	2399.768192
973.460014	2399.264076
973.758204	2400.118552
974.056356	2400.146278
974.354471	2399.785836
974.652550	2397.482028
974.950591	2403.647360
975.248595	2400.005126
975.546563	2397.590413
975.844493	2400.287431
976.142386	2397.993706
976.440243	2401.658624
976.738062	2399.206103
977.035845	2395.523540
977.333590	2398.633932
977.631299	2397.398849
977.928971	2399.248953
978.226606	2399.417832
978.524204	2399.874056
978.821765	2400.960425
979.119290	2398.134858
979.416777	2398.684344
979.714228	2396.942625
980.011642	2396.617471
980.309020	2398.875907
980.606360	2398.616288
980.903664	2398.422204
981.200931	2402.205590
981.498162	2402.157699
981.795356	2401.880435
982.092513	2404.073337
982.389633	2402.329098
982.686717	2401.635939
982.983764	2405.336146
983.280775	2408.121384
983.577749	2402.805487
983.874686	2404.252298
984.171587	2408.237330
984.468451	2406.873698
984.765279	2407.113153
985.062070	2404.343039
985.358824	2403.765827
985.655543	2400.010167
985.952224	2403.193656
986.248869	2400.345404
986.545478	2397.199724
986.842050	2396.236863
987.138586	2394.043962
987.435086	2398.465053
987.731549	2391.500699
988.027975	2397.615619
988.324366	2397.734086
988.620719	2397.146792
988.917037	2399.422873
989.213318	2396.194014
989.509563	2399.052348
989.805772	2396.715773
990.101944	2395.500855
990.398080	2399.674930
990.694180	2394.386760
990.990244	2397.809703
991.286271	2395.820968
991.582262	2395.382388
991.878217	2398.644014
992.174136	2397.340876
992.470019	2394.074208
992.765865	2395.861298
993.061676	2399.052348
993.357450	2397.482028
993.653188	2397.668551
993.948890	2399.201062
994.244556	2396.546894
994.540186	2396.562018
994.835780	2397.361041
995.131337	2400.642832
995.426859	2397.459343
995.722345	2400.867163
996.017795	2401.862791
996.313208	2401.580487
996.608586	2400.473953
996.903928	2401.814900
997.199234	2404.090981
997.494504	2402.422359
997.789738	2401.184756
998.084936	2400.146278
998.380099	2399.692574
998.675225	2399.722821
998.970316	2399.042266
999.265371	2400.274828
999.560390	2397.434138
999.855373	2397.487070
1000.150320	2396.577141
1000.445232	2396.400701
1000.740108	2396.224261
1001.034948	2398.185269
1001.329752	2397.441699
1001.624521	2398.200393
1001.919254	2392.521533
1002.213951	2393.305432
1002.508613	2391.266286
1002.803239	2392.478683
1003.097829	2392.385422
1003.392384	2397.247615
1003.686903	2396.483880
1003.981386	2396.214178
1004.275834	2398.253325
1004.570246	2398.714591
1004.864623	2397.247615
1005.158964	2398.117214
1005.453270	2395.642007
1005.747540	2395.967162
1006.041775	2394.487583
1006.335974	2397.963459
1006.630138	2395.145454
1006.924266	2395.636966
1007.218359	2395.493293
1007.512416	2397.915568
1007.806438	2394.424569
1008.100425	2397.411452
1008.394376	2395.780639
1008.688292	2396.632594
1008.982172	2394.797614
1009.276017	2396.667882
1009.569827	2394.046482
1009.863602	2395.745351
1010.157341	2395.205947
1010.451045	2397.237533
1010.744714	2397.797101
1011.038347	2396.415824
1011.331945	2397.739127
1011.625508	2395.021945
1011.919036	2394.787532
1012.212528	2394.583365
1012.505986	2398.283572
1012.799408	2396.970351
1013.092795	2394.351472
1013.386147	2395.944477
1013.679464	2394.084291
1013.972745	2396.299878
1014.265992	2395.770557
1014.559204	2396.556977
1014.852380	2394.621174
1015.145521	2395.647048
1015.438628	2395.054713
1015.731699	2397.003119
1016.024736	2396.136040
1016.317737	2396.448592
1016.610703	2397.396329
1016.903635	2393.605381
1017.196531	2392.435833
1017.489393	2393.076060
1017.782219	2390.210164
1018.075011	2395.790721
1018.367768	2393.696122
1018.660490	2393.902809
1018.953177	2393.902809
1019.245829	2393.902809
