Dividing Wavelength (nm)	Counts (n)	Blue Motor Position (mm): 0.000000	Red Motor Position (mm): 29.600000	
326.493990	1987.807620
326.888308	1987.807620
327.282561	1987.807620
327.676750	1962.564042
328.070874	1967.890021
328.464933	1973.415126
328.858929	1979.736733
329.252859	1993.814155
329.646726	2008.446104
330.040528	2025.359175
330.434265	2042.700744
330.827938	2060.856460
331.221547	2083.904615
331.615091	2101.488160
332.008571	2123.565893
332.401986	2145.857875
332.795338	2162.430669
333.188625	2180.881292
333.581847	2203.689992
333.975006	2221.797817
334.368100	2238.988152
334.761129	2254.797210
335.154095	2273.388985
335.546996	2290.528908
335.939833	2322.804896
336.332606	2331.551298
336.725315	2344.204594
337.117960	2352.840091
337.510540	2361.430217
337.903056	2371.295755
338.295508	2377.680376
338.687896	2385.811757
339.080220	2389.333003
339.472480	2397.242574
339.864676	2401.416649
340.256807	2404.965621
340.648875	2406.427556
341.040879	2409.895870
341.432818	2409.051477
341.824694	2406.624161
342.216506	2409.147258
342.608253	2409.613565
342.999937	2407.687844
343.391557	2409.792526
343.783113	2405.936043
344.174605	2406.026784
344.566033	2402.273645
344.957397	2400.342883
345.348697	2400.554612
345.739934	2399.997564
346.131106	2397.043448
346.522215	2395.994888
346.913260	2394.908519
347.304241	2392.685371
347.695159	2391.155380
348.086012	2388.924670
348.476802	2387.140101
348.867528	2386.693959
349.258191	2384.904350
349.648789	2384.717827
350.039324	2385.093393
350.429796	2386.451984
350.820203	2381.060470
351.210548	2384.196067
351.600828	2379.036447
351.991045	2381.229348
352.381198	2380.395038
352.771288	2382.915614
353.161314	2377.768596
353.551276	2382.134236
353.941175	2378.328164
354.331010	2380.858824
354.720782	2378.292876
355.110490	2384.095244
355.500135	2380.571478
355.889717	2386.141953
356.279235	2384.722868
356.668689	2386.688918
357.058080	2384.985008
357.447408	2383.442415
357.836672	2383.192878
358.225873	2387.619011
358.615010	2380.148021
359.004084	2388.594474
359.393095	2387.498023
359.782043	2389.945503
360.170927	2387.656820
360.559748	2391.122613
360.948505	2390.358878
361.337199	2396.234343
361.725830	2395.130330
362.114398	2395.924312
362.502903	2392.839126
362.891344	2396.730897
363.279722	2396.055382
363.668037	2398.424724
364.056289	2399.745507
364.444478	2398.883469
364.832603	2398.578479
365.220665	2400.524365
365.608665	2400.584859
365.996601	2404.111146
366.384474	2406.447721
366.772284	2405.757083
367.160031	2404.522000
367.547715	2405.520148
367.935336	2405.840262
368.322893	2408.922927
368.710388	2407.720612
369.097820	2410.160530
369.485189	2410.674728
369.872495	2414.810995
370.259738	2412.716395
370.646918	2418.755698
371.034035	2417.321489
371.421090	2422.977664
371.808081	2427.602923
372.195010	2430.904878
372.581875	2434.065682
372.968678	2443.759821
373.355418	2450.099072
373.742096	2459.294136
374.128710	2472.315437
374.515262	2484.252889
374.901751	2495.633294
375.288177	2517.164062
375.674540	2533.767102
376.060841	2557.372305
376.447079	2579.868454
376.833254	2606.654625
377.219367	2633.612195
377.605417	2669.522855
377.991404	2693.062522
378.377329	2732.943091
378.763191	2770.653442
379.148991	2817.626913
379.534727	2868.955942
379.920402	2914.696851
380.306013	2963.664099
380.691563	3029.312525
381.077049	3083.504929
381.462474	3142.211686
381.847835	3214.766493
382.233134	3288.367339
382.618371	3348.674663
383.003545	3436.620112
383.388657	3518.294366
383.773706	3609.282152
384.158693	3685.955581
384.543618	3783.305303
384.928480	3859.666181
385.313280	3964.537304
385.698017	4071.394642
386.082692	4192.457952
386.467305	4258.003034
386.851856	4388.611769
387.236344	4545.043814
387.620770	4608.206951
388.005133	4732.950303
388.389435	4882.707860
388.773674	4961.206187
389.157851	5100.248772
389.541965	5237.244648
389.926018	5259.546713
390.310008	5439.546152
390.693936	5571.044650
391.077802	5683.308626
391.461606	5820.780891
391.845348	5933.140649
392.229027	6057.601696
392.612645	6282.527898
392.996200	6402.141876
393.379694	6579.688794
393.763125	6807.798485
394.146494	6901.649646
394.529801	7037.803650
394.913047	7288.112062
395.296230	7281.172914
395.679351	7344.691452
396.062410	7612.137267
396.445408	7495.185018
396.828343	7656.340624
397.211217	7793.570914
397.594028	7678.267123
397.976778	7883.752115
398.359466	8051.262096
398.742092	8019.323866
399.124656	8174.639295
399.507158	8362.908747
399.889598	8385.901450
400.271977	8593.549097
400.654294	8626.092266
401.036549	8831.862084
401.418742	8856.866207
401.800874	9160.794852
402.182944	9245.231658
402.564952	9618.627403
402.946898	9435.406666
403.328783	9493.281633
403.710606	9695.338641
404.092367	9951.396489
404.474067	10315.481222
404.855705	10101.811917
405.237282	10057.485051
405.618797	10492.312296
406.000250	10742.252704
406.381642	11106.135792
406.762972	11062.663401
407.144240	10865.337516
407.525447	11110.851791
407.906593	11057.218955
408.287677	11308.371760
408.668700	11467.450411
409.049661	11444.407297
409.430560	11603.833787
409.811399	11579.099366
410.192176	11739.821433
410.572891	11814.816158
410.953545	12302.595684
411.334138	11773.665219
411.714669	12383.125596
412.095139	11684.880418
412.475547	12197.835466
412.855894	12034.572657
413.236180	12365.199253
413.616405	12047.634287
413.996568	12326.813387
414.376670	12304.798668
414.756711	12175.324193
415.136691	12461.772637
415.516609	12645.149649
415.896466	12712.280174
416.276262	13008.536183
416.655997	13446.756125
417.035670	13483.339779
417.415283	14134.455209
417.794834	14235.830293
418.174324	13971.888080
418.553753	13871.221279
418.933121	14370.126631
419.312428	14179.213094
419.691674	14099.308285
420.070859	14552.147573
420.449983	14195.397718
420.829045	14754.985960
421.208047	14497.357793
421.586988	14963.026817
421.965867	15219.868565
422.344686	15211.777513
422.723444	15781.526200
423.102141	14460.562411
423.480777	15661.723179
423.859352	15153.484130
424.237866	16274.399811
424.616319	15972.568287
424.994712	16634.181920
425.373044	16432.709686
425.751314	17113.646063
426.129524	16230.002369
426.507673	17335.066142
426.885762	17021.929830
427.263789	17216.155405
427.641756	17390.138227
428.019662	17451.405891
428.397508	17495.248806
428.775292	17803.830436
429.153016	17760.887367
429.530679	17840.842587
429.908282	17870.247638
430.285824	17581.691991
430.663305	18289.248181
431.040726	17891.344866
431.418086	17712.605716
431.795385	18369.261374
432.172624	18799.052507
432.549802	18344.925204
432.926920	18529.030663
433.303977	18418.682326
433.680974	18687.499334
434.057910	18975.329054
434.434786	18993.777157
434.811601	18904.120236
435.188355	19957.623087
435.565050	19582.273895
435.941683	19541.158244
436.318257	20431.121024
436.694770	20245.641850
437.071222	20851.649037
437.447614	19900.998327
437.823946	19936.203224
438.200218	20083.069680
438.576429	19845.165027
438.952580	20137.262084
439.328670	20092.456308
439.704700	20510.529279
440.080670	20084.834084
440.456580	20674.086995
440.832429	20851.258347
441.208218	19841.114460
441.583947	20281.827253
441.959616	20394.867566
442.335224	20623.244438
442.710773	20761.125037
443.086261	21299.371554
443.461689	20657.549490
443.837057	20783.737133
444.212365	21432.422727
444.587612	21422.481572
444.962800	21002.639156
445.337927	21435.911206
445.712995	20154.724641
446.088002	22013.178774
446.462949	22205.450902
446.837837	22378.480946
447.212664	22337.239266
447.587431	25182.549676
447.962139	28122.658984
448.336786	30542.001976
448.711374	28976.141454
449.085901	25278.424861
449.460369	25214.520674
449.834776	25124.508351
450.209124	27619.110729
450.583412	27143.402247
450.957640	27678.067023
451.331808	26331.312691
451.705917	24955.652383
452.079965	24990.469112
452.453954	25349.038823
452.827883	25235.701082
453.201752	25024.363310
453.575562	25194.416552
453.949311	26321.001011
454.323001	26379.465793
454.696632	26132.345911
455.070202	27692.971195
455.443713	27826.463469
455.817164	28419.983717
456.190556	28954.371231
456.563888	28387.707730
456.937160	28833.759104
457.310373	27166.450402
457.683526	27619.917314
458.056619	27598.905785
458.429653	27522.862499
458.802628	28099.063863
459.175542	28207.773826
459.548398	29511.207002
459.921194	31089.809041
460.293930	31754.749836
460.666607	33776.638177
461.039224	35536.714193
461.411782	35935.408968
461.784280	34738.339096
462.156719	34260.205818
462.529099	33698.046588
462.901419	32397.733886
463.273680	31337.107884
463.645882	31406.333009
464.018024	31383.247045
464.390106	32211.478375
464.762130	34897.863889
465.134094	38957.555493
465.505999	44231.214916
465.877845	48835.988841
466.249631	50027.117713
466.621358	48302.886822
466.993026	46211.672534
467.364634	44113.259478
467.736184	42129.303299
468.107674	40867.726823
468.479105	40049.093850
468.850477	39369.944563
469.221790	37923.231711
469.593043	36164.022774
469.964238	35285.944515
470.335373	35170.106361
470.706449	36875.856383
471.077467	39398.298533
471.448425	43932.692909
471.819324	46748.550377
472.190164	44920.930462
472.560945	41352.325381
472.931667	38229.542301
473.302330	37090.107942
473.672934	36266.562364
474.043479	36739.173058
474.413965	35909.817550
474.784393	35510.459863
475.154761	36373.046657
475.525070	36385.803297
475.895321	35880.624228
476.265513	36440.958561
476.635645	37350.642334
477.005719	37138.001424
477.375734	37556.639004
477.745691	38202.236892
478.115588	39466.835540
478.485427	41337.587567
478.855207	44551.411364
479.224928	47044.997950
479.594591	48617.011201
479.964194	47585.051720
480.333739	47671.038681
480.703226	47608.987119
481.072653	48143.989653
481.442022	48516.553607
481.811333	48686.914360
482.180584	47333.790530
482.549777	46706.224850
482.918912	46076.352841
483.287988	45685.262646
483.657005	44766.540084
484.025964	44034.239391
484.394864	43937.091316
484.763706	43394.244746
485.132489	42447.258955
485.501213	42145.530774
485.869879	42164.661952
486.238487	41636.948927
486.607036	41680.670854
486.975527	41018.106963
487.343959	41065.730743
487.712333	40990.184012
488.080648	40745.509089
488.448905	40988.381799
488.817104	40655.075830
489.185244	41353.441996
489.553326	42662.133096
489.921350	44976.370551
490.289315	47552.201041
490.657222	47955.458061
491.025070	48026.175367
491.392861	46913.154133
491.760593	45496.902453
492.128267	43682.366853
492.495883	42055.135323
492.863440	40601.919384
493.230939	39159.995628
493.598380	37968.912127
493.965763	37445.907539
494.333088	36513.959510
494.700354	35865.909100
495.067563	35384.136110
495.434713	35034.456473
495.801805	34837.675033
496.168839	34276.319867
496.535815	33758.941206
496.902733	33526.443191
497.269593	32942.080199
497.636395	32627.660913
498.003139	32683.254757
498.369825	31983.363643
498.736453	31957.948666
499.103023	31328.424497
499.469535	30944.719592
499.835989	30750.241959
500.202385	30233.611910
500.568723	29965.878750
500.935003	29815.004577
501.301226	29370.561331
501.667390	29528.392296
502.033497	29427.304558
502.399546	28721.495129
502.765537	27949.109701
503.131470	27910.111335
503.497345	27848.362242
503.863163	26654.763204
504.228923	26759.858659
504.594625	26728.840439
504.960269	25956.686905
505.325856	26097.007422
505.691385	25392.790997
506.056856	25167.774054
506.422270	25130.207376
506.787625	24550.706577
507.152924	24355.795404
507.518164	24099.422484
507.883347	23322.462209
508.248472	23175.953676
508.613540	23116.432772
508.978550	22979.623419
509.343503	22504.280420
509.708398	22303.627373
510.073236	22272.720059
510.438016	21945.990275
510.802738	21348.540448
511.167403	21348.079182
511.532010	21143.526803
511.896561	20979.149900
512.261053	21074.208417
512.625488	20527.888492
512.989866	20144.418002
513.354186	19762.719477
513.718449	19446.319017
514.082655	19438.101936
514.446803	18988.768771
514.810894	18895.620850
515.174927	18555.065702
515.538904	18206.076704
515.902822	18176.946396
516.266684	17641.522926
516.630488	17505.532760
516.994235	17145.977503
517.357925	17070.188796
517.721558	16844.430803
518.085133	16670.962179
518.448651	16416.832572
518.812112	16063.490537
519.175516	15820.655636
519.538863	15649.528628
519.902152	15374.142996
520.265385	15244.756741
520.628560	14990.448174
520.991678	14660.111444
521.354739	14469.636488
521.717743	14305.035253
522.080690	14027.015618
522.443580	13925.171708
522.806413	13703.945712
523.169189	13446.650261
523.531908	13248.442174
523.894569	12970.266264
524.257174	12766.696910
524.619722	12612.432561
524.982213	12378.041592
525.344647	12128.325516
525.707025	11929.199939
526.069345	11792.325050
526.431608	11569.213663
526.793815	11438.025196
527.155964	11132.410285
527.518057	10963.894595
527.880093	10719.963242
528.242072	10637.658844
528.603995	10388.472089
528.965860	10210.300068
529.327669	10042.606085
529.689421	9854.213125
530.051117	9674.874077
530.412755	9530.634062
530.774337	9375.066575
531.135862	9179.827728
531.497331	9045.796050
531.858743	8874.951346
532.220098	8771.630377
532.581396	8586.488961
532.942638	8389.190803
533.303824	8289.491903
533.664953	8147.593505
534.026025	7974.066907
534.387040	7895.760144
534.747999	7758.567662
535.108902	7649.056157
535.469748	7468.507232
535.830537	7355.774429
536.191270	7255.715087
536.551947	7101.412929
536.912567	7027.859974
537.273131	6935.342198
537.633638	6764.938595
537.994089	6697.762700
538.354483	6555.922274
538.714821	6513.352251
539.075103	6443.370953
539.435328	6326.466595
539.795497	6222.127314
540.155609	6128.666842
540.515665	6075.767494
540.875665	5941.534170
541.235609	5880.931939
541.595496	5801.241379
541.955328	5761.615389
542.315102	5635.992356
542.674821	5541.639600
543.034483	5468.167303
543.394090	5389.578235
543.753640	5315.513603
544.113134	5305.965658
544.472571	5177.322973
544.831953	5184.360424
545.191278	5070.314401
545.550548	4984.871884
545.909761	4947.854691
546.268918	4898.038009
546.628019	4851.276266
546.987064	4769.017238
547.346053	4673.429399
547.704986	4658.442049
548.063863	4580.891459
548.422684	4538.482752
548.781449	4480.615347
549.140158	4447.646201
549.498811	4389.821646
549.857408	4312.913803
550.215949	4303.310405
550.574434	4251.464658
550.932864	4200.428016
551.291237	4180.959080
551.649555	4128.069815
552.007817	4094.931790
552.366022	4043.577556
552.724173	4012.327443
553.082267	3987.943382
553.440305	3960.920277
553.798288	3906.990013
554.156215	3878.774675
554.514086	3852.434646
554.871902	3811.190446
555.229661	3781.828245
555.587365	3749.116198
555.945014	3719.862382
556.302606	3689.761652
556.660143	3672.031914
557.017625	3649.132473
557.375050	3618.124336
557.732421	3601.145729
558.089735	3577.321236
558.446994	3553.264850
558.804197	3540.218344
559.161345	3517.538193
559.518437	3476.770382
559.875474	3466.287302
560.232455	3448.900363
560.589381	3435.987447
560.946251	3415.170002
561.303065	3408.094743
561.659825	3387.491547
562.016528	3364.009853
562.373177	3345.788602
562.729770	3337.569001
563.086307	3315.531597
563.442789	3311.291986
563.799216	3298.182466
564.155587	3284.321813
564.511904	3268.522837
564.868164	3260.792227
565.224370	3250.261257
565.580520	3236.756006
565.936615	3229.524471
566.292654	3216.543500
566.648638	3209.783312
567.004567	3199.832075
567.360441	3192.582895
567.716260	3179.987572
568.072023	3174.729649
568.427732	3161.816733
568.783385	3152.858603
569.138982	3149.256699
569.494525	3139.837303
569.850013	3130.291878
570.205445	3124.731485
570.560823	3118.820732
570.916145	3110.712036
571.271412	3104.105604
571.626625	3095.313832
571.981782	3090.605394
572.336884	3077.775658
572.691931	3077.664752
573.046923	3064.716549
573.401860	3059.453584
573.756743	3051.397820
574.111570	3047.309444
574.466342	3041.290307
574.821059	3037.885007
575.175722	3026.991074
575.530330	3021.478572
575.884882	3014.531862
576.239380	3008.177488
576.593823	3005.432579
576.948211	2996.512258
577.302544	2987.044971
577.656823	2985.666215
578.011047	2983.838797
578.365216	2974.260605
578.719330	2968.362455
579.073389	2961.191413
579.427394	2959.979016
579.781344	2953.760753
580.135239	2949.145576
580.489080	2944.674073
580.842866	2934.967331
581.196597	2938.410439
581.550273	2930.853749
581.903895	2928.703697
582.257463	2928.784356
582.610975	2914.505288
582.964434	2917.207346
583.317837	2909.441448
583.671186	2905.043042
584.024481	2904.213772
584.377721	2899.223030
584.730906	2899.906106
585.084037	2894.847308
585.437113	2889.332286
585.790135	2886.786503
586.143103	2879.471789
586.496016	2874.297044
586.848874	2866.074922
587.201679	2866.692464
587.554428	2857.394056
587.907124	2860.917822
588.259765	2851.639578
588.612352	2854.996987
588.964884	2848.637571
589.317362	2845.990966
589.669786	2842.114318
590.022155	2841.590038
590.374470	2838.346056
590.726731	2831.916064
591.078937	2825.415496
591.431090	2821.937100
591.783188	2816.253199
592.135232	2812.273208
592.487222	2811.985862
592.839157	2809.545944
593.191038	2805.649132
593.542866	2802.758030
593.894639	2794.548511
594.246358	2794.651855
594.598022	2789.494754
594.949633	2783.957047
595.301190	2785.267747
595.652692	2781.406223
596.004141	2778.557971
596.355535	2767.792587
596.706876	2766.549943
597.058162	2765.534150
597.409395	2764.278903
597.760573	2765.556835
598.111698	2756.369332
598.462768	2754.703231
598.813785	2753.253899
599.164748	2747.615369
599.515657	2747.973291
599.866511	2741.833165
600.217312	2740.472054
600.568060	2735.146075
600.918753	2741.061869
601.269392	2733.689181
601.619978	2732.779253
601.970510	2731.561814
602.320988	2731.886969
602.671412	2730.687174
603.021783	2724.549569
603.372100	2723.485886
603.722363	2719.727706
604.072572	2720.551934
604.422728	2720.781307
604.772830	2712.264277
605.122878	2710.073896
605.472872	2711.712271
605.822813	2708.737990
606.172701	2706.492156
606.522534	2707.616334
606.872314	2705.867053
607.222041	2703.555684
607.571714	2706.794626
607.921333	2701.030066
608.270899	2702.958307
608.620411	2703.827907
608.969870	2702.252546
609.319276	2698.169211
609.668627	2698.426310
610.017926	2701.571990
610.367171	2699.593337
610.716362	2696.220805
611.065500	2692.684436
611.414585	2695.474715
611.763616	2694.673171
612.112594	2694.393387
612.461518	2694.605116
612.810389	2693.753161
613.159207	2692.142512
613.507971	2688.444826
613.856682	2693.470856
614.205340	2689.100176
614.553945	2693.727955
614.902496	2687.789476
615.250994	2687.096317
615.599439	2688.177644
615.947830	2692.124868
616.296169	2685.868796
616.644454	2687.940710
616.992686	2686.768642
617.340864	2689.357274
617.688990	2685.896522
618.037063	2689.397604
618.385082	2687.512212
618.733048	2690.539425
619.080961	2687.615556
619.428821	2687.943231
619.776628	2685.684794
620.124382	2685.672191
620.472083	2682.571881
620.819731	2683.872499
621.167326	2680.391582
621.514868	2678.758248
621.862357	2674.798422
622.209793	2673.999399
622.557176	2673.646518
622.904506	2667.362720
623.251783	2661.840136
623.599007	2660.473983
623.946179	2658.964158
624.293297	2658.815444
624.640363	2657.164466
624.987376	2657.550114
625.334336	2653.746564
625.681243	2654.643889
626.028097	2651.536018
626.374899	2649.564927
626.721647	2653.328148
627.068343	2648.130718
627.414987	2647.039308
627.761577	2642.817342
628.108115	2644.617034
628.454600	2641.184008
628.801032	2641.486477
629.147412	2640.095119
629.493739	2641.831797
629.840014	2639.512866
630.186236	2642.340953
630.532405	2638.207207
630.878521	2637.385499
631.224585	2637.017495
631.570597	2633.614716
631.916556	2637.304840
632.262462	2635.331229
632.608316	2634.207051
632.954117	2632.992133
633.299866	2631.643625
633.645562	2633.150930
633.991206	2629.100362
634.336797	2623.698766
634.682336	2625.077522
635.027823	2622.700618
635.373257	2623.416462
635.718639	2618.511419
636.063968	2617.883795
636.409245	2615.824484
636.754470	2614.407920
637.099642	2614.818774
637.444762	2611.627723
637.789829	2612.222579
638.134845	2609.931375
638.479808	2610.405243
638.824719	2607.647732
639.169577	2605.550612
639.514383	2604.592793
639.859137	2603.677824
640.203839	2603.017432
640.548489	2602.588934
640.893086	2603.692947
641.237632	2596.791607
641.582125	2596.058120
641.926566	2596.017790
642.270955	2599.206320
642.615292	2597.441916
642.959576	2597.101638
643.303809	2594.744899
643.647990	2600.915271
643.992118	2595.271700
644.336195	2597.530137
644.680219	2597.041145
645.024192	2598.535847
645.368112	2600.905189
645.711981	2598.455188
646.055797	2604.358379
646.399562	2604.474326
646.743274	2606.836107
647.086935	2610.783330
647.430544	2610.443052
647.774101	2610.674945
648.117606	2608.839965
648.461059	2609.603700
648.804460	2610.611931
649.147810	2606.011878
649.491108	2602.609099
649.834354	2602.525920
650.177548	2599.720518
650.520690	2594.359251
650.863781	2596.552153
651.206820	2596.083325
651.549807	2595.619539
651.892742	2593.676174
652.235626	2591.689960
652.578458	2589.088724
652.921238	2584.854155
653.263967	2590.646441
653.606644	2585.653178
653.949269	2588.360278
654.291843	2582.051274
654.634365	2586.174937
654.976836	2585.305338
655.319255	2580.871644
655.661622	2583.387179
656.003938	2580.725450
656.346203	2577.141190
656.688416	2580.158320
657.030577	2580.009606
657.372687	2579.376942
657.714746	2579.573547
658.056753	2580.422981
658.398708	2574.567681
658.740612	2577.226889
659.082465	2572.087433
659.424266	2575.628844
659.766016	2574.655901
660.107715	2577.423494
660.449362	2576.276632
660.790958	2578.756880
661.132503	2573.995510
661.473996	2578.643454
661.815438	2574.981055
662.156829	2577.988104
662.498168	2576.140521
662.839456	2578.741756
663.180693	2576.402661
663.521879	2577.604976
663.863013	2577.441138
664.204097	2576.470716
664.545129	2578.953485
664.886110	2577.715881
665.227040	2578.187229
665.567918	2579.704617
665.908746	2577.360480
666.249522	2577.413412
666.590248	2580.004565
666.930922	2579.515573
667.271545	2578.777044
667.612118	2581.466500
667.952639	2579.434915
668.293109	2580.307034
668.633528	2580.233938
668.973896	2580.599421
669.314213	2579.150090
669.654480	2577.607497
669.994695	2575.684296
670.334859	2577.431056
670.674973	2575.487691
671.015035	2578.174626
671.355047	2578.293093
671.695008	2576.546334
672.034918	2576.042218
672.374777	2578.209914
672.714585	2574.232444
673.054342	2578.852662
673.394049	2571.943760
673.733705	2577.680593
674.073310	2575.633885
674.412864	2577.478947
674.752368	2572.851168
675.091820	2575.081878
675.431223	2571.210272
675.770574	2571.948801
676.109875	2566.776578
676.449125	2565.997719
676.788324	2563.404046
677.127473	2566.814386
677.466571	2560.039075
677.805619	2565.922102
678.144616	2562.859601
678.483562	2565.700291
678.822458	2559.933211
679.161303	2562.433623
679.500098	2561.213664
679.838842	2562.506720
680.177535	2560.880948
680.516179	2563.928326
680.854771	2563.300702
681.193314	2566.718604
681.531805	2572.059707
681.870247	2578.071283
682.208638	2578.187229
682.546978	2579.707137
682.885268	2579.046746
683.223508	2578.403999
683.561697	2575.820408
683.899836	2575.162537
684.237925	2575.686817
684.575963	2574.887794
684.913951	2572.379820
685.251889	2571.953842
685.589776	2574.156827
685.927614	2571.774882
686.265401	2573.589697
686.603137	2575.840572
686.940824	2576.417784
687.278460	2575.200346
687.616046	2576.629513
687.953582	2580.594380
688.291068	2581.224524
688.628504	2582.336099
688.965889	2578.177147
689.303224	2582.668815
689.640510	2577.743608
689.977745	2576.251426
690.314930	2570.320509
690.652065	2569.309757
690.989150	2567.172308
691.326185	2565.319684
691.663170	2559.590413
692.000105	2557.019424
692.336990	2551.821995
692.673825	2551.269988
693.010610	2547.355532
693.347345	2542.102650
693.684030	2537.542926
694.020665	2539.602238
694.357251	2533.910775
694.693786	2537.210210
695.030272	2534.855991
695.366707	2534.079654
695.703093	2531.148223
696.039429	2533.850281
696.375716	2532.950435
696.711952	2530.833151
697.048139	2534.228368
697.384276	2527.740403
697.720363	2531.614529
698.056400	2529.908099
698.392388	2528.552028
698.728326	2526.318797
699.064214	2526.686802
699.400053	2524.952645
699.735842	2526.664116
700.071581	2523.049609
700.407270	2524.665299
700.742910	2523.999867
701.078501	2523.243693
701.414042	2522.764784
701.749533	2519.482993
702.084974	2518.631038
702.420366	2518.053826
702.755709	2517.721109
703.091002	2512.816067
703.426246	2515.160203
703.761440	2514.063752
704.096584	2514.227590
704.431679	2509.778772
704.766725	2514.242713
705.101721	2511.815398
705.436668	2514.144411
705.771565	2510.393792
706.106413	2513.849503
706.441212	2507.676610
706.775961	2514.295645
707.110661	2515.750018
707.445311	2515.336644
707.779913	2517.557272
708.114465	2516.380162
708.448967	2518.633558
708.783421	2519.941738
709.117825	2522.336286
709.452180	2523.460463
709.786485	2523.150432
710.120742	2527.682429
710.454949	2526.492717
710.789107	2529.111597
711.123216	2528.786442
711.457275	2536.466640
711.791286	2535.329860
712.125247	2536.827083
712.459159	2539.080478
712.793023	2543.100798
713.126837	2534.533357
713.460602	2541.757331
713.794318	2537.222813
714.127985	2536.572504
714.461602	2530.084539
714.795171	2531.019673
715.128691	2522.618590
715.462162	2524.871986
715.795584	2519.074659
716.128957	2519.634227
716.462281	2516.118023
716.795556	2516.375121
717.128782	2513.234482
717.461960	2511.177692
717.795088	2509.670387
718.128167	2511.207939
718.461198	2504.581342
718.794180	2507.759789
719.127113	2507.240551
719.459997	2503.517658
719.792833	2501.992709
720.125619	2503.782319
720.458357	2500.044303
720.791046	2499.827534
721.123686	2498.320229
721.456278	2500.586227
721.788821	2497.284272
722.121315	2495.993736
722.453761	2497.614467
722.786158	2498.199241
723.118506	2496.366782
723.450805	2497.064982
723.783056	2496.336535
724.115259	2495.913078
724.447412	2495.565238
724.779518	2498.985661
725.111574	2496.409632
725.443582	2500.145127
725.775542	2498.121103
726.107453	2502.585045
726.439315	2501.153357
726.771129	2505.831548
727.102895	2505.050169
727.434612	2506.517145
727.766281	2508.155520
728.097901	2510.098885
728.429473	2506.015550
728.760996	2509.267094
729.092471	2503.000940
729.423897	2508.440345
729.755276	2509.635099
730.086606	2509.670387
730.417887	2511.951509
730.749120	2515.455111
731.080305	2514.197343
731.411442	2518.893178
731.742530	2519.399814
732.073570	2519.561131
732.404562	2519.354443
732.735506	2524.824095
733.066401	2517.292611
733.397249	2516.972498
733.728048	2511.906138
734.058798	2511.535614
734.389501	2506.214676
734.720156	2501.365086
735.050762	2503.401712
735.381320	2497.435506
735.711831	2495.897954
736.042293	2494.007522
736.372707	2493.122799
736.703073	2492.795124
737.033391	2495.502224
737.363661	2493.006853
737.693883	2494.183962
738.024056	2499.668737
738.354182	2498.466422
738.684260	2500.296361
739.014290	2498.463902
739.344272	2502.287617
739.674207	2505.632423
740.004093	2505.705519
740.333931	2504.903976
740.663722	2505.844151
740.993464	2505.405571
741.323159	2507.026302
741.652806	2500.472802
741.982405	2502.605210
742.311956	2500.752586
742.641460	2499.724190
742.970915	2497.571618
743.300323	2494.163797
743.629683	2492.595999
743.958996	2494.652789
744.288260	2492.101966
744.617477	2488.091728
744.946647	2488.164824
745.275768	2487.973261
745.604842	2482.163331
745.933869	2484.535194
746.262847	2482.722899
746.591778	2485.334217
746.920662	2484.227683
747.249498	2485.664412
747.578286	2485.470328
747.907027	2486.987715
748.235720	2489.238590
748.564365	2491.650782
748.892963	2487.771614
749.221514	2490.105669
749.550017	2492.026348
749.878473	2488.371512
750.206881	2487.111223
750.535242	2482.934627
750.863555	2484.774648
751.191821	2485.097282
751.520039	2487.068373
751.848210	2485.886223
752.176334	2485.752632
752.504411	2485.591315
752.832440	2483.821870
753.160421	2483.650471
753.488356	2482.065028
753.816243	2484.018475
754.144082	2480.817343
754.471875	2485.674494
754.799620	2480.393886
755.127318	2486.763384
755.454969	2482.410347
755.782572	2480.948413
756.110129	2479.690645
756.437638	2479.688124
756.765100	2478.697537
757.092515	2480.111581
757.419882	2483.146356
757.747203	2481.732312
758.074477	2483.844556
758.401703	2483.209370
758.728882	2483.433702
759.056014	2485.024186
759.383099	2484.169710
759.710138	2484.366315
760.037129	2486.531491
760.364073	2486.569299
760.690970	2486.718013
761.017820	2484.446973
761.344623	2485.772797
761.671379	2489.079794
761.998088	2489.099958
762.324751	2503.862978
762.651366	2521.259999
762.977935	2546.821170
763.304456	2560.144940
763.630931	2566.895045
763.957359	2561.553942
764.283740	2550.861655
764.610074	2540.686086
764.936362	2522.810154
765.262602	2510.829852
765.588796	2501.861639
765.914943	2496.139930
766.241044	2490.032572
766.567097	2484.318424
766.893104	2478.594194
767.219064	2474.596559
767.544978	2473.855509
767.870845	2472.416260
768.196665	2471.932309
768.522438	2470.195632
768.848165	2466.744962
769.173846	2467.508697
769.499479	2467.475929
769.825066	2466.336628
770.150607	2464.675568
770.476101	2463.185907
770.801548	2463.775722
771.126949	2463.044755
771.452303	2460.146091
771.777611	2459.931842
772.102872	2460.181379
772.428087	2459.135340
772.753256	2459.752881
773.078378	2454.953703
773.403453	2456.864300
773.728482	2456.150977
774.053465	2454.182406
774.378401	2453.882458
774.703291	2456.057716
775.028135	2450.991356
775.352932	2452.967488
775.677683	2453.085955
776.002388	2451.734926
776.327046	2453.204422
776.651658	2451.752570
776.976224	2451.175358
777.300743	2451.306428
777.625216	2453.181737
777.949643	2448.886674
778.274024	2449.393310
778.598359	2445.700665
778.922647	2446.373659
779.246889	2448.871551
779.571086	2446.056066
779.895236	2451.954216
780.219339	2448.337188
780.543397	2449.428598
780.867409	2449.917590
781.191374	2451.200564
781.515294	2452.402879
781.839167	2451.611418
782.162995	2448.337188
782.486776	2448.490944
782.810511	2445.672939
783.134201	2448.168310
783.457844	2447.021447
783.781441	2448.541355
784.104993	2448.589246
784.428498	2450.295677
784.751958	2448.863989
785.075372	2446.477003
785.398739	2447.346602
785.722061	2448.271653
786.045337	2446.892898
786.368568	2448.390121
786.691752	2448.763166
787.014891	2451.059412
787.337983	2453.907663
787.661030	2457.799434
787.984031	2462.089456
788.306987	2464.020218
788.629897	2464.181535
788.952760	2464.196658
789.275579	2463.586679
789.598351	2461.907975
789.921078	2457.512088
790.243759	2457.680967
790.566395	2454.540328
790.888984	2450.313321
791.211529	2451.767694
791.534027	2450.678804
791.856480	2450.419185
792.178888	2447.223093
792.501249	2449.799123
792.823566	2446.524894
793.145836	2446.534976
793.468062	2447.616303
793.790241	2444.165634
794.112375	2450.240224
794.434464	2448.647219
794.756507	2449.574792
795.078505	2448.816098
795.400457	2448.851386
795.722364	2448.932045
796.044226	2451.281222
796.366042	2451.019082
796.687812	2454.502520
797.009538	2456.937397
797.331218	2457.358333
797.652852	2452.649896
797.974442	2453.998404
798.295986	2455.414968
798.617484	2453.590071
798.938938	2450.661160
799.260346	2449.292487
799.581709	2450.320883
799.903026	2453.809361
800.224299	2448.697631
800.545526	2448.654781
800.866708	2445.846858
801.187845	2444.868875
801.508936	2446.807198
801.829983	2444.989862
802.150984	2445.088165
802.471940	2445.234358
802.792851	2444.347115
803.113717	2443.124635
803.434538	2444.077413
803.755314	2442.363421
804.076045	2444.490788
804.396731	2442.607917
804.717372	2441.080448
805.037967	2444.344595
805.358518	2443.979111
805.679024	2442.476847
805.999485	2443.457352
806.319901	2443.207814
806.640272	2445.637651
806.960598	2446.479523
807.280879	2444.027002
807.601115	2447.381890
807.921306	2444.639502
808.241453	2445.204111
808.561554	2442.446600
808.881611	2447.581015
809.201623	2448.526232
809.521590	2447.374328
809.841513	2446.897939
810.161390	2448.077569
810.481223	2443.631271
810.801011	2444.216045
811.120755	2443.956426
811.440453	2443.590942
811.760107	2444.730243
812.079716	2442.071034
812.399281	2438.834613
812.718801	2442.045828
813.038276	2439.696651
813.357707	2444.677311
813.677093	2442.192022
813.996434	2441.771086
814.315731	2441.609769
814.634983	2441.471137
814.954191	2443.205294
815.273354	2444.110181
815.592473	2443.094388
815.911547	2449.010183
816.230577	2446.305603
816.549562	2444.977259
816.868502	2448.213680
817.187399	2449.310131
817.506250	2450.598146
817.825058	2450.857765
818.143821	2453.491768
818.462539	2456.004783
818.781213	2456.241718
819.099843	2463.072481
819.418429	2469.961218
819.736970	2477.124697
820.055466	2486.014772
820.373919	2498.103459
820.692327	2518.459638
821.010691	2549.016592
821.329011	2620.994187
821.647286	2735.088102
821.965517	2848.965246
822.283704	2921.348654
822.601847	2943.136521
822.919945	2894.955693
823.237999	2837.673062
823.556010	2778.338681
823.873976	2723.175855
824.191897	2677.266067
824.509775	2639.835500
824.827609	2605.079264
825.145398	2584.667632
825.463144	2574.287897
825.780845	2579.054308
826.098502	2590.878334
826.416116	2616.850359
826.733685	2646.220121
827.051210	2652.060298
827.368692	2638.668472
827.686129	2606.768051
828.003522	2581.360636
828.320872	2546.097764
828.638177	2529.817358
828.955439	2508.659635
829.272656	2499.144458
829.589830	2483.111068
829.906960	2478.846252
830.224046	2471.559264
830.541088	2464.889817
830.858086	2456.612242
831.175041	2459.077367
831.491952	2458.447222
831.808819	2458.164918
832.125642	2462.278499
832.442421	2469.925930
832.759157	2483.219453
833.075849	2508.825993
833.392497	2531.420445
833.709101	2548.174720
834.025662	2539.569470
834.342179	2532.403470
834.658653	2515.671880
834.975083	2498.524396
835.291469	2490.859321
835.607811	2475.607310
835.924110	2470.475416
836.240366	2463.687502
836.556578	2456.246759
836.872746	2451.003959
837.188871	2448.185954
837.504952	2443.233020
837.820990	2442.426436
838.136984	2439.666404
838.452935	2438.995930
838.768842	2439.096753
839.084706	2442.786878
839.400526	2453.821964
839.716303	2466.767647
840.032037	2475.178812
840.347727	2473.111939
840.663373	2464.428552
840.978977	2456.627366
841.294537	2451.417333
841.610054	2446.192178
841.925527	2443.064142
842.240957	2437.886877
842.556344	2433.261618
842.871687	2432.518048
843.186987	2430.304981
843.502244	2430.872111
843.817458	2428.038983
844.132629	2426.070412
844.447756	2427.343303
844.762840	2421.576223
845.077881	2425.546132
845.392879	2416.686304
845.707833	2423.668302
846.022745	2418.574216
846.337613	2426.912285
846.652438	2422.894485
846.967221	2423.748961
847.281960	2422.937335
847.596656	2425.536050
847.911309	2419.980698
848.225919	2421.480441
848.540485	2423.456574
848.855009	2423.824578
849.169490	2421.271233
849.483928	2423.978333
849.798323	2424.104362
850.112675	2420.126892
850.426984	2421.079670
850.741251	2421.445153
851.055474	2418.922056
851.369654	2422.062695
851.683792	2421.735020
851.997887	2421.276275
852.311938	2417.586150
852.625947	2420.268044
852.939914	2422.985226
853.253837	2420.694021
853.567718	2420.699063
853.881555	2419.171593
854.195350	2421.591347
854.509103	2421.301480
854.822812	2418.546490
855.136479	2422.234094
855.450103	2421.803075
855.763685	2424.041347
856.077224	2419.584967
856.390720	2418.939700
856.704173	2422.539084
857.017584	2421.084711
857.330953	2421.246028
857.644278	2421.112437
857.957561	2424.331214
858.270802	2420.746953
858.584000	2423.295257
858.897155	2423.267530
859.210268	2418.483475
859.523339	2422.158477
859.836367	2422.884403
860.149352	2421.969433
860.462295	2421.944227
860.775195	2418.990111
861.088054	2417.933990
861.400869	2419.227046
861.713642	2415.796540
862.026373	2419.660585
862.339062	2420.018507
862.651708	2421.664443
862.964312	2418.969947
863.276873	2420.252920
863.589392	2425.692325
863.901869	2422.649989
864.214303	2421.036820
864.526696	2423.146543
864.839045	2423.322983
865.151353	2425.919177
865.463619	2423.938004
865.775842	2424.462284
866.088023	2424.769794
866.400162	2424.293405
866.712258	2421.830802
867.024313	2425.427665
867.336325	2425.009249
867.648296	2426.249373
867.960224	2422.957499
868.272110	2423.328024
868.583954	2425.357089
868.895755	2423.658220
869.207515	2423.116296
869.519233	2424.618560
869.830909	2424.230391
870.142542	2426.541760
870.454134	2426.045206
870.765684	2427.517223
871.077191	2427.877666
871.388657	2428.979158
871.700081	2427.696184
872.011463	2428.326328
872.322803	2429.044693
872.634101	2425.566297
872.945357	2428.923705
873.256571	2431.300609
873.567744	2430.103335
873.878874	2432.626432
874.189963	2431.726587
874.501010	2432.097111
874.812015	2433.001998
875.122979	2430.504107
875.433900	2431.484611
875.744780	2433.506114
876.055618	2431.237595
876.366415	2433.438058
876.677169	2432.797832
876.987882	2430.887234
877.298554	2429.982347
877.609183	2432.704570
877.919771	2432.407142
878.230317	2437.775971
878.540822	2440.364604
878.851285	2443.064142
879.161707	2450.157045
879.472087	2460.821606
879.782425	2470.687144
880.092722	2499.406597
880.402977	2539.420756
880.713191	2585.575040
881.023363	2633.828965
881.333494	2661.817451
881.643583	2672.247598
881.953631	2667.599654
882.263637	2656.075577
882.573602	2635.505148
882.883526	2619.491923
883.193408	2600.809407
883.503248	2579.470203
883.813048	2560.429765
884.122806	2542.377393
884.432522	2525.313087
884.742197	2510.229955
885.051831	2498.153871
885.361424	2485.447642
885.670975	2478.125367
885.980485	2471.148410
886.289954	2463.112810
886.599382	2459.349589
886.908768	2456.047633
887.218113	2447.664194
887.527417	2447.318875
887.836680	2441.657660
888.145901	2442.738987
888.455082	2439.323605
888.764221	2437.922165
889.073319	2435.260435
889.382376	2438.857299
889.691392	2433.813624
890.000366	2435.204983
890.309300	2433.473346
890.618193	2434.171546
890.927044	2433.717842
891.235855	2436.540888
891.544625	2435.179777
891.853353	2437.042483
892.162041	2439.832762
892.470687	2440.536003
892.779293	2442.706220
893.087858	2444.982301
893.396381	2450.930862
893.704864	2461.260186
894.013306	2471.902062
894.321707	2490.080463
894.630068	2498.519354
894.938387	2502.519510
895.246665	2499.388953
895.554903	2490.859321
895.863100	2485.740029
896.171256	2479.040336
896.479371	2472.539768
896.787446	2467.478450
897.095480	2461.348407
897.403473	2457.754064
897.711425	2455.062088
898.019336	2449.126129
898.327207	2448.221242
898.635038	2444.508432
898.942827	2443.613627
899.250576	2439.769747
899.558284	2437.304623
899.865952	2436.150199
900.173579	2433.652307
900.481165	2432.490321
900.788711	2432.613830
901.096216	2429.049734
901.403681	2431.519899
901.711105	2429.057296
902.018489	2431.713984
902.325832	2432.732297
902.633135	2433.312029
902.940397	2437.546599
903.247619	2447.374328
903.554800	2469.925930
903.861941	2492.636328
904.169041	2514.285563
904.476101	2519.120030
904.783121	2513.068124
905.090100	2504.934223
905.397039	2491.002994
905.703938	2481.777683
906.010796	2474.200828
906.317614	2469.429376
906.624391	2462.328911
906.931129	2454.600822
907.237826	2451.240893
907.544483	2444.871395
907.851099	2440.760334
908.157675	2436.830755
908.464211	2428.134764
908.770707	2423.764084
909.077163	2424.782397
909.383578	2419.224525
909.689954	2420.847777
909.996289	2419.882396
910.302584	2424.361461
910.608839	2419.708476
910.915054	2419.123702
911.221229	2420.935997
911.527363	2422.476069
911.833458	2421.508168
912.139513	2422.982705
912.445527	2419.259813
912.751502	2423.476738
913.057436	2427.630649
913.363331	2426.423293
913.669186	2431.313212
913.975000	2431.565270
914.280775	2438.194387
914.586510	2446.035902
914.892205	2455.699794
915.197859	2472.897690
915.503475	2486.748260
915.809050	2503.210148
916.114585	2509.715757
916.420081	2513.814215
916.725536	2512.692558
917.030952	2510.020747
917.336328	2502.217041
917.641665	2494.879641
917.946961	2489.238590
918.252218	2484.497385
918.557435	2476.794502
918.862612	2471.405508
919.167750	2464.670527
919.472848	2459.924281
919.777906	2453.181737
920.082925	2448.589246
920.387904	2443.162444
920.692843	2440.536003
920.997743	2435.169695
921.302603	2436.477874
921.607423	2433.896803
921.912204	2429.574014
922.216946	2428.883376
922.521647	2426.985381
922.826310	2427.081163
923.130932	2426.468663
923.435516	2423.428847
923.740059	2422.997829
924.044564	2424.474887
924.349028	2420.638569
924.653454	2412.718916
924.957840	2416.850142
925.262186	2415.032806
925.566493	2415.980543
925.870761	2412.998700
926.174989	2418.319638
926.479178	2416.038516
926.783328	2413.890984
927.087438	2413.775038
927.391509	2415.829308
927.695541	2413.795202
927.999533	2413.996848
928.303486	2410.896539
928.607400	2414.006931
928.911275	2410.647002
929.215110	2413.507857
929.518906	2413.621283
929.822663	2411.945099
930.126381	2409.951322
930.430060	2412.277815
930.733699	2413.046591
931.037299	2412.592887
931.340861	2412.383679
931.644383	2412.976015
931.947866	2410.261353
932.251309	2410.720098
932.554714	2411.708165
932.858080	2412.418967
933.161407	2411.130952
933.464694	2412.822260
933.767943	2412.829821
934.071153	2412.048442
934.374323	2408.648184
934.677455	2414.148083
934.980548	2410.586508
935.283602	2411.294790
935.586617	2410.848648
935.889593	2411.526683
936.192530	2413.722106
936.495428	2413.959040
936.798287	2410.954512
937.101108	2413.071797
937.403890	2413.540624
937.706632	2416.552713
938.009336	2415.483989
938.312002	2417.601273
938.614628	2418.375091
938.917216	2416.613207
939.219765	2414.448032
939.522275	2418.513722
939.824747	2417.477765
940.127179	2411.461148
940.429573	2415.420974
940.731929	2420.000863
941.034246	2415.952816
941.336524	2418.097827
941.638763	2418.740574
941.940964	2418.831315
942.243126	2415.385686
942.545250	2417.059349
942.847335	2417.155131
943.149381	2415.070614
943.451389	2416.439287
943.753359	2413.210428
944.055290	2415.070614
944.357182	2414.085069
944.659036	2414.453073
944.960851	2417.502971
945.262628	2413.041550
945.564367	2414.490882
945.866067	2413.969122
946.167729	2412.608011
946.469352	2410.853689
946.770937	2415.214287
947.072484	2412.960891
947.373992	2413.243196
947.675462	2410.427712
947.976893	2413.376787
948.278286	2414.919380
948.579641	2412.852507
948.880958	2411.456107
949.182236	2413.338978
949.483476	2412.003072
949.784678	2410.979718
950.085841	2411.546848
950.386967	2415.108423
950.688054	2410.629358
950.989103	2414.667322
951.290114	2412.295459
951.591087	2413.661612
951.892021	2414.304359
952.192917	2418.183527
952.493776	2416.577919
952.794596	2414.465676
953.095378	2417.407189
953.396122	2416.653537
953.696828	2414.082548
953.997496	2415.635223
954.298126	2416.630851
954.598718	2418.954823
954.899272	2414.553896
955.199788	2413.512898
955.500266	2413.749832
955.800706	2411.675397
956.101108	2407.219017
956.401472	2408.716240
956.701798	2405.691547
957.002087	2410.720098
957.302337	2410.863771
957.602550	2409.212793
957.902724	2409.787485
958.202861	2409.482495
958.502960	2407.100550
958.803022	2404.741290
959.103045	2407.229099
959.403031	2405.552916
959.702979	2409.041394
960.002889	2405.729356
960.302762	2406.248595
960.602596	2403.891856
960.902393	2407.319840
961.202153	2405.626012
961.501875	2402.833213
961.801559	2405.857906
962.101205	2403.055024
962.400814	2404.479150
962.700385	2405.177350
962.999918	2403.009654
963.299414	2403.284397
963.598873	2406.528379
963.898293	2406.087278
964.197677	2406.639284
964.497022	2405.023595
964.796331	2407.549213
965.095601	2406.384706
965.394835	2408.038205
965.694030	2405.104253
965.993189	2404.499315
966.292309	2403.717936
966.591393	2402.702143
966.890439	2404.953018
967.189447	2403.276835
967.488419	2404.965621
967.787353	2403.397822
968.086249	2405.139541
968.385108	2408.249933
968.683930	2404.655590
968.982714	2405.963770
969.281462	2402.926475
969.580172	2406.445200
969.878844	2407.100550
970.177480	2405.124418
970.476078	2403.085271
970.774639	2408.272618
971.073162	2406.125087
971.371649	2402.790363
971.670098	2401.169633
971.968510	2401.313305
972.266885	2401.862791
972.565223	2403.380178
972.863524	2405.517628
973.161788	2406.462844
973.460014	2402.286248
973.758204	2405.787329
974.056356	2404.242216
974.354471	2405.842782
974.652550	2405.278173
974.950591	2406.966959
975.248595	2403.796074
975.546563	2403.417987
975.844493	2406.712381
976.142386	2404.000240
976.440243	2406.316651
976.738062	2405.048800
977.035845	2405.101732
977.333590	2404.501835
977.631299	2404.411094
977.928971	2404.758934
978.226606	2405.124418
978.524204	2404.925292
978.821765	2405.245405
979.119290	2403.735580
979.416777	2404.993348
979.714228	2404.758934
980.011642	2404.413615
980.309020	2408.176836
980.606360	2408.887639
980.903664	2407.929820
981.200931	2407.443348
981.498162	2406.054511
981.795356	2409.812691
982.092513	2410.064748
982.389633	2411.745973
982.686717	2413.177661
982.983764	2414.763104
983.280775	2412.474420
983.577749	2414.659760
983.874686	2416.729154
984.171587	2411.655232
984.468451	2417.369380
984.765279	2414.322003
985.062070	2412.408885
985.358824	2413.853176
985.655543	2411.892167
985.952224	2410.803278
986.248869	2405.484860
986.545478	2405.278173
986.842050	2402.389592
987.138586	2402.518141
987.435086	2402.727349
987.731549	2398.124776
988.027975	2404.978224
988.324366	2404.547206
988.620719	2403.909500
988.917037	2401.353635
989.213318	2402.046793
989.509563	2401.388923
989.805772	2401.003274
990.101944	2402.427400
990.398080	2403.002092
990.694180	2402.843296
990.990244	2404.900086
991.286271	2403.115518
991.582262	2401.860271
991.878217	2401.502349
992.174136	2404.045611
992.470019	2401.376320
992.765865	2403.233985
993.061676	2402.659293
993.357450	2400.446227
993.653188	2401.583007
993.948890	2403.959911
994.244556	2404.741290
994.540186	2404.040570
994.835780	2407.317320
995.131337	2406.679614
995.426859	2405.270611
995.722345	2409.732032
996.017795	2407.750859
996.313208	2408.907804
996.608586	2408.812022
996.903928	2409.555592
997.199234	2409.101888
997.494504	2410.168092
997.789738	2409.558113
998.084936	2407.448390
998.380099	2407.957546
998.675225	2404.794222
998.970316	2405.280693
999.265371	2405.515107
999.560390	2402.457647
999.855373	2404.355642
1000.150320	2405.550395
1000.445232	2402.140055
1000.740108	2403.435631
1001.034948	2403.584345
1001.329752	2403.954870
1001.624521	2403.624674
1001.919254	2397.401370
1002.213951	2400.768861
1002.508613	2398.870866
1002.803239	2399.178377
1003.097829	2394.036400
1003.392384	2404.075858
1003.686903	2401.779612
1003.981386	2402.321536
1004.275834	2401.104097
1004.570246	2401.928326
1004.864623	2399.253994
1005.158964	2401.308264
1005.453270	2404.050652
1005.747540	2401.396484
1006.041775	2400.635270
1006.335974	2401.643501
1006.630138	2399.558984
1006.924266	2399.861453
1007.218359	2400.292472
1007.512416	2398.938922
1007.806438	2399.790877
1008.100425	2400.957904
1008.394376	2402.223234
1008.688292	2399.231309
1008.982172	2399.110321
1009.276017	2401.709036
1009.569827	2403.453275
1009.863602	2400.151319
1010.157341	2399.755589
1010.451045	2401.169633
1010.744714	2399.047307
1011.038347	2399.984961
1011.331945	2399.536299
1011.625508	2403.594427
1011.919036	2401.031001
1012.212528	2400.037893
1012.505986	2398.366751
1012.799408	2399.662328
1013.092795	2399.349776
1013.386147	2401.356155
1013.679464	2399.281720
1013.972745	2403.259191
1014.265992	2401.978738
1014.559204	2402.447565
1014.852380	2398.583521
1015.145521	2402.341701
1015.438628	2398.961607
1015.731699	2401.615775
1016.024736	2399.445558
1016.317737	2401.053686
1016.610703	2399.692574
1016.903635	2397.976062
1017.196531	2396.599827
1017.489393	2398.054199
1017.782219	2394.895917
1018.075011	2401.469581
1018.367768	2404.083419
1018.660490	2400.110990
1018.953177	2400.110990
1019.245829	2400.110990
