Dividing Wavelength (nm)	Counts (n)	Blue Motor Position (mm): 0.000000	Red Motor Position (mm): 24.800000	
326.493990	1985.695377
326.888308	1985.695377
327.282561	1985.695377
327.676750	1961.510441
328.070874	1961.848198
328.464933	1968.752058
328.858929	1980.318986
329.252859	1988.193268
329.646726	2005.305465
330.040528	2020.638134
330.434265	2039.360980
330.827938	2061.426110
331.221547	2078.535786
331.615091	2097.868611
332.008571	2121.403238
332.401986	2140.478964
332.795338	2160.842705
333.188625	2178.292659
333.581847	2197.466688
333.975006	2215.738350
334.368100	2235.575290
334.761129	2251.293608
335.154095	2266.709457
335.546996	2285.979267
335.939833	2308.982052
336.332606	2319.513023
336.725315	2332.882163
337.117960	2342.094871
337.510540	2348.169462
337.903056	2359.305370
338.295508	2364.452388
338.687896	2371.701568
339.080220	2377.070397
339.472480	2379.991745
339.864676	2386.406613
340.256807	2390.868035
340.648875	2392.655124
341.040879	2396.652759
341.432818	2394.658982
341.824694	2395.339538
342.216506	2393.905330
342.608253	2394.979096
342.999937	2394.785011
343.391557	2394.369116
343.783113	2391.891389
344.174605	2394.495145
344.566033	2388.329814
344.957397	2387.916439
345.348697	2386.940976
345.739934	2383.933927
346.131106	2383.182796
346.522215	2383.308824
346.913260	2378.673483
347.304241	2380.059801
347.695159	2377.312372
348.086012	2375.474871
348.476802	2371.782226
348.867528	2376.863709
349.258191	2368.873480
349.648789	2368.583614
350.039324	2369.579242
350.429796	2370.121166
350.820203	2369.977493
351.210548	2364.757378
351.600828	2366.055475
351.991045	2368.752493
352.381198	2368.946577
352.771288	2368.790301
353.161314	2364.427183
353.551276	2367.288038
353.941175	2366.204189
354.331010	2367.421628
354.720782	2368.868439
355.110490	2365.906761
355.500135	2367.046062
355.889717	2367.882894
356.279235	2369.566639
356.668689	2371.149561
357.058080	2371.706609
357.447408	2371.630992
357.836672	2366.173943
358.225873	2370.524458
358.615010	2366.000023
359.004084	2372.949253
359.393095	2374.496888
359.782043	2373.735673
360.170927	2373.166023
360.559748	2376.006713
360.948505	2379.333875
361.337199	2376.135263
361.725830	2379.222969
362.114398	2381.355377
362.502903	2379.943854
362.891344	2379.848072
363.279722	2378.262629
363.668037	2384.375028
364.056289	2382.416540
364.444478	2386.202447
364.832603	2385.327807
365.220665	2384.480893
365.608665	2386.197406
365.996601	2386.943496
366.384474	2389.688405
366.772284	2392.801317
367.160031	2391.422562
367.547715	2391.130175
367.935336	2390.973899
368.322893	2394.994219
368.710388	2390.847870
369.097820	2396.955228
369.485189	2395.221071
369.872495	2395.400032
370.259738	2399.992523
370.646918	2400.481515
371.034035	2400.559653
371.421090	2405.931002
371.808081	2407.803791
372.195010	2412.066087
372.581875	2419.751326
372.968678	2427.174425
373.355418	2430.219282
373.742096	2443.908535
374.128710	2453.282560
374.515262	2462.580969
374.901751	2477.167547
375.288177	2493.072388
375.674540	2514.792199
376.060841	2535.614685
376.447079	2559.890361
376.833254	2586.089238
377.219367	2609.860799
377.605417	2645.514359
377.991404	2671.428411
378.377329	2712.095399
378.763191	2747.769124
379.148991	2795.614715
379.534727	2841.090964
379.920402	2886.105947
380.306013	2938.768361
380.691563	3000.386384
381.077049	3055.869324
381.462474	3114.583643
381.847835	3186.982173
382.233134	3259.030344
382.618371	3318.112667
383.003545	3407.222623
383.388657	3484.281701
383.773706	3578.014395
384.158693	3651.242196
384.543618	3744.866505
384.928480	3822.039009
385.313280	3929.634876
385.698017	4037.964231
386.082692	4151.793485
386.467305	4219.448290
386.851856	4344.864636
387.236344	4500.122092
387.620770	4564.041402
388.005133	4682.846275
388.389435	4832.361857
388.773674	4915.271193
389.157851	5052.567018
389.541965	5183.563922
389.926018	5205.293815
390.310008	5383.486001
390.693936	5506.742212
391.077802	5625.431139
391.461606	5761.880050
391.845348	5871.948603
392.229027	5998.660525
392.612645	6215.447785
392.996200	6334.771896
393.379694	6505.067114
393.763125	6729.431228
394.146494	6818.382388
394.529801	6961.871270
394.913047	7203.403033
395.296230	7197.245264
395.679351	7252.874397
396.062410	7509.640527
396.445408	7407.983139
396.828343	7562.796973
397.211217	7695.520472
397.594028	7573.368273
397.976778	7785.739482
398.359466	7939.046011
398.742092	7917.971467
399.124656	8063.975886
399.507158	8249.502950
399.889598	8272.583873
400.271977	8477.809246
400.654294	8512.288218
401.036549	8711.844813
401.418742	8734.056137
401.800874	9034.380357
402.182944	9115.280794
402.564952	9480.169592
402.946898	9302.037900
403.328783	9360.956386
403.710606	9549.578718
404.092367	9814.735849
404.474067	10167.793059
404.855705	9965.138674
405.237282	9918.921376
405.618797	10337.866466
406.000250	10590.950033
406.381642	10955.856475
406.762972	10900.539894
407.144240	10704.940604
407.525447	10947.999837
407.906593	10895.634851
408.287677	11148.236988
408.668700	11309.077522
409.049661	11277.661051
409.430560	11432.101840
409.811399	11406.891030
410.192176	11571.091493
410.572891	11638.670681
410.953545	12121.421656
411.334138	11604.784045
411.714669	12200.555168
412.095139	11510.711073
412.475547	12008.252793
412.855894	11855.785615
413.236180	12175.059532
413.616405	11869.416895
413.996568	12142.274388
414.376670	12111.324224
414.756711	11995.526400
415.136691	12270.390272
415.516609	12446.029113
415.896466	12518.956966
416.276262	12812.531080
416.655997	13251.255138
417.035670	13281.181948
417.415283	13925.176749
417.794834	14022.143343
418.174324	13761.165329
418.553753	13656.818485
418.933121	14142.843689
419.312428	13953.034165
419.691674	13864.778684
420.070859	14324.748685
420.449983	13983.792765
420.829045	14518.608777
421.208047	14267.387916
421.586988	14716.837028
421.965867	14972.037880
422.344686	14972.655421
422.723444	15521.218659
423.102141	14227.512389
423.480777	15412.153296
423.859352	14915.677780
424.237866	16014.447672
424.616319	15713.145468
424.994712	16364.132350
425.373044	16161.457801
425.751314	16833.307497
426.129524	15968.444623
426.507673	17045.759364
426.885762	16740.807365
427.263789	16934.848938
427.641756	17099.213239
428.019662	17157.221796
428.397508	17196.409206
428.775292	17497.766862
429.153016	17452.260366
429.530679	17544.770581
429.908282	17563.652222
430.285824	17270.113396
430.663305	17974.743195
431.040726	17577.752330
431.418086	17411.598419
431.795385	18046.695584
432.172624	18472.242065
432.549802	18021.981327
432.926920	18205.471765
433.303977	18093.729549
433.680974	18344.431171
434.057910	18623.834602
434.434786	18645.688004
434.811601	18567.540037
435.188355	19591.955431
435.565050	19237.436287
435.941683	19192.733855
436.318257	20058.715866
436.694770	19884.972498
437.071222	20453.211360
437.447614	19536.331340
437.823946	19553.751047
438.200218	19701.688748
438.576429	19474.178954
438.952580	19741.382793
439.328670	19696.458550
439.704700	20102.392423
440.080670	19679.086734
440.456580	20256.871021
440.832429	20419.601987
441.208218	19408.275950
441.583947	19835.178501
441.959616	19926.932543
442.335224	20156.436112
442.710773	20270.819893
443.086261	20769.117786
443.461689	20132.021804
443.837057	20236.716487
444.212365	20845.367759
444.587612	20818.377421
444.962800	20385.932121
445.337927	20772.752458
445.712995	19499.273818
446.088002	21278.838934
446.462949	21424.538363
446.837837	21553.493598
447.212664	21480.951395
447.587431	24168.221631
447.962139	26943.107122
448.336786	29181.986889
448.711374	27584.505729
449.085901	23997.767617
449.460369	23861.056566
449.834776	23722.560946
450.209124	25994.424983
450.583412	25481.971529
450.957640	25880.053805
451.331808	24530.940212
451.705917	23143.624756
452.079965	23083.357762
452.453954	23318.605727
452.827883	23103.242593
453.201752	22829.976767
453.575562	22857.975335
453.949311	23760.525876
454.323001	23677.072094
454.696632	23342.704963
455.070202	24584.200003
455.443713	24570.762807
455.817164	24928.657004
456.190556	25243.325827
456.563888	24595.676189
456.937160	24807.019003
457.310373	23229.964598
457.683526	23441.740951
458.056619	23257.305296
458.429653	23018.455427
458.802628	23333.527542
459.175542	23245.309870
459.548398	24096.561629
459.921194	25181.675036
460.293930	25501.896690
460.666607	26870.506945
461.039224	28039.716880
461.411782	28089.871319
461.784280	26904.602789
462.156719	26275.544927
462.529099	25591.130154
462.901419	24371.813671
463.273680	23331.372449
463.645882	23142.692143
464.018024	22884.756465
464.390106	23243.006063
464.762130	24900.487036
465.134094	27474.006157
465.505999	30938.962595
465.877845	33904.204575
466.249631	34369.782859
466.621358	32696.568445
466.993026	30797.215431
467.364634	28990.423043
467.736184	27291.314742
468.107674	26123.672605
468.479105	25299.257429
468.850477	24497.804708
469.221790	23309.786228
469.593043	21950.365997
469.964238	21111.780137
470.335373	20760.494893
470.706449	21418.599883
471.077467	22527.860417
471.448425	24789.196003
471.819324	26060.128861
472.190164	24679.182903
472.560945	22389.251371
472.931667	20420.670712
473.302330	19520.723927
473.672934	18802.581315
474.043479	18736.522035
474.413965	18059.900886
474.784393	17589.737673
475.154761	17707.380560
475.525070	17443.158563
475.895321	16949.032225
476.265513	16914.245743
476.635645	17044.889765
477.005719	16685.604210
477.375734	16591.405209
477.745691	16586.311123
478.115588	16816.591031
478.485427	17306.563458
478.855207	18351.881997
479.224928	19085.712680
479.594591	19374.210353
479.964194	18601.003217
480.333739	18277.898023
480.703226	17929.713088
481.072653	17815.004153
481.442022	17661.170823
481.811333	17405.445691
482.180584	16631.245448
482.549777	16129.118799
482.918912	15638.977493
483.287988	15250.070117
483.657005	14694.955900
484.025964	14206.374831
484.394864	13913.428340
484.763706	13511.151824
485.132489	13004.092406
485.501213	12684.778160
485.869879	12453.777367
486.238487	12095.500042
486.607036	11891.466902
486.975527	11532.403158
487.343959	11334.139618
487.712333	11115.545105
488.080648	10863.704183
488.448905	10725.357277
488.817104	10465.662237
489.185244	10421.867213
489.553326	10523.809426
489.921350	10825.588018
490.289315	11175.209682
490.657222	11069.320245
491.025070	10882.623633
491.392861	10452.222520
491.760593	9980.546961
492.128267	9468.085946
492.495883	9002.921037
492.863440	8591.336031
493.230939	8204.697175
493.598380	7872.220476
493.965763	7646.641444
494.333088	7383.314252
494.700354	7154.334962
495.067563	6972.175389
495.434713	6803.460572
495.801805	6668.440828
496.168839	6485.575493
496.535815	6316.739689
496.902733	6178.894378
497.269593	6012.906826
497.636395	5881.385643
498.003139	5791.310306
498.369825	5629.191839
498.736453	5533.828332
499.103023	5389.421960
499.469535	5263.352784
499.835989	5168.992467
500.202385	5042.640987
500.568723	4947.509372
500.935003	4866.987022
501.301226	4757.094909
501.667390	4714.456830
502.033497	4641.770953
502.399546	4528.077811
502.765537	4410.782763
503.131470	4353.767313
503.497345	4295.768838
503.863163	4171.940456
504.228923	4129.509064
504.594625	4082.873350
504.960269	3995.084176
505.325856	3962.447746
505.691385	3884.572002
506.056856	3833.520237
506.422270	3797.150832
506.787625	3736.961976
507.152924	3699.453271
507.518164	3661.342147
507.883347	3596.497786
508.248472	3564.287333
508.613540	3540.115000
508.978550	3512.791947
509.343503	3474.761482
509.708398	3448.885239
510.073236	3432.725821
510.438016	3404.545771
510.802738	3362.989019
511.167403	3352.838656
511.532010	3335.552539
511.896561	3319.516629
512.261053	3314.525886
512.625488	3282.348201
512.989866	3261.089656
513.354186	3240.063003
513.718449	3224.480796
514.082655	3220.687328
514.446803	3200.132023
514.810894	3198.652445
515.174927	3180.395906
515.538904	3164.765808
515.902822	3168.251766
516.266684	3142.501552
516.630488	3139.728918
516.994235	3123.733337
517.357925	3124.451701
517.721558	3121.729478
518.085133	3113.726646
518.448651	3105.877570
518.812112	3092.193358
519.175516	3084.263623
519.538863	3083.991400
519.902152	3076.437231
520.265385	3076.147365
520.628560	3068.046231
520.991678	3054.268757
521.354739	3049.761966
521.717743	3045.345915
522.080690	3046.633930
522.443580	3043.037067
522.806413	3041.935574
523.169189	3034.126827
523.531908	3030.512320
523.894569	3021.256761
524.257174	3019.389014
524.619722	3016.684435
524.982213	3010.254443
525.344647	3004.837723
525.707025	3000.769512
526.069345	2999.491580
526.431608	2996.605519
526.793815	2995.806496
527.155964	2985.751915
527.518057	2982.243272
527.880093	2976.239258
528.242072	2977.159268
528.603995	2970.293217
528.965860	2967.966724
529.327669	2964.672330
529.689421	2961.501444
530.051117	2959.139664
530.412755	2955.875517
530.774337	2955.268058
531.135862	2947.078703
531.497331	2942.816408
531.858743	2938.932198
532.220098	2941.909000
532.581396	2933.936415
532.942638	2931.620005
533.303824	2932.991199
533.664953	2931.078081
534.026025	2927.105652
534.387040	2929.384253
534.747999	2924.935435
535.108902	2925.898295
535.469748	2915.052253
535.830537	2915.962181
536.191270	2915.700041
536.551947	2908.914648
536.912567	2915.329516
537.273131	2911.639392
537.633638	2905.171591
537.994089	2906.850295
538.354483	2900.942063
538.714821	2904.070099
539.075103	2907.573701
539.435328	2901.010119
539.795497	2898.464336
540.155609	2901.504152
540.515665	2900.329563
540.875665	2895.933677
541.235609	2895.235477
541.595496	2895.497617
541.955328	2899.815365
542.315102	2892.490569
542.674821	2888.986967
543.034483	2889.541494
543.394090	2888.802965
543.753640	2887.038561
544.113134	2894.267575
544.472571	2884.863303
544.831953	2893.357647
545.191278	2885.805999
545.550548	2880.517828
545.909761	2884.160062
546.268918	2884.276008
546.628019	2887.958571
546.987064	2881.682335
547.346053	2872.855274
547.704986	2880.303579
548.063863	2875.091026
548.422684	2876.033722
548.781449	2872.131869
549.140158	2877.493136
549.498811	2875.713609
549.857408	2868.910572
550.215949	2869.961652
550.574434	2866.115252
550.932864	2867.473843
551.291237	2871.766385
551.649555	2867.315046
552.007817	2870.743031
552.366022	2864.880169
552.724173	2865.893441
553.082267	2871.191694
553.440305	2869.505428
553.798288	2864.774305
554.156215	2865.611136
554.514086	2867.060468
554.871902	2860.706094
555.229661	2863.574510
555.587365	2860.504447
555.945014	2857.958665
556.302606	2855.291894
556.660143	2858.460260
557.017625	2855.261647
557.375050	2853.164527
557.732421	2856.700897
558.089735	2855.632172
558.446994	2852.698221
558.804197	2855.002028
559.161345	2853.313242
559.518437	2847.405009
559.875474	2846.807632
560.232455	2849.451718
560.589381	2846.976511
560.946251	2849.229907
561.303065	2849.731502
561.659825	2845.010461
562.016528	2839.273628
562.373177	2841.083402
562.729770	2843.140193
563.086307	2834.262721
563.442789	2837.693226
563.799216	2836.914368
564.155587	2834.534943
564.511904	2831.543019
564.868164	2827.079077
565.224370	2835.563339
565.580520	2828.147802
565.936615	2827.923470
566.292654	2823.698983
566.648638	2825.128150
567.004567	2821.070022
567.360441	2818.609938
567.716260	2814.282108
568.072023	2813.271357
568.427732	2811.360759
568.783385	2805.313895
569.138982	2807.723567
569.494525	2805.946560
569.850013	2799.635035
570.205445	2803.463792
570.560823	2799.211578
570.916145	2792.038017
571.271412	2792.242183
571.626625	2788.751184
571.981782	2787.279167
572.336884	2780.786161
572.691931	2782.661470
573.046923	2776.072682
573.401860	2772.264091
573.756743	2767.611106
574.111570	2766.890221
574.466342	2761.589447
574.821059	2761.178593
575.175722	2756.782707
575.530330	2753.959661
575.884882	2749.092427
576.239380	2745.886253
576.593823	2743.219483
576.948211	2740.706467
577.302544	2734.851167
577.656823	2730.115003
578.011047	2731.952504
578.365216	2724.330279
578.719330	2720.367932
579.073389	2720.236862
579.427394	2719.405072
579.781344	2714.333671
580.135239	2708.019626
580.489080	2709.025336
580.842866	2702.799511
581.196597	2702.691126
581.550273	2699.192566
581.903895	2697.145857
582.257463	2698.839685
582.610975	2689.047243
582.964434	2690.368026
583.317837	2688.777542
583.671186	2681.810667
584.024481	2681.644309
584.377721	2676.512414
584.730906	2676.124246
585.084037	2673.364214
585.437113	2673.896056
585.790135	2671.113339
586.143103	2667.067813
586.496016	2666.117555
586.848874	2662.460198
587.201679	2659.838798
587.554428	2653.970895
587.907124	2656.539363
588.259765	2648.586943
588.612352	2653.905360
588.964884	2649.383445
589.317362	2650.464772
589.669786	2647.309010
590.022155	2644.523773
590.374470	2646.139462
590.726731	2639.964049
591.078937	2640.516055
591.431090	2637.771147
591.783188	2635.008595
592.135232	2632.329222
592.487222	2631.764612
592.839157	2630.693367
593.191038	2629.823768
593.542866	2627.409055
593.894639	2625.190948
594.246358	2625.710187
594.598022	2623.645834
594.949633	2618.380349
595.301190	2618.529063
595.652692	2619.088631
596.004141	2617.372118
596.355535	2610.450614
596.706876	2610.130501
597.058162	2612.555296
597.409395	2609.787702
597.760573	2607.829214
598.111698	2607.017588
598.462768	2610.869030
598.813785	2608.751745
599.164748	2603.302258
599.515657	2604.905345
599.866511	2603.322422
600.217312	2605.346446
600.568060	2598.452668
600.918753	2605.414501
601.269392	2600.796804
601.619978	2600.461567
601.970510	2598.921495
602.320988	2600.068357
602.671412	2601.689088
603.021783	2600.073399
603.372100	2598.634149
603.722363	2598.427462
604.072572	2599.070209
604.422728	2597.872935
604.772830	2593.393870
605.122878	2590.338931
605.472872	2592.582244
605.822813	2591.442943
606.172701	2594.230701
606.522534	2593.285485
606.872314	2594.893613
607.222041	2595.896803
607.571714	2596.214395
607.921333	2594.008891
608.270899	2595.538881
608.620411	2593.512337
608.969870	2592.516709
609.319276	2594.623911
609.668627	2591.868921
610.017926	2594.744899
610.367171	2595.501072
610.716362	2594.951586
611.065500	2592.955289
611.414585	2594.344127
611.763616	2597.449478
612.112594	2595.256576
612.461518	2595.979982
612.810389	2593.749271
613.159207	2592.945207
613.507971	2594.999477
613.856682	2596.950404
614.205340	2594.543253
614.553945	2600.330497
614.902496	2595.934611
615.250994	2596.355548
615.599439	2595.697677
615.947830	2596.027873
616.296169	2596.889910
616.644454	2597.126844
616.992686	2597.063830
617.340864	2599.481063
617.688990	2598.321598
618.037063	2597.898141
618.385082	2597.215064
618.733048	2600.786722
619.080961	2599.675147
619.428821	2598.006526
619.776628	2597.295723
620.124382	2597.966196
620.472083	2595.518716
620.819731	2597.431834
621.167326	2594.765064
621.514868	2595.422934
621.862357	2593.260279
622.209793	2591.377408
622.557176	2589.865062
622.904506	2585.837180
623.251783	2582.119329
623.599007	2582.061356
623.946179	2582.709144
624.293297	2580.115471
624.640363	2582.832652
624.987376	2581.332909
625.334336	2578.772003
625.681243	2576.863926
626.028097	2575.840572
626.374899	2579.926427
626.721647	2577.332754
627.068343	2575.661611
627.414987	2573.521641
627.761577	2571.563153
628.108115	2573.637588
628.454600	2571.013667
628.801032	2573.574573
629.147412	2567.696588
629.493739	2572.150447
629.840014	2570.121383
630.186236	2569.292113
630.532405	2566.161557
630.878521	2567.895714
631.224585	2570.106260
631.570597	2564.024107
631.916556	2567.356310
632.262462	2567.545353
632.608316	2566.118707
632.954117	2564.190466
633.299866	2566.219530
633.645562	2562.950342
633.991206	2562.489076
634.336797	2557.649568
634.682336	2559.981102
635.027823	2558.655279
635.373257	2556.638817
635.718639	2556.356513
636.063968	2555.625545
636.409245	2554.715617
636.754470	2553.150339
637.099642	2551.844680
637.444762	2550.763352
637.789829	2551.179247
638.134845	2548.091541
638.479808	2548.225131
638.824719	2546.213711
639.169577	2545.092054
639.514383	2546.271684
639.859137	2544.885367
640.203839	2546.904349
640.548489	2540.600386
640.893086	2543.584749
641.237632	2537.709284
641.582125	2542.095088
641.926566	2537.752134
642.270955	2543.332692
642.615292	2543.511652
642.959576	2541.772454
643.303809	2540.887732
643.647990	2536.396064
643.992118	2541.142310
644.336195	2541.124666
644.680219	2541.195242
645.024192	2544.537527
645.368112	2541.669111
645.711981	2539.801363
646.055797	2545.785213
646.399562	2543.181457
646.743274	2550.838970
647.086935	2548.426777
647.430544	2548.245296
647.774101	2547.993238
648.117606	2546.765717
648.461059	2551.796789
648.804460	2546.342260
649.147810	2545.412167
649.491108	2545.102137
649.834354	2543.012578
650.177548	2540.338246
650.520690	2540.431508
650.863781	2540.988555
651.206820	2539.856816
651.549807	2535.876825
651.892742	2533.194931
652.235626	2534.293903
652.578458	2532.794159
652.921238	2532.978162
653.263967	2533.005888
653.606644	2531.276772
653.949269	2532.156453
654.291843	2527.773170
654.634365	2531.067564
654.976836	2530.323994
655.319255	2527.228726
655.661622	2525.484486
656.003938	2527.899199
656.346203	2523.573889
656.688416	2530.586134
657.030577	2524.766122
657.372687	2527.470701
657.714746	2526.633869
658.056753	2523.664630
658.398708	2518.099196
658.740612	2522.490041
659.082465	2520.579444
659.424266	2519.296470
659.766016	2520.241686
660.107715	2523.725124
660.449362	2524.453570
660.790958	2525.071112
661.132503	2520.990298
661.473996	2526.974147
661.815438	2524.882068
662.156829	2522.207736
662.498168	2522.742099
662.839456	2524.267048
663.180693	2524.214116
663.521879	2527.019518
663.863013	2522.603467
664.204097	2523.021883
664.545129	2525.711338
664.886110	2525.824764
665.227040	2522.154804
665.567918	2525.141688
665.908746	2525.875176
666.249522	2526.459950
666.590248	2523.092459
666.930922	2525.731503
667.271545	2525.255114
667.612118	2526.616225
667.952639	2528.325177
668.293109	2526.006246
668.633528	2526.739734
668.973896	2526.893489
669.314213	2525.978519
669.654480	2522.036337
669.994695	2521.254958
670.334859	2521.570030
670.674973	2522.648837
671.015035	2526.160001
671.355047	2520.072808
671.695008	2525.267717
672.034918	2520.831501
672.374777	2522.921060
672.714585	2519.326717
673.054342	2523.344517
673.394049	2521.227232
673.733705	2522.910977
674.073310	2523.074815
674.412864	2521.960720
674.752368	2516.095337
675.091820	2518.484844
675.431223	2521.350740
675.770574	2518.268075
676.109875	2511.248268
676.449125	2515.177847
676.788324	2513.511746
677.127473	2511.543175
677.466571	2510.194667
677.805619	2513.415964
678.144616	2515.613907
678.483562	2513.816736
678.822458	2511.396982
679.161303	2513.310100
679.500098	2509.703154
679.838842	2510.686179
680.177535	2508.939419
680.516179	2514.262878
680.854771	2513.413443
681.193314	2514.819925
681.531805	2517.630369
681.870247	2522.021214
682.208638	2520.536594
682.546978	2524.914836
682.885268	2521.186903
683.223508	2522.195133
683.561697	2520.781090
683.899836	2518.951151
684.237925	2514.993845
684.575963	2521.481810
684.913951	2517.423681
685.251889	2519.760256
685.589776	2517.020389
685.927614	2517.080883
686.265401	2513.743639
686.603137	2518.520132
686.940824	2521.151615
687.278460	2521.842253
687.616046	2519.876203
687.953582	2524.279651
688.291068	2523.853673
688.628504	2522.122037
688.965889	2525.683612
689.303224	2520.861748
689.640510	2520.581964
689.977745	2520.355112
690.314930	2517.519463
690.652065	2516.181037
690.989150	2511.170130
691.326185	2510.955881
691.663170	2507.094357
692.000105	2505.135869
692.336990	2498.718480
692.673825	2500.102277
693.010610	2498.708398
693.347345	2495.285454
693.684030	2488.946203
694.020665	2490.115751
694.357251	2490.060298
694.693786	2493.185814
695.030272	2490.889568
695.366707	2488.981491
695.703093	2487.784217
696.039429	2490.241780
696.375716	2489.349496
696.711952	2489.530977
697.048139	2487.267499
697.384276	2487.809423
697.720363	2487.950575
698.056400	2486.191213
698.392388	2485.989567
698.728326	2489.407469
699.064214	2483.476551
699.400053	2488.651296
699.735842	2484.207519
700.071581	2481.286170
700.407270	2483.146356
700.742910	2480.918166
701.078501	2480.479585
701.414042	2477.291056
701.749533	2479.902373
702.084974	2478.014461
702.420366	2479.559575
702.755709	2473.421970
703.091002	2474.876343
703.426246	2475.703092
703.761440	2476.245016
704.096584	2472.406178
704.431679	2474.883905
704.766725	2477.921200
705.101721	2474.619244
705.436668	2475.123359
705.771565	2474.561271
706.106413	2473.427011
706.441212	2472.995992
706.775961	2474.142855
707.110661	2474.977166
707.445311	2475.214100
707.779913	2475.564460
708.114465	2476.282825
708.448967	2477.480099
708.783421	2481.812971
709.117825	2480.587970
709.452180	2483.030409
709.786485	2482.017137
710.120742	2483.935296
710.454949	2484.293218
710.789107	2485.944196
711.123216	2486.327324
711.457275	2488.933600
711.791286	2486.223980
712.125247	2488.542911
712.459159	2491.192037
712.793023	2495.045999
713.126837	2488.784886
713.460602	2493.715135
713.794318	2489.548621
714.127985	2487.123826
714.461602	2485.366984
714.795171	2487.305308
715.128691	2481.200470
715.462162	2480.963536
715.795584	2481.944041
716.128957	2476.872640
716.462281	2475.947588
716.795556	2474.601600
717.128782	2470.621609
717.461960	2472.847278
717.795088	2473.157309
718.128167	2469.565487
718.461198	2469.900724
718.794180	2469.673872
719.127113	2466.326546
719.459997	2468.504324
719.792833	2467.382668
720.125619	2466.500466
720.458357	2463.989971
720.791046	2464.920064
721.123686	2463.251442
721.456278	2464.037862
721.788821	2459.589044
722.121315	2464.937708
722.453761	2461.852522
722.786158	2464.305043
723.118506	2460.937552
723.450805	2460.998046
723.783056	2460.320011
724.115259	2463.221195
724.447412	2461.595423
724.779518	2465.461988
725.111574	2462.333952
725.443582	2466.926443
725.775542	2464.204220
726.107453	2466.354272
726.439315	2465.802266
726.771129	2471.697895
727.102895	2470.177988
727.434612	2470.616568
727.766281	2469.255456
728.097901	2468.322843
728.429473	2468.771506
728.760996	2466.618933
729.092471	2468.368213
729.423897	2470.319140
729.755276	2472.698564
730.086606	2470.626650
730.417887	2474.634367
730.749120	2471.912144
731.080305	2473.484984
731.411442	2477.848103
731.742530	2476.061014
732.073570	2476.144193
732.404562	2479.163844
732.735506	2476.050932
733.066401	2475.657722
733.397249	2475.340129
733.728048	2475.730818
734.058798	2469.285703
734.389501	2467.516258
734.720156	2465.129272
735.050762	2467.047431
735.381320	2462.729683
735.711831	2460.778756
736.042293	2461.600464
736.372707	2459.523509
736.703073	2459.614250
737.033391	2459.367233
737.363661	2459.639455
737.693883	2461.338324
738.024056	2461.257666
738.354182	2462.699436
738.684260	2462.475104
739.014290	2463.107769
739.344272	2466.225723
739.674207	2467.433079
740.004093	2467.851495
740.333931	2465.096504
740.663722	2470.677062
740.993464	2465.772019
741.323159	2465.371247
741.652806	2464.952832
741.982405	2465.426700
742.311956	2461.892851
742.641460	2464.617595
742.970915	2462.225567
743.300323	2460.206585
743.629683	2458.968982
743.958996	2461.746658
744.288260	2460.476287
744.617477	2456.634928
744.946647	2453.222067
745.275768	2453.262396
745.604842	2448.009513
745.933869	2453.486727
746.262847	2449.194185
746.591778	2455.462859
746.920662	2452.821295
747.249498	2455.198199
747.578286	2454.552931
747.907027	2455.614094
748.235720	2454.409258
748.564365	2455.765329
748.892963	2458.366564
749.221514	2456.087962
749.550017	2454.734413
749.878473	2456.239197
750.206881	2454.971347
750.535242	2454.177365
750.863555	2453.335492
751.191821	2451.588733
751.520039	2454.948662
751.848210	2451.608897
752.176334	2454.699125
752.504411	2457.461677
752.832440	2454.391614
753.160421	2453.224587
753.488356	2452.622169
753.816243	2454.731892
754.144082	2450.192333
754.471875	2451.003959
754.799620	2450.623352
755.127318	2454.184927
755.454969	2450.588064
755.782572	2449.161417
756.110129	2449.547065
756.437638	2448.730398
756.765100	2451.127467
757.092515	2451.356840
757.419882	2450.673763
757.747203	2450.658640
758.074477	2451.371963
758.401703	2450.066304
758.728882	2452.944803
759.056014	2451.162755
759.383099	2453.988322
759.710138	2453.214505
760.037129	2455.092335
760.364073	2452.629731
760.690970	2451.679473
761.017820	2454.026131
761.344623	2455.301543
761.671379	2454.618466
761.998088	2455.460339
762.324751	2464.176494
762.651366	2473.595890
762.977935	2495.421565
763.304456	2499.081443
763.630931	2506.499501
763.957359	2502.070847
764.283740	2495.154384
764.610074	2487.937973
764.936362	2475.559419
765.262602	2470.674541
765.588796	2464.829323
765.914943	2457.696091
766.241044	2455.977057
766.567097	2450.368773
766.893104	2451.888681
767.219064	2448.818619
767.544978	2445.320058
767.870845	2442.466765
768.196665	2443.424584
768.522438	2441.687907
768.848165	2441.929882
769.173846	2437.980138
769.499479	2440.596497
769.825066	2439.018616
770.150607	2440.669593
770.476101	2437.085333
770.801548	2438.159099
771.126949	2438.285128
771.452303	2435.699016
771.777611	2435.729263
772.102872	2436.006526
772.428087	2435.210024
772.753256	2435.411670
773.078378	2436.886208
773.403453	2435.948553
773.728482	2432.691968
774.053465	2433.435538
774.378401	2433.168357
774.703291	2429.803386
775.028135	2435.038625
775.352932	2431.474529
775.677683	2431.950918
776.002388	2429.359765
776.327046	2432.109714
776.651658	2432.334046
776.976224	2429.742893
777.300743	2432.192893
777.625216	2427.842377
777.949643	2430.423448
778.274024	2428.969075
778.598359	2425.853642
778.922647	2428.611153
779.246889	2427.678540
779.571086	2423.096131
779.895236	2429.226174
780.219339	2429.233736
780.543397	2429.349682
780.867409	2430.599889
781.191374	2430.226843
781.515294	2428.759867
781.839167	2430.093253
782.162995	2428.570824
782.486776	2428.853129
782.810511	2427.860022
783.134201	2431.855136
783.457844	2428.908582
783.781441	2427.885227
784.104993	2429.725248
784.428498	2430.231884
784.751958	2426.685433
785.075372	2429.301792
785.398739	2430.025197
785.722061	2427.822213
786.045337	2426.572007
786.368568	2429.619384
786.691752	2430.063006
787.014891	2429.135433
787.337983	2434.537030
787.661030	2434.834458
787.984031	2439.739501
788.306987	2438.970725
788.629897	2437.977617
788.952760	2437.566763
789.275579	2438.091043
789.598351	2436.881166
789.921078	2434.383275
790.243759	2434.189190
790.566395	2430.970413
790.888984	2430.330187
791.211529	2428.028900
791.534027	2428.749785
791.856480	2429.664755
792.178888	2429.831113
792.501249	2429.090063
792.823566	2427.101328
793.145836	2427.575196
793.468062	2428.225505
793.790241	2429.072419
794.112375	2428.381781
794.434464	2428.104517
794.756507	2426.899682
795.078505	2427.328180
795.400457	2425.886410
795.722364	2427.706266
796.044226	2431.282965
796.366042	2430.181473
796.687812	2430.715835
797.009538	2431.557708
797.331218	2434.781526
797.652852	2433.634663
797.974442	2431.267842
798.295986	2433.521237
798.617484	2430.367996
798.938938	2433.828748
799.260346	2432.414704
799.581709	2429.294230
799.903026	2429.228695
800.224299	2430.962852
800.545526	2428.749785
800.866708	2427.718869
801.187845	2425.657037
801.508936	2425.082346
801.829983	2426.922367
802.150984	2425.218457
802.471940	2427.113931
802.792851	2426.120823
803.113717	2426.778694
803.434538	2425.107552
803.755314	2426.982861
804.076045	2425.321801
804.396731	2423.577561
804.717372	2425.727613
805.037967	2425.704928
805.358518	2422.092942
805.679024	2425.364650
805.999485	2426.055288
806.319901	2428.739703
806.640272	2422.960020
806.960598	2428.427151
807.280879	2425.243663
807.601115	2428.938828
807.921306	2427.055957
808.241453	2425.624270
808.561554	2426.819023
808.881611	2428.540577
809.201623	2426.181317
809.521590	2428.621236
809.841513	2425.410021
810.161390	2426.572007
810.481223	2424.532860
810.801011	2427.643252
811.120755	2424.069074
811.440453	2426.254414
811.760107	2424.179979
812.079716	2423.454053
812.399281	2421.601429
812.718801	2424.245514
813.038276	2422.483631
813.357707	2421.717376
813.677093	2420.389032
813.996434	2426.541760
814.315731	2422.256779
814.634983	2425.425144
814.954191	2422.506316
815.273354	2426.466142
815.592473	2423.910277
815.911547	2424.948755
816.230577	2428.447316
816.549562	2427.197110
816.868502	2428.878335
817.187399	2427.721390
817.506250	2428.767429
817.825058	2431.207348
818.143821	2430.292378
818.462539	2431.446802
818.781213	2434.216917
819.099843	2437.503749
819.418429	2441.002310
819.736970	2451.074535
820.055466	2451.898764
820.373919	2460.062912
820.692327	2472.504480
821.010691	2494.080618
821.329011	2541.517876
821.647286	2618.980246
821.965517	2693.692667
822.283704	2740.114132
822.601847	2748.525297
822.919945	2720.809033
823.237999	2682.050122
823.556010	2644.952271
823.873976	2607.534306
824.191897	2576.740418
824.509775	2550.145811
824.827609	2527.906761
825.145398	2515.596263
825.463144	2507.840448
825.780845	2508.034532
826.098502	2521.310411
826.416116	2534.402287
826.733685	2555.058415
827.051210	2558.060422
827.368692	2550.526418
827.686129	2530.961700
828.003522	2511.076869
828.320872	2489.604074
828.638177	2480.701396
828.955439	2463.619446
829.272656	2458.157356
829.589830	2448.576643
829.906960	2451.165276
830.224046	2441.244285
830.541088	2438.796805
830.858086	2434.947884
831.175041	2435.986362
831.491952	2431.981165
831.808819	2435.000816
832.125642	2435.850250
832.442421	2440.619182
832.759157	2450.993877
833.075849	2467.843933
833.392497	2479.587301
833.709101	2488.414362
834.025662	2491.413848
834.342179	2481.823053
834.658653	2469.787298
834.975083	2460.098200
835.291469	2458.187603
835.607811	2446.839966
835.924110	2442.151693
836.240366	2435.971238
836.556578	2434.244643
836.872746	2427.887748
837.188871	2427.285330
837.504952	2425.470515
837.820990	2424.210226
838.136984	2425.662078
838.452935	2420.726789
838.768842	2421.424989
839.084706	2424.936152
839.400526	2431.537543
839.716303	2439.936106
840.032037	2446.293001
840.347727	2441.647577
840.663373	2436.263625
840.978977	2433.669951
841.294537	2430.957811
841.610054	2424.613518
841.925527	2422.718045
842.240957	2422.418096
842.556344	2420.827612
842.871687	2418.009607
843.186987	2415.851993
843.502244	2416.091448
843.817458	2416.056160
844.132629	2412.565161
844.447756	2414.836201
844.762840	2409.053997
845.077881	2408.239851
845.392879	2408.955695
845.707833	2411.357804
846.022745	2405.794891
846.337613	2411.433422
846.652438	2412.771848
846.967221	2410.878895
847.281960	2412.613052
847.596656	2414.982394
847.911309	2410.105078
848.225919	2412.108936
848.540485	2412.242527
848.855009	2411.751014
849.169490	2411.940058
849.483928	2408.507032
849.798323	2408.844789
850.112675	2410.258833
850.426984	2412.154307
850.741251	2410.536096
851.055474	2412.202198
851.369654	2412.061045
851.683792	2409.212793
851.997887	2409.444687
852.311938	2410.904101
852.625947	2411.677918
852.939914	2410.069790
853.253837	2409.961405
853.567718	2411.282187
853.881555	2411.065417
854.195350	2409.495098
854.509103	2410.475602
854.822812	2412.119019
855.136479	2408.809501
855.450103	2410.778072
855.763685	2409.820252
856.077224	2408.887639
856.390720	2408.002917
856.704173	2410.405026
857.017584	2410.964594
857.330953	2407.571898
857.644278	2412.658422
857.957561	2415.471386
858.270802	2411.246899
858.584000	2409.583318
858.897155	2411.864440
859.210268	2411.004924
859.523339	2410.891498
859.836367	2409.979049
860.149352	2409.641292
860.462295	2409.921076
860.775195	2407.617268
861.088054	2407.405540
861.400869	2407.619789
861.713642	2406.304048
862.026373	2410.276477
862.339062	2410.044584
862.651708	2409.021230
862.964312	2408.902763
863.276873	2409.669018
863.589392	2411.592218
863.901869	2414.319482
864.214303	2412.466858
864.526696	2413.341498
864.839045	2410.573905
865.151353	2411.239337
865.463619	2411.561971
865.775842	2413.369225
866.088023	2410.241189
866.400162	2412.855027
866.712258	2413.694379
867.024313	2408.494429
867.336325	2412.764286
867.648296	2412.547517
867.960224	2413.979204
868.272110	2411.892167
868.583954	2413.046591
868.895755	2412.023237
869.207515	2410.321847
869.519233	2414.788310
869.830909	2413.943916
870.142542	2414.180851
870.454134	2411.163720
870.765684	2412.789492
871.077191	2413.936355
871.388657	2414.984915
871.700081	2410.251271
872.011463	2417.064391
872.322803	2415.494071
872.634101	2416.419123
872.945357	2414.470717
873.256571	2417.356778
873.567744	2413.777558
873.878874	2415.259657
874.189963	2415.781417
874.501010	2415.612538
874.812015	2416.467014
875.122979	2416.956006
875.433900	2417.026582
875.744780	2419.204360
876.055618	2418.491037
876.366415	2420.073959
876.677169	2417.092117
876.987882	2416.792168
877.298554	2415.020203
877.609183	2418.705286
877.919771	2416.041036
878.230317	2419.340472
878.540822	2421.561100
878.851285	2426.032603
879.161707	2431.439241
879.472087	2435.348656
879.782425	2446.136725
880.092722	2460.146091
880.402977	2486.090390
880.713191	2518.774711
881.023363	2548.230173
881.333494	2569.435786
881.643583	2574.761765
881.953631	2569.899572
882.263637	2562.567214
882.573602	2547.380738
882.883526	2536.529654
883.193408	2525.797038
883.503248	2512.107785
883.813048	2500.981958
884.122806	2487.217088
884.432522	2478.861375
884.742197	2466.868470
885.051831	2461.736575
885.361424	2453.159052
885.670975	2450.157045
885.980485	2441.738318
886.289954	2439.167330
886.599382	2434.020312
886.908768	2432.878490
887.218113	2428.210382
887.527417	2427.396235
887.836680	2423.817016
888.145901	2426.050247
888.455082	2422.521440
888.764221	2424.858014
889.073319	2417.553383
889.382376	2421.031779
889.691392	2417.986922
890.000366	2419.632858
890.309300	2416.547672
890.618193	2418.551531
890.927044	2422.193765
891.235855	2418.463311
891.544625	2418.730492
891.853353	2418.233938
892.162041	2418.198650
892.470687	2421.835843
892.779293	2424.961358
893.087858	2422.317273
893.396381	2428.666606
893.704864	2433.790939
894.013306	2441.004830
894.321707	2457.905298
894.630068	2462.117182
894.938387	2463.846298
895.246665	2460.627522
895.554903	2455.094855
895.863100	2448.737960
896.171256	2446.998762
896.479371	2444.314348
896.787446	2442.421394
897.095480	2437.057607
897.403473	2433.743048
897.711425	2429.321956
898.019336	2430.642738
898.327207	2425.039496
898.635038	2425.962027
898.942827	2420.426840
899.250576	2421.442633
899.558284	2419.373239
899.865952	2419.048085
900.173579	2418.054977
900.481165	2418.828794
900.788711	2419.219484
901.096216	2413.487692
901.403681	2418.488517
901.711105	2416.436767
902.018489	2416.648495
902.325832	2420.757036
902.633135	2417.601273
902.940397	2420.472211
903.247619	2427.842378
903.554800	2440.588935
903.861941	2454.436985
904.169041	2470.840899
904.476101	2473.898359
904.783121	2468.307719
905.090100	2463.337142
905.397039	2456.128292
905.703938	2448.052363
906.010796	2445.909873
906.317614	2441.098092
906.624391	2436.049376
906.931129	2431.862698
907.237826	2428.505289
907.544483	2426.035124
907.851099	2420.252920
908.157675	2418.143198
908.464211	2412.408885
908.770707	2412.555078
909.077163	2409.001065
909.383578	2406.359500
909.689954	2407.561816
909.996289	2405.666342
910.302584	2410.538617
910.608839	2408.222207
910.915054	2408.938051
911.221229	2410.571384
911.527363	2408.403688
911.833458	2408.524676
912.139513	2409.117012
912.445527	2410.352094
912.751502	2410.659605
913.057436	2411.468710
913.363331	2413.286046
913.669186	2416.948444
913.975000	2416.799730
914.280775	2421.813157
914.586510	2425.974630
914.892205	2435.126845
915.197859	2443.593463
915.503475	2453.307766
915.809050	2464.068109
916.114585	2466.661783
916.420081	2468.912658
916.725536	2469.058851
917.030952	2465.240177
917.336328	2463.178345
917.641665	2458.076698
917.946961	2454.661316
918.252218	2452.576799
918.557435	2442.539862
918.862612	2443.958946
919.167750	2436.195569
919.472848	2434.960487
919.777906	2431.406473
920.082925	2426.776173
920.387904	2426.491348
920.692843	2423.925401
920.997743	2421.298960
921.302603	2419.388362
921.607423	2420.930956
921.912204	2415.632703
922.216946	2414.959709
922.521647	2413.039029
922.826310	2415.514236
923.130932	2413.439801
923.435516	2411.844276
923.740059	2411.037691
924.044564	2407.445869
924.349028	2408.262536
924.653454	2404.572411
924.957840	2408.265057
925.262186	2405.910838
925.566493	2406.183060
925.870761	2401.139386
926.174989	2405.505025
926.479178	2406.344377
926.783328	2405.247926
927.087438	2405.653739
927.391509	2406.172978
927.695541	2403.705333
927.999533	2404.030487
928.303486	2404.847154
928.607400	2403.138203
928.911275	2404.617782
929.215110	2402.893707
929.518906	2402.339180
929.822663	2404.572411
930.126381	2402.689540
930.430060	2405.971332
930.733699	2403.460837
931.037299	2406.004099
931.340861	2403.110477
931.644383	2402.969324
931.947866	2403.831362
932.251309	2404.511918
932.554714	2405.031156
932.858080	2405.999058
933.161407	2403.007133
933.464694	2402.810528
933.767943	2403.624674
934.071153	2402.629047
934.374323	2399.286762
934.677455	2402.921433
934.980548	2402.724828
935.283602	2404.769016
935.586617	2404.053173
935.889593	2403.629716
936.192530	2403.322205
936.495428	2402.603841
936.798287	2403.831362
937.101108	2405.303379
937.403890	2404.390930
937.706632	2399.556463
938.009336	2406.256157
938.312002	2406.225910
938.614628	2406.419994
938.917216	2409.389234
939.219765	2406.888822
939.522275	2408.915365
939.824747	2410.354615
940.127179	2406.281362
940.429573	2405.648698
940.731929	2407.801270
941.034246	2405.598286
941.336524	2408.549882
941.638763	2407.392937
941.940964	2408.353277
942.243126	2406.906466
942.545250	2406.115004
942.847335	2411.531724
943.149381	2404.295148
943.451389	2404.751372
943.753359	2406.304048
944.055290	2403.075189
944.357182	2401.943450
944.659036	2403.934705
944.960851	2406.934192
945.262628	2403.826321
945.564367	2405.999058
945.866067	2405.565519
946.167729	2403.783471
946.469352	2403.397823
946.770937	2406.175498
947.072484	2405.799932
947.373992	2403.927144
947.675462	2404.466547
947.976893	2403.614592
948.278286	2404.453944
948.579641	2404.779099
948.880958	2404.731208
949.182236	2403.281876
949.483476	2403.816238
949.784678	2404.111146
950.085841	2404.239695
950.386967	2405.421846
950.688054	2403.360014
950.989103	2401.787174
951.290114	2404.847154
951.591087	2402.833213
951.892021	2401.225085
952.192917	2404.022926
952.493776	2407.466034
952.794596	2403.231464
953.095378	2406.117525
953.396122	2406.631723
953.696828	2404.438821
953.997496	2404.978224
954.298126	2404.297668
954.598718	2405.923441
954.899272	2402.808007
955.199788	2405.683986
955.500266	2404.945457
955.800706	2403.049983
956.101108	2400.390774
956.401472	2403.627195
956.701798	2401.721639
957.002087	2399.223747
957.302337	2401.383882
957.602550	2402.697102
957.902724	2401.066289
958.202861	2399.213665
958.502960	2400.882287
958.803022	2400.599982
959.103045	2401.625857
959.403031	2401.373799
959.702979	2400.912534
960.002889	2401.552760
960.302762	2401.693912
960.602596	2400.657955
960.902393	2396.499003
961.202153	2398.528068
961.501875	2396.859446
961.801559	2398.394477
962.101205	2397.592934
962.400814	2400.985630
962.700385	2399.856412
962.999918	2397.691236
963.299414	2397.413973
963.598873	2397.706360
963.898293	2401.101577
964.197677	2400.680641
964.497022	2398.704508
964.796331	2398.361710
965.095601	2397.507234
965.394835	2398.926319
965.694030	2398.568397
965.993189	2396.909858
966.292309	2399.755589
966.591393	2398.180228
966.890439	2399.450599
967.189447	2398.155023
967.488419	2400.025291
967.787353	2398.787687
968.086249	2397.308109
968.385108	2399.448078
968.683930	2399.884138
968.982714	2399.485887
969.281462	2400.405898
969.580172	2396.032697
969.878844	2398.210475
970.177480	2401.462019
970.476078	2399.959756
970.774639	2401.943450
971.073162	2398.339025
971.371649	2398.825496
971.670098	2392.685371
971.968510	2395.642007
972.266885	2395.369785
972.565223	2399.223747
972.863524	2398.276010
973.161788	2400.375651
973.460014	2400.138717
973.758204	2400.045455
974.056356	2400.360527
974.354471	2399.949673
974.652550	2399.518655
974.950591	2399.753068
975.248595	2402.681979
975.546563	2398.928840
975.844493	2399.054868
976.142386	2399.276679
976.440243	2398.525547
976.738062	2398.245763
977.035845	2401.061248
977.333590	2400.821793
977.631299	2400.741134
977.928971	2401.066289
978.226606	2400.105949
978.524204	2401.005795
978.821765	2398.230640
979.119290	2399.659807
979.416777	2401.421690
979.714228	2398.772564
980.011642	2394.923643
980.309020	2400.481515
980.606360	2398.223078
980.903664	2398.739796
981.200931	2400.242060
981.498162	2401.840106
981.795356	2402.346742
982.092513	2402.765158
982.389633	2405.540313
982.686717	2407.445869
982.983764	2403.959911
983.280775	2405.111815
983.577749	2407.539130
983.874686	2405.212638
984.171587	2405.865467
984.468451	2408.224727
984.765279	2405.910838
985.062070	2403.307082
985.358824	2404.774058
985.655543	2402.102246
985.952224	2402.949160
986.248869	2399.193500
986.545478	2395.750392
986.842050	2396.073026
987.138586	2397.078736
987.435086	2394.820299
987.731549	2394.999260
988.027975	2400.433624
988.324366	2397.776936
988.620719	2399.652245
988.917037	2395.309291
989.213318	2399.032183
989.509563	2396.751061
989.805772	2399.614437
990.101944	2397.136709
990.398080	2397.731566
990.694180	2397.338356
990.990244	2396.004970
991.286271	2394.701832
991.582262	2395.100083
991.878217	2397.686195
992.174136	2395.160577
992.470019	2398.918757
992.765865	2395.465567
993.061676	2396.635115
993.357450	2397.285423
993.653188	2397.151833
993.948890	2399.581669
994.244556	2399.437996
994.540186	2400.332801
994.835780	2399.627039
995.131337	2397.749210
995.426859	2398.669220
995.722345	2402.477812
996.017795	2402.500497
996.313208	2401.807338
996.608586	2399.206103
996.903928	2404.209448
997.199234	2399.576628
997.494504	2401.225085
997.789738	2403.208779
998.084936	2401.409087
998.380099	2403.039901
998.675225	2400.511762
998.970316	2399.682492
999.265371	2400.594941
999.560390	2399.591751
999.855373	2400.557132
1000.150320	2397.746689
1000.445232	2399.717780
1000.740108	2397.522358
1001.034948	2397.366082
1001.329752	2399.019580
1001.624521	2398.822975
1001.919254	2391.407438
1002.213951	2395.624363
1002.508613	2395.105124
1002.803239	2396.425907
1003.097829	2393.005484
1003.392384	2393.958262
1003.686903	2396.123437
1003.981386	2396.042779
1004.275834	2397.035886
1004.570246	2395.357182
1004.864623	2394.860628
1005.158964	2397.275341
1005.453270	2395.266441
1005.747540	2395.480690
1006.041775	2397.156874
1006.335974	2396.773746
1006.630138	2397.356000
1006.924266	2397.436658
1007.218359	2396.060423
1007.512416	2396.274672
1007.806438	2395.831051
1008.100425	2396.100752
1008.394376	2395.974723
1008.688292	2394.374157
1008.982172	2394.580844
1009.276017	2394.868190
1009.569827	2395.387429
1009.863602	2395.836092
1010.157341	2394.936246
1010.451045	2395.170659
1010.744714	2395.014384
1011.038347	2396.388098
1011.331945	2393.602861
1011.625508	2396.350289
1011.919036	2397.280382
1012.212528	2395.289127
1012.505986	2395.503376
1012.799408	2396.645197
1013.092795	2394.830382
1013.386147	2396.108314
1013.679464	2397.287944
1013.972745	2394.737120
1014.265992	2399.556463
1014.559204	2397.724004
1014.852380	2395.770557
1015.145521	2397.628222
1015.438628	2398.810373
1015.731699	2395.170659
1016.024736	2394.154867
1016.317737	2394.507748
1016.610703	2396.425907
1016.903635	2393.176883
1017.196531	2393.554970
1017.489393	2393.131513
1017.782219	2389.890051
1018.075011	2398.701988
1018.367768	2395.460526
1018.660490	2394.994219
1018.953177	2394.994219
1019.245829	2394.994219
