Dividing Wavelength (nm)	Counts (n)	Blue Motor Position (mm): 0.000000	Red Motor Position (mm): 46.800000	
326.493990	1998.197438
326.888308	1998.197438
327.282561	1998.197438
327.676750	1973.384879
328.070874	1977.453090
328.464933	1979.857720
328.858929	1989.932466
329.252859	2004.730773
329.646726	2017.121930
330.040528	2033.329239
330.434265	2051.563093
330.827938	2071.800805
331.221547	2089.938876
331.615091	2111.431836
332.008571	2132.501338
332.401986	2154.253917
332.795338	2173.397699
333.188625	2193.937880
333.581847	2215.075438
333.975006	2229.404918
334.368100	2249.965264
334.761129	2263.767943
335.154095	2280.212187
335.546996	2323.185503
335.939833	2408.706158
336.332606	2423.242325
336.725315	2434.020312
337.117960	2443.043977
337.510540	2451.576130
337.903056	2459.261369
338.295508	2469.671352
338.687896	2475.612351
339.080220	2480.777013
339.472480	2486.924701
339.864676	2492.197747
340.256807	2495.063643
340.648875	2496.011380
341.040879	2496.490290
341.432818	2496.243273
341.824694	2497.125475
342.216506	2498.249653
342.608253	2497.453150
342.999937	2498.048007
343.391557	2498.753768
343.783113	2494.284785
344.174605	2494.662872
344.566033	2493.087511
344.957397	2490.771101
345.348697	2486.145842
345.739934	2487.302787
346.131106	2485.044350
346.522215	2486.700369
346.913260	2483.312714
347.304241	2481.392034
347.695159	2480.615697
348.086012	2479.025213
348.476802	2478.251395
348.867528	2476.159317
349.258191	2473.696713
349.648789	2471.559264
350.039324	2472.081023
350.429796	2473.306023
350.820203	2473.270735
351.210548	2470.089767
351.600828	2469.363841
351.991045	2474.893987
352.381198	2471.034984
352.771288	2471.226547
353.161314	2470.598924
353.551276	2474.919193
353.941175	2468.716053
354.331010	2468.247226
354.720782	2471.884418
355.110490	2475.453555
355.500135	2471.453399
355.889717	2472.078503
356.279235	2474.006744
356.668689	2474.538586
357.058080	2475.433390
357.447408	2471.612196
357.836672	2470.609006
358.225873	2471.907103
358.615010	2475.272073
359.004084	2478.263998
359.393095	2475.874491
359.782043	2479.516725
360.170927	2482.052425
360.559748	2479.380614
360.948505	2482.170892
361.337199	2485.987046
361.725830	2487.426295
362.114398	2484.126860
362.502903	2486.670122
362.891344	2486.597026
363.279722	2484.376397
363.668037	2488.411841
364.056289	2489.684732
364.444478	2485.518219
364.832603	2489.039465
365.220665	2489.861173
365.608665	2493.337048
365.996601	2493.652120
366.384474	2496.608757
366.772284	2493.987357
367.160031	2498.345435
367.547715	2495.272851
367.935336	2496.223109
368.322893	2500.009015
368.710388	2500.233347
369.097820	2505.274501
369.485189	2502.113697
369.872495	2505.375324
370.259738	2507.716940
370.646918	2511.119718
371.034035	2510.597959
371.421090	2517.373270
371.808081	2519.470390
372.195010	2522.787469
372.581875	2531.891793
372.968678	2535.476053
373.355418	2542.337064
373.742096	2557.256358
374.128710	2567.419325
374.515262	2578.898032
374.901751	2594.225660
375.288177	2610.324585
375.674540	2633.463481
376.060841	2656.955258
376.447079	2678.367559
376.833254	2703.056610
377.219367	2726.049313
377.605417	2763.673964
377.991404	2791.929632
378.377329	2832.846157
378.763191	2867.289841
379.148991	2917.565268
379.534727	2967.223154
379.920402	3015.494723
380.306013	3068.189904
380.691563	3134.675161
381.077049	3189.134746
381.462474	3250.404930
381.847835	3325.704645
382.233134	3401.808424
382.618371	3458.218936
383.003545	3546.434087
383.388657	3633.514978
383.773706	3729.032241
384.158693	3803.832882
384.543618	3899.067839
384.928480	3983.290397
385.313280	4089.832663
385.698017	4198.459446
386.082692	4319.895801
386.467305	4387.933734
386.851856	4519.263353
387.236344	4679.995502
387.620770	4743.756016
388.005133	4869.144636
388.389435	5021.286659
388.773674	5105.836891
389.157851	5244.408128
389.541965	5376.897213
389.926018	5401.644237
390.310008	5587.473771
390.693936	5715.395570
391.077802	5837.104148
391.461606	5974.243697
391.845348	6093.792140
392.229027	6215.125151
392.612645	6441.160407
392.996200	6561.580970
393.379694	6738.563278
393.763125	6975.999104
394.146494	7072.615338
394.529801	7215.511885
394.913047	7464.287786
395.296230	7463.705533
395.679351	7523.680140
396.062410	7794.090153
396.445408	7684.281219
396.828343	7844.010179
397.211217	7987.310018
397.594028	7870.456072
397.976778	8075.870488
398.359466	8246.689986
398.742092	8216.354843
399.124656	8370.906538
399.507158	8561.416783
399.889598	8588.863345
400.271977	8804.801170
400.654294	8835.756375
401.036549	9039.524855
401.418742	9065.925377
401.800874	9375.285865
402.182944	9456.163617
402.564952	9837.083284
402.946898	9653.401282
403.328783	9718.338905
403.710606	9916.678062
404.092367	10182.921561
404.474067	10558.116998
404.855705	10338.438637
405.237282	10294.767121
405.618797	10730.461445
406.000250	10986.519293
406.381642	11363.312776
406.762972	11307.723972
407.144240	11100.015831
407.525447	11365.798064
407.906593	11302.955041
408.287677	11561.041953
408.668700	11734.538304
409.049661	11699.872809
409.430560	11861.943385
409.811399	11835.104282
410.192176	11996.045639
410.572891	12072.714027
410.953545	12587.849374
411.334138	12034.529807
411.714669	12666.156137
412.095139	11946.743154
412.475547	12469.790592
412.855894	12303.004017
413.236180	12659.897545
413.616405	12318.974392
413.996568	12609.899381
414.376670	12577.083990
414.756711	12449.041203
415.136691	12749.990526
415.516609	12938.680914
415.896466	13007.250689
416.276262	13291.879276
416.655997	13745.721754
417.035670	13774.221917
417.415283	14446.139669
417.794834	14546.027612
418.174324	14284.971460
418.553753	14170.260005
418.933121	14680.187840
419.312428	14492.193130
419.691674	14402.178287
420.070859	14868.487539
420.449983	14509.955636
420.829045	15075.013529
421.208047	14809.647191
421.586988	15292.463701
421.965867	15553.315686
422.344686	15542.714139
422.723444	16119.333919
423.102141	14773.388692
423.480777	15999.798079
423.859352	15502.924312
424.237866	16640.306922
424.616319	16323.125084
424.994712	16996.847569
425.373044	16796.287784
425.751314	17493.381058
426.129524	16595.067608
426.507673	17729.864106
426.885762	17395.159217
427.263789	17612.380015
427.641756	17781.344369
428.019662	17844.414245
428.397508	17885.396305
428.775292	18209.008135
429.153016	18165.170261
429.530679	18249.062623
429.908282	18274.817878
430.285824	17989.496132
430.663305	18703.772179
431.040726	18305.488258
431.418086	18118.486656
431.795385	18781.002656
432.172624	19200.194763
432.549802	18754.526516
432.926920	18942.349826
433.303977	18831.182301
433.680974	19089.853987
434.057910	19380.123626
434.434786	19405.987266
434.811601	19311.465631
435.188355	20388.311545
435.565050	20019.825884
435.941683	19976.136725
436.318257	20874.195597
436.694770	20687.047802
437.071222	21289.712703
437.447614	20327.346351
437.823946	20361.132164
438.200218	20517.932214
438.576429	20292.600198
438.952580	20571.933054
439.328670	20533.688340
439.704700	20969.664969
440.080670	20516.785351
440.456580	21125.305553
440.832429	21303.611164
441.208218	20269.249574
441.583947	20729.970706
441.959616	20837.039773
442.335224	21082.700241
442.710773	21212.890559
443.086261	21768.556783
443.461689	21122.109461
443.837057	21234.507027
444.212365	21896.619735
444.587612	21896.627297
444.962800	21458.079680
445.337927	21900.009911
445.712995	20605.887745
446.088002	22495.534018
446.462949	22704.066388
446.837837	22893.354153
447.212664	22850.784129
447.587431	25756.099393
447.962139	28749.158461
448.336786	31150.829688
448.711374	29555.344825
449.085901	25804.134028
449.460369	25761.889158
449.834776	25672.330540
450.209124	28218.007368
450.583412	27728.292039
450.957640	28259.899356
451.331808	26883.205611
451.705917	25492.522664
452.079965	25543.314810
452.453954	25905.917444
452.827883	25782.910770
453.201752	25578.378556
453.575562	25749.913898
453.949311	26909.278459
454.323001	26960.141181
454.696632	26723.340541
455.070202	28318.951432
455.443713	28444.312326
455.817164	29058.569360
456.190556	29588.659290
456.563888	29021.269863
456.937160	29472.546393
457.310373	27766.914839
457.683526	28237.148629
458.056619	28220.192708
458.429653	28142.395101
458.802628	28748.394726
459.175542	28868.011224
459.548398	30180.410093
459.921194	31778.191202
460.293930	32460.022383
460.666607	34531.505595
461.039224	36298.281304
461.411782	36705.752728
461.784280	35490.917830
462.156719	35024.603538
462.529099	34454.761589
462.901419	33160.397448
463.273680	32079.614393
463.645882	32154.445281
464.018024	32143.793323
464.390106	33008.716691
464.762130	35734.766004
465.134094	39855.379952
465.505999	45196.205188
465.877845	49810.895063
466.249631	50995.349447
466.621358	49312.077931
466.993026	47210.075574
467.364634	45131.927956
467.736184	43132.261022
468.107674	41867.117929
468.479105	41072.445560
468.850477	40359.659174
469.221790	38903.143799
469.593043	37121.927705
469.964238	36224.546867
470.335373	36144.296739
470.706449	37928.310674
471.077467	40554.469523
471.448425	45158.451987
471.819324	47972.792068
472.190164	46083.475992
472.560945	42495.971624
472.931667	39356.588026
473.302330	38232.118331
473.672934	37411.587363
474.043479	37921.225332
474.413965	37113.632486
474.784393	36721.713021
475.154761	37642.131932
475.525070	37661.033738
475.895321	37203.213790
476.265513	37792.950652
476.635645	38794.312849
477.005719	38622.590984
477.375734	39104.449675
477.745691	39802.815841
478.115588	41152.340287
478.485427	43161.739169
478.855207	46553.437559
479.224928	49153.296708
479.594591	50797.295116
479.964194	49826.988947
480.333739	49978.755404
480.703226	50036.249763
481.072653	50664.483397
481.442022	51151.789054
481.811333	51387.352091
482.180584	50115.053080
482.549777	49588.156722
482.918912	49061.862781
483.287988	48764.966545
483.657005	47941.294939
484.025964	47292.894170
484.394864	47324.056062
484.763706	46896.223418
485.132489	46018.238420
485.501213	45833.376787
485.869879	45985.556619
486.238487	45581.435042
486.607036	45766.727693
486.975527	45224.748201
487.343959	45440.517148
487.712333	45511.509197
488.080648	45422.169868
488.448905	45886.750004
488.817104	45713.477984
489.185244	46681.611416
489.553326	48375.529849
489.921350	51077.139648
490.289315	53903.737295
490.657222	54474.650488
491.025070	54753.811944
491.392861	53880.921032
491.760593	52669.246938
492.128267	51033.216074
492.495883	49521.535353
492.863440	48124.649266
493.230939	46745.671878
493.598380	45649.457851
493.965763	45341.244226
494.333088	44509.489129
494.700354	44017.152400
495.067563	43722.388573
495.434713	43591.152215
495.801805	43660.117720
496.168839	43267.023667
496.535815	42918.619442
496.902733	42966.051659
497.269593	42552.011611
497.636395	42476.548059
498.003139	42884.833629
498.369825	42328.000378
498.736453	42649.210098
499.103023	42159.388906
499.469535	42030.302600
499.835989	42124.713329
500.202385	41781.766153
500.568723	41806.477889
500.935003	41998.334122
501.301226	41788.480970
501.667390	42412.086824
502.033497	42692.606871
502.399546	42107.520474
502.765537	41420.191914
503.131470	41818.967348
503.497345	42176.238962
503.863163	40808.241208
504.228923	41430.740529
504.594625	41853.869777
504.960269	41148.715697
505.325856	41853.348017
505.691385	41191.220186
506.056856	41334.698986
506.422270	41789.781588
506.787625	41348.610050
507.152924	41552.847357
507.518164	41656.942143
507.883347	40855.078568
508.248472	41129.912193
508.613540	41589.768768
508.978550	41920.009715
509.343503	41656.929540
509.708398	41850.257790
510.073236	42413.999942
510.438016	42409.669591
510.802738	41844.115144
511.167403	42481.911846
511.532010	42733.853592
511.896561	43031.596741
512.261053	43886.392431
512.625488	43415.009259
512.989866	43296.937874
513.354186	43134.403512
513.718449	43130.640291
514.082655	43817.255527
514.446803	43488.594981
514.810894	44015.166186
515.174927	43936.924957
515.538904	43842.007592
515.902822	44525.222570
516.266684	43950.500785
516.630488	44410.085137
516.994235	44238.360752
517.357925	44826.832284
517.721558	44989.533004
518.085133	45323.343088
518.448651	45465.475900
518.812112	45219.868364
519.175516	45321.578684
519.538863	45661.029820
519.902152	45615.578777
520.265385	46102.904598
520.628560	46141.434137
520.991678	45924.019254
521.354739	46155.473751
521.717743	46483.433576
522.080690	46380.899027
522.443580	46937.734799
522.806413	46970.799727
523.169189	46923.652336
523.531908	47113.562683
523.894569	46958.093499
524.257174	47137.319121
524.619722	47448.796893
524.982213	47444.859752
525.344647	47355.492698
525.707025	47394.581804
526.069345	47775.589692
526.431608	47715.231957
526.793815	48040.477120
527.155964	47561.144048
527.518057	47721.147751
527.880093	47512.118827
528.242072	48031.697951
528.603995	47738.121316
528.965860	47738.156604
529.327669	47836.673353
529.689421	47736.936644
530.051117	47692.098102
530.412755	47829.903083
530.774337	47877.675577
531.135862	47681.408335
531.497331	47887.107576
531.858743	47778.248900
532.220098	48149.131630
532.581396	47848.699025
532.942638	47505.033485
533.303824	47816.586875
533.664953	47776.297974
534.026025	47491.021598
534.387040	47962.624061
534.747999	47898.762724
535.108902	48066.267663
535.469748	47599.575284
535.830537	47704.181747
536.191270	47894.785254
536.551947	47544.730051
536.912567	47855.096249
537.273131	47986.125920
537.633638	47438.649051
537.994089	47799.542734
538.354483	47397.407371
538.714821	47974.306935
539.075103	48317.496086
539.435328	48078.323583
539.795497	47949.811968
540.155609	47927.459492
540.515665	48405.204601
540.875665	47861.848875
541.235609	48189.700315
541.595496	48147.672216
541.955328	48834.874746
542.315102	48191.620995
542.674821	47970.117736
543.034483	48038.748005
543.394090	47997.012292
543.753640	47967.256881
544.113134	48969.196291
544.472571	47955.198441
544.831953	49218.677953
545.191278	48416.098535
545.550548	48139.712234
545.909761	48605.988718
546.268918	48822.539043
546.628019	49110.194843
546.987064	48679.125778
547.346053	47932.205739
547.704986	48839.046301
548.063863	48368.941061
548.422684	48565.934230
548.781449	48419.592054
549.140158	48813.386828
549.498811	48654.585441
549.857408	48094.223382
550.215949	48946.528742
550.574434	48875.065345
550.932864	48629.059558
551.291237	49348.838025
551.649555	48955.610381
552.007817	49185.829795
552.366022	48824.363941
552.724173	49018.279485
553.082267	49406.289535
553.440305	49713.341174
553.798288	49018.161018
554.156215	49321.653603
554.514086	49530.193535
554.871902	49293.995312
555.229661	49303.669287
555.587365	49130.974479
555.945014	49235.217979
556.302606	49134.548657
556.660143	49377.996059
557.017625	49463.708277
557.375050	49231.487525
557.732421	49595.302557
558.089735	49565.506817
558.446994	49494.209778
558.804197	49961.922991
559.161345	49918.059912
559.518437	49156.596144
559.875474	49465.313885
560.232455	49620.387339
560.589381	49807.373817
560.946251	49502.089102
561.303065	50191.184586
561.659825	50000.631491
562.016528	49657.170118
562.373177	49384.037882
562.729770	49869.017046
563.086307	49376.667715
563.442789	49830.076653
563.799216	49889.020345
564.155587	49664.545326
564.511904	49702.429597
564.868164	49802.289813
565.224370	50041.237985
565.580520	49761.166601
565.936615	49981.273460
566.292654	49704.241892
566.648638	49961.703701
567.004567	49899.231202
567.360441	49937.279311
567.716260	49803.398867
568.072023	50079.555796
568.427732	50065.559032
568.783385	49624.498400
569.138982	50010.950733
569.494525	49980.676083
569.850013	49753.451115
570.205445	49709.882943
570.560823	49678.932779
570.916145	49561.899872
571.271412	49589.147308
571.626625	49356.959324
571.981782	49413.735319
572.336884	49089.843705
572.691931	49420.782852
573.046923	49018.987767
573.401860	48862.686792
573.756743	48854.409218
574.111570	48970.948092
574.466342	48820.978806
574.821059	48931.715312
575.175722	48457.279720
575.530330	48457.751068
575.884882	48180.709418
576.239380	48164.224844
576.593823	48117.082494
576.948211	48041.238335
577.302544	47563.669666
577.656823	47577.452181
578.011047	47811.568407
578.365216	47542.769042
578.719330	47338.463680
579.073389	47171.876230
579.427394	47261.139942
579.781344	47229.385713
580.135239	46868.915487
580.489080	46977.658217
580.842866	46452.014585
581.196597	46914.472394
581.550273	46839.119747
581.903895	46716.198773
582.257463	47134.579254
582.610975	46494.345153
582.964434	46775.061805
583.317837	46436.228211
583.671186	46262.084072
584.024481	46491.131418
584.377721	46012.620054
584.730906	46324.551530
585.084037	46343.400404
585.437113	46046.489046
585.790135	46082.563543
586.143103	45694.581219
586.496016	45816.680486
586.848874	45848.865733
587.201679	45869.771398
587.554428	45336.999574
587.907124	45515.330391
588.259765	45270.940294
588.612352	45540.180759
588.964884	44903.931691
589.317362	45204.916302
589.669786	45140.248381
590.022155	44919.619762
590.374470	45354.288211
590.726731	44868.182349
591.078937	44383.170417
591.431090	44478.024767
591.783188	44135.551460
592.135232	43806.195235
592.487222	44046.181885
592.839157	44147.662832
593.191038	43810.144979
593.542866	43556.973192
593.894639	42947.815285
594.246358	43224.478849
594.598022	43207.507805
594.949633	42807.038543
595.301190	42766.890794
595.652692	42577.845004
596.004141	42914.750357
596.355535	41907.532859
596.706876	41868.655481
597.058162	41695.877495
597.409395	42189.429141
597.760573	42261.847837
598.111698	41833.095182
598.462768	41841.652540
598.813785	41884.850188
599.164748	41309.034472
599.515657	41717.751061
599.866511	41167.312514
600.217312	41794.409367
600.568060	40723.653167
600.918753	41482.513179
601.269392	41462.905611
601.619978	41103.826743
601.970510	41314.362972
602.320988	41507.234997
602.671412	41793.995993
603.021783	41553.321226
603.372100	41203.167721
603.722363	41330.567761
604.072572	41389.786195
604.422728	41411.944587
604.772830	41214.631304
605.122878	41304.633545
605.472872	41255.162181
605.822813	41518.295289
606.172701	41357.190094
606.522534	41600.075407
606.872314	41880.744168
607.222041	41616.686009
607.571714	42003.241686
607.921333	41407.732702
608.270899	41731.213462
608.620411	42097.236520
608.969870	41891.512072
609.319276	41852.778367
609.668627	41930.036570
610.017926	42425.067796
610.367171	42603.900208
610.716362	42669.251206
611.065500	42601.959363
611.414585	42789.404587
611.763616	43088.637397
612.112594	43005.395344
612.461518	43228.539498
612.810389	43520.989436
613.159207	43375.310172
613.507971	43464.273935
613.856682	43959.947907
614.205340	43822.687370
614.553945	44543.640426
614.902496	43969.626922
615.250994	44431.832675
615.599439	44509.799160
615.947830	44736.386422
616.296169	44767.107214
616.644454	44906.114511
616.992686	45076.165233
617.340864	45587.386124
617.688990	45289.479137
618.037063	45902.357416
618.385082	45866.585388
618.733048	46173.417738
619.080961	46182.408636
619.428821	46199.021758
619.776628	46305.596792
620.124382	46129.234545
620.472083	46273.182173
620.819731	46415.582166
621.167326	46090.463031
621.514868	46062.076293
621.862357	45639.743548
622.209793	45657.881619
622.557176	45344.326891
622.904506	45101.103821
623.251783	44756.044402
623.599007	44514.971384
623.946179	44265.547694
624.293297	44243.948871
624.640363	43630.294254
624.987376	43624.756547
625.334336	43355.707645
625.681243	42984.151922
626.028097	42943.648771
626.374899	42795.204434
626.721647	42751.968978
627.068343	42630.005823
627.414987	42396.471850
627.761577	42151.915395
628.108115	42483.678771
628.454600	41919.016608
628.801032	42110.008283
629.147412	42063.017167
629.493739	42058.054152
629.840014	41681.752182
630.186236	42017.523275
630.532405	41622.067441
630.878521	41845.645134
631.224585	41707.235214
631.570597	41419.037490
631.916556	41587.845568
632.262462	41517.445854
632.608316	41529.494212
632.954117	41423.105701
633.299866	41428.098964
633.645562	41336.047495
633.991206	40846.647238
634.336797	40408.863356
634.682336	40412.170353
635.027823	40166.903095
635.373257	39981.562553
635.718639	39718.038756
636.063968	39586.474723
636.409245	39004.541567
636.754470	39051.618382
637.099642	38797.377871
637.444762	38289.796693
637.789829	38444.688665
638.134845	38085.723223
638.479808	38036.549288
638.824719	37919.896988
639.169577	37515.210801
639.514383	37567.873215
639.859137	37256.924763
640.203839	37512.904473
640.548489	37108.891281
640.893086	37208.038174
641.237632	36929.317819
641.582125	37039.522483
641.926566	36957.812941
642.270955	36926.910668
642.615292	36946.067053
642.959576	36915.011024
643.303809	36896.678868
643.647990	37052.127888
643.992118	36993.791656
644.336195	36998.772316
644.680219	37060.914620
645.024192	37373.667804
645.368112	37879.350988
645.711981	37892.473111
646.055797	38765.883262
646.399562	38672.720218
646.743274	39645.433538
647.086935	40102.439340
647.430544	39998.475624
647.774101	40110.684147
648.117606	40337.614208
648.461059	40701.335979
648.804460	40323.002424
649.147810	39677.638949
649.491108	39453.731060
649.834354	39081.507384
650.177548	38217.579643
650.520690	37747.925586
650.863781	37776.703013
651.206820	37622.448747
651.549807	37148.260172
651.892742	36658.721283
652.235626	36452.039017
652.578458	36308.638355
652.921238	35681.982602
653.263967	36008.543507
653.606644	35676.039082
653.949269	35601.881188
654.291843	35201.832863
654.634365	35609.601715
654.976836	35202.394952
655.319255	35175.843194
655.661622	35175.210530
656.003938	34951.748783
656.346203	34797.860000
656.688416	35025.969691
657.030577	34826.902087
657.372687	34657.655429
657.714746	34932.181544
658.056753	35063.740536
658.398708	34481.121783
658.740612	34540.491452
659.082465	34820.076365
659.424266	34612.940394
659.766016	34732.405658
660.107715	34618.896517
660.449362	34741.353706
660.790958	34717.806477
661.132503	34748.754120
661.473996	34754.165799
661.815438	34878.311774
662.156829	35081.142599
662.498168	34840.351885
662.839456	34858.835276
663.180693	35006.412534
663.521879	35159.552706
663.863013	35117.098629
664.204097	35108.931959
664.545129	35557.524076
664.886110	35511.354668
665.227040	35559.752266
665.567918	35690.476947
665.908746	35750.771667
666.249522	35926.793636
666.590248	35918.347183
666.930922	36036.731119
667.271545	35982.841184
667.612118	36076.909115
667.952639	35845.764650
668.293109	35899.815901
668.633528	35799.186909
668.973896	35738.985449
669.314213	35770.283453
669.654480	35492.430177
669.994695	35532.187236
670.334859	35393.590794
670.674973	35293.228982
671.015035	35472.447043
671.355047	35407.552269
671.695008	35332.093758
672.034918	35227.005865
672.374777	35304.291794
672.714585	35116.571828
673.054342	35358.534610
673.394049	35086.776088
673.733705	35389.298251
674.073310	35045.365530
674.412864	35117.227178
674.752368	34699.703693
675.091820	35022.571953
675.431223	34599.407417
675.770574	34311.189528
676.109875	34155.672452
676.449125	33875.553177
676.788324	33782.183446
677.127473	33236.405446
677.466571	33163.477593
677.805619	32797.910761
678.144616	32799.027376
678.483562	32710.033367
678.822458	32354.853831
679.161303	32289.570889
679.500098	32179.154496
679.838842	32054.300239
680.177535	32205.544937
680.516179	32449.514098
680.854771	32691.948227
681.193314	33549.191398
681.531805	34663.354453
681.870247	35422.063231
682.208638	36163.790881
682.546978	36393.367548
682.885268	36510.992791
683.223508	35982.629456
683.561697	35648.093446
683.899836	35465.263398
684.237925	34940.512051
684.575963	34772.293788
684.913951	34295.773679
685.251889	34438.060247
685.589776	34418.495529
685.927614	34379.567739
686.265401	34504.913508
686.603137	34570.803910
686.940824	35058.190225
687.278460	35431.457421
687.616046	35540.321138
687.953582	36140.956975
688.291068	36014.726482
688.628504	36318.834088
688.965889	36257.200941
689.303224	35875.086521
689.640510	35576.264565
689.977745	34844.339438
690.314930	34057.692586
690.652065	33555.873447
690.989150	32808.192194
691.326185	31891.062636
691.663170	31191.690760
692.000105	30430.582394
692.336990	29720.724918
692.673825	29260.732232
693.010610	28711.906854
693.347345	28100.097300
693.684030	27423.960102
694.020665	27128.137633
694.357251	26432.823886
694.693786	26371.878856
695.030272	26112.181295
695.366707	25539.274325
695.703093	25246.232052
696.039429	25232.414249
696.375716	24949.749192
696.711952	24901.732201
697.048139	24734.323044
697.384276	24532.424832
697.720363	24654.743389
698.056400	24442.294043
698.392388	24225.894952
698.728326	24182.755278
699.064214	23972.261899
699.400053	23919.901955
699.735842	23566.804416
700.071581	23269.477162
700.407270	22966.402993
700.742910	22783.850209
701.078501	22500.854956
701.414042	22210.441644
701.749533	21905.051065
702.084974	21536.835106
702.420366	21759.180237
702.755709	21287.497116
703.091002	20991.563741
703.426246	21010.425218
703.761440	20889.576158
704.096584	20622.097576
704.431679	20572.837941
704.766725	20451.147008
705.101721	20389.992770
705.436668	20485.837708
705.771565	20133.151023
706.106413	20485.620938
706.441212	20459.648913
706.775961	20583.903273
707.110661	20638.340173
707.445311	20994.270841
707.779913	20803.218672
708.114465	21035.149557
708.448967	21313.073410
708.783421	22014.028208
709.117825	22273.693002
709.452180	22480.960042
709.786485	22870.563096
710.120742	23669.399458
710.454949	23665.096833
710.789107	24124.378716
711.123216	24823.042310
711.457275	24929.690440
711.791286	25507.628482
712.125247	25585.529432
712.459159	25306.567102
712.793023	26000.885221
713.126837	24883.730241
713.460602	25176.165055
713.794318	24811.535877
714.127985	24444.270175
714.461602	23552.318660
714.795171	23524.723384
715.128691	22488.602431
715.462162	21949.708126
715.795584	21519.163341
716.128957	21257.482086
716.462281	20831.542394
716.795556	20592.798389
717.128782	20065.458409
717.461960	19516.002887
717.795088	19434.989024
718.128167	19013.311628
718.461198	18539.564154
718.794180	18391.389519
719.127113	18019.334721
719.459997	17803.719530
719.792833	17443.244263
720.125619	17408.102379
720.458357	17064.905667
720.791046	16886.491670
721.123686	16726.518215
721.456278	16475.652755
721.788821	16434.544666
722.121315	16145.366438
722.453761	16224.557923
722.786158	16142.190511
723.118506	16143.269317
723.450805	15997.416134
723.783056	16153.502860
724.115259	16042.713422
724.447412	15966.082842
724.779518	16212.355810
725.111574	16222.304527
725.443582	16404.486786
725.775542	16380.964763
726.107453	16851.710229
726.439315	16726.787916
726.771129	17105.796986
727.102895	17489.895100
727.434612	17686.643773
727.766281	17808.861507
728.097901	18084.814269
728.429473	18122.242315
728.760996	18109.475593
729.092471	18203.472948
729.423897	18083.639680
729.755276	17948.226726
730.086606	18071.505622
730.417887	18587.288758
730.749120	19078.813861
731.080305	19247.982381
731.411442	19583.214070
731.742530	19672.697072
732.073570	19775.975191
732.404562	20093.797255
732.735506	19909.694317
733.066401	19640.963008
733.397249	19136.151944
733.728048	18480.738930
734.058798	17648.837640
734.389501	16952.331660
734.720156	16488.802605
735.050762	15949.086592
735.381320	15569.752368
735.711831	15313.944057
736.042293	14949.995435
736.372707	14943.164671
736.703073	14725.374222
737.033391	14904.370472
737.363661	14846.127501
737.693883	14934.748465
738.024056	15091.906436
738.354182	15254.483647
738.684260	15528.104875
739.014290	15739.188069
739.344272	15918.454021
739.674207	16197.025662
740.004093	16323.188098
740.333931	16311.535471
740.663722	16348.918147
740.993464	16366.942793
741.323159	16194.058942
741.652806	15926.837459
741.982405	15731.318828
742.311956	15400.467901
742.641460	15290.870696
742.970915	14989.369367
743.300323	14653.837728
743.629683	14443.200677
743.958996	14167.200024
744.288260	13893.306574
744.617477	13593.073095
744.946647	13509.631917
745.275768	13235.045308
745.604842	13050.949931
745.933869	12864.860778
746.262847	12821.874859
746.591778	12739.762025
746.920662	12625.448820
747.249498	12617.919857
747.578286	12728.265673
747.907027	12852.288140
748.235720	13078.126791
748.564365	13095.528854
748.892963	12991.164367
749.221514	13047.922718
749.550017	12899.417888
749.878473	12856.439530
750.206881	12632.282104
750.535242	12540.596118
750.863555	12447.657406
751.191821	12350.582427
751.520039	12362.177081
751.848210	12268.058739
752.176334	12296.831124
752.504411	12207.096065
752.832440	12040.536342
753.160421	12098.232348
753.488356	11967.651340
753.816243	11873.815302
754.144082	11731.891698
754.471875	11671.778459
754.799620	11609.653799
755.127318	11577.647514
755.454969	11533.766790
755.782572	11489.974287
756.110129	11502.403251
756.437638	11413.341186
756.765100	11399.989690
757.092515	11394.262940
757.419882	11408.521843
757.747203	11402.195195
758.074477	11470.626338
758.401703	11429.677045
758.728882	11578.060888
759.056014	11621.288783
759.383099	11733.030999
759.710138	11824.480050
760.037129	11904.276474
760.364073	11923.047211
760.690970	11904.185733
761.017820	11902.164231
761.344623	12092.613982
761.671379	12401.861044
761.998088	13045.019013
762.324751	14588.953037
762.651366	17379.428296
762.977935	20957.248607
763.304456	23131.294094
763.630931	23641.516836
763.957359	22539.548332
764.283740	20693.908812
764.610074	18869.487509
764.936362	16755.850168
765.262602	15260.515388
765.588796	13794.928457
765.914943	12768.173968
766.241044	11904.803275
766.567097	11267.712334
766.893104	10717.359486
767.219064	10348.231078
767.544978	9958.244896
767.870845	9645.486670
768.196665	9450.706568
768.522438	9263.379812
768.848165	9091.340354
769.173846	8916.193026
769.499479	8801.778998
769.825066	8638.049883
770.150607	8455.272768
770.476101	8393.868993
770.801548	8285.814381
771.126949	8139.484809
771.452303	8047.907208
771.777611	7887.653968
772.102872	7866.859209
772.428087	7751.431909
772.753256	7624.551108
773.078378	7531.370420
773.403453	7387.899182
773.728482	7280.494878
774.053465	7220.396763
774.378401	7130.550798
774.703291	7034.897425
775.028135	6942.447704
775.352932	6901.332054
775.677683	6816.388611
776.002388	6722.829837
776.327046	6723.835547
776.651658	6637.210880
776.976224	6558.611730
777.300743	6543.299225
777.625216	6476.284647
777.949643	6427.864364
778.274024	6432.250168
778.598359	6359.881884
778.922647	6363.997986
779.246889	6316.636345
779.571086	6329.032543
779.895236	6335.439849
780.219339	6321.536347
780.543397	6319.494680
780.867409	6366.788264
781.191374	6364.164344
781.515294	6329.539179
781.839167	6378.302260
782.162995	6358.598910
782.486776	6304.827443
782.810511	6263.432008
783.134201	6192.170257
783.457844	6186.889648
783.781441	6140.644623
784.104993	6091.747952
784.428498	6063.875412
784.751958	6047.461415
785.075372	6021.290265
785.398739	5981.518082
785.722061	6005.145970
786.045337	5998.801678
786.368568	6108.119099
786.691752	6125.054855
787.014891	6371.252206
787.337983	6630.730477
787.661030	7050.411576
787.984031	7452.597350
788.306987	7709.602935
788.629897	7800.689023
788.952760	7716.836991
789.275579	7547.479427
789.598351	7264.166581
789.921078	7013.538056
790.243759	6741.409010
790.566395	6541.668412
790.888984	6357.217634
791.211529	6223.216203
791.534027	6056.346449
791.856480	5920.726808
792.178888	5859.446541
792.501249	5789.417353
792.823566	5687.525551
793.145836	5672.810423
793.468062	5653.389378
793.790241	5614.388491
794.112375	5655.776364
794.434464	5747.958903
794.756507	5771.150732
795.078505	5879.540581
795.400457	6090.091933
795.722364	6311.839687
796.044226	6501.734912
796.366042	6652.422562
796.687812	6609.424040
797.009538	6636.893288
797.331218	6553.792387
797.652852	6488.701008
797.974442	6372.353698
798.295986	6303.426002
798.617484	6175.005128
798.938938	6073.534263
799.260346	6005.118243
799.581709	5869.138160
799.903026	5819.450027
800.224299	5750.572742
800.545526	5633.139063
800.866708	5577.436833
801.187845	5520.249984
801.508936	5444.241987
801.829983	5414.559673
802.150984	5310.031348
802.471940	5280.603613
802.792851	5266.856386
803.113717	5240.687757
803.434538	5216.540630
803.755314	5183.203479
804.076045	5170.323331
804.396731	5135.312518
804.717372	5143.527078
805.037967	5146.801307
805.358518	5173.405997
805.679024	5222.322833
805.999485	5232.032095
806.319901	5247.848716
806.640272	5255.947329
806.960598	5301.126150
807.280879	5292.387310
807.601115	5329.091951
807.921306	5294.035767
808.241453	5289.029901
808.561554	5302.593126
808.881611	5269.767653
809.201623	5271.224546
809.521590	5222.300148
809.841513	5211.633066
810.161390	5231.802723
810.481223	5146.846678
810.801011	5133.190192
811.120755	5111.704794
811.440453	5061.242844
811.760107	5027.973749
812.079716	5005.235625
812.399281	4954.307368
812.718801	4949.528354
813.038276	4916.173560
813.357707	4884.893200
813.677093	4906.131582
813.996434	4843.263352
814.315731	4862.157597
814.634983	4859.584087
814.954191	4863.243965
815.273354	4924.128501
815.592473	4960.941527
815.911547	5032.820819
816.230577	5085.163119
816.549562	5167.926263
816.868502	5221.420467
817.187399	5275.416265
817.506250	5353.924675
817.825058	5380.511720
818.143821	5530.959916
818.462539	5694.109298
818.781213	5912.539974
819.099843	6251.575214
819.418429	6860.745724
819.736970	7443.359436
820.055466	8130.519117
820.373919	9020.925517
820.692327	10443.145923
821.010691	13091.347217
821.329011	19171.593777
821.647286	28472.807448
821.965517	38507.279631
822.283704	43782.779076
822.601847	45201.934460
822.919945	40748.848854
823.237999	35834.094378
823.556010	30837.660608
823.873976	26282.479034
824.191897	22198.791538
824.509775	19210.718172
824.827609	16496.104716
825.145398	14970.142406
825.463144	14211.277353
825.780845	14493.886958
826.098502	15692.131419
826.416116	17973.540880
826.733685	20072.727753
827.051210	20486.301494
827.368692	19092.644266
827.686129	16681.200762
828.003522	14356.969220
828.320872	12250.656676
828.638177	10682.341111
828.955439	9496.220626
829.272656	8469.113256
829.589830	7660.121489
829.906960	6961.898997
830.224046	6447.076201
830.541088	6051.401077
830.858086	5795.691069
831.175041	5598.629844
831.491952	5543.424168
831.808819	5566.621038
832.125642	5803.842614
832.442421	6330.839796
832.759157	7386.981692
833.075849	9052.536073
833.392497	10771.554411
833.709101	11795.969804
834.025662	11562.312324
834.342179	10579.584752
834.658653	9353.291311
834.975083	8323.837284
835.291469	7470.735422
835.607811	6765.200735
835.924110	6262.517038
836.240366	5800.424712
836.556578	5368.498651
836.872746	5026.804202
837.188871	4767.091517
837.504952	4557.533273
837.820990	4393.201739
838.136984	4284.602683
838.452935	4234.286926
838.768842	4265.668109
839.084706	4532.932442
839.400526	5238.991408
839.716303	6087.122693
840.032037	6616.234639
840.347727	6471.896322
840.663373	5906.800620
840.978977	5366.456983
841.294537	4952.119508
841.610054	4633.614366
841.925527	4403.168101
842.240957	4203.551011
842.556344	4027.813867
842.871687	3877.879870
843.186987	3732.092221
843.502244	3618.797330
843.817458	3533.727858
844.132629	3461.500727
844.447756	3420.800971
844.762840	3377.099208
845.077881	3337.163188
845.392879	3304.085657
845.707833	3279.162192
846.022745	3251.687904
846.337613	3241.988724
846.652438	3217.425702
846.967221	3209.470761
847.281960	3190.909232
847.596656	3181.764579
847.911309	3169.766633
848.225919	3155.636279
848.540485	3146.589928
848.855009	3141.213538
849.169490	3128.119141
849.483928	3122.783079
849.798323	3114.535752
850.112675	3103.601489
850.426984	3106.427056
850.741251	3099.026642
851.055474	3092.095055
851.369654	3097.738627
851.683792	3092.122782
851.997887	3093.672936
852.311938	3094.025817
852.625947	3095.553287
852.939914	3089.534149
853.253837	3091.301073
853.567718	3088.193202
853.881555	3085.344950
854.195350	3090.542380
854.509103	3086.769076
854.822812	3079.817325
855.136479	3078.733477
855.450103	3082.577357
855.763685	3073.752817
856.077224	3077.763055
856.390720	3084.931576
856.704173	3093.690580
857.017584	3097.640324
857.330953	3103.604009
857.644278	3112.390741
857.957561	3114.497943
858.270802	3111.639609
858.584000	3110.459979
858.897155	3108.153651
859.210268	3094.534974
859.523339	3084.251020
859.836367	3082.544589
860.149352	3076.487643
860.462295	3076.777509
860.775195	3061.941393
861.088054	3061.727144
861.400869	3061.706980
861.713642	3056.333110
862.026373	3065.840726
862.339062	3068.441961
862.651708	3074.982858
862.964312	3091.439705
863.276873	3101.156529
863.589392	3125.979171
863.901869	3152.067142
864.214303	3168.042558
864.526696	3186.142821
864.839045	3201.329297
865.151353	3213.700289
865.463619	3215.399158
865.775842	3218.557441
866.088023	3223.777555
866.400162	3215.323540
866.712258	3218.000393
867.024313	3217.471072
867.336325	3215.850341
867.648296	3215.656257
867.960224	3214.839590
868.272110	3217.266905
868.583954	3218.149107
868.895755	3224.216136
869.207515	3220.984756
869.519233	3237.915471
869.830909	3245.378900
870.142542	3254.042122
870.454134	3257.936414
870.765684	3271.943260
871.077191	3288.516053
871.388657	3300.340079
871.700081	3316.519663
872.011463	3336.538085
872.322803	3353.831763
872.634101	3366.913557
872.945357	3390.594377
873.256571	3413.486257
873.567744	3425.784152
873.878874	3432.425872
874.189963	3450.949592
874.501010	3453.639047
874.812015	3449.061680
875.122979	3462.627425
875.433900	3460.164821
875.744780	3459.774132
876.055618	3473.231492
876.366415	3467.986171
876.677169	3474.786688
876.987882	3491.944255
877.298554	3513.459899
877.609183	3548.753017
877.919771	3591.204574
878.230317	3655.554903
878.540822	3753.217176
878.851285	3895.954927
879.161707	4103.363120
879.472087	4458.782110
879.782425	5055.813522
880.092722	6187.605492
880.402977	8048.968371
880.713191	10344.271252
881.023363	12616.205864
881.333494	13914.716354
881.643583	14333.618595
881.953631	13937.724181
882.263637	13121.475673
882.573602	12133.533028
882.883526	11217.215096
883.193408	10309.439399
883.503248	9434.705946
883.813048	8646.894587
884.122806	7908.736074
884.432522	7174.562592
884.742197	6541.905346
885.051831	6000.480382
885.361424	5520.713770
885.670975	5141.646728
885.980485	4829.614428
886.289954	4573.788473
886.599382	4364.283160
886.908768	4197.640258
887.218113	4039.030435
887.527417	3913.215838
887.836680	3798.650575
888.145901	3700.945452
888.455082	3628.925008
888.764221	3563.793300
889.073319	3506.843385
889.382376	3478.859940
889.691392	3451.819191
890.000366	3447.997996
890.309300	3439.296965
890.618193	3441.966256
890.927044	3436.216820
891.235855	3447.420784
891.544625	3458.211374
891.853353	3484.352277
892.162041	3541.513921
892.470687	3626.921149
892.779293	3739.969024
893.087858	3901.268303
893.396381	4164.061133
893.704864	4554.571595
894.013306	5077.084670
894.321707	5600.742088
894.630068	5914.989974
894.938387	5941.529129
895.246665	5775.120640
895.554903	5485.758410
895.863100	5178.089229
896.171256	4926.880971
896.479371	4712.647056
896.787446	4502.894727
897.095480	4322.048373
897.403473	4180.187784
897.711425	4046.670303
898.019336	3932.430196
898.327207	3820.975325
898.635038	3726.887230
898.942827	3628.667909
899.250576	3550.194787
899.558284	3471.731748
899.865952	3422.174686
900.173579	3360.932228
900.481165	3321.911177
900.788711	3280.508180
901.096216	3251.294694
901.403681	3226.779562
901.711105	3214.983262
902.018489	3209.879094
902.325832	3243.163312
902.633135	3297.683391
902.940397	3456.245324
903.247619	3841.197914
903.554800	4541.547774
903.861941	5447.980003
904.169041	6101.099292
904.476101	6293.562984
904.783121	6040.726434
905.090100	5666.307335
905.397039	5280.646462
905.703938	4948.908293
906.010796	4648.705060
906.317614	4408.965427
906.624391	4185.954864
906.931129	4000.576513
907.237826	3829.585616
907.544483	3670.902696
907.851099	3511.327491
908.157675	3359.006507
908.464211	3225.410889
908.770707	3131.098463
909.077163	3057.187585
909.383578	3000.625839
909.689954	2958.093624
909.996289	2931.529264
910.302584	2909.940523
910.608839	2898.739079
910.915054	2889.047461
911.221229	2883.537479
911.527363	2887.131822
911.833458	2891.462173
912.139513	2906.227713
912.445527	2917.235072
912.751502	2949.085082
913.057436	2993.008656
913.363331	3043.773075
913.669186	3130.402783
913.975000	3238.069227
914.280775	3414.345774
914.586510	3671.270700
914.892205	4019.435470
915.197859	4480.416222
915.503475	5017.435217
915.809050	5470.347602
916.114585	5730.859310
916.420081	5777.951248
916.725536	5718.768102
917.030952	5494.973639
917.336328	5311.344569
917.641665	5115.031956
917.946961	4904.334410
918.252218	4725.186926
918.557435	4513.627343
918.862612	4331.450125
919.167750	4174.380374
919.472848	3996.392356
919.777906	3842.057431
920.082925	3689.625541
920.387904	3553.118657
920.692843	3450.150569
920.997743	3355.157586
921.302603	3267.859925
921.607423	3209.962273
921.912204	3144.916265
922.216946	3101.348093
922.521647	3056.968295
922.826310	3015.789630
923.130932	2984.073211
923.435516	2945.936882
923.740059	2919.780855
924.044564	2894.103738
924.349028	2871.206817
924.653454	2842.129442
924.957840	2819.207315
925.262186	2798.551187
925.566493	2779.200718
925.870761	2756.452512
926.174989	2745.787951
926.479178	2734.334449
926.783328	2717.975905
927.087438	2709.524410
927.391509	2697.337421
927.695541	2682.914680
927.999533	2673.948988
928.303486	2667.181239
928.607400	2662.273675
928.911275	2656.292346
929.215110	2649.030564
929.518906	2642.998824
929.822663	2646.023516
930.126381	2644.876653
930.430060	2649.040647
930.733699	2651.339413
931.037299	2653.179434
931.340861	2652.879485
931.644383	2655.573982
931.947866	2653.353354
932.251309	2648.954947
932.554714	2651.987201
932.858080	2647.228352
933.161407	2644.059987
933.464694	2642.383803
933.767943	2638.865077
934.071153	2636.836013
934.374323	2632.757720
934.677455	2629.707822
934.980548	2626.768829
935.283602	2623.913015
935.586617	2622.047788
935.889593	2623.792027
936.192530	2627.099024
936.495428	2631.467184
936.798287	2637.501445
937.101108	2651.125164
937.403890	2668.491939
937.706632	2691.829960
938.009336	2721.580330
938.312002	2743.380800
938.614628	2766.144130
938.917216	2782.931172
939.219765	2795.488686
939.522275	2801.318781
939.824747	2806.123000
940.127179	2798.384829
940.429573	2793.106741
940.731929	2790.757563
941.034246	2785.900412
941.336524	2784.120884
941.638763	2778.134514
941.940964	2775.510594
942.243126	2760.603902
942.545250	2751.746594
942.847335	2737.684296
943.149381	2726.445043
943.451389	2714.759649
943.753359	2701.443441
944.055290	2694.554704
944.357182	2685.437777
944.659036	2680.431912
944.960851	2677.792867
945.262628	2672.192146
945.564367	2673.903617
945.866067	2670.790705
946.167729	2672.756755
946.469352	2671.133503
946.770937	2668.149140
947.072484	2664.537153
947.373992	2663.105466
947.675462	2658.006339
947.976893	2653.232366
948.278286	2650.300935
948.579641	2645.269863
948.880958	2646.207518
949.182236	2643.150058
949.483476	2642.066210
949.784678	2638.610499
950.085841	2640.732825
950.386967	2644.775830
950.688054	2648.677683
950.989103	2658.182779
951.290114	2666.271310
951.591087	2674.337157
951.892021	2682.849145
952.192917	2695.278110
952.493776	2704.931919
952.794596	2708.657332
953.095378	2711.729915
953.396122	2707.563402
953.696828	2705.922506
953.997496	2701.355221
954.298126	2696.205682
954.598718	2687.229907
954.899272	2678.480985
955.199788	2668.895231
955.500266	2658.061791
955.800706	2642.207362
956.101108	2627.396452
956.401472	2619.887654
956.701798	2605.573297
957.002087	2591.921853
957.302337	2583.082190
957.602550	2575.361662
957.902724	2563.386402
958.202861	2556.606050
958.502960	2550.869217
958.803022	2542.500901
959.103045	2532.892462
959.403031	2529.214940
959.702979	2525.953314
960.002889	2523.485669
960.302762	2516.254134
960.602596	2510.383710
960.902393	2508.392454
961.202153	2510.822290
961.501875	2500.046824
961.801559	2501.115549
962.101205	2498.804180
962.400814	2496.165136
962.700385	2494.262100
962.999918	2491.270175
963.299414	2493.117758
963.598873	2490.415700
963.898293	2488.545432
964.197677	2488.999135
964.497022	2489.626759
964.796331	2488.021152
965.095601	2486.823878
965.394835	2484.784731
965.694030	2483.771459
965.993189	2485.689618
966.292309	2483.037971
966.591393	2482.889257
966.890439	2484.885554
967.189447	2483.884885
967.488419	2482.254072
967.787353	2482.740543
968.086249	2480.149390
968.385108	2483.083341
968.683930	2484.250368
968.982714	2483.559730
969.281462	2487.393528
969.580172	2487.917808
969.878844	2490.282109
970.177480	2493.586585
970.476078	2492.863180
970.774639	2498.809221
971.073162	2497.375012
971.371649	2498.758809
971.670098	2496.568428
971.968510	2503.192504
972.266885	2500.573625
972.565223	2506.224758
972.863524	2506.343225
973.161788	2506.381034
973.460014	2507.684172
973.758204	2508.563853
974.056356	2509.632578
974.354471	2509.045284
974.652550	2510.358504
974.950591	2508.062259
975.248595	2507.563184
975.546563	2508.087464
975.844493	2507.066631
976.142386	2506.242402
976.440243	2501.775940
976.738062	2501.135713
977.035845	2499.036073
977.333590	2495.822337
977.631299	2493.805876
977.928971	2495.383757
978.226606	2489.929228
978.524204	2491.630618
978.821765	2489.800679
979.119290	2489.475524
979.416777	2488.797489
979.714228	2491.630618
980.011642	2490.725731
980.309020	2497.501041
980.606360	2499.489777
980.903664	2507.575787
981.200931	2519.709845
981.498162	2538.077289
981.795356	2565.745662
982.092513	2599.085332
982.389633	2638.804584
982.686717	2678.733043
982.983764	2708.022147
983.280775	2728.043089
983.577749	2726.424879
983.874686	2719.460525
984.171587	2702.844882
984.468451	2688.510361
984.765279	2672.043432
985.062070	2655.208498
985.358824	2635.663945
985.655543	2616.157200
985.952224	2595.100300
986.248869	2570.827145
986.545478	2544.381252
986.842050	2527.526154
987.138586	2507.515293
987.435086	2497.359889
987.731549	2486.738178
988.027975	2481.560913
988.324366	2475.388020
988.620719	2472.648153
988.917037	2468.476598
989.213318	2467.352421
989.509563	2463.508541
989.805772	2464.010136
990.101944	2462.429734
990.398080	2461.812193
990.694180	2461.320680
990.990244	2460.738427
991.286271	2458.328755
991.582262	2461.108952
991.878217	2461.918057
992.174136	2462.840588
992.470019	2462.938891
992.765865	2466.432410
993.061676	2466.263532
993.357450	2471.619757
993.653188	2472.993472
993.948890	2475.985397
994.244556	2482.969915
994.540186	2490.957624
994.835780	2499.835096
995.131337	2515.898732
995.426859	2530.510517
995.722345	2548.877961
996.017795	2563.819941
996.313208	2576.785788
996.608586	2587.697366
996.903928	2591.074939
997.199234	2587.762901
997.494504	2585.635534
997.789738	2580.511201
998.084936	2570.968297
998.380099	2560.175187
998.675225	2547.284956
998.970316	2534.994623
999.265371	2523.609177
999.560390	2508.463030
999.855373	2500.356855
1000.150320	2492.646410
1000.445232	2482.543938
1000.740108	2476.423977
1001.034948	2473.132104
1001.329752	2467.392750
1001.624521	2464.095835
1001.919254	2456.211471
1002.213951	2456.249279
1002.508613	2453.378342
1002.803239	2454.036213
1003.097829	2448.944647
1003.392384	2451.913887
1003.686903	2449.594956
1003.981386	2447.994390
1004.275834	2448.622014
1004.570246	2447.709565
1004.864623	2447.533124
1005.158964	2444.984821
1005.453270	2442.454162
1005.747540	2445.753597
1006.041775	2444.954574
1006.335974	2441.103133
1006.630138	2442.554985
1006.924266	2441.695468
1007.218359	2442.960798
1007.512416	2442.600355
1007.806438	2441.387958
1008.100425	2440.510797
1008.394376	2440.475509
1008.688292	2442.839810
1008.982172	2439.348811
1009.276017	2440.203287
1009.569827	2440.967022
1009.863602	2442.915427
1010.157341	2441.113215
1010.451045	2437.355035
1010.744714	2439.837803
1011.038347	2439.026177
1011.331945	2438.796805
1011.625508	2441.856785
1011.919036	2437.687751
1012.212528	2438.597679
1012.505986	2437.760848
1012.799408	2441.299738
1013.092795	2435.545261
1013.386147	2439.724377
1013.679464	2437.158430
1013.972745	2438.164140
1014.265992	2437.962494
1014.559204	2437.841506
1014.852380	2436.225816
1015.145521	2438.829572
1015.438628	2436.825714
1015.731699	2436.445107
1016.024736	2436.412339
1016.317737	2437.773451
1016.610703	2438.257401
1016.903635	2435.005857
1017.196531	2433.286824
1017.489393	2435.073913
1017.782219	2436.273707
1018.075011	2441.725715
1018.367768	2438.297731
1018.660490	2441.665221
1018.953177	2441.665221
1019.245829	2441.665221
