Dividing Wavelength (nm)	Counts (n)	Blue Motor Position (mm): 0.000000	Red Motor Position (mm): 18.200000	
326.493990	1981.302011
326.888308	1981.302011
327.282561	1981.302011
327.676750	1957.099431
328.070874	1959.725872
328.464933	1964.560339
328.858929	1973.740280
329.252859	1985.934831
329.646726	2001.073416
330.040528	2011.838800
330.434265	2034.513910
330.827938	2054.015614
331.221547	2073.149313
331.615091	2094.208734
332.008571	2117.745881
332.401986	2137.539972
332.795338	2156.288023
333.188625	2176.208142
333.581847	2198.396781
333.975006	2212.358256
334.368100	2230.919785
334.761129	2247.628689
335.154095	2260.334918
335.546996	2279.859306
335.939833	2298.355300
336.332606	2309.458441
336.725315	2319.502940
337.117960	2328.743375
337.510540	2335.304437
337.903056	2344.852382
338.295508	2351.637775
338.687896	2358.844105
339.080220	2367.731659
339.472480	2373.707947
339.864676	2377.428318
340.256807	2379.588453
340.648875	2382.182127
341.040879	2382.010727
341.432818	2381.514174
341.824694	2384.788403
342.216506	2386.013403
342.608253	2383.691952
342.999937	2381.970398
343.391557	2379.737167
343.783113	2378.350850
344.174605	2380.231200
344.566033	2376.810777
344.957397	2374.385982
345.348697	2375.855478
345.739934	2373.481095
346.131106	2369.473378
346.522215	2367.403984
346.913260	2365.866432
347.304241	2365.987420
347.695159	2361.999867
348.086012	2360.142202
348.476802	2360.381657
348.867528	2359.703622
349.258191	2358.982737
349.648789	2356.356295
350.039324	2357.162880
350.429796	2357.298991
350.820203	2356.789835
351.210548	2354.274299
351.600828	2354.365040
351.991045	2355.590040
352.381198	2355.763960
352.771288	2353.114833
353.161314	2353.485358
353.551276	2355.400997
353.941175	2353.235821
354.331010	2355.174145
354.720782	2354.115503
355.110490	2353.671881
355.500135	2356.938549
355.889717	2354.725482
356.279235	2358.831502
356.668689	2358.783611
357.058080	2359.169259
357.447408	2356.257993
357.836672	2353.165245
358.225873	2359.444002
358.615010	2355.857221
359.004084	2359.350741
359.393095	2360.787470
359.782043	2363.620598
360.170927	2363.706298
360.559748	2361.331914
360.948505	2362.715711
361.337199	2363.998685
361.725830	2363.991123
362.114398	2366.902389
362.502903	2366.645290
362.891344	2365.828623
363.279722	2370.894983
363.668037	2368.906248
364.056289	2368.434900
364.444478	2371.106712
364.832603	2371.976311
365.220665	2373.123173
365.608665	2371.855323
365.996601	2372.268698
366.384474	2372.762731
366.772284	2373.997813
367.160031	2374.688451
367.547715	2375.941178
367.935336	2374.849768
368.322893	2378.270191
368.710388	2376.556199
369.097820	2381.798999
369.485189	2378.786909
369.872495	2380.694986
370.259738	2383.868393
370.646918	2384.508619
371.034035	2385.499206
371.421090	2393.567572
371.808081	2391.543549
372.195010	2398.079405
372.581875	2403.304561
372.968678	2409.923596
373.355418	2416.411561
373.742096	2425.132757
374.128710	2434.950404
374.515262	2447.283587
374.901751	2461.996195
375.288177	2475.745942
375.674540	2495.542553
376.060841	2516.410409
376.447079	2540.353370
376.833254	2566.706001
377.219367	2591.727768
377.605417	2625.959724
377.991404	2650.742036
378.377329	2693.034796
378.763191	2726.470249
379.148991	2770.663524
379.534727	2819.345947
379.920402	2867.252032
380.306013	2914.273394
380.691563	2977.630616
381.077049	3032.206147
381.462474	3088.866196
381.847835	3160.518636
382.233134	3228.662433
382.618371	3287.601084
383.003545	3373.036038
383.388657	3448.852472
383.773706	3541.776061
384.158693	3614.406485
384.543618	3702.117520
384.928480	3783.506949
385.313280	3886.101992
385.698017	3989.541427
386.082692	4109.415025
386.467305	4170.213861
386.851856	4291.660298
387.236344	4448.994710
387.620770	4510.166591
388.005133	4628.555568
388.389435	4773.587044
388.773674	4854.346329
389.157851	4986.868181
389.541965	5116.960197
389.926018	5139.473990
390.310008	5317.111649
390.693936	5441.131595
391.077802	5550.257452
391.461606	5682.597823
391.845348	5797.672242
392.229027	5915.894862
392.612645	6135.623634
392.996200	6250.866932
393.379694	6424.690957
393.763125	6640.190202
394.146494	6729.665642
394.529801	6870.490274
394.913047	7109.108251
395.296230	7105.589525
395.679351	7162.327712
396.062410	7405.437356
396.445408	7306.532438
396.828343	7459.896941
397.211217	7590.843433
397.594028	7472.998900
397.976778	7680.772576
398.359466	7834.986513
398.742092	7811.582957
399.124656	7958.202396
399.507158	8140.525807
399.889598	8155.228332
400.271977	8369.943677
400.654294	8401.438286
401.036549	8593.899457
401.418742	8615.478117
401.800874	8909.919310
402.182944	8993.657916
402.564952	9346.899128
402.946898	9175.247840
403.328783	9230.851767
403.710606	9424.946272
404.092367	9675.118573
404.474067	10028.901708
404.855705	9824.102313
405.237282	9779.546075
405.618797	10192.293066
406.000250	10436.783987
406.381642	10785.006730
406.762972	10740.510985
407.144240	10543.154853
407.525447	10791.950919
407.906593	10729.173430
408.287677	10975.862294
408.668700	11128.528597
409.049661	11103.723599
409.430560	11261.539441
409.811399	11225.656508
410.192176	11389.977959
410.572891	11446.801845
410.953545	11920.761047
411.334138	11396.801161
411.714669	11981.222126
412.095139	11289.774944
412.475547	11775.570775
412.855894	11621.422373
413.236180	11922.654001
413.616405	11609.822678
413.996568	11862.971780
414.376670	11821.152888
414.756711	11683.219357
415.136691	11936.013058
415.516609	12078.304667
415.896466	12117.303033
416.276262	12359.684230
416.655997	12761.469233
417.035670	12760.304727
417.415283	13350.207947
417.794834	13384.712124
418.174324	13091.150612
418.553753	12943.336420
418.933121	13351.354809
419.312428	13105.326337
419.691674	12954.260600
420.070859	13313.972133
420.449983	12914.649734
420.829045	13342.399199
421.208047	13026.943956
421.586988	13354.805479
421.965867	13476.975322
422.344686	13385.818658
422.723444	13753.434719
423.102141	12515.347499
423.480777	13431.383127
423.859352	12889.305333
424.237866	13695.927757
424.616319	13326.121314
424.994712	13719.033886
425.373044	13423.355089
425.751314	13799.127738
426.129524	12981.893685
426.507673	13653.667764
426.885762	13280.894602
427.263789	13269.869598
427.641756	13223.823699
428.019662	13100.970780
428.397508	12956.861836
428.775292	12986.687822
429.153016	12776.038168
429.530679	12641.015903
429.908282	12472.583391
430.285824	12112.236673
430.663305	12359.976617
431.040726	11939.735950
431.418086	11651.601241
431.795385	11834.252327
432.172624	11876.338400
432.549802	11442.806731
432.926920	11348.259890
433.303977	11089.444531
433.680974	11031.877075
434.057910	10973.750050
434.434786	10798.219594
434.811601	10551.555936
435.188355	10846.453354
435.565050	10482.025822
435.941683	10252.940668
436.318257	10439.906982
436.694770	10151.999124
437.071222	10187.934989
437.447614	9602.495710
437.823946	9404.879959
438.200218	9264.463660
438.576429	8986.665836
438.952580	8891.017503
439.328670	8687.342285
439.704700	8636.242629
440.080670	8317.492992
440.456580	8312.086355
440.832429	8176.786827
441.208218	7688.586365
441.583947	7631.722149
441.959616	7490.015315
442.335224	7377.055660
442.710773	7237.249340
443.086261	7203.138373
443.461689	6888.638428
443.837057	6749.613488
444.212365	6730.779737
444.587612	6571.670839
444.962800	6327.099260
445.337927	6254.811635
445.712995	5871.663778
446.088002	6058.725873
446.462949	5950.005829
446.837837	5833.237583
447.212664	5680.989695
447.587431	5968.257327
447.962139	6263.958808
448.336786	6460.452903
448.711374	6087.004226
449.085901	5449.119303
449.460369	5275.212099
449.834776	5122.598728
450.209124	5270.475935
450.583412	5106.252786
450.957640	5032.742681
451.331808	4780.894197
451.705917	4527.344323
452.079965	4416.343156
452.453954	4338.051516
452.827883	4230.138057
453.201752	4123.578147
453.575562	4044.858009
453.949311	4030.974671
454.323001	3945.406126
454.696632	3848.646219
455.070202	3858.587374
455.443713	3790.814102
455.817164	3743.502873
456.190556	3694.439843
456.563888	3602.489197
456.937160	3549.201680
457.310373	3420.939603
457.683526	3381.550547
458.056619	3323.418482
458.429653	3263.683329
458.802628	3232.776015
459.175542	3189.631300
459.548398	3183.715506
459.921194	3189.147349
460.293930	3173.706295
460.666607	3185.240455
461.039224	3188.524767
461.411782	3154.829694
461.784280	3089.587081
462.156719	3039.092364
462.529099	2991.483707
462.901419	2937.303906
463.273680	2893.657596
463.645882	2870.115407
464.018024	2849.386183
464.390106	2839.729852
464.762130	2858.976978
465.134094	2897.403173
465.505999	2951.829991
465.877845	2991.294663
466.249631	2979.967191
466.621358	2936.600665
466.993026	2896.389901
467.364634	2855.864065
467.736184	2819.986173
468.107674	2795.947431
468.479105	2779.712395
468.850477	2763.648759
469.221790	2736.623133
469.593043	2716.972715
469.964238	2700.830941
470.335373	2693.949766
470.706449	2700.886393
471.077467	2712.206304
471.448425	2740.862743
471.819324	2760.170362
472.190164	2743.491705
472.560945	2712.092878
472.931667	2679.577436
473.302330	2667.324912
473.672934	2657.338386
474.043479	2654.285967
474.413965	2645.884884
474.784393	2638.212248
475.154761	2640.919348
475.525070	2635.600930
475.895321	2631.535240
476.265513	2628.354272
476.635645	2635.817700
477.005719	2632.175466
477.375734	2633.957514
477.745691	2635.477422
478.115588	2639.119656
478.485427	2648.763383
478.855207	2665.016063
479.224928	2677.530728
479.594591	2685.745288
479.964194	2679.378310
480.333739	2673.258350
480.703226	2674.926972
481.072653	2674.478309
481.442022	2675.889832
481.811333	2676.396468
482.180584	2666.357010
482.549777	2663.579334
482.918912	2655.866369
483.287988	2651.720020
483.657005	2647.019144
484.025964	2644.385141
484.394864	2643.008906
484.763706	2639.588483
485.132489	2635.298461
485.501213	2631.701598
485.869879	2632.941722
486.238487	2626.307563
486.607036	2627.761936
486.975527	2627.179683
487.343959	2624.396966
487.712333	2626.642800
488.080648	2623.063581
488.448905	2625.440485
488.817104	2621.722634
489.185244	2629.652369
489.553326	2639.608648
489.921350	2650.827736
490.289315	2667.511434
490.657222	2669.185097
491.025070	2669.389264
491.392861	2665.275682
491.760593	2657.988695
492.128267	2652.521563
492.495883	2641.211735
492.863440	2636.906589
493.230939	2630.844602
493.598380	2623.673560
493.965763	2616.250461
494.333088	2616.709206
494.700354	2609.520521
495.067563	2613.258537
495.434713	2608.645881
495.801805	2615.133846
496.168839	2612.777106
496.535815	2612.235182
496.902733	2610.737960
497.269593	2608.822321
497.636395	2609.555809
498.003139	2610.927003
498.369825	2610.188474
498.736453	2610.727877
499.103023	2611.363063
499.469535	2608.880294
499.835989	2610.173350
500.202385	2605.555653
500.568723	2609.394492
500.935003	2612.704010
501.301226	2612.819956
501.667390	2616.086624
502.033497	2619.456635
502.399546	2617.009155
502.765537	2614.259206
503.131470	2617.737602
503.497345	2620.590895
503.863163	2614.753239
504.228923	2618.115688
504.594625	2621.021913
504.960269	2620.971502
505.325856	2627.502317
505.691385	2625.500979
506.056856	2628.540794
506.422270	2631.799900
506.787625	2632.482977
507.152924	2635.361476
507.518164	2634.791825
507.883347	2633.912144
508.248472	2639.533030
508.613540	2643.475213
508.978550	2648.934782
509.343503	2648.914618
509.708398	2651.034423
510.073236	2655.899136
510.438016	2658.734785
510.802738	2658.898623
511.167403	2662.808038
511.532010	2665.436999
511.896561	2670.208452
512.261053	2679.307734
512.625488	2675.282373
512.989866	2673.165088
513.354186	2677.210614
513.718449	2679.653053
514.082655	2685.712520
514.446803	2685.974660
514.810894	2691.058664
515.174927	2689.894157
515.538904	2692.896164
515.902822	2699.343800
516.266684	2702.267669
516.630488	2700.326825
516.994235	2703.777495
517.357925	2705.930068
517.721558	2708.962322
518.085133	2711.251006
518.448651	2712.065152
518.812112	2711.555995
519.175516	2717.194526
519.538863	2716.690411
519.902152	2717.844835
520.265385	2720.751060
520.628560	2726.371947
520.991678	2721.857593
521.354739	2726.669375
521.717743	2729.063923
522.080690	2726.750033
522.443580	2732.554922
522.806413	2732.877556
523.169189	2733.260683
523.531908	2734.599110
523.894569	2736.119017
524.257174	2737.439800
524.619722	2739.100860
524.982213	2741.901221
525.344647	2738.937022
525.707025	2737.331415
526.069345	2738.962228
526.431608	2739.131107
526.793815	2743.675707
527.155964	2740.381313
527.518057	2741.916344
527.880093	2743.186715
528.242072	2744.351222
528.603995	2743.534555
528.965860	2741.092116
529.327669	2743.582446
529.689421	2742.549009
530.051117	2743.342991
530.412755	2741.553381
530.774337	2745.379617
531.135862	2743.857189
531.497331	2741.175295
531.858743	2737.442320
532.220098	2743.133783
532.581396	2740.013309
532.942638	2736.948287
533.303824	2741.576067
533.664953	2742.508680
534.026025	2739.443658
534.387040	2744.013464
534.747999	2743.872312
535.108902	2745.016654
535.469748	2739.552043
535.830537	2740.900552
536.191270	2743.766448
536.551947	2743.330388
536.912567	2739.330232
537.273131	2742.163361
537.633638	2735.887124
537.994089	2736.108935
538.354483	2733.845457
538.714821	2739.935171
539.075103	2737.422156
539.435328	2737.049110
539.795497	2732.645662
540.155609	2731.874366
540.515665	2734.052144
540.875665	2728.378326
541.235609	2729.774725
541.595496	2729.568038
541.955328	2730.692215
542.315102	2726.928994
542.674821	2720.869527
543.034483	2720.531770
543.394090	2721.108982
543.753640	2714.492467
544.113134	2721.159393
544.472571	2711.891232
544.831953	2716.771069
545.191278	2709.317723
545.550548	2704.672300
545.909761	2706.182125
546.268918	2705.698175
546.628019	2702.567618
546.987064	2697.861701
547.346053	2694.690815
547.704986	2694.385825
548.063863	2690.214271
548.422684	2688.570854
548.781449	2681.533404
549.140158	2682.345029
549.498811	2678.145748
549.857408	2670.324398
550.215949	2672.600479
550.574434	2664.000271
550.932864	2663.632266
551.291237	2661.630928
551.649555	2660.111020
552.007817	2656.418375
552.366022	2654.401914
552.724173	2650.442087
553.082267	2650.885709
553.440305	2648.677683
553.798288	2639.999337
554.156215	2636.588997
554.514086	2635.411887
554.871902	2632.195631
555.229661	2629.468367
555.587365	2624.273458
555.945014	2626.239508
556.302606	2620.185082
556.660143	2619.159207
557.017625	2616.883126
557.375050	2610.218721
557.732421	2609.359204
558.089735	2607.592280
558.446994	2603.292175
558.804197	2605.326281
559.161345	2599.511310
559.518437	2593.101483
559.875474	2590.447315
560.232455	2591.183324
560.589381	2590.790114
560.946251	2588.932449
561.303065	2585.801892
561.659825	2583.432550
562.016528	2579.886098
562.373177	2577.564647
562.729770	2574.638257
563.086307	2573.012485
563.442789	2572.231106
563.799216	2569.508883
564.155587	2566.519479
564.511904	2569.014850
564.868164	2564.757595
565.224370	2563.996381
565.580520	2561.808520
565.936615	2561.516133
566.292654	2559.383725
566.648638	2559.771894
567.004567	2559.131668
567.360441	2556.326266
567.716260	2553.780483
568.072023	2553.702345
568.427732	2548.305790
568.783385	2549.666901
569.138982	2546.758156
569.494525	2549.767724
569.850013	2546.329657
570.205445	2546.180943
570.560823	2546.289328
570.916145	2543.688093
571.271412	2544.577857
571.626625	2541.389327
571.981782	2540.701209
572.336884	2541.159954
572.691931	2539.337577
573.046923	2541.706919
573.401860	2538.752803
573.756743	2540.192053
574.111570	2537.792463
574.466342	2535.438245
574.821059	2534.359438
575.175722	2534.603934
575.530330	2535.879346
575.884882	2531.990095
576.239380	2530.543284
576.593823	2532.353058
576.948211	2531.861546
577.302544	2532.302647
577.656823	2531.027235
578.011047	2529.870290
578.365216	2530.921371
578.719330	2529.474560
579.073389	2526.868283
579.427394	2531.753161
579.781344	2526.356606
580.135239	2527.594209
580.489080	2526.832995
580.842866	2524.093128
581.196597	2529.179652
581.550273	2523.962058
581.903895	2524.017511
582.257463	2524.748478
582.610975	2525.320649
582.964434	2523.089938
583.317837	2523.241173
583.671186	2522.018693
584.024481	2524.456091
584.377721	2520.725637
584.730906	2521.128929
585.084037	2524.529188
585.437113	2518.802437
585.790135	2517.365708
586.143103	2519.099865
586.496016	2518.016017
586.848874	2514.787158
587.201679	2515.802950
587.554428	2513.521828
587.907124	2514.734226
588.259765	2510.822290
588.612352	2516.312107
588.964884	2512.584174
589.317362	2515.155162
589.669786	2517.274967
590.022155	2513.065604
590.374470	2513.410923
590.726731	2514.507374
591.078937	2512.667353
591.431090	2510.524862
591.783188	2509.980418
592.135232	2511.553258
592.487222	2510.280366
592.839157	2512.437980
593.191038	2510.870181
593.542866	2509.619975
593.894639	2509.904800
594.246358	2509.889677
594.598022	2507.976559
594.949633	2507.348935
595.301190	2507.447238
595.652692	2506.862464
596.004141	2507.968997
596.355535	2505.087978
596.706876	2504.548574
597.058162	2503.696619
597.409395	2501.728049
597.760573	2506.111332
598.111698	2500.951711
598.462768	2502.680827
598.813785	2500.523213
599.164748	2503.585714
599.515657	2501.274345
599.866511	2502.373317
600.217312	2501.423059
600.568060	2499.401556
600.918753	2504.286434
601.269392	2501.481032
601.619978	2501.559170
601.970510	2499.895589
602.320988	2499.968686
602.671412	2499.257883
603.021783	2497.470794
603.372100	2498.451299
603.722363	2499.237719
604.072572	2499.494818
604.422728	2502.131341
604.772830	2500.092194
605.122878	2493.211019
605.472872	2497.609426
605.822813	2495.837461
606.172701	2499.368789
606.522534	2495.953407
606.872314	2499.623367
607.222041	2497.700167
607.571714	2500.003974
607.921333	2495.724035
608.270899	2499.850219
608.620411	2497.662358
608.969870	2497.198572
609.319276	2494.982985
609.668627	2496.349138
610.017926	2496.762512
610.367171	2497.717811
610.716362	2494.710763
611.065500	2497.438027
611.414585	2499.504900
611.763616	2495.983654
612.112594	2498.410970
612.461518	2497.511124
612.810389	2496.301247
613.159207	2493.329487
613.507971	2495.517347
613.856682	2497.112872
614.205340	2496.820486
614.553945	2501.269304
614.902496	2495.376195
615.250994	2498.801659
615.599439	2496.311329
615.947830	2499.204951
616.296169	2497.097749
616.644454	2498.388284
616.992686	2497.248984
617.340864	2495.177069
617.688990	2497.480877
618.037063	2497.314519
618.385082	2500.805518
618.733048	2499.000785
619.080961	2499.930877
619.428821	2498.191679
619.776628	2499.096567
620.124382	2498.358038
620.472083	2499.343583
620.819731	2495.527430
621.167326	2498.332832
621.514868	2494.897285
621.862357	2492.631287
622.209793	2493.011894
622.557176	2493.558859
622.904506	2491.050885
623.251783	2488.391676
623.599007	2489.863693
623.946179	2489.236070
624.293297	2486.433188
624.640363	2488.772283
624.987376	2489.382263
625.334336	2487.557365
625.681243	2488.994094
626.028097	2485.094762
626.374899	2486.365132
626.721647	2486.871768
627.068343	2483.068218
627.414987	2485.475369
627.761577	2485.636686
628.108115	2485.714824
628.454600	2484.814978
628.801032	2481.457569
629.147412	2483.887405
629.493739	2482.422950
629.840014	2484.348671
630.186236	2479.730974
630.532405	2482.095275
630.878521	2483.572333
631.224585	2480.943372
631.570597	2480.560244
631.916556	2480.230048
632.262462	2479.574698
632.608316	2482.869092
632.954117	2477.651498
633.299866	2481.558392
633.645562	2480.638382
633.991206	2478.873978
634.336797	2477.147383
634.682336	2476.260140
635.027823	2474.715026
635.373257	2476.774337
635.718639	2474.929275
636.063968	2474.102526
636.409245	2473.018678
636.754470	2474.160499
637.099642	2473.207721
637.444762	2472.098667
637.789829	2472.683441
638.134845	2473.270735
638.479808	2472.136476
638.824719	2469.946094
639.169577	2473.863071
639.514383	2467.569190
639.859137	2470.979531
640.203839	2467.670013
640.548489	2469.134469
640.893086	2466.850826
641.237632	2467.546505
641.582125	2466.815538
641.926566	2462.104580
642.270955	2465.419138
642.615292	2469.136989
642.959576	2466.858388
643.303809	2465.855198
643.647990	2469.144551
643.992118	2468.758903
644.336195	2464.920064
644.680219	2463.926957
645.024192	2468.842082
645.368112	2468.375775
645.711981	2468.206896
646.055797	2468.867288
646.399562	2469.363841
646.743274	2469.275621
647.086935	2471.032463
647.430544	2471.970118
647.774101	2473.661425
648.117606	2471.786116
648.461059	2472.086064
648.804460	2471.987762
649.147810	2470.361990
649.491108	2466.760085
649.834354	2469.252936
650.177548	2466.724797
650.520690	2467.841413
650.863781	2465.812348
651.206820	2464.264714
651.549807	2464.050465
651.892742	2464.748665
652.235626	2463.102728
652.578458	2462.459981
652.921238	2461.537450
653.263967	2464.554580
653.606644	2461.660958
653.949269	2461.272789
654.291843	2461.746658
654.634365	2460.317491
654.976836	2459.836060
655.319255	2459.780608
655.661622	2459.919239
656.003938	2459.372274
656.346203	2459.437809
656.688416	2462.454940
657.030577	2456.002263
657.372687	2461.058540
657.714746	2457.620473
658.056753	2458.553087
658.398708	2456.627366
658.740612	2457.244907
659.082465	2454.769701
659.424266	2456.730710
659.766016	2452.705348
660.107715	2456.743313
660.449362	2459.095011
660.790958	2457.149125
661.132503	2460.987964
661.473996	2457.111317
661.815438	2459.387398
662.156829	2457.076029
662.498168	2459.301698
662.839456	2458.817747
663.180693	2458.495113
663.521879	2457.658282
663.863013	2457.355813
664.204097	2457.557459
664.545129	2459.092490
664.886110	2457.373457
665.227040	2459.251287
665.567918	2459.357151
665.908746	2456.957562
666.249522	2458.099383
666.590248	2458.472428
666.930922	2459.707511
667.271545	2456.244238
667.612118	2460.650207
667.952639	2458.732048
668.293109	2457.630556
668.633528	2459.044599
668.973896	2459.652058
669.314213	2457.048302
669.654480	2460.461163
669.994695	2458.921091
670.334859	2457.164249
670.674973	2451.576130
671.015035	2459.221040
671.355047	2456.518981
671.695008	2457.975875
672.034918	2456.506378
672.374777	2458.109465
672.714585	2456.735751
673.054342	2458.522840
673.394049	2456.355144
673.733705	2458.613581
674.073310	2457.176852
674.412864	2456.334979
674.752368	2453.700976
675.091820	2458.893365
675.431223	2454.187447
675.770574	2454.124433
676.109875	2449.252158
676.449125	2453.426233
676.788324	2448.218721
677.127473	2454.416820
677.466571	2446.199739
677.805619	2453.706017
678.144616	2450.038578
678.483562	2452.670060
678.822458	2450.812395
679.161303	2453.133846
679.500098	2451.187961
679.838842	2451.631582
680.177535	2451.114864
680.516179	2452.309618
680.854771	2450.782148
681.193314	2454.545369
681.531805	2455.934207
681.870247	2456.438323
682.208638	2459.888993
682.546978	2458.275823
682.885268	2457.975875
683.223508	2457.381018
683.561697	2455.568724
683.899836	2457.305401
684.237925	2458.623663
684.575963	2457.534774
684.913951	2454.762139
685.251889	2457.635597
685.589776	2455.533436
685.927614	2455.518312
686.265401	2455.505709
686.603137	2455.117540
686.940824	2455.656944
687.278460	2457.509568
687.616046	2455.331789
687.953582	2458.805144
688.291068	2460.161215
688.628504	2458.926132
688.965889	2458.172480
689.303224	2457.678447
689.640510	2458.353961
689.977745	2455.230966
690.314930	2456.150977
690.652065	2457.202058
690.989150	2453.312807
691.326185	2455.379680
691.663170	2449.201746
692.000105	2447.717127
692.336990	2447.664194
692.673825	2445.680500
693.010610	2448.599328
693.347345	2444.052208
693.684030	2441.846703
694.020665	2443.832917
694.357251	2439.220262
694.693786	2445.965326
695.030272	2441.539192
695.366707	2439.835282
695.703093	2440.306630
696.039429	2439.127000
696.375716	2441.266970
696.711952	2439.794953
697.048139	2440.253698
697.384276	2440.853596
697.720363	2440.367124
698.056400	2439.714295
698.392388	2440.495674
698.728326	2440.291507
699.064214	2440.452824
699.400053	2440.593976
699.735842	2439.981476
700.071581	2437.753286
700.407270	2436.349325
700.742910	2437.128183
701.078501	2436.961825
701.414042	2436.427462
701.749533	2437.622216
702.084974	2435.754468
702.420366	2434.504262
702.755709	2432.336566
703.091002	2434.763882
703.426246	2438.353183
703.761440	2433.440579
704.096584	2434.259766
704.431679	2435.061310
704.766725	2434.947884
705.101721	2430.211720
705.436668	2432.659200
705.771565	2434.685744
706.106413	2435.971238
706.441212	2434.879828
706.775961	2432.666762
707.110661	2437.889397
707.445311	2436.987031
707.779913	2433.279262
708.114465	2435.482246
708.448967	2434.201793
708.783421	2436.266146
709.117825	2437.730601
709.452180	2440.490633
709.786485	2437.087854
710.120742	2441.730756
710.454949	2440.530962
710.789107	2438.761517
711.123216	2438.738832
711.457275	2440.699840
711.791286	2436.888728
712.125247	2441.264450
712.459159	2443.074224
712.793023	2445.385593
713.126837	2441.219079
713.460602	2446.172013
713.794318	2439.774789
714.127985	2441.362752
714.461602	2437.249171
714.795171	2438.436362
715.128691	2438.559871
715.462162	2437.874274
715.795584	2434.950404
716.128957	2435.686413
716.462281	2435.023501
716.795556	2432.288675
717.128782	2433.420414
717.461960	2432.903696
717.795088	2433.329673
718.128167	2431.867739
718.461198	2430.534354
718.794180	2432.500404
719.127113	2428.049065
719.459997	2432.215578
719.792833	2429.185845
720.125619	2430.831782
720.458357	2430.486463
720.791046	2428.336411
721.123686	2428.374219
721.456278	2427.534867
721.788821	2428.938828
722.121315	2429.087542
722.453761	2426.942532
722.786158	2428.918664
723.118506	2430.499066
723.450805	2430.647780
723.783056	2427.479414
724.115259	2425.168045
724.447412	2427.066040
724.779518	2427.716349
725.111574	2426.360278
725.443582	2425.979671
725.775542	2432.225661
726.107453	2429.148036
726.439315	2429.889086
726.771129	2433.478387
727.102895	2430.700712
727.434612	2432.301278
727.766281	2429.584096
728.097901	2430.216761
728.429473	2429.914292
728.760996	2429.390012
729.092471	2426.052768
729.423897	2434.380754
729.755276	2432.147523
730.086606	2433.990065
730.417887	2430.431010
730.749120	2435.144489
731.080305	2434.123655
731.411442	2435.625919
731.742530	2433.564087
732.073570	2434.035435
732.404562	2436.926537
732.735506	2436.503080
733.066401	2432.858326
733.397249	2437.377720
733.728048	2434.506783
734.058798	2430.801535
734.389501	2433.299427
734.720156	2431.472008
735.050762	2429.117789
735.381320	2429.100145
735.711831	2424.963879
736.042293	2426.950093
736.372707	2424.638724
736.703073	2427.295412
737.033391	2426.403128
737.363661	2428.275917
737.693883	2425.331883
738.024056	2431.073757
738.354182	2428.724579
738.684260	2430.932605
739.014290	2428.588468
739.344272	2430.438572
739.674207	2431.403953
740.004093	2431.948397
740.333931	2429.601740
740.663722	2427.837336
740.993464	2433.359920
741.323159	2431.706422
741.652806	2428.510330
741.982405	2430.788932
742.311956	2429.473191
742.641460	2428.530495
742.970915	2428.999322
743.300323	2427.305495
743.629683	2426.317428
743.958996	2425.241142
744.288260	2423.804413
744.617477	2425.362130
744.946647	2424.298446
745.275768	2422.670154
745.604842	2421.800555
745.933869	2423.378436
746.262847	2417.737385
746.591778	2422.718045
746.920662	2421.339289
747.249498	2424.500093
747.578286	2423.968251
747.907027	2421.777869
748.235720	2427.920515
748.564365	2425.543611
748.892963	2424.479928
749.221514	2425.324321
749.550017	2422.279464
749.878473	2425.495720
750.206881	2426.403128
750.535242	2425.072263
750.863555	2425.631832
751.191821	2422.458425
751.520039	2421.903898
751.848210	2424.590833
752.176334	2422.859197
752.504411	2425.495720
752.832440	2422.660071
753.160421	2424.444640
753.488356	2420.946079
753.816243	2424.734506
754.144082	2423.254927
754.471875	2421.656882
754.799620	2422.990267
755.127318	2424.114444
755.454969	2423.295257
755.782572	2424.237952
756.110129	2421.850966
756.437638	2421.437592
756.765100	2420.441964
757.092515	2423.426327
757.419882	2423.474218
757.747203	2420.535225
758.074477	2424.109403
758.401703	2422.040009
758.728882	2422.670154
759.056014	2421.576223
759.383099	2422.019845
759.710138	2422.947417
760.037129	2424.336255
760.364073	2424.525298
760.690970	2425.105031
761.017820	2423.391039
761.344623	2425.510844
761.671379	2422.914650
761.998088	2423.806934
762.324751	2430.448654
762.651366	2436.177925
762.977935	2446.953392
763.304456	2444.763010
763.630931	2454.333641
763.957359	2449.355502
764.283740	2448.314503
764.610074	2444.420212
764.936362	2437.556681
765.262602	2433.165836
765.588796	2430.892276
765.914943	2427.721390
766.241044	2425.039496
766.567097	2422.067736
766.893104	2422.067736
767.219064	2422.418096
767.544978	2420.923394
767.870845	2419.279978
768.196665	2418.082704
768.522438	2417.921387
768.848165	2416.333423
769.173846	2416.131777
769.499479	2417.805440
769.825066	2419.360636
770.150607	2416.524987
770.476101	2416.066242
770.801548	2416.978691
771.126949	2418.042374
771.452303	2414.816036
771.777611	2412.335788
772.102872	2414.276633
772.428087	2415.453742
772.753256	2415.330234
773.078378	2413.654050
773.403453	2414.067425
773.728482	2414.695048
774.053465	2412.799574
774.378401	2411.854358
774.703291	2411.748494
775.028135	2411.672877
775.352932	2411.688000
775.677683	2414.069945
776.002388	2414.926941
776.327046	2411.652712
776.651658	2410.921745
776.976224	2411.907290
777.300743	2410.689852
777.625216	2410.382341
777.949643	2412.033319
778.274024	2412.802095
778.598359	2408.577608
778.922647	2407.261867
779.246889	2409.878226
779.571086	2407.702968
779.895236	2411.405695
780.219339	2410.904101
780.543397	2413.306210
780.867409	2410.704975
781.191374	2410.430232
781.515294	2412.918042
781.839167	2411.256981
782.162995	2414.115316
782.486776	2411.446025
782.810511	2413.152455
783.134201	2413.938875
783.457844	2411.773700
783.781441	2412.915521
784.104993	2412.151786
784.428498	2406.939233
784.751958	2412.993659
785.075372	2414.712692
785.398739	2410.972156
785.722061	2411.743453
786.045337	2410.087434
786.368568	2412.166910
786.691752	2409.951323
787.014891	2413.326375
787.337983	2412.325706
787.661030	2414.291756
787.984031	2415.504153
788.306987	2415.408372
788.629897	2417.339133
788.952760	2418.188568
789.275579	2416.683783
789.598351	2415.347878
789.921078	2415.897363
790.243759	2414.455593
790.566395	2411.017527
790.888984	2413.170099
791.211529	2411.599780
791.534027	2409.086765
791.856480	2410.324368
792.178888	2412.035840
792.501249	2412.232445
792.823566	2409.232958
793.145836	2410.652043
793.468062	2409.772362
793.790241	2410.480644
794.112375	2411.498957
794.434464	2410.006775
794.756507	2410.291600
795.078505	2412.056004
795.400457	2410.420150
795.722364	2408.070972
796.044226	2409.053997
796.366042	2411.808988
796.687812	2409.424522
797.009538	2413.727147
797.331218	2412.318144
797.652852	2413.462486
797.974442	2413.966602
798.295986	2412.008113
798.617484	2408.960736
798.938938	2412.718916
799.260346	2412.547517
799.581709	2411.713206
799.903026	2414.780748
800.224299	2409.452248
800.545526	2411.289749
800.866708	2408.383524
801.187845	2409.782444
801.508936	2409.734553
801.829983	2409.613565
802.150984	2410.526014
802.471940	2409.918555
802.792851	2411.458628
803.113717	2410.087434
803.434538	2408.403688
803.755314	2408.917886
804.076045	2407.675242
804.396731	2409.283370
804.717372	2408.496950
805.037967	2409.810170
805.358518	2410.662125
805.679024	2408.557443
805.999485	2410.707496
806.319901	2410.342012
806.640272	2410.523493
806.960598	2410.100037
807.280879	2408.335633
807.601115	2412.812177
807.921306	2412.499626
808.241453	2409.366549
808.561554	2410.752866
808.881611	2411.244378
809.201623	2411.262023
809.521590	2413.454924
809.841513	2407.886970
810.161390	2409.369069
810.481223	2409.603483
810.801011	2406.767834
811.120755	2409.845458
811.440453	2409.225396
811.760107	2407.955026
812.079716	2405.651218
812.399281	2405.439490
812.718801	2410.281518
813.038276	2402.492935
813.357707	2407.587021
813.677093	2410.291600
813.996434	2409.114491
814.315731	2407.771023
814.634983	2408.260015
814.954191	2405.865467
815.273354	2411.907290
815.592473	2410.218504
815.911547	2410.084913
816.230577	2410.886457
816.549562	2412.262692
816.868502	2408.749007
817.187399	2408.585170
817.506250	2411.869482
817.825058	2412.761766
818.143821	2411.448545
818.462539	2415.216808
818.781213	2416.353588
819.099843	2416.840059
819.418429	2417.994483
819.736970	2424.116965
820.055466	2422.755853
820.373919	2426.750968
820.692327	2433.813624
821.010691	2448.758125
821.329011	2473.580766
821.647286	2519.084742
821.965517	2558.730896
822.283704	2584.188723
822.601847	2593.192224
822.919945	2572.979717
823.237999	2552.227808
823.556010	2526.744775
823.873976	2510.257681
824.191897	2491.986019
824.509775	2478.044708
824.827609	2464.594910
825.145398	2455.299022
825.463144	2456.297170
825.780845	2455.553600
826.098502	2461.759261
826.416116	2472.227217
826.733685	2482.712817
827.051210	2482.775831
827.368692	2481.966726
827.686129	2465.066257
828.003522	2455.208281
828.320872	2443.147321
828.638177	2435.890580
828.955439	2429.110228
829.272656	2425.425144
829.589830	2420.910791
829.906960	2416.928279
830.224046	2415.403330
830.541088	2419.804258
830.858086	2414.647157
831.175041	2413.094482
831.491952	2414.937024
831.808819	2414.904256
832.125642	2415.557086
832.442421	2417.883578
832.759157	2425.306677
833.075849	2431.552667
833.392497	2436.132555
833.709101	2446.847528
834.025662	2442.943154
834.342179	2438.753955
834.658653	2432.545774
834.975083	2427.822213
835.291469	2432.565939
835.607811	2420.613363
835.924110	2417.318969
836.240366	2417.684453
836.556578	2412.083731
836.872746	2414.195974
837.188871	2410.039543
837.504952	2408.504511
837.820990	2409.744635
838.136984	2408.209604
838.452935	2407.017371
838.768842	2406.883780
839.084706	2411.428381
839.400526	2415.032806
839.716303	2416.015831
840.032037	2420.010945
840.347727	2419.199319
840.663373	2417.908784
840.978977	2415.809143
841.294537	2413.613721
841.610054	2409.243040
841.925527	2410.430232
842.240957	2405.520148
842.556344	2408.945612
842.871687	2407.899573
843.186987	2406.621640
843.502244	2403.027298
843.817458	2404.017884
844.132629	2402.324057
844.447756	2403.239026
844.762840	2397.078736
845.077881	2399.896741
845.392879	2400.577297
845.707833	2401.038562
846.022745	2398.422204
846.337613	2403.077709
846.652438	2400.494118
846.967221	2402.621485
847.281960	2401.633419
847.596656	2400.751217
847.911309	2401.401526
848.225919	2402.563512
848.540485	2403.223903
848.855009	2401.837585
849.169490	2401.880435
849.483928	2400.360527
849.798323	2402.281207
850.112675	2404.839593
850.426984	2402.220713
850.741251	2400.975548
851.055474	2400.897410
851.369654	2402.467730
851.683792	2399.783315
851.997887	2402.823131
852.311938	2399.740465
852.625947	2402.681979
852.939914	2401.083933
853.253837	2403.808677
853.567718	2398.157543
853.881555	2400.632750
854.195350	2399.264076
854.509103	2404.937895
854.822812	2398.097049
855.136479	2398.210475
855.450103	2401.497307
855.763685	2401.487225
856.077224	2399.561504
856.390720	2401.509910
856.704173	2399.584190
857.017584	2402.618964
857.330953	2401.913203
857.644278	2400.824313
857.957561	2404.832031
858.270802	2403.778430
858.584000	2404.189284
858.897155	2403.969993
859.210268	2400.506721
859.523339	2402.613923
859.836367	2401.162071
860.149352	2402.024108
860.462295	2404.350601
860.775195	2397.257697
861.088054	2397.474467
861.400869	2400.405898
861.713642	2396.151164
862.026373	2401.192318
862.339062	2399.475805
862.651708	2402.495456
862.964312	2400.002605
863.276873	2398.376833
863.589392	2400.705846
863.901869	2401.971176
864.214303	2397.744168
864.526696	2405.472257
864.839045	2404.353121
865.151353	2403.334808
865.463619	2399.964797
865.775842	2399.347255
866.088023	2404.504356
866.400162	2400.559653
866.712258	2403.733059
867.024313	2404.811866
867.336325	2400.640311
867.648296	2402.994530
867.960224	2401.381361
868.272110	2401.744324
868.583954	2401.265414
868.895755	2403.811197
869.207515	2402.495456
869.519233	2399.324570
869.830909	2403.914541
870.142542	2403.904458
870.454134	2402.276166
870.765684	2400.090826
871.077191	2403.070148
871.388657	2402.888666
871.700081	2401.774571
872.011463	2401.036042
872.322803	2406.437638
872.634101	2401.877915
872.945357	2400.683161
873.256571	2400.486556
873.567744	2404.267422
873.878874	2403.758265
874.189963	2402.860940
874.501010	2404.169119
874.812015	2404.642988
875.122979	2405.542833
875.433900	2405.149623
875.744780	2406.969480
876.055618	2402.704664
876.366415	2405.880591
876.677169	2403.453275
876.987882	2404.839592
877.298554	2402.364386
877.609183	2405.000909
877.919771	2403.236506
878.230317	2403.347411
878.540822	2409.237999
878.851285	2408.252454
879.161707	2410.578946
879.472087	2413.449883
879.782425	2417.752508
880.092722	2430.564601
880.402977	2443.825356
880.713191	2461.403859
881.023363	2479.511684
881.333494	2491.633138
881.643583	2493.352172
881.953631	2494.035248
882.263637	2484.212560
882.573602	2481.127374
882.883526	2470.477936
883.193408	2464.952832
883.503248	2459.127778
883.813048	2451.853393
884.122806	2445.693103
884.432522	2440.593976
884.742197	2433.193562
885.051831	2432.240784
885.361424	2426.985381
885.670975	2421.256110
885.980485	2416.651016
886.289954	2417.477765
886.599382	2411.685479
886.908768	2410.087434
887.218113	2408.862433
887.527417	2409.338822
887.836680	2407.455951
888.145901	2409.144738
888.455082	2407.576939
888.764221	2407.246743
889.073319	2405.840262
889.382376	2406.979562
889.691392	2405.058883
890.000366	2405.343708
890.309300	2403.072668
890.618193	2406.452762
890.927044	2404.542164
891.235855	2405.444531
891.544625	2406.346898
891.853353	2403.004612
892.162041	2404.673234
892.470687	2408.401168
892.779293	2407.844120
893.087858	2409.938720
893.396381	2409.921076
893.704864	2413.986766
894.013306	2416.467014
894.321707	2424.348858
894.630068	2429.624425
894.938387	2428.792635
895.246665	2429.037131
895.554903	2426.456060
895.863100	2423.769125
896.171256	2421.056984
896.479371	2419.844587
896.787446	2415.748649
897.095480	2414.102713
897.403473	2413.666653
897.711425	2410.770510
898.019336	2412.698751
898.327207	2408.058369
898.635038	2411.067938
898.942827	2407.735735
899.250576	2406.719943
899.558284	2405.416805
899.865952	2405.081568
900.173579	2404.088461
900.481165	2404.491753
900.788711	2405.537792
901.096216	2404.655590
901.403681	2405.074006
901.711105	2401.736762
902.018489	2401.777092
902.325832	2406.558626
902.633135	2403.513769
902.940397	2406.621640
903.247619	2409.598442
903.554800	2417.606315
903.861941	2426.294743
904.169041	2435.842689
904.476101	2436.881166
904.783121	2433.332194
905.090100	2429.712646
905.397039	2427.673499
905.703938	2426.602254
906.010796	2419.766449
906.317614	2415.574730
906.624391	2415.335275
906.931129	2413.326375
907.237826	2408.791857
907.544483	2406.125087
907.851099	2407.319840
908.157675	2407.773544
908.464211	2403.541495
908.770707	2397.633263
909.077163	2403.034859
909.383578	2396.536812
909.689954	2395.515978
909.996289	2395.389950
910.302584	2401.451937
910.608839	2398.341545
910.915054	2396.877090
911.221229	2399.501011
911.527363	2400.088305
911.833458	2400.410939
912.139513	2398.885990
912.445527	2400.617626
912.751502	2401.378840
913.057436	2400.284910
913.363331	2403.591907
913.669186	2405.641136
913.975000	2403.675086
914.280775	2406.369583
914.586510	2409.714388
914.892205	2411.904770
915.197859	2418.274267
915.503475	2426.143509
915.809050	2428.464960
916.114585	2433.952256
916.420081	2433.395208
916.725536	2434.577359
917.030952	2434.685744
917.336328	2429.611823
917.641665	2430.350352
917.946961	2424.361461
918.252218	2423.108734
918.557435	2420.504978
918.862612	2418.654875
919.167750	2414.354770
919.472848	2416.850142
919.777906	2413.550706
920.082925	2410.694893
920.387904	2406.977042
920.692843	2408.333112
920.997743	2404.015364
921.302603	2403.783471
921.607423	2402.772719
921.912204	2402.666855
922.216946	2404.176681
922.521647	2401.938408
922.826310	2401.091495
923.130932	2399.178377
923.435516	2401.633419
923.740059	2399.138048
924.044564	2401.956053
924.349028	2400.877246
924.653454	2394.926163
924.957840	2397.038407
925.262186	2395.147974
925.566493	2398.787687
925.870761	2395.473129
926.174989	2398.984292
926.479178	2398.286093
926.783328	2397.078736
927.087438	2398.906154
927.391509	2396.786349
927.695541	2396.650238
927.999533	2395.654610
928.303486	2397.169477
928.607400	2398.200393
928.911275	2394.689229
929.215110	2395.997409
929.518906	2396.199055
929.822663	2396.340207
930.126381	2394.747203
930.430060	2397.166956
930.733699	2395.369785
931.037299	2396.574621
931.340861	2398.775084
931.644383	2396.531771
931.947866	2396.768705
932.251309	2396.312481
932.554714	2395.548746
932.858080	2397.219888
933.161407	2397.534961
933.464694	2395.679816
933.767943	2396.778787
934.071153	2396.199055
934.374323	2395.768036
934.677455	2397.466905
934.980548	2396.171328
935.283602	2398.316339
935.586617	2397.061092
935.889593	2397.328273
936.192530	2393.751575
936.495428	2396.007491
936.798287	2397.310629
937.101108	2396.473798
937.403890	2396.178890
937.706632	2398.109652
938.009336	2397.159395
938.312002	2396.430948
938.614628	2398.412121
938.917216	2397.681154
939.219765	2401.121742
939.522275	2401.250291
939.824747	2402.631567
940.127179	2395.732748
940.429573	2393.224774
940.731929	2396.529250
941.034246	2392.463560
941.336524	2396.274672
941.638763	2400.962945
941.940964	2397.963459
942.243126	2397.852553
942.545250	2399.480846
942.847335	2398.855743
943.149381	2400.027811
943.451389	2399.012019
943.753359	2397.149312
944.055290	2394.049003
944.357182	2395.074877
944.659036	2397.860115
944.960851	2395.546225
945.262628	2397.366082
945.564367	2397.363561
945.866067	2396.330125
946.167729	2397.038407
946.469352	2397.224930
946.770937	2397.406411
947.072484	2400.179046
947.373992	2396.723335
947.675462	2395.720145
947.976893	2395.561349
948.278286	2398.689385
948.579641	2397.890362
948.880958	2398.152502
949.182236	2394.255690
949.483476	2398.278531
949.784678	2398.654097
950.085841	2397.819786
950.386967	2396.446071
950.688054	2395.485732
950.989103	2397.018242
951.290114	2398.661658
951.591087	2397.476987
951.892021	2394.772408
952.192917	2398.891031
952.493776	2397.711401
952.794596	2399.130486
953.095378	2397.620660
953.396122	2400.902451
953.696828	2395.455485
953.997496	2397.298026
954.298126	2394.283416
954.598718	2398.449930
954.899272	2395.490773
955.199788	2397.353479
955.500266	2397.688716
955.800706	2395.538664
956.101108	2392.914743
956.401472	2395.442882
956.701798	2392.289640
957.002087	2391.964486
957.302337	2396.975392
957.602550	2395.828530
957.902724	2396.335166
958.202861	2394.694270
958.502960	2395.962121
958.803022	2392.902140
959.103045	2395.180742
959.403031	2395.881462
959.702979	2396.045300
960.002889	2392.108158
960.302762	2395.510937
960.602596	2393.983468
960.902393	2396.685526
961.202153	2392.032541
961.501875	2391.626728
961.801559	2394.028838
962.101205	2391.911553
962.400814	2394.913561
962.700385	2392.574465
962.999918	2393.683519
963.299414	2394.283416
963.598873	2394.318704
963.898293	2392.113200
964.197677	2391.215874
964.497022	2391.044475
964.796331	2391.863663
965.095601	2392.156049
965.394835	2393.978427
965.694030	2392.992881
965.993189	2393.428941
966.292309	2391.556152
966.591393	2392.755947
966.890439	2393.799466
967.189447	2392.758467
967.488419	2393.479352
967.787353	2394.054044
968.086249	2393.184445
968.385108	2391.992212
968.683930	2394.744682
968.982714	2394.875752
969.281462	2395.266441
969.580172	2392.231667
969.878844	2393.161760
970.177480	2390.187479
970.476078	2396.199055
970.774639	2392.483724
971.073162	2392.100597
971.371649	2388.959958
971.670098	2389.131357
971.968510	2390.308467
972.266885	2389.607746
972.565223	2392.534136
972.863524	2392.745864
973.161788	2393.282747
973.460014	2390.351316
973.758204	2392.559342
974.056356	2391.702346
974.354471	2395.664692
974.652550	2393.713766
974.950591	2393.131513
975.248595	2394.669065
975.546563	2392.574465
975.844493	2392.887017
976.142386	2395.281565
976.440243	2392.728220
976.738062	2394.575803
977.035845	2393.928015
977.333590	2394.454816
977.631299	2393.587737
977.928971	2390.978940
978.226606	2394.790052
978.524204	2394.359034
978.821765	2391.848539
979.119290	2394.558159
979.416777	2394.091853
979.714228	2394.038920
980.011642	2393.202089
980.309020	2395.274003
980.606360	2391.863662
980.903664	2394.043962
981.200931	2394.875752
981.498162	2391.914074
981.795356	2396.753582
982.092513	2397.653428
982.389633	2394.540515
982.686717	2394.948849
982.983764	2396.405742
983.280775	2399.775753
983.577749	2395.599158
983.874686	2397.696278
984.171587	2398.520506
984.468451	2395.016904
984.765279	2395.271483
985.062070	2396.806514
985.358824	2395.589075
985.655543	2395.420197
985.952224	2395.586555
986.248869	2391.848539
986.545478	2390.384084
986.842050	2390.426934
987.138586	2389.902654
987.435086	2390.852911
987.731549	2391.578837
988.027975	2392.597150
988.324366	2393.708725
988.620719	2392.032541
988.917037	2393.136554
989.213318	2392.203940
989.509563	2390.941131
989.805772	2391.243601
990.101944	2392.844167
990.398080	2392.224105
990.694180	2392.067829
990.990244	2393.013046
991.286271	2390.494989
991.582262	2391.694784
991.878217	2391.656975
992.174136	2391.772922
992.470019	2392.718138
992.765865	2393.076060
993.061676	2391.004146
993.357450	2393.139074
993.653188	2388.478528
993.948890	2394.517830
994.244556	2392.831564
994.540186	2391.656975
994.835780	2390.668909
995.131337	2393.812068
995.426859	2394.190155
995.722345	2395.730228
996.017795	2395.039589
996.313208	2397.192162
996.608586	2393.393653
996.903928	2395.498334
997.199234	2395.130330
997.494504	2394.928684
997.789738	2393.645710
998.084936	2393.585217
998.380099	2396.251987
998.675225	2396.224261
998.970316	2392.355175
999.265371	2394.071688
999.560390	2394.535474
999.855373	2395.216030
1000.150320	2391.886348
1000.445232	2393.076060
1000.740108	2392.461039
1001.034948	2392.277037
1001.329752	2391.591440
1001.624521	2390.477345
1001.919254	2388.632283
1002.213951	2387.152704
1002.508613	2390.139588
1002.803239	2388.380225
1003.097829	2387.296377
1003.392384	2391.674619
1003.686903	2393.761657
1003.981386	2392.135885
1004.275834	2390.663868
1004.570246	2392.987840
1004.864623	2389.524567
1005.158964	2392.755947
1005.453270	2390.263096
1005.747540	2390.467263
1006.041775	2392.259393
1006.335974	2395.261400
1006.630138	2393.633108
1006.924266	2390.895761
1007.218359	2391.268806
1007.512416	2392.176214
1007.806438	2391.546070
1008.100425	2393.653272
1008.394376	2392.087994
1008.688292	2392.075391
1008.982172	2389.748898
1009.276017	2391.921636
1009.569827	2391.823333
1009.863602	2391.868704
1010.157341	2393.320556
1010.451045	2391.447767
1010.744714	2390.265617
1011.038347	2392.685371
1011.331945	2392.778632
1011.625508	2389.048178
1011.919036	2392.372819
1012.212528	2393.897768
1012.505986	2388.934752
1012.799408	2393.078581
1013.092795	2392.587068
1013.386147	2391.606564
1013.679464	2391.578837
1013.972745	2390.253014
1014.265992	2391.271327
1014.559204	2392.319887
1014.852380	2392.685371
1015.145521	2390.515154
1015.438628	2389.847201
1015.731699	2392.566903
1016.024736	2389.753940
1016.317737	2391.420041
1016.610703	2391.425082
1016.903635	2387.498023
1017.196531	2388.317211
1017.489393	2389.441388
1017.782219	2386.265461
1018.075011	2391.757798
1018.367768	2390.021121
1018.660490	2389.456512
1018.953177	2389.456512
1019.245829	2389.456512
