Dividing Wavelength (nm)	Counts (n)	Blue Motor Position (mm): 0.000000	Red Motor Position (mm): 42.800000	
326.493990	1995.356748
326.888308	1995.356748
327.282561	1995.356748
327.676750	1968.603344
328.070874	1973.291617
328.464933	1977.863944
328.858929	1989.929946
329.252859	2002.759682
329.646726	2015.778462
330.040528	2030.183559
330.434265	2053.312373
330.827938	2069.229816
331.221547	2090.228743
331.615091	2109.269181
332.008571	2129.385905
332.401986	2153.699390
332.795338	2170.720846
333.188625	2191.122396
333.581847	2211.642413
333.975006	2229.006667
334.368100	2245.992835
334.761129	2262.646287
335.154095	2279.579522
335.546996	2309.254274
335.939833	2374.499408
336.332606	2386.023486
336.725315	2398.066802
337.117960	2406.238513
337.510540	2414.841242
337.903056	2422.977664
338.295508	2431.242636
338.687896	2438.138934
339.080220	2444.374842
339.472480	2449.355502
339.864676	2453.650565
340.256807	2457.476800
340.648875	2458.530402
341.040879	2461.088787
341.432818	2460.471246
341.824694	2460.690536
342.216506	2461.867645
342.608253	2463.359827
342.999937	2459.198354
343.391557	2461.648355
343.783113	2460.556945
344.174605	2456.801286
344.566033	2457.602829
344.957397	2452.738116
345.348697	2451.072014
345.739934	2454.381532
346.131106	2450.038578
346.522215	2449.141252
346.913260	2444.914245
347.304241	2446.781993
347.695159	2443.318720
348.086012	2443.124635
348.476802	2439.409305
348.867528	2440.830910
349.258191	2439.474840
349.648789	2438.590118
350.039324	2436.989551
350.429796	2439.038780
350.820203	2433.972421
351.210548	2437.715477
351.600828	2436.525765
351.991045	2435.131886
352.381198	2432.175249
352.771288	2438.600200
353.161314	2434.441248
353.551276	2434.146340
353.941175	2434.673141
354.331010	2435.542740
354.720782	2437.536516
355.110490	2436.606423
355.500135	2437.125662
355.889717	2434.670620
356.279235	2436.984510
356.668689	2438.532144
357.058080	2439.184974
357.447408	2436.225816
357.836672	2436.445107
358.225873	2437.692792
358.615010	2438.456527
359.004084	2440.566250
359.393095	2443.119594
359.782043	2444.415171
360.170927	2444.992383
360.559748	2445.831735
360.948505	2447.757456
361.337199	2445.042794
361.725830	2447.157558
362.114398	2451.356840
362.502903	2449.461366
362.891344	2449.363063
363.279722	2448.228804
363.668037	2453.234669
364.056289	2450.953547
364.444478	2451.016562
364.832603	2455.067129
365.220665	2455.682150
365.608665	2456.642489
365.996601	2457.181893
366.384474	2458.384208
366.772284	2459.513427
367.160031	2459.102573
367.547715	2462.147429
367.935336	2462.076853
368.322893	2462.548201
368.710388	2463.470732
369.097820	2466.334108
369.485189	2465.961062
369.872495	2469.590693
370.259738	2471.753348
370.646918	2474.536065
371.034035	2477.840541
371.421090	2477.437249
371.808081	2481.752477
372.195010	2487.267499
372.581875	2490.408138
372.968678	2501.107987
373.355418	2502.955570
373.742096	2515.238341
374.128710	2527.221164
374.515262	2545.452497
374.901751	2559.247614
375.288177	2577.993145
375.674540	2595.362440
376.060841	2615.393465
376.447079	2643.180305
376.833254	2669.333811
377.219367	2690.723427
377.605417	2727.987636
377.991404	2752.661564
378.377329	2796.141516
378.763191	2831.540498
379.148991	2881.296687
379.534727	2931.700663
379.920402	2978.144814
380.306013	3027.255734
380.691563	3095.132350
381.077049	3149.435660
381.462474	3209.347252
381.847835	3289.342802
382.233134	3361.050695
382.618371	3421.587391
383.003545	3510.467975
383.388657	3596.938887
383.773706	3689.754091
384.158693	3762.916356
384.543618	3862.564844
384.928480	3944.546609
385.313280	4049.400088
385.698017	4159.899660
386.082692	4287.188795
386.467305	4348.557281
386.851856	4477.651149
387.236344	4638.811796
387.620770	4703.830078
388.005133	4828.676773
388.389435	4976.518692
388.773674	5069.104524
389.157851	5199.226787
389.541965	5337.041851
389.926018	5360.137897
390.310008	5548.102359
390.693936	5674.214384
391.077802	5799.865144
391.461606	5931.225010
391.845348	6052.195059
392.229027	6177.220715
392.612645	6401.441156
392.996200	6518.975658
393.379694	6701.193205
393.763125	6928.153513
394.146494	7026.065323
394.529801	7166.605131
394.913047	7421.279182
395.296230	7422.138699
395.679351	7482.138512
396.062410	7750.090962
396.445408	7642.379148
396.828343	7802.632388
397.211217	7942.768903
397.594028	7827.102149
397.976778	8029.272583
398.359466	8200.996968
398.742092	8168.153851
399.124656	8325.510947
399.507158	8521.417748
399.889598	8545.879947
400.271977	8754.654292
400.654294	8792.427658
401.036549	8990.234973
401.418742	9023.161269
401.800874	9329.885234
402.182944	9411.498994
402.564952	9792.244741
402.946898	9608.149364
403.328783	9665.580710
403.710606	9873.563594
404.092367	10131.738726
404.474067	10502.172793
404.855705	10289.854517
405.237282	10240.788966
405.618797	10680.516213
406.000250	10935.996849
406.381642	11308.573407
406.762972	11257.536765
407.144240	11052.374406
407.525447	11312.429889
407.906593	11252.374623
408.287677	11516.110149
408.668700	11679.496465
409.049661	11650.966055
409.430560	11814.450674
409.811399	11781.968000
410.192176	11946.173504
410.572891	12026.826924
410.953545	12533.644367
411.334138	11991.314516
411.714669	12613.589506
412.095139	11899.381514
412.475547	12418.333014
412.855894	12257.633632
413.236180	12601.752876
413.616405	12277.952003
413.996568	12560.380127
414.376670	12533.621682
414.756711	12400.837690
415.136691	12696.589583
415.516609	12886.557904
415.896466	12945.123509
416.276262	13252.129778
416.655997	13690.800903
417.035670	13722.222415
417.415283	14392.819385
417.794834	14486.234487
418.174324	14228.944077
418.553753	14123.667140
418.933121	14629.511641
419.312428	14436.085088
419.691674	14347.459083
420.070859	14815.671370
420.449983	14463.745899
420.829045	15025.842115
421.208047	14761.899902
421.586988	15240.847326
421.965867	15495.120606
422.344686	15492.191695
422.723444	16063.838377
423.102141	14724.824736
423.480777	15945.363700
423.859352	15441.633963
424.237866	16586.749704
424.616319	16276.680933
424.994712	16954.451465
425.373044	16745.790546
425.751314	17435.705217
426.129524	16527.664860
426.507673	17657.483219
426.885762	17353.405860
427.263789	17553.890028
427.641756	17727.882932
428.019662	17788.275955
428.397508	17838.591712
428.775292	18150.639135
429.153016	18103.786651
429.530679	18184.417386
429.908282	18214.457622
430.285824	17927.152182
430.663305	18656.755858
431.040726	18237.505777
431.418086	18063.157472
431.795385	18717.191731
432.172624	19150.108379
432.549802	18704.727478
432.926920	18880.399086
433.303977	18769.836500
433.680974	19041.766421
434.057910	19320.572476
434.434786	19360.387509
434.811601	19254.193082
435.188355	20336.738021
435.565050	19960.733479
435.941683	19918.723023
436.318257	20815.388017
436.694770	20611.148189
437.071222	21231.227757
437.447614	20286.833118
437.823946	20314.541821
438.200218	20460.644541
438.576429	20243.123794
438.952580	20515.598159
439.328670	20469.716098
439.704700	20902.055534
440.080670	20462.590427
440.456580	21062.775080
440.832429	21252.730798
441.208218	20211.825790
441.583947	20677.056235
441.959616	20780.944333
442.335224	21029.677385
442.710773	21155.025675
443.086261	21705.985982
443.461689	21067.733055
443.837057	21181.411074
444.212365	21847.962518
444.587612	21842.404646
444.962800	21404.144375
445.337927	21845.487312
445.712995	20544.148734
446.088002	22443.035442
446.462949	22634.884113
446.837837	22821.603410
447.212664	22769.666923
447.587431	25678.475706
447.962139	28669.367078
448.336786	31071.832287
448.711374	29500.602935
449.085901	25741.701858
449.460369	25693.755444
449.834776	25609.056497
450.209124	28147.660587
450.583412	27661.017841
450.957640	28186.948819
451.331808	26832.226943
451.705917	25427.862305
452.079965	25477.638658
452.453954	25840.110222
452.827883	25715.739916
453.201752	25518.976119
453.575562	25688.999115
453.949311	26843.496443
454.323001	26892.443526
454.696632	26648.292883
455.070202	28230.252331
455.443713	28377.249856
455.817164	28974.445105
456.190556	29516.212868
456.563888	28950.817217
456.937160	29394.499250
457.310373	27698.881948
457.683526	28160.003852
458.056619	28144.703950
458.429653	28074.082426
458.802628	28671.917901
459.175542	28787.193966
459.548398	30089.331567
459.921194	31692.065609
460.293930	32369.493342
460.666607	34423.647588
461.039224	36206.910391
461.411782	36632.875288
461.784280	35414.516623
462.156719	34932.826812
462.529099	34385.886825
462.901419	33077.326795
463.273680	31997.655314
463.645882	32076.100709
464.018024	32045.589125
464.390106	32898.537232
464.762130	35638.059029
465.134094	39734.505685
465.505999	45067.038224
465.877845	49660.560294
466.249631	50874.066847
466.621358	49203.327640
466.993026	47118.918909
467.364634	45038.545622
467.736184	43047.534349
468.107674	41779.008642
468.479105	40964.930352
468.850477	40262.140573
469.221790	38816.967794
469.593043	37027.176698
469.964238	36146.489641
470.335373	36057.430097
470.706449	37815.076276
471.077467	40442.313932
471.448425	45033.464139
471.819324	47849.014097
472.190164	45994.590367
472.560945	42418.710901
472.931667	39270.230540
473.302330	38144.306472
473.672934	37321.131419
474.043479	37837.083433
474.413965	37013.192537
474.784393	36636.497357
475.154761	37550.957623
475.525070	37587.737882
475.895321	37105.881712
476.265513	37718.394507
476.635645	38693.794762
477.005719	38518.024851
477.375734	38989.019855
477.745691	39695.172082
478.115588	41064.344426
478.485427	43036.930282
478.855207	46420.822445
479.224928	49045.804185
479.594591	50684.837056
479.964194	49716.675898
480.333739	49866.035204
480.703226	49926.849163
481.072653	50546.999307
481.442022	51024.782224
481.811333	51297.531332
482.180584	50001.664928
482.549777	49487.177369
482.918912	48942.460531
483.287988	48666.563222
483.657005	47827.715222
484.025964	47178.855708
484.394864	47209.725213
484.763706	46766.882533
485.132489	45893.686632
485.501213	45731.726961
485.869879	45890.810653
486.238487	45457.377287
486.607036	45674.209917
486.975527	45122.223735
487.343959	45326.236711
487.712333	45400.003915
488.080648	45317.313868
488.448905	45778.077850
488.817104	45584.850423
489.185244	46549.752475
489.553326	48240.905836
489.921350	50961.757719
490.289315	53788.599861
490.657222	54366.845413
491.025070	54641.086703
491.392861	53767.744608
491.760593	52557.512283
492.128267	50923.283632
492.495883	49408.641233
492.863440	48002.272736
493.230939	46647.129924
493.598380	45549.484209
493.965763	45208.150202
494.333088	44386.116971
494.700354	43901.551181
495.067563	43599.243267
495.434713	43460.014160
495.801805	43535.245819
496.168839	43124.835402
496.535815	42807.222545
496.902733	42817.960203
497.269593	42417.294336
497.636395	42342.781041
498.003139	42739.887853
498.369825	42176.685104
498.736453	42521.270655
499.103023	42032.664380
499.469535	41912.727768
499.835989	42001.696572
500.202385	41659.634119
500.568723	41687.441124
500.935003	41865.847558
501.301226	41659.717298
501.667390	42286.194089
502.033497	42558.159298
502.399546	41971.588281
502.765537	41272.460901
503.131470	41672.574761
503.497345	42029.286807
503.863163	40688.710409
504.228923	41307.360809
504.594625	41721.902451
504.960269	41016.415656
505.325856	41710.885010
505.691385	41058.252192
506.056856	41200.896681
506.422270	41651.616164
506.787625	41215.689947
507.152924	41406.948803
507.518164	41512.008970
507.883347	40712.522299
508.248472	40977.397125
508.613540	41451.928498
508.978550	41768.646550
509.343503	41524.379961
509.708398	41708.878630
510.073236	42253.388781
510.438016	42257.371292
510.802738	41695.627957
511.167403	42329.288393
511.532010	42554.736355
511.896561	42853.593599
512.261053	43745.386317
512.625488	43260.414714
512.989866	43134.355621
513.354186	42980.444153
513.718449	42962.580824
514.082655	43665.058051
514.446803	43328.777802
514.810894	43837.508362
515.174927	43768.598310
515.538904	43661.531764
515.902822	44354.456004
516.266684	43773.962098
516.630488	44224.258124
516.994235	44062.706787
517.357925	44658.162838
517.721558	44808.485005
518.085133	45138.683102
518.448651	45252.429177
518.812112	45030.482297
519.175516	45140.961704
519.538863	45478.167005
519.902152	45439.743331
520.265385	45901.039154
520.628560	45939.447706
520.991678	45730.101189
521.354739	45979.877759
521.717743	46293.649257
522.080690	46163.337951
522.443580	46718.963845
522.806413	46775.374357
523.169189	46718.686582
523.531908	46910.333607
523.894569	46762.743746
524.257174	46918.286027
524.619722	47223.056545
524.982213	47217.087819
525.344647	47120.953015
525.707025	47163.979263
526.069345	47537.080100
526.431608	47470.438567
526.793815	47813.831885
527.155964	47321.094384
527.518057	47494.983945
527.880093	47260.403933
528.242072	47796.392013
528.603995	47484.947008
528.965860	47488.271649
529.327669	47576.201975
529.689421	47486.045979
530.051117	47437.570244
530.412755	47568.007579
530.774337	47632.554513
531.135862	47446.765308
531.497331	47634.661715
531.858743	47533.475675
532.220098	47880.884272
532.581396	47589.243440
532.942638	47240.718227
533.303824	47545.423210
533.664953	47504.078187
534.026025	47198.962350
534.387040	47693.325623
534.747999	47629.318092
535.108902	47787.615364
535.469748	47315.443251
535.830537	47424.806042
536.191270	47615.212944
536.551947	47259.410826
536.912567	47584.991226
537.273131	47688.939819
537.633638	47169.849687
537.994089	47509.999022
538.354483	47094.814632
538.714821	47663.744132
539.075103	48029.295841
539.435328	47768.567364
539.795497	47671.953651
540.155609	47639.110533
540.515665	48119.474522
540.875665	47565.935665
541.235609	47876.329589
541.595496	47855.814614
541.955328	48536.365342
542.315102	47902.389834
542.674821	47673.912139
543.034483	47728.023884
543.394090	47692.544244
543.753640	47644.149167
544.113134	48660.977624
544.472571	47656.003440
544.831953	48908.752856
545.191278	48122.511817
545.550548	47823.848657
545.909761	48294.026994
546.268918	48501.959467
546.628019	48799.420311
546.987064	48368.129435
547.346053	47645.343920
547.704986	48514.363226
548.063863	48059.658711
548.422684	48266.383827
548.781449	48116.172566
549.140158	48515.381539
549.498811	48366.359990
549.857408	47772.310421
550.215949	48631.912851
550.574434	48559.763858
550.932864	48308.195157
551.291237	49043.528104
551.649555	48635.131628
552.007817	48900.308923
552.366022	48516.803144
552.724173	48709.937310
553.082267	49100.117577
553.440305	49413.803375
553.798288	48700.810301
554.156215	49021.863745
554.514086	49241.680738
554.871902	48971.510180
555.229661	48995.319550
555.587365	48813.215429
555.945014	48904.906456
556.302606	48836.465230
556.660143	49056.688036
557.017625	49136.895314
557.375050	48930.528120
557.732421	49300.367331
558.089735	49258.787894
558.446994	49178.250420
558.804197	49663.264873
559.161345	49615.933479
559.518437	48862.167553
559.875474	49144.898146
560.232455	49296.213420
560.589381	49495.283544
560.946251	49200.524758
561.303065	49893.703577
561.659825	49691.467608
562.016528	49356.475373
562.373177	49075.020192
562.729770	49569.151572
563.086307	49068.375951
563.442789	49523.965189
563.799216	49589.351475
564.155587	49368.692609
564.511904	49404.789792
564.868164	49489.098048
565.224370	49740.762531
565.580520	49458.709973
565.936615	49671.938178
566.292654	49386.107275
566.648638	49649.154683
567.004567	49585.716803
567.360441	49633.605244
567.716260	49492.531074
568.072023	49763.049472
568.427732	49745.055073
568.783385	49285.584147
569.138982	49698.948680
569.494525	49653.018728
569.850013	49436.123083
570.205445	49386.681967
570.560823	49342.629844
570.916145	49229.849150
571.271412	49260.189335
571.626625	49011.499133
571.981782	49063.952339
572.336884	48767.403943
572.691931	49072.759235
573.046923	48664.584569
573.401860	48520.016880
573.756743	48506.196557
574.111570	48607.717833
574.466342	48465.138879
574.821059	48561.775278
575.175722	48093.114328
575.530330	48102.533724
575.884882	47803.134556
576.239380	47767.997714
576.593823	47756.672762
576.948211	47678.197120
577.302544	47178.394442
577.656823	47196.845065
578.011047	47416.238601
578.365216	47143.625604
578.719330	46937.936445
579.073389	46783.631767
579.427394	46854.452417
579.781344	46833.476176
580.135239	46457.597662
580.489080	46547.221816
580.842866	46020.620365
581.196597	46471.672564
581.550273	46376.243522
581.903895	46263.029289
582.257463	46664.141297
582.610975	46026.168155
582.964434	46301.841132
583.317837	45935.916377
583.671186	45768.114010
584.024481	45986.133831
584.377721	45510.405184
584.730906	45793.118133
585.084037	45828.625500
585.437113	45520.663932
585.790135	45550.842800
586.143103	45150.761707
586.496016	45257.336740
586.848874	45273.244101
587.201679	45278.895235
587.554428	44749.155665
587.907124	44909.534934
588.259765	44656.060677
588.612352	44905.353297
588.964884	44261.885296
589.317362	44550.866920
589.669786	44478.498636
590.022155	44234.282458
590.374470	44663.965206
590.726731	44170.610165
591.078937	43658.938090
591.431090	43741.847427
591.783188	43410.913321
592.135232	43054.526429
592.487222	43293.933346
592.839157	43370.611817
593.191038	43017.683157
593.542866	42764.110598
593.894639	42155.993688
594.246358	42426.625512
594.598022	42366.802139
594.949633	41966.836993
595.301190	41911.651482
595.652692	41720.770712
596.004141	42039.724516
596.355535	41033.784951
596.706876	40972.247586
597.058162	40790.052725
597.409395	41264.561413
597.760573	41329.352843
598.111698	40864.697090
598.462768	40873.907278
598.813785	40898.752604
599.164748	40332.930976
599.515657	40702.946627
599.866511	40149.763172
600.217312	40747.875911
600.568060	39699.502434
600.918753	40412.472822
601.269392	40353.758503
601.619978	39988.834417
601.970510	40179.531185
602.320988	40350.519562
602.671412	40601.909301
603.021783	40351.079130
603.372100	39975.127520
603.722363	40060.494419
604.072572	40121.721753
604.422728	40116.738573
604.772830	39906.449361
605.122878	39971.477725
605.472872	39881.243592
605.822813	40138.957458
606.172701	39941.878590
606.522534	40152.417339
606.872314	40391.161344
607.222041	40110.515268
607.571714	40462.039967
607.921333	39862.341785
608.270899	40123.786106
608.620411	40461.001490
608.969870	40243.153067
609.319276	40187.216424
609.668627	40212.991844
610.017926	40654.649853
610.367171	40779.773812
610.716362	40825.328199
611.065500	40738.595147
611.414585	40868.709848
611.763616	41142.867959
612.112594	41009.373164
612.461518	41193.972656
612.810389	41415.969948
613.159207	41250.821748
613.507971	41288.466564
613.856682	41712.132695
614.205340	41559.131155
614.553945	42185.837319
614.902496	41617.054013
615.250994	42031.477188
615.599439	42044.148129
615.947830	42196.522045
616.296169	42180.670137
616.644454	42256.839451
616.992686	42370.668704
617.340864	42806.620127
617.688990	42486.509379
618.037063	42998.587266
618.385082	42912.592743
618.733048	43153.441430
619.080961	43110.460552
619.428821	43060.989189
619.776628	43131.207421
620.124382	42914.044595
620.472083	43003.424253
620.819731	43102.175416
621.167326	42753.115841
621.514868	42693.557129
621.862357	42231.679052
622.209793	42233.254412
622.557176	41891.668348
622.904506	41619.287244
623.251783	41279.072374
623.599007	41020.299865
623.946179	40775.882041
624.293297	40689.138907
624.640363	40083.383778
624.987376	40041.814424
625.334336	39764.606415
625.681243	39371.741734
626.028097	39277.441910
626.374899	39099.892472
626.721647	39002.691464
627.068343	38847.343267
627.414987	38570.168026
627.761577	38302.659197
628.108115	38556.695542
628.454600	37991.108327
628.801032	38098.459698
629.147412	38004.127107
629.493739	37942.672921
629.840014	37558.615136
630.186236	37800.424163
630.532405	37391.117758
630.878521	37517.277674
631.224585	37324.541760
631.570597	37025.157715
631.916556	37116.576520
632.262462	36995.246029
632.608316	36944.529501
632.954117	36813.489748
633.299866	36755.544205
633.645562	36627.685420
633.991206	36147.702039
634.336797	35711.017128
634.682336	35675.895409
635.027823	35403.287453
635.373257	35203.186413
635.718639	34943.942556
636.063968	34782.497083
636.409245	34233.192796
636.754470	34235.138681
637.099642	33955.800785
637.444762	33468.827844
637.789829	33561.022986
638.134845	33194.195864
638.479808	33095.981585
638.824719	32972.501042
639.169577	32558.027455
639.514383	32568.117324
639.859137	32240.465009
640.203839	32402.979207
640.548489	32027.899716
640.893086	32046.741029
641.237632	31760.471546
641.582125	31804.359831
641.926566	31699.965097
642.270955	31609.990583
642.615292	31565.651114
642.959576	31492.451040
643.303809	31424.513930
643.647990	31510.843690
643.992118	31413.194019
644.336195	31343.890757
644.680219	31361.358355
645.024192	31548.049926
645.368112	31931.467484
645.711981	31844.900791
646.055797	32520.475900
646.399562	32368.359082
646.743274	33087.507405
647.086935	33399.998450
647.430544	33231.386977
647.774101	33275.413894
648.117606	33417.801284
648.461059	33648.998682
648.804460	33290.602891
649.147810	32710.620661
649.491108	32468.453713
649.834354	32118.302728
650.177548	31381.953989
650.520690	30945.606835
650.863781	30911.384962
651.206820	30741.384652
651.549807	30327.324440
651.892742	29862.998882
652.235626	29641.445212
652.578458	29484.619957
652.921238	28896.765966
653.263967	29123.038156
653.606644	28779.823799
653.949269	28693.279791
654.291843	28297.889492
654.634365	28558.073524
654.976836	28167.016097
655.319255	28100.084697
655.661622	28051.513180
656.003938	27813.066603
656.346203	27634.173697
656.688416	27747.138393
657.030577	27536.735755
657.372687	27368.348613
657.714746	27535.281382
658.056753	27576.316374
658.398708	27074.847595
658.740612	27057.269092
659.082465	27214.149800
659.424266	27006.164395
659.766016	27031.297067
660.107715	26900.640442
660.449362	26933.332325
660.790958	26858.511519
661.132503	26812.286659
661.473996	26776.688551
661.815438	26798.650338
662.156829	26897.585503
662.498168	26664.122106
662.839456	26613.329961
663.180693	26656.255386
663.521879	26734.610040
663.863013	26633.915512
664.204097	26570.011326
664.545129	26855.834667
664.886110	26761.958300
665.227040	26726.047640
665.567918	26759.959482
665.908746	26734.549546
666.249522	26799.368702
666.590248	26738.264877
666.930922	26762.268331
667.271545	26683.059201
667.612118	26667.880287
667.952639	26449.454652
668.293109	26441.814783
668.633528	26300.080222
668.973896	26198.679933
669.314213	26163.318760
669.654480	25898.643059
669.994695	25867.604675
670.334859	25725.171914
670.674973	25599.064930
671.015035	25649.347919
671.355047	25543.927310
671.695008	25447.628669
672.034918	25306.199098
672.374777	25286.344513
672.714585	25099.675627
673.054342	25199.117428
673.394049	24958.167918
673.733705	25101.172850
674.073310	24809.622759
674.412864	24807.878519
674.752368	24465.178360
675.091820	24620.566887
675.431223	24265.064717
675.770574	24026.895404
676.109875	23863.443552
676.449125	23618.645121
676.788324	23494.910000
677.127473	23074.132450
677.466571	22960.285553
677.805619	22668.017097
678.144616	22607.460236
678.483562	22486.893480
678.822458	22201.644831
679.161303	22102.127413
679.500098	21972.965489
679.838842	21837.819717
680.177535	21889.413406
680.516179	21988.865289
680.854771	22083.296182
681.193314	22590.821908
681.531805	23244.594027
681.870247	23665.462317
682.208638	24102.611014
682.546978	24188.345917
682.885268	24203.625655
683.223508	23808.552948
683.561697	23537.885837
683.899836	23350.596889
684.237925	22958.783289
684.575963	22790.176857
684.913951	22414.497470
685.251889	22459.663688
685.589776	22368.640614
685.927614	22286.157254
686.265401	22301.686529
686.603137	22285.849744
686.940824	22537.841901
687.278460	22705.074618
687.616046	22701.941541
687.953582	23023.504142
688.291068	22886.936764
688.628504	23018.082381
688.965889	22937.650772
689.303224	22640.936018
689.640510	22393.185992
689.977745	21907.490983
690.314930	21374.043645
690.652065	21006.253663
690.989150	20512.127325
691.326185	19909.452342
691.663170	19439.019426
692.000105	18915.271268
692.336990	18468.073031
692.673825	18122.080998
693.010610	17756.904855
693.347345	17353.287393
693.684030	16900.712765
694.020665	16681.898962
694.357251	16237.037300
694.693786	16158.717933
695.030272	15972.941332
695.366707	15602.877790
695.703093	15400.460339
696.039429	15345.862123
696.375716	15146.355939
696.711952	15074.852212
697.048139	14948.835969
697.384276	14797.596313
697.720363	14829.935315
698.056400	14677.763045
698.392388	14515.626934
698.728326	14458.866062
699.064214	14306.235047
699.400053	14243.205501
699.735842	14008.854861
700.071581	13816.030727
700.407270	13618.399852
700.742910	13476.682935
701.078501	13285.025827
701.414042	13087.979727
701.749533	12887.198131
702.084974	12648.716266
702.420366	12722.128068
702.755709	12445.890482
703.091002	12246.890934
703.426246	12233.231927
703.761440	12135.463790
704.096584	11956.099536
704.431679	11888.316181
704.766725	11810.528657
705.101721	11743.662792
705.436668	11747.098338
705.771565	11547.637525
706.106413	11690.123218
706.441212	11653.090902
706.775961	11684.202382
707.110661	11679.841784
707.445311	11818.917137
707.779913	11703.084024
708.114465	11792.244392
708.448967	11894.884805
708.783421	12210.062784
709.117825	12311.795789
709.452180	12390.319322
709.786485	12562.257957
710.120742	12950.310856
710.454949	12928.094491
710.789107	13138.718940
711.123216	13460.790697
711.457275	13505.571267
711.791286	13761.084670
712.125247	13774.375672
712.459159	13614.838277
712.793023	13908.039346
713.126837	13349.998739
713.460602	13422.800562
713.794318	13211.125033
714.127985	12987.227226
714.461602	12493.892349
714.795171	12436.161055
715.128691	11913.025397
715.462162	11614.153029
715.795584	11368.182530
716.128957	11206.550535
716.462281	10986.665487
716.795556	10828.897536
717.128782	10559.649509
717.461960	10283.048959
717.795088	10201.601557
718.128167	10001.377008
718.461198	9754.892312
718.794180	9657.406479
719.127113	9472.317995
719.459997	9358.740798
719.792833	9173.115432
720.125619	9133.330645
720.458357	8962.130540
720.791046	8863.039100
721.123686	8768.688864
721.456278	8637.170202
721.788821	8592.646731
722.121315	8458.347872
722.453761	8468.173081
722.786158	8416.118126
723.118506	8398.824448
723.450805	8312.048546
723.783056	8355.510854
724.115259	8297.898027
724.447412	8246.006910
724.779518	8326.365423
725.111574	8317.737488
725.443582	8380.343578
725.775542	8359.987398
726.107453	8530.985858
726.439315	8468.856157
726.771129	8620.557079
727.102895	8755.236545
727.434612	8828.018204
727.766281	8861.045323
728.097901	8945.467006
728.429473	8950.508160
728.760996	8923.369108
729.092471	8932.163401
729.423897	8861.599850
729.755276	8789.193757
730.086606	8799.512999
730.417887	8976.447417
730.749120	9151.317482
731.080305	9203.077529
731.411442	9304.964290
731.742530	9307.762130
732.073570	9325.179317
732.404562	9425.997352
732.735506	9344.504580
733.066401	9205.139361
733.397249	8971.582704
733.728048	8687.657357
734.058798	8341.897218
734.389501	8041.714150
734.720156	7832.869229
735.050762	7595.138496
735.381320	7438.351049
735.711831	7320.360323
736.042293	7167.774678
736.372707	7152.489900
736.703073	7054.855353
737.033391	7106.398630
737.363661	7083.403407
737.693883	7102.839576
738.024056	7154.377812
738.354182	7214.949796
738.684260	7312.778428
739.014290	7381.234776
739.344272	7451.747916
739.674207	7552.344141
740.004093	7586.278668
740.333931	7570.593118
740.663722	7577.665857
740.993464	7552.641569
741.323159	7475.582491
741.652806	7349.808223
741.982405	7258.465036
742.311956	7114.819878
742.641460	7044.127777
742.970915	6914.572644
743.300323	6772.003772
743.629683	6677.882909
743.958996	6553.109311
744.288260	6441.520850
744.617477	6312.505120
744.946647	6266.146669
745.275768	6157.071223
745.604842	6076.745478
745.933869	6004.346947
746.262847	5973.500127
746.591778	5934.940341
746.920662	5887.064503
747.249498	5875.878182
747.578286	5906.488068
747.907027	5946.025838
748.235720	6004.788048
748.564365	6003.968860
748.892963	5966.016534
749.221514	5969.184899
749.550017	5910.221043
749.878473	5882.008225
750.206881	5802.605011
750.535242	5754.545171
750.863555	5712.287699
751.191821	5674.007697
751.520039	5663.822046
751.848210	5625.353001
752.176334	5621.778823
752.504411	5591.494091
752.832440	5528.371283
753.160421	5538.284712
753.488356	5491.780068
753.816243	5455.866888
754.144082	5402.463425
754.471875	5377.494590
754.799620	5349.309498
755.127318	5332.320810
755.454969	5313.560156
755.782572	5286.002688
756.110129	5286.600065
756.437638	5245.605402
756.765100	5236.213732
757.092515	5234.701386
757.419882	5232.183330
757.747203	5224.848451
758.074477	5242.063992
758.401703	5227.386672
758.728882	5270.453249
759.056014	5281.954642
759.383099	5310.298529
759.710138	5332.177137
760.037129	5349.622050
760.364073	5345.198437
760.690970	5337.442622
761.017820	5321.777237
761.344623	5364.863979
761.671379	5442.976657
761.998088	5608.906236
762.324751	6060.792747
762.651366	6901.382465
762.977935	7956.932025
763.304456	8591.212523
763.630931	8713.286583
763.957359	8342.456786
764.283740	7780.955427
764.610074	7222.382978
764.936362	6604.024964
765.262602	6160.211862
765.588796	5723.355552
765.914943	5418.824489
766.241044	5167.626314
766.567097	4978.310822
766.893104	4811.483918
767.219064	4697.044685
767.544978	4576.092280
767.870845	4480.731294
768.196665	4424.028395
768.522438	4361.752501
768.848165	4306.176301
769.173846	4252.349380
769.499479	4211.422773
769.825066	4163.594826
770.150607	4107.131382
770.476101	4079.334460
770.801548	4041.732493
771.126949	3996.830936
771.452303	3968.746668
771.777611	3917.659615
772.102872	3908.875404
772.428087	3869.390567
772.753256	3833.878158
773.078378	3804.210968
773.403453	3759.367384
773.728482	3732.437540
774.053465	3705.931153
774.378401	3678.726567
774.703291	3650.465858
775.028135	3623.367136
775.352932	3609.014971
775.677683	3585.878595
776.002388	3559.306673
776.327046	3554.409192
776.651658	3527.514636
776.976224	3505.560411
777.300743	3500.352899
777.625216	3477.115701
777.949643	3465.700008
778.274024	3462.294708
778.598359	3441.061368
778.922647	3437.340997
779.246889	3426.721806
779.571086	3424.153338
779.895236	3429.181889
780.219339	3423.961775
780.543397	3426.608380
780.867409	3433.789504
781.191374	3434.333949
781.515294	3418.076228
781.839167	3430.643824
782.162995	3416.591608
782.486776	3403.290523
782.810511	3390.085221
783.134201	3367.442878
783.457844	3362.394163
783.781441	3347.737008
784.104993	3334.312415
784.428498	3322.876558
784.751958	3316.300373
785.075372	3305.948363
785.398739	3295.470325
785.722061	3300.720687
786.045337	3294.361271
786.368568	3315.191319
786.691752	3321.606187
787.014891	3381.840414
787.337983	3450.485806
787.661030	3564.620049
787.984031	3666.153929
788.306987	3720.787434
788.629897	3731.086511
788.952760	3700.373281
789.275579	3652.752021
789.598351	3574.641863
789.921078	3506.659383
790.243759	3438.079526
790.566395	3383.917369
790.888984	3340.230730
791.211529	3304.486428
791.534027	3266.345058
791.856480	3229.050602
792.178888	3216.576267
792.501249	3196.431816
792.823566	3172.072961
793.145836	3169.748989
793.468062	3164.901920
793.790241	3155.041423
794.112375	3161.453770
794.434464	3182.419929
794.756507	3186.498223
795.078505	3217.080382
795.400457	3268.235491
795.722364	3320.171979
796.044226	3366.064123
796.366042	3400.414545
796.687812	3386.069942
797.009538	3389.623955
797.331218	3365.847353
797.652852	3344.878674
797.974442	3315.098057
798.295986	3294.714152
798.617484	3263.741302
798.938938	3240.098291
799.260346	3221.536762
799.581709	3187.932431
799.903026	3177.310720
800.224299	3160.430416
800.545526	3131.078298
800.866708	3118.561113
801.187845	3107.647015
801.508936	3088.548603
801.829983	3081.889239
802.150984	3060.229922
802.471940	3051.899415
802.792851	3049.734239
803.113717	3044.400699
803.434538	3039.533465
803.755314	3029.375540
804.076045	3028.853780
804.396731	3018.683252
804.717372	3023.018645
805.037967	3024.563758
805.358518	3030.900489
805.679024	3041.691078
805.999485	3045.459341
806.319901	3047.775751
806.640272	3052.746329
806.960598	3060.993657
807.280879	3054.886299
807.601115	3064.890468
807.921306	3054.535938
808.241453	3055.294632
808.561554	3051.155845
808.881611	3045.655946
809.201623	3042.427087
809.521590	3032.102804
809.841513	3026.277751
810.161390	3027.258255
810.481223	3008.585821
810.801011	3004.832682
811.120755	2997.500324
811.440453	2983.440546
811.760107	2974.805049
812.079716	2968.629636
812.399281	2953.901905
812.718801	2952.049281
813.038276	2944.522838
813.357707	2938.405398
813.677093	2943.267591
813.996434	2927.859304
814.315731	2930.072371
814.634983	2926.868717
814.954191	2926.667071
815.273354	2936.073864
815.592473	2944.147272
815.911547	2959.845425
816.230577	2970.260449
816.549562	2986.871051
816.868502	2994.727689
817.187399	3001.503000
817.506250	3013.385000
817.825058	3016.792820
818.143821	3043.707540
818.462539	3069.513207
818.781213	3117.895681
819.099843	3182.959333
819.418429	3303.858805
819.736970	3418.512287
820.055466	3542.645660
820.373919	3699.627190
820.692327	3968.270279
821.010691	4511.850336
821.329011	5937.949910
821.647286	8364.045527
821.965517	11056.019161
822.283704	12450.891306
822.601847	12535.078576
822.919945	11098.485841
823.237999	9696.515750
823.556010	8449.044422
823.873976	7394.926550
824.191897	6503.731209
824.509775	5842.503223
824.827609	5258.034367
825.145398	4904.548659
825.463144	4734.878544
825.780845	4777.483856
826.098502	5032.483062
826.416116	5495.278629
826.733685	5917.026601
827.051210	5977.926260
827.368692	5676.442574
827.686129	5188.032905
828.003522	4727.314293
828.320872	4317.496212
828.638177	4016.897249
828.955439	3784.570633
829.272656	3591.360850
829.589830	3427.558638
829.906960	3291.404634
830.224046	3190.364788
830.541088	3118.334261
830.858086	3066.155798
831.175041	3027.611136
831.491952	3012.238137
831.808819	3011.582787
832.125642	3054.064591
832.442421	3145.884167
832.759157	3346.597707
833.075849	3669.642407
833.392497	3997.420751
833.709101	4197.184034
834.025662	4142.502638
834.342179	3949.068524
834.658653	3711.501628
834.975083	3517.538193
835.291469	3363.808206
835.607811	3232.675192
835.924110	3141.276552
836.240366	3055.143398
836.556578	2972.090388
836.872746	2915.314393
837.188871	2867.330170
837.504952	2829.302226
837.820990	2799.730817
838.136984	2777.388423
838.452935	2769.337701
838.768842	2774.537651
839.084706	2823.966164
839.400526	2960.306691
839.716303	3119.592029
840.032037	3217.781103
840.347727	3180.403468
840.663373	3071.426324
840.978977	2976.791264
841.294537	2899.583472
841.610054	2843.374607
841.925527	2803.196611
842.240957	2768.871394
842.556344	2735.231774
842.871687	2708.591797
843.186987	2680.663805
843.502244	2660.925167
843.817458	2643.850779
844.132629	2633.871815
844.447756	2622.814044
844.762840	2610.138062
845.077881	2605.845520
845.392879	2600.448965
845.707833	2597.149529
846.022745	2592.743561
846.337613	2592.241966
846.652438	2587.611666
846.967221	2585.824577
847.281960	2580.062538
847.596656	2580.508681
847.911309	2575.361662
848.225919	2572.997361
848.540485	2570.812021
848.855009	2570.930488
849.169490	2568.336815
849.483928	2568.175498
849.798323	2564.997050
850.112675	2565.284396
850.426984	2565.513768
850.741251	2565.692729
851.055474	2561.632080
851.369654	2562.579817
851.683792	2562.098387
851.997887	2565.869170
852.311938	2561.629559
852.625947	2565.410425
852.939914	2563.366237
853.253837	2564.893707
853.567718	2561.490928
853.881555	2558.458674
854.195350	2561.299364
854.509103	2562.000084
854.822812	2560.550752
855.136479	2560.928839
855.450103	2560.732234
855.763685	2559.177038
856.077224	2558.428427
856.390720	2560.961607
856.704173	2561.400187
857.017584	2562.380691
857.330953	2562.660475
857.644278	2564.994530
857.957561	2569.161043
858.270802	2564.611402
858.584000	2563.295661
858.897155	2560.989333
859.210268	2559.139229
859.523339	2557.256358
859.836367	2558.025134
860.149352	2557.354661
860.462295	2558.468756
860.775195	2553.074721
861.088054	2552.300904
861.400869	2552.396686
861.713642	2548.046170
862.026373	2556.820299
862.339062	2557.687377
862.651708	2556.210319
862.964312	2560.013870
863.276873	2560.949004
863.589392	2566.809345
863.901869	2570.494428
864.214303	2574.295458
864.526696	2576.337126
864.839045	2581.574885
865.151353	2582.930955
865.463619	2580.455748
865.775842	2579.790316
866.088023	2583.094792
866.400162	2582.144535
866.712258	2582.900708
867.024313	2583.490523
867.336325	2580.947261
867.648296	2581.111098
867.960224	2579.772672
868.272110	2579.318968
868.583954	2582.580595
868.895755	2581.698393
869.207515	2581.179154
869.519233	2585.005390
869.830909	2584.546645
870.142542	2585.133939
870.454134	2591.447984
870.765684	2589.923035
871.077191	2596.226998
871.388657	2596.234560
871.700081	2601.164808
872.011463	2598.251022
872.322803	2605.626230
872.634101	2609.543206
872.945357	2611.511777
873.256571	2617.059567
873.567744	2621.929321
873.878874	2621.271451
874.189963	2625.344703
874.501010	2623.844960
874.812015	2620.137191
875.122979	2625.044754
875.433900	2623.066101
875.744780	2624.717079
876.055618	2627.076339
876.366415	2625.463170
876.677169	2628.850825
876.987882	2627.265382
877.298554	2628.593727
877.609183	2636.641929
877.919771	2640.110242
878.230317	2654.043992
878.540822	2671.786333
878.851285	2697.261804
879.161707	2731.907133
879.472087	2788.831843
879.782425	2882.619989
880.092722	3082.484095
880.402977	3450.725260
880.713191	3981.881394
881.023363	4525.708468
881.333494	4820.578160
881.643583	4859.747925
881.953631	4693.634344
882.263637	4477.857836
882.573602	4264.506123
882.883526	4076.428235
883.193408	3902.279054
883.503248	3735.177407
883.813048	3584.348605
884.122806	3446.999848
884.432522	3309.661173
884.742197	3189.059129
885.051831	3084.256061
885.361424	2993.974037
885.670975	2922.336720
885.980485	2867.804038
886.289954	2819.935762
886.599382	2781.280194
886.908768	2755.086359
887.218113	2722.757439
887.527417	2699.550487
887.836680	2683.615400
888.145901	2666.296516
888.455082	2654.535504
888.764221	2646.600728
889.073319	2632.185549
889.382376	2628.344189
889.691392	2624.719600
890.000366	2622.292284
890.309300	2620.056532
890.618193	2623.429064
890.927044	2618.150976
891.235855	2620.278343
891.544625	2622.420834
891.853353	2630.693367
892.162041	2637.904738
892.470687	2655.034578
892.779293	2671.781292
893.087858	2696.767771
893.396381	2738.989955
893.704864	2805.697023
894.013306	2891.162225
894.321707	2980.836790
894.630068	3028.979809
894.938387	3037.506921
895.246665	3007.212107
895.554903	2959.638738
895.863100	2908.864236
896.171256	2871.468957
896.479371	2831.013697
896.787446	2802.944553
897.095480	2770.875253
897.403473	2747.101171
897.711425	2725.991339
898.019336	2706.056097
898.327207	2686.824095
898.635038	2667.849192
898.942827	2652.299752
899.250576	2640.800881
899.558284	2628.172790
899.865952	2619.270112
900.173579	2608.247630
900.481165	2598.636670
900.788711	2592.350351
901.096216	2590.606112
901.403681	2586.222828
901.711105	2586.484968
902.018489	2583.203177
902.325832	2592.569641
902.633135	2598.172884
902.940397	2626.395783
903.247619	2691.875331
903.554800	2811.900163
903.861941	2969.796663
904.169041	3079.361101
904.476101	3114.213118
904.783121	3070.420614
905.090100	3006.574401
905.397039	2945.735236
905.703938	2885.851369
906.010796	2833.720797
906.317614	2796.985909
906.624391	2759.194899
906.931129	2725.497306
907.237826	2695.096628
907.544483	2665.711742
907.851099	2639.354069
908.157675	2612.741818
908.464211	2588.297263
908.770707	2567.860426
909.077163	2557.170659
909.383578	2543.930068
909.689954	2536.325488
909.996289	2530.276103
910.302584	2530.792821
910.608839	2530.344159
910.915054	2529.401463
911.221229	2526.031452
911.527363	2528.710825
911.833458	2528.952800
912.139513	2532.542102
912.445527	2535.092926
912.751502	2537.931095
913.057436	2547.037940
913.363331	2556.875751
913.669186	2569.027453
913.975000	2587.541090
914.280775	2621.042078
914.586510	2663.967503
914.892205	2722.049157
915.197859	2799.269552
915.503475	2887.477141
915.809050	2962.431537
916.114585	3004.154647
916.420081	3015.217459
916.725536	3005.631705
917.030952	2970.197435
917.336328	2940.235337
917.641665	2908.677714
917.946961	2872.376365
918.252218	2839.077023
918.557435	2807.247178
918.862612	2776.690224
919.167750	2750.851790
919.472848	2722.167624
919.777906	2694.055630
920.082925	2671.035201
920.387904	2644.692651
920.692843	2625.127933
920.997743	2610.266612
921.302603	2596.416042
921.607423	2584.191243
921.912204	2576.314441
922.216946	2567.061403
922.521647	2554.655123
922.826310	2550.826367
923.130932	2541.671631
923.435516	2535.138296
923.740059	2530.286185
924.044564	2525.502130
924.349028	2521.033147
924.653454	2515.926459
924.957840	2513.209277
925.262186	2507.744666
925.566493	2507.686693
925.870761	2498.395846
926.174989	2498.194200
926.479178	2497.574138
926.783328	2495.018273
927.087438	2492.217912
927.391509	2492.734630
927.695541	2486.294556
927.999533	2485.578713
928.303486	2482.231386
928.607400	2485.228352
928.911275	2483.882364
929.215110	2483.005203
929.518906	2481.805409
929.822663	2478.944554
930.126381	2478.863896
930.430060	2482.216263
930.733699	2479.438587
931.037299	2484.396562
931.340861	2482.836325
931.644383	2483.043012
931.947866	2478.609317
932.251309	2481.802888
932.554714	2480.618217
932.858080	2482.019658
933.161407	2481.573516
933.464694	2479.809112
933.767943	2477.654019
934.071153	2480.056128
934.374323	2477.457414
934.677455	2478.044708
934.980548	2476.373566
935.283602	2478.269039
935.586617	2477.341467
935.889593	2478.032105
936.192530	2475.524131
936.495428	2476.454224
936.798287	2479.035295
937.101108	2478.818525
937.403890	2486.488641
937.706632	2488.794969
938.009336	2492.230515
938.312002	2497.841319
938.614628	2499.585558
938.917216	2503.900786
939.219765	2502.010353
939.522275	2505.521517
939.824747	2507.104439
940.127179	2505.279542
940.429573	2504.425066
940.731929	2507.056548
941.034246	2500.465240
941.336524	2506.343225
941.638763	2504.921620
941.940964	2501.667555
942.243126	2498.352996
942.545250	2499.761999
942.847335	2495.968531
943.149381	2494.050372
943.451389	2489.815802
943.753359	2491.471821
944.055290	2488.527787
944.357182	2490.496358
944.659036	2487.882520
944.960851	2486.226501
945.262628	2485.493013
945.564367	2484.225163
945.866067	2484.366315
946.167729	2485.593836
946.469352	2483.905049
946.770937	2484.348671
947.072484	2482.584267
947.373992	2481.480254
947.675462	2479.007568
947.976893	2478.087558
948.278286	2481.807929
948.579641	2479.932620
948.880958	2478.246354
949.182236	2480.729123
949.483476	2477.422126
949.784678	2478.390027
950.085841	2475.882053
950.386967	2478.881540
950.688054	2478.853813
950.989103	2481.029071
951.290114	2480.288022
951.591087	2484.550317
951.892021	2482.816160
952.192917	2488.699187
952.493776	2487.713641
952.794596	2488.580720
953.095378	2489.974599
953.396122	2489.883858
953.696828	2487.895123
953.997496	2488.363950
954.298126	2485.165338
954.598718	2485.409834
954.899272	2480.988742
955.199788	2481.460090
955.500266	2477.714513
955.800706	2473.714357
956.101108	2471.586990
956.401472	2468.312761
956.701798	2466.134982
957.002087	2465.726649
957.302337	2462.780094
957.602550	2462.013839
957.902724	2458.162397
958.202861	2461.252625
958.502960	2457.534774
958.803022	2458.674074
959.103045	2456.108127
959.403031	2453.723661
959.702979	2455.646862
960.002889	2453.612756
960.302762	2451.039247
960.602596	2451.762653
960.902393	2452.995215
961.202153	2449.995728
961.501875	2446.048505
961.801559	2450.827518
962.101205	2448.188474
962.400814	2449.516818
962.700385	2449.564709
962.999918	2447.333999
963.299414	2448.148145
963.598873	2445.607404
963.898293	2447.820470
964.197677	2445.758638
964.497022	2447.069338
964.796331	2448.160748
965.095601	2444.740325
965.394835	2446.696293
965.694030	2446.323248
965.993189	2446.976077
966.292309	2444.679831
966.591393	2444.117743
966.890439	2447.200408
967.189447	2445.057918
967.488419	2442.834769
967.787353	2445.640171
968.086249	2444.573967
968.385108	2445.060438
968.683930	2443.480037
968.982714	2444.949533
969.281462	2446.242589
969.580172	2446.847528
969.878844	2444.775613
970.177480	2444.500870
970.476078	2448.168310
970.774639	2447.127312
971.073162	2447.233176
971.371649	2444.266457
971.670098	2441.703030
971.968510	2445.388113
972.266885	2444.891560
972.565223	2445.073041
972.863524	2447.081941
973.161788	2446.943309
973.460014	2448.748042
973.758204	2449.133691
974.056356	2450.255347
974.354471	2447.255861
974.652550	2449.607559
974.950591	2447.165120
975.248595	2450.915739
975.546563	2445.486416
975.844493	2448.405244
976.142386	2449.552107
976.440243	2443.192691
976.738062	2450.572940
977.035845	2446.950871
977.333590	2442.315530
977.631299	2449.491613
977.928971	2445.746035
978.226606	2442.660849
978.524204	2444.062290
978.821765	2444.778134
979.119290	2445.778803
979.416777	2439.736980
979.714228	2445.897270
980.011642	2444.122784
980.309020	2448.206118
980.606360	2446.587908
980.903664	2448.301900
981.200931	2448.770728
981.498162	2451.639144
981.795356	2456.191306
982.092513	2464.305043
982.389633	2472.151599
982.686717	2477.956488
982.983764	2482.813640
983.280775	2487.295225
983.577749	2488.248003
983.874686	2486.397900
984.171587	2481.858341
984.468451	2478.528659
984.765279	2478.500933
985.062070	2476.371045
985.358824	2469.983903
985.655543	2466.402163
985.952224	2462.593572
986.248869	2458.782459
986.545478	2451.349278
986.842050	2450.202415
987.138586	2441.647577
987.435086	2440.604058
987.731549	2436.535847
988.027975	2443.709409
988.324366	2434.221958
988.620719	2439.810077
988.917037	2437.322267
989.213318	2439.285797
989.509563	2434.925199
989.805772	2437.171033
990.101944	2435.464602
990.398080	2436.969387
990.694180	2437.455858
990.990244	2434.413522
991.286271	2433.286824
991.582262	2435.918306
991.878217	2433.243974
992.174136	2436.873605
992.470019	2435.769592
992.765865	2434.746238
993.061676	2434.176587
993.357450	2437.912082
993.653188	2435.169695
993.948890	2437.420570
994.244556	2437.367638
994.540186	2441.017433
994.835780	2442.035746
995.131337	2444.735284
995.426859	2446.396344
995.722345	2451.646706
996.017795	2456.932356
996.313208	2453.514453
996.608586	2458.888323
996.903928	2457.736420
997.199234	2460.781277
997.494504	2458.447222
997.789738	2454.852880
998.084936	2454.951182
998.380099	2453.010338
998.675225	2450.220059
998.970316	2450.366253
999.265371	2445.771241
999.560390	2446.028340
999.855373	2444.147990
1000.150320	2441.526590
1000.445232	2434.889911
1000.740108	2435.058789
1001.034948	2434.312698
1001.329752	2433.594334
1001.624521	2432.273552
1001.919254	2429.377409
1002.213951	2430.241967
1002.508613	2428.825403
1002.803239	2429.896648
1003.097829	2425.846081
1003.392384	2430.635177
1003.686903	2430.468819
1003.981386	2429.435382
1004.275834	2429.614343
1004.570246	2427.973448
1004.864623	2426.546801
1005.158964	2427.890268
1005.453270	2426.738365
1005.747540	2429.891607
1006.041775	2428.522933
1006.335974	2429.153077
1006.630138	2425.515885
1006.924266	2427.060999
1007.218359	2424.089238
1007.512416	2425.919177
1007.806438	2426.871955
1008.100425	2427.494538
1008.394376	2427.456729
1008.688292	2427.960845
1008.982172	2428.258273
1009.276017	2427.245001
1009.569827	2425.404980
1009.863602	2426.750968
1010.157341	2427.207192
1010.451045	2426.146029
1010.744714	2427.071081
1011.038347	2428.636359
1011.331945	2424.421955
1011.625508	2426.236770
1011.919036	2423.610329
1012.212528	2425.740216
1012.505986	2421.233425
1012.799408	2424.910947
1013.092795	2424.719383
1013.386147	2424.079156
1013.679464	2423.678384
1013.972745	2425.788107
1014.265992	2425.231060
1014.559204	2426.088056
1014.852380	2425.339445
1015.145521	2424.532860
1015.438628	2423.103693
1015.731699	2423.958168
1016.024736	2426.599733
1016.317737	2425.571338
1016.610703	2425.599064
1016.903635	2418.927097
1017.196531	2421.475400
1017.489393	2422.292067
1017.782219	2419.602612
1018.075011	2427.605443
1018.367768	2421.987077
1018.660490	2423.123857
1018.953177	2423.123857
1019.245829	2423.123857
