Dividing Wavelength (nm)	Counts (n)	Blue Motor Position (mm): 0.000000	Red Motor Position (mm): 9.600000	
326.493990	1977.692545
326.888308	1977.692545
327.282561	1977.692545
327.676750	1955.957610
328.070874	1956.030707
328.464933	1960.235029
328.858929	1969.404888
329.252859	1983.053812
329.646726	2000.007212
330.040528	2013.759480
330.434265	2034.234126
330.827938	2052.193237
331.221547	2069.456668
331.615091	2090.803434
332.008571	2113.604573
332.401986	2131.117542
332.795338	2151.355254
333.188625	2174.226969
333.581847	2190.512416
333.975006	2211.284491
334.368100	2228.948694
334.761129	2244.324213
335.154095	2262.197624
335.546996	2273.772113
335.939833	2289.659309
336.332606	2301.919396
336.725315	2311.910963
337.117960	2320.206181
337.510540	2327.765391
337.903056	2337.167143
338.295508	2341.527741
338.687896	2351.504185
339.080220	2359.418796
339.472480	2365.460619
339.864676	2367.081350
340.256807	2369.309540
340.648875	2373.158461
341.040879	2371.774664
341.432818	2374.829604
341.824694	2374.970756
342.216506	2374.791795
342.608253	2371.968749
342.999937	2371.878008
343.391557	2372.767772
343.783113	2369.511186
344.174605	2372.117463
344.566033	2367.608151
344.957397	2365.211082
345.348697	2366.657893
345.739934	2362.201513
346.131106	2360.611029
346.522215	2360.268231
346.913260	2359.559949
347.304241	2356.986440
347.695159	2356.668847
348.086012	2353.525688
348.476802	2353.966788
348.867528	2350.780779
349.258191	2350.851355
349.648789	2350.730368
350.039324	2349.515450
350.429796	2350.017044
350.820203	2348.156859
351.210548	2346.412619
351.600828	2344.875068
351.991045	2345.404389
352.381198	2345.122084
352.771288	2346.412619
353.161314	2345.822804
353.551276	2345.109481
353.941175	2344.096209
354.331010	2344.229800
354.720782	2347.682990
355.110490	2342.742659
355.500135	2344.559995
355.889717	2346.223576
356.279235	2345.784996
356.668689	2346.813391
357.058080	2347.367918
357.447408	2345.487568
357.836672	2344.073524
358.225873	2345.986642
358.615010	2344.766683
359.004084	2349.155007
359.393095	2351.932683
359.782043	2348.902949
360.170927	2352.857735
360.559748	2351.884792
360.948505	2354.642303
361.337199	2355.126254
361.725830	2353.376973
362.114398	2354.145749
362.502903	2354.443178
362.891344	2355.312777
363.279722	2356.550380
363.668037	2357.160359
364.056289	2355.053157
364.444478	2358.965093
364.832603	2359.600278
365.220665	2360.706811
365.608665	2359.285206
365.996601	2362.677902
366.384474	2360.406863
366.772284	2361.765453
367.160031	2361.659589
367.547715	2362.839219
367.935336	2362.337624
368.322893	2363.562625
368.710388	2362.665299
369.097820	2364.666637
369.485189	2365.750486
369.872495	2369.669983
370.259738	2369.226361
370.646918	2370.262318
371.034035	2372.964377
371.421090	2374.716178
371.808081	2377.730788
372.195010	2382.232538
372.581875	2387.472817
372.968678	2392.597150
373.355418	2401.000754
373.742096	2410.188257
374.128710	2416.363670
374.515262	2433.281783
374.901751	2443.167485
375.288177	2458.873200
375.674540	2478.780717
376.060841	2501.286948
376.447079	2520.181193
376.833254	2548.719164
377.219367	2573.304872
377.605417	2606.326950
377.991404	2629.959879
378.377329	2671.511590
378.763191	2703.432176
379.148991	2748.200143
379.534727	2793.971299
379.920402	2841.673217
380.306013	2889.904457
380.691563	2950.569702
381.077049	3001.505521
381.462474	3061.528019
381.847835	3130.662403
382.233134	3200.023638
382.618371	3257.555807
383.003545	3341.390195
383.388657	3418.023295
383.773706	3506.598889
384.158693	3577.220413
384.543618	3665.019669
384.928480	3745.347935
385.313280	3841.744879
385.698017	3940.664920
386.082692	4052.727250
386.467305	4109.137761
386.851856	4226.992377
387.236344	4365.243500
387.620770	4421.686779
388.005133	4527.414899
388.389435	4657.580012
388.773674	4727.268922
389.157851	4840.354606
389.541965	4945.031645
389.926018	4949.941729
390.310008	5096.256178
390.693936	5182.500238
391.077802	5261.051498
391.461606	5350.874777
391.845348	5422.234830
392.229027	5493.274770
392.612645	5642.150125
392.996200	5705.109096
393.379694	5807.888140
393.763125	5946.025838
394.146494	5966.286235
394.529801	6024.758579
394.913047	6158.455020
395.296230	6091.412715
395.679351	6071.953861
396.062410	6196.951791
396.445408	6054.088012
396.828343	6084.864256
397.211217	6104.683553
397.594028	5945.551970
397.976778	6004.160424
398.359466	6032.476585
398.742092	5929.059835
399.124656	5931.603097
399.507158	5957.665862
399.889598	5880.647114
400.271977	5904.741309
400.654294	5828.277087
401.036549	5833.978632
401.418742	5746.854891
401.800874	5805.034847
402.182944	5745.438327
402.564952	5810.065919
402.946898	5617.594665
403.328783	5538.509043
403.710606	5513.207492
404.092367	5516.675806
404.474067	5545.861566
404.855705	5351.053738
405.237282	5216.490218
405.618797	5262.556282
406.000250	5235.893619
406.381642	5237.718517
406.762972	5107.296305
407.144240	4930.926497
407.525447	4887.444024
407.906593	4760.296042
408.287677	4724.314806
408.668700	4653.784023
409.049661	4538.533164
409.430560	4472.564624
409.811399	4360.580433
410.192176	4295.700783
410.572891	4207.289027
410.953545	4191.028785
411.334138	4006.038603
411.714669	4007.102287
412.095139	3812.856547
412.475547	3793.644710
412.855894	3690.293494
413.236180	3648.429232
413.616405	3536.369423
413.996568	3489.595077
414.376670	3415.976587
414.756711	3333.795697
415.136691	3290.035961
415.516609	3246.208169
415.896466	3189.482586
416.276262	3150.975732
416.655997	3122.410034
417.035670	3069.490521
417.415283	3057.568193
417.794834	3007.582632
418.174324	2947.154320
418.553753	2896.914181
418.933121	2875.171685
419.312428	2831.830364
419.691674	2791.314611
420.070859	2770.403905
420.449983	2726.598798
420.829045	2715.009186
421.208047	2680.394103
421.586988	2666.916578
421.965867	2648.501243
422.344686	2625.226236
422.723444	2614.024792
423.102141	2573.680438
423.480777	2576.896694
423.859352	2553.110009
424.237866	2555.093703
424.616319	2538.926723
424.994712	2531.871628
425.373044	2520.786131
425.751314	2517.108609
426.129524	2500.755106
426.507673	2502.854747
426.885762	2491.900319
427.263789	2490.955103
427.641756	2483.905049
428.019662	2479.473875
428.397508	2476.791981
428.775292	2473.963894
429.153016	2468.211937
429.530679	2468.375775
429.908282	2461.998715
430.285824	2462.361678
430.663305	2461.260186
431.040726	2456.166100
431.418086	2451.336675
431.795385	2453.161573
432.172624	2453.915225
432.549802	2449.945317
432.926920	2447.626386
433.303977	2443.966508
433.680974	2444.347115
434.057910	2446.129163
434.434786	2441.392999
434.811601	2445.544389
435.188355	2445.118412
435.565050	2445.090685
435.941683	2440.044490
436.318257	2440.387289
436.694770	2438.832093
437.071222	2440.951898
437.447614	2435.018460
437.823946	2436.482915
438.200218	2437.339911
438.576429	2434.269849
438.952580	2436.326639
439.328670	2433.637184
439.704700	2435.477205
440.080670	2436.331681
440.456580	2437.536516
440.832429	2437.801177
441.208218	2435.431835
441.583947	2433.664910
441.959616	2433.342276
442.335224	2436.520724
442.710773	2432.066864
443.086261	2436.175405
443.461689	2433.896803
443.837057	2435.086516
444.212365	2435.068872
444.587612	2433.801021
444.962800	2434.779005
445.337927	2434.589962
445.712995	2430.940167
446.088002	2435.109201
446.462949	2437.697833
446.837837	2437.566763
447.212664	2439.510128
447.587431	2440.546085
447.962139	2447.029009
448.336786	2455.072170
448.711374	2450.336006
449.085901	2444.853751
449.460369	2439.956270
449.834776	2443.154882
450.209124	2444.326951
450.583412	2447.822991
450.957640	2447.409616
451.331808	2446.537497
451.705917	2439.174891
452.079965	2440.059614
452.453954	2443.399378
452.827883	2443.548092
453.201752	2441.612289
453.575562	2442.131528
453.949311	2445.093206
454.323001	2444.533638
454.696632	2446.343412
455.070202	2447.417178
455.443713	2445.614965
455.817164	2448.201077
456.190556	2444.944492
456.563888	2447.223093
456.937160	2445.045315
457.310373	2444.357198
457.683526	2449.045471
458.056619	2446.913062
458.429653	2445.173864
458.802628	2448.390121
459.175542	2445.766200
459.548398	2452.513784
459.921194	2453.390945
460.293930	2455.213322
460.666607	2459.425206
461.039224	2461.865125
461.411782	2462.477625
461.784280	2463.226236
462.156719	2458.986626
462.529099	2458.472428
462.901419	2455.160390
463.273680	2454.915894
463.645882	2453.718620
464.018024	2454.757098
464.390106	2452.281891
464.762130	2461.610547
465.134094	2467.775878
465.505999	2478.430356
465.877845	2487.842191
466.249631	2489.868734
466.621358	2485.752632
466.993026	2483.342961
467.364634	2483.537045
467.736184	2475.871971
468.107674	2469.560446
468.479105	2469.661269
468.850477	2469.016002
469.221790	2462.573407
469.593043	2460.693057
469.964238	2459.054682
470.335373	2459.578962
470.706449	2465.368727
471.077467	2466.545836
471.448425	2477.885912
471.819324	2481.195429
472.190164	2479.688124
472.560945	2471.791157
472.931667	2465.802266
473.302330	2461.638273
473.672934	2460.980402
474.043479	2465.293109
474.413965	2460.756071
474.784393	2456.294650
475.154761	2457.585185
475.525070	2457.532253
475.895321	2457.733899
476.265513	2458.091821
476.635645	2464.234467
477.005719	2460.027624
477.375734	2463.747996
477.745691	2464.952832
478.115588	2465.799745
478.485427	2470.866105
478.855207	2475.884574
479.224928	2481.513022
479.594591	2485.498054
479.964194	2482.337251
480.333739	2481.689462
480.703226	2479.869606
481.072653	2482.639720
481.442022	2484.368836
481.811333	2485.840852
482.180584	2482.823722
482.549777	2481.568475
482.918912	2482.337251
483.287988	2482.007055
483.657005	2478.591673
484.025964	2478.354739
484.394864	2475.269553
484.763706	2479.791468
485.132489	2476.819708
485.501213	2474.984728
485.869879	2474.115129
486.238487	2475.942547
486.607036	2472.852320
486.975527	2473.802577
487.343959	2473.406847
487.712333	2474.498256
488.080648	2472.449027
488.448905	2472.156640
488.817104	2474.447845
489.185244	2478.291725
489.553326	2479.504122
489.921350	2485.210708
490.289315	2489.576348
490.657222	2491.486945
491.025070	2492.532984
491.392861	2489.256234
491.760593	2486.627273
492.128267	2484.441932
492.495883	2479.791468
492.863440	2478.337095
493.230939	2476.086220
493.598380	2471.226547
493.965763	2466.465178
494.333088	2468.920220
494.700354	2466.500466
495.067563	2469.867957
495.434713	2465.582976
495.801805	2472.204531
496.168839	2468.216979
496.535815	2469.716722
496.902733	2469.348718
497.269593	2469.822586
497.636395	2469.809983
498.003139	2472.645632
498.369825	2472.638071
498.736453	2472.010447
499.103023	2469.779736
499.469535	2473.076651
499.835989	2473.295941
500.202385	2475.750983
500.568723	2472.799388
500.935003	2474.261322
501.301226	2475.239306
501.667390	2476.754173
502.033497	2479.511684
502.399546	2481.182826
502.765537	2480.774493
503.131470	2479.960347
503.497345	2482.380100
503.863163	2481.878506
504.228923	2486.234063
504.594625	2486.483600
504.960269	2486.198774
505.325856	2490.670278
505.691385	2491.572644
506.056856	2493.032058
506.422270	2494.481390
506.787625	2498.378202
507.152924	2501.821310
507.518164	2504.157885
507.883347	2500.124962
508.248472	2502.673265
508.613540	2509.481343
508.978550	2509.972856
509.343503	2510.850017
509.708398	2516.375121
510.073236	2520.685308
510.438016	2518.610873
510.802738	2517.514422
511.167403	2522.916018
511.532010	2524.052799
511.896561	2525.481966
512.261053	2533.782226
512.625488	2529.963552
512.989866	2529.721576
513.354186	2533.295754
513.718449	2531.130579
514.082655	2541.505273
514.446803	2537.348842
514.810894	2541.517876
515.174927	2543.103319
515.538904	2543.274718
515.902822	2543.950233
516.266684	2543.297403
516.630488	2546.317055
516.994235	2542.629451
517.357925	2546.402754
517.721558	2546.380069
518.085133	2549.981973
518.448651	2549.445091
518.812112	2542.102650
519.175516	2546.511139
519.538863	2548.492313
519.902152	2544.177085
520.265385	2545.180274
520.628560	2541.147351
520.991678	2540.222300
521.354739	2541.122146
521.717743	2539.902186
522.080690	2536.907741
522.443580	2538.457896
522.806413	2532.637884
523.169189	2534.818183
523.531908	2532.345497
523.894569	2528.383150
524.257174	2528.247039
524.619722	2526.785104
524.982213	2523.803262
525.344647	2519.336799
525.707025	2520.231604
526.069345	2517.635410
526.431608	2511.263391
526.793815	2512.407733
527.155964	2510.466889
527.518057	2507.258195
527.880093	2501.952380
528.242072	2500.029180
528.603995	2501.037411
528.965860	2498.156391
529.327669	2496.197903
529.689421	2493.132882
530.051117	2491.537356
530.412755	2486.113075
530.774337	2484.961171
531.135862	2482.065028
531.497331	2478.838690
531.858743	2474.425160
532.220098	2475.758545
532.581396	2468.426187
532.942638	2469.936012
533.303824	2469.850313
533.664953	2468.002730
534.026025	2464.431072
534.387040	2467.808645
534.747999	2464.751185
535.108902	2462.412090
535.469748	2461.476956
535.830537	2461.943263
536.191270	2459.057202
536.551947	2459.911678
536.912567	2457.496965
537.273131	2456.186265
537.633638	2453.126285
537.994089	2454.512602
538.354483	2448.702672
538.714821	2452.304577
539.075103	2451.341716
539.435328	2451.054370
539.795497	2449.405913
540.155609	2450.429267
540.515665	2446.761828
540.875665	2448.803495
541.235609	2450.479679
541.595496	2449.879782
541.955328	2447.525563
542.315102	2445.332661
542.674821	2444.440377
543.034483	2445.627568
543.394090	2445.493978
543.753640	2445.252002
544.113134	2445.294852
544.472571	2446.000614
544.831953	2446.204780
545.191278	2445.425922
545.550548	2441.753442
545.909761	2445.302414
546.268918	2445.814091
546.628019	2441.657660
546.987064	2441.324943
547.346053	2443.359049
547.704986	2445.811570
548.063863	2440.654470
548.422684	2442.688576
548.781449	2442.915427
549.140158	2443.885850
549.498811	2443.817794
549.857408	2445.052877
550.215949	2437.977617
550.574434	2437.917123
550.932864	2438.469130
551.291237	2436.782864
551.649555	2444.354677
552.007817	2441.088009
552.366022	2440.495674
552.724173	2439.696651
553.082267	2439.731939
553.440305	2444.568926
553.798288	2443.810232
554.156215	2443.154882
554.514086	2439.610951
554.871902	2443.043977
555.229661	2438.345622
555.587365	2439.414346
555.945014	2441.047680
556.302606	2440.034408
556.660143	2438.307813
557.017625	2441.934923
557.375050	2436.893769
557.732421	2440.629264
558.089735	2440.387289
558.446994	2438.116249
558.804197	2441.864347
559.161345	2440.019285
559.518437	2436.797987
559.875474	2440.102464
560.232455	2438.867381
560.589381	2441.052721
560.946251	2438.632967
561.303065	2438.930395
561.659825	2440.543565
562.016528	2438.355704
562.373177	2438.731270
562.729770	2438.703543
563.086307	2438.522062
563.442789	2437.690272
563.799216	2437.937288
564.155587	2436.964345
564.511904	2439.971394
564.868164	2439.913420
565.224370	2439.137083
565.580520	2438.307813
565.936615	2437.644901
566.292654	2440.299069
566.648638	2439.525252
567.004567	2436.223296
567.360441	2439.507608
567.716260	2437.193718
568.072023	2438.549788
568.427732	2431.903027
568.783385	2438.000303
569.138982	2431.930753
569.494525	2436.117432
569.850013	2432.518048
570.205445	2436.200611
570.560823	2438.370827
570.916145	2435.628440
571.271412	2434.431166
571.626625	2434.998295
571.981782	2437.453337
572.336884	2436.447627
572.691931	2436.888728
573.046923	2436.616506
573.401860	2435.754468
573.756743	2438.093564
574.111570	2434.552153
574.466342	2436.316557
574.821059	2434.670620
575.175722	2434.262287
575.530330	2434.663059
575.884882	2431.850095
576.239380	2433.876639
576.593823	2435.628440
576.948211	2434.897472
577.302544	2436.303954
577.656823	2435.877977
578.011047	2436.828234
578.365216	2434.176587
578.719330	2435.376382
579.073389	2432.507965
579.427394	2435.114242
579.781344	2432.865887
580.135239	2433.475867
580.489080	2435.230188
580.842866	2435.996444
581.196597	2431.603078
581.550273	2434.665579
581.903895	2428.971596
582.257463	2432.732297
582.610975	2429.594178
582.964434	2434.012750
583.317837	2433.052410
583.671186	2434.542071
584.024481	2432.278593
584.377721	2431.325815
584.730906	2432.656679
585.084037	2432.394539
585.437113	2432.051741
585.790135	2431.565270
586.143103	2432.482760
586.496016	2431.734148
586.848874	2425.899013
587.201679	2428.570824
587.554428	2429.543767
587.907124	2431.020825
588.259765	2427.824733
588.612352	2431.247677
588.964884	2428.810279
589.317362	2429.568973
589.669786	2428.956472
590.022155	2431.177101
590.374470	2431.595517
590.726731	2431.227512
591.078937	2434.290013
591.431090	2429.969744
591.783188	2430.577203
592.135232	2430.887234
592.487222	2429.453026
592.839157	2430.733479
593.191038	2430.531833
593.542866	2429.072419
593.894639	2430.937646
594.246358	2430.788932
594.598022	2429.397573
594.949633	2429.024528
595.301190	2427.363468
595.652692	2429.296750
596.004141	2428.470001
596.355535	2429.543767
596.706876	2426.445978
597.058162	2429.074940
597.409395	2426.793817
597.760573	2427.862542
598.111698	2427.582758
598.462768	2427.786925
598.813785	2428.114600
599.164748	2427.610484
599.515657	2426.317428
599.866511	2428.076791
600.217312	2427.040834
600.568060	2426.665268
600.918753	2429.737851
601.269392	2425.115113
601.619978	2426.582089
601.970510	2428.631318
602.320988	2426.607295
602.671412	2429.425300
603.021783	2428.079312
603.372100	2426.635021
603.722363	2427.330700
604.072572	2426.259455
604.422728	2427.983530
604.772830	2424.875658
605.122878	2423.859866
605.472872	2425.142840
605.822813	2422.012283
606.172701	2425.546132
606.522534	2425.173087
606.872314	2428.165011
607.222041	2427.030752
607.571714	2425.175607
607.921333	2426.856832
608.270899	2429.458067
608.620411	2429.425300
608.969870	2427.562593
609.319276	2425.594023
609.668627	2427.318097
610.017926	2425.505803
610.367171	2426.267017
610.716362	2425.089908
611.065500	2427.706266
611.414585	2425.503282
611.763616	2427.547470
612.112594	2427.943201
612.461518	2428.011256
612.810389	2427.098807
613.159207	2426.380443
613.507971	2425.732655
613.856682	2426.491348
614.205340	2424.905905
614.553945	2430.357913
614.902496	2427.469332
615.250994	2427.983530
615.599439	2429.218613
615.947830	2430.514189
616.296169	2427.144178
616.644454	2430.577203
616.992686	2427.741554
617.340864	2427.446647
617.688990	2429.700043
618.037063	2427.408838
618.385082	2429.810948
618.733048	2427.499579
619.080961	2429.763057
619.428821	2428.447316
619.776628	2428.293561
620.124382	2424.152253
620.472083	2427.683581
620.819731	2426.619898
621.167326	2425.082346
621.514868	2429.112748
621.862357	2424.389187
622.209793	2428.260793
622.557176	2425.223498
622.904506	2426.057809
623.251783	2421.881213
623.599007	2422.344999
623.946179	2423.254927
624.293297	2423.078487
624.640363	2424.578230
624.987376	2424.119485
625.334336	2424.225350
625.681243	2425.989753
626.028097	2426.156112
626.374899	2424.399269
626.721647	2426.534198
627.068343	2421.823240
627.414987	2422.886923
627.761577	2423.136460
628.108115	2423.002870
628.454600	2424.250555
628.801032	2424.379105
629.147412	2424.938673
629.493739	2423.431368
629.840014	2423.622932
630.186236	2419.413568
630.532405	2423.922880
630.878521	2421.556059
631.224585	2422.430699
631.570597	2425.082346
631.916556	2422.579413
632.262462	2421.301480
632.608316	2423.809454
632.954117	2421.203178
633.299866	2425.626790
633.645562	2425.142840
633.991206	2422.594536
634.336797	2421.316604
634.682336	2422.705442
635.027823	2420.721748
635.373257	2421.850966
635.718639	2421.246028
636.063968	2421.349371
636.409245	2421.732499
636.754470	2419.486665
637.099642	2419.287539
637.444762	2421.044382
637.789829	2419.602612
638.134845	2420.567993
638.479808	2417.192940
638.824719	2419.348033
639.169577	2421.140163
639.514383	2419.043043
639.859137	2418.543969
640.203839	2420.663774
640.548489	2418.463311
640.893086	2420.268044
641.237632	2412.381159
641.582125	2416.315779
641.926566	2415.710841
642.270955	2418.803589
642.615292	2417.155131
642.959576	2418.438105
643.303809	2417.286201
643.647990	2420.477252
643.992118	2419.887437
644.336195	2420.414237
644.680219	2420.525143
645.024192	2419.095976
645.368112	2417.823084
645.711981	2418.392735
646.055797	2420.706624
646.399562	2416.751839
646.743274	2420.199988
647.086935	2420.172262
647.430544	2418.914494
647.774101	2419.922725
648.117606	2421.291398
648.461059	2420.147056
648.804460	2421.316604
649.147810	2421.795513
649.491108	2418.060018
649.834354	2420.903229
650.177548	2421.687129
650.520690	2417.404668
650.863781	2419.184196
651.206820	2417.132446
651.549807	2417.704617
651.892742	2419.000194
652.235626	2416.590522
652.578458	2419.259813
652.921238	2415.307548
653.263967	2417.444998
653.606644	2418.556572
653.949269	2416.570358
654.291843	2415.955337
654.634365	2415.463824
654.976836	2415.731005
655.319255	2417.984401
655.661622	2416.971129
656.003938	2416.308217
656.346203	2416.998856
656.688416	2415.635223
657.030577	2417.505492
657.372687	2414.969791
657.714746	2415.642785
658.056753	2415.438618
658.398708	2412.343350
658.740612	2415.335275
659.082465	2412.855027
659.424266	2413.863258
659.766016	2412.290418
660.107715	2415.123546
660.449362	2411.070459
660.790958	2414.422826
661.132503	2414.765624
661.473996	2416.333423
661.815438	2416.479617
662.156829	2416.731674
662.498168	2415.012641
662.839456	2418.380132
663.180693	2414.621952
663.521879	2417.785276
663.863013	2419.332910
664.204097	2416.492220
664.545129	2415.254616
664.886110	2416.136818
665.227040	2414.286715
665.567918	2417.742426
665.908746	2414.742939
666.249522	2417.429874
666.590248	2417.523136
666.930922	2418.682601
667.271545	2417.843249
667.612118	2417.172775
667.952639	2414.440470
668.293109	2416.638413
668.633528	2417.576068
668.973896	2419.763928
669.314213	2414.178330
669.654480	2414.753022
669.994695	2417.792837
670.334859	2415.554565
670.674973	2417.830646
671.015035	2415.917528
671.355047	2415.962898
671.695008	2414.697569
672.034918	2411.627506
672.374777	2415.756211
672.714585	2415.985584
673.054342	2415.567168
673.394049	2418.249062
673.733705	2416.237641
674.073310	2418.722930
674.412864	2418.143197
674.752368	2414.324523
675.091820	2417.931469
675.431223	2414.110274
675.770574	2414.576581
676.109875	2410.765469
676.449125	2413.129770
676.788324	2410.336971
677.127473	2415.100861
677.466571	2410.669687
677.805619	2412.257650
678.144616	2413.091961
678.483562	2414.213618
678.822458	2415.272260
679.161303	2413.717064
679.500098	2414.344688
679.838842	2413.165058
680.177535	2413.626324
680.516179	2415.592374
680.854771	2415.491551
681.193314	2415.110943
681.531805	2418.085224
681.870247	2417.339133
682.208638	2416.197312
682.546978	2414.803433
682.885268	2416.406520
683.223508	2418.044895
683.561697	2415.415933
683.899836	2417.593712
684.237925	2415.141190
684.575963	2416.013310
684.913951	2416.159503
685.251889	2417.601273
685.589776	2414.841242
685.927614	2412.242527
686.265401	2413.069276
686.603137	2413.593556
686.940824	2416.265368
687.278460	2415.741088
687.616046	2414.677404
687.953582	2416.252765
688.291068	2415.340316
688.628504	2416.025913
688.965889	2414.866448
689.303224	2415.209246
689.640510	2417.593712
689.977745	2416.915677
690.314930	2416.517425
690.652065	2415.153793
690.989150	2412.708834
691.326185	2412.744122
691.663170	2412.605490
692.000105	2414.352250
692.336990	2411.020047
692.673825	2412.182033
693.010610	2411.892167
693.347345	2412.630696
693.684030	2409.691703
694.020665	2409.043915
694.357251	2406.127607
694.693786	2410.967115
695.030272	2412.061045
695.366707	2411.327558
695.703093	2409.880746
696.039429	2409.502660
696.375716	2409.716909
696.711952	2412.600449
697.048139	2410.508370
697.384276	2412.396282
697.720363	2408.736404
698.056400	2407.120715
698.392388	2410.662125
698.728326	2412.567681
699.064214	2408.736404
699.400053	2409.802608
699.735842	2409.535427
700.071581	2406.112484
700.407270	2407.942423
700.742910	2410.077351
701.078501	2410.967115
701.414042	2409.172464
701.749533	2407.524007
702.084974	2408.209604
702.420366	2409.260684
702.755709	2407.299676
703.091002	2409.139697
703.426246	2407.244223
703.761440	2406.417474
704.096584	2409.401837
704.431679	2409.754717
704.766725	2408.922927
705.101721	2408.706157
705.436668	2410.463000
705.771565	2407.196332
706.106413	2408.295303
706.441212	2408.151631
706.775961	2408.494429
707.110661	2409.482495
707.445311	2407.733215
707.779913	2407.075344
708.114465	2405.792371
708.448967	2408.809501
708.783421	2406.984603
709.117825	2410.006775
709.452180	2409.822773
709.786485	2408.191960
710.120742	2410.445356
710.454949	2410.485685
710.789107	2407.478637
711.123216	2404.887483
711.457275	2408.229768
711.791286	2404.695920
712.125247	2409.948802
712.459159	2406.843451
712.793023	2409.694224
713.126837	2411.075500
713.460602	2412.673546
713.794318	2410.238668
714.127985	2409.895870
714.461602	2406.533420
714.795171	2409.802608
715.128691	2408.217166
715.462162	2408.718760
715.795584	2408.237330
716.128957	2409.948802
716.462281	2407.539130
716.795556	2407.292114
717.128782	2406.941754
717.461960	2406.919068
717.795088	2405.021074
718.128167	2407.037536
718.461198	2406.800601
718.794180	2408.323030
719.127113	2402.901269
719.459997	2406.692217
719.792833	2408.002917
720.125619	2408.257495
720.458357	2404.673234
720.791046	2406.175498
721.123686	2404.781619
721.456278	2404.332957
721.788821	2407.261867
722.121315	2407.047618
722.453761	2405.799932
722.786158	2403.670045
723.118506	2406.735066
723.450805	2403.281876
723.783056	2404.832031
724.115259	2402.414798
724.447412	2403.060065
724.779518	2406.359500
725.111574	2403.528893
725.443582	2405.880591
725.775542	2407.289593
726.107453	2408.764131
726.439315	2405.182391
726.771129	2410.974677
727.102895	2404.506876
727.434612	2407.087947
727.766281	2404.945457
728.097901	2401.567884
728.429473	2404.466547
728.760996	2405.000909
729.092471	2402.928995
729.423897	2405.938564
729.755276	2405.406722
730.086606	2409.351425
730.417887	2406.576270
730.749120	2408.973339
731.080305	2408.418812
731.411442	2411.662794
731.742530	2408.587690
732.073570	2407.483678
732.404562	2408.058369
732.735506	2406.261198
733.066401	2405.137021
733.397249	2409.739594
733.728048	2406.931671
734.058798	2404.937895
734.389501	2405.757083
734.720156	2405.351270
735.050762	2406.470406
735.381320	2407.518966
735.711831	2403.612072
736.042293	2404.816907
736.372707	2405.527710
736.703073	2405.946126
737.033391	2406.346898
737.363661	2402.961763
737.693883	2405.827659
738.024056	2407.808832
738.354182	2407.917217
738.684260	2405.936043
739.014290	2406.180539
739.344272	2406.392268
739.674207	2406.954357
740.004093	2407.647515
740.333931	2407.546692
740.663722	2405.323543
740.993464	2404.816907
741.323159	2405.701630
741.652806	2407.065262
741.982405	2406.760272
742.311956	2405.769685
742.641460	2407.249264
742.970915	2405.331105
743.300323	2404.378327
743.629683	2404.423697
743.958996	2404.766496
744.288260	2405.973852
744.617477	2403.949829
744.946647	2400.176525
745.275768	2400.910013
745.604842	2402.084602
745.933869	2400.262225
746.262847	2399.125445
746.591778	2403.039901
746.920662	2401.721639
747.249498	2404.222051
747.578286	2403.561660
747.907027	2404.653070
748.235720	2403.665004
748.564365	2403.551578
748.892963	2402.898748
749.221514	2405.469737
749.550017	2403.700292
749.878473	2405.187432
750.206881	2406.135169
750.535242	2404.842113
750.863555	2402.944119
751.191821	2401.741803
751.520039	2404.496794
751.848210	2402.064437
752.176334	2403.760786
752.504411	2401.799777
752.832440	2404.232133
753.160421	2402.387071
753.488356	2404.020405
753.816243	2402.293810
754.144082	2400.090826
754.471875	2402.437483
754.799620	2402.026629
755.127318	2405.227761
755.454969	2403.382699
755.782572	2403.566701
756.110129	2403.823800
756.437638	2403.360014
756.765100	2402.465209
757.092515	2401.656104
757.419882	2404.968142
757.747203	2404.148954
758.074477	2401.903120
758.401703	2402.631567
758.728882	2403.659963
759.056014	2402.450086
759.383099	2404.900086
759.710138	2402.230795
760.037129	2405.784809
760.364073	2404.012843
760.690970	2404.799263
761.017820	2403.291958
761.344623	2403.327246
761.671379	2404.998389
761.998088	2401.000754
762.324751	2403.803635
762.651366	2403.488563
762.977935	2408.943092
763.304456	2407.924779
763.630931	2412.618093
763.957359	2411.695562
764.283740	2409.590880
764.610074	2410.528535
764.936362	2408.824625
765.262602	2405.905797
765.588796	2405.797412
765.914943	2404.201887
766.241044	2403.332288
766.567097	2401.338511
766.893104	2403.110477
767.219064	2402.792884
767.544978	2403.566701
767.870845	2401.719118
768.196665	2402.203069
768.522438	2401.000754
768.848165	2400.131155
769.173846	2399.173336
769.499479	2403.443193
769.825066	2402.626526
770.150607	2401.235168
770.476101	2402.006464
770.801548	2401.313305
771.126949	2400.239540
771.452303	2401.371279
771.777611	2398.442368
772.102872	2400.524365
772.428087	2399.160733
772.753256	2401.341032
773.078378	2400.017729
773.403453	2399.112842
773.728482	2400.231978
774.053465	2401.567884
774.378401	2400.935219
774.703291	2401.701474
775.028135	2401.449417
775.352932	2400.340363
775.677683	2401.711557
776.002388	2400.536968
776.327046	2399.800959
776.651658	2400.448748
776.976224	2398.369272
777.300743	2398.097049
777.625216	2398.490259
777.949643	2399.984961
778.274024	2400.332801
778.598359	2397.744168
778.922647	2395.145454
779.246889	2394.071688
779.571086	2394.807696
779.895236	2396.317522
780.219339	2398.457492
780.543397	2401.225085
780.867409	2398.606206
781.191374	2398.396998
781.515294	2397.484549
781.839167	2402.772719
782.162995	2398.160064
782.486776	2400.335322
782.810511	2401.020918
783.134201	2399.584190
783.457844	2399.407749
783.781441	2397.852553
784.104993	2397.991185
784.428498	2397.582852
784.751958	2396.647718
785.075372	2398.306257
785.398739	2396.945146
785.722061	2400.148799
786.045337	2399.458161
786.368568	2398.510424
786.691752	2400.610064
787.014891	2398.770043
787.337983	2401.898079
787.661030	2399.760630
787.984031	2400.259704
788.306987	2399.916906
788.629897	2403.173491
788.952760	2401.830024
789.275579	2401.237688
789.598351	2399.415311
789.921078	2399.405229
790.243759	2400.045455
790.566395	2396.972872
790.888984	2402.031670
791.211529	2399.241391
791.534027	2400.869684
791.856480	2400.037893
792.178888	2399.122924
792.501249	2403.039901
792.823566	2397.953376
793.145836	2397.403891
793.468062	2399.057389
793.790241	2399.460681
794.112375	2399.072513
794.434464	2396.917419
794.756507	2397.882800
795.078505	2397.408932
795.400457	2397.638304
795.722364	2398.681823
796.044226	2399.218706
796.366042	2393.197048
796.687812	2395.321894
797.009538	2398.888510
797.331218	2400.030332
797.652852	2396.748541
797.974442	2401.887997
798.295986	2398.558315
798.617484	2397.068654
798.938938	2400.821793
799.260346	2399.526216
799.581709	2401.003274
799.903026	2401.119221
800.224299	2398.283572
800.545526	2397.214847
800.866708	2397.053530
801.187845	2398.076885
801.508936	2398.689385
801.829983	2398.878428
802.150984	2397.224930
802.471940	2402.881104
802.792851	2398.245763
803.113717	2398.061761
803.434538	2397.476987
803.755314	2396.486401
804.076045	2397.857594
804.396731	2398.896072
804.717372	2396.549415
805.037967	2397.638304
805.358518	2398.964128
805.679024	2396.849364
805.999485	2395.699981
806.319901	2399.972358
806.640272	2397.726524
806.960598	2398.172667
807.280879	2395.306771
807.601115	2395.205947
807.921306	2398.467574
808.241453	2401.111659
808.561554	2395.987326
808.881611	2397.340876
809.201623	2398.520506
809.521590	2398.452451
809.841513	2396.829199
810.161390	2397.930691
810.481223	2398.031514
810.801011	2399.594272
811.120755	2398.281051
811.440453	2399.490928
811.760107	2399.133006
812.079716	2397.237532
812.399281	2394.525392
812.718801	2396.834240
813.038276	2394.192676
813.357707	2395.672254
813.677093	2396.579662
813.996434	2394.706873
814.315731	2395.382388
814.634983	2397.048489
814.954191	2397.227450
815.273354	2395.629404
815.592473	2396.191493
815.911547	2396.839281
816.230577	2398.656617
816.549562	2396.781308
816.868502	2395.558828
817.187399	2398.384395
817.506250	2400.468912
817.825058	2396.037738
818.143821	2397.731566
818.462539	2401.189797
818.781213	2398.815414
819.099843	2399.700136
819.418429	2400.622667
819.736970	2401.530075
820.055466	2401.862791
820.373919	2404.093502
820.692327	2405.747000
821.010691	2409.374110
821.329011	2417.271078
821.647286	2432.472677
821.965517	2439.742021
822.283704	2453.484207
822.601847	2454.230297
822.919945	2447.359205
823.237999	2438.605241
823.556010	2433.979982
823.873976	2426.897161
824.191897	2423.761563
824.509775	2416.867786
824.827609	2412.706313
825.145398	2412.728998
825.463144	2413.401992
825.780845	2411.440983
826.098502	2414.337126
826.416116	2414.407702
826.733685	2416.645975
827.051210	2419.068249
827.368692	2419.489186
827.686129	2414.523649
828.003522	2409.192629
828.320872	2404.206928
828.638177	2403.917061
828.955439	2399.780795
829.272656	2400.161402
829.589830	2398.878428
829.906960	2403.012174
830.224046	2401.431773
830.541088	2401.217523
830.858086	2398.787687
831.175041	2398.467574
831.491952	2401.693912
831.808819	2398.701988
832.125642	2399.894221
832.442421	2401.275497
832.759157	2400.995713
833.075849	2402.276166
833.392497	2404.769016
833.709101	2408.106260
834.025662	2406.669531
834.342179	2407.150962
834.658653	2404.035528
834.975083	2403.707853
835.291469	2406.235992
835.607811	2403.314643
835.924110	2399.024622
836.240366	2402.243398
836.556578	2397.565208
836.872746	2398.218037
837.188871	2396.766185
837.504952	2396.584703
837.820990	2398.369272
838.136984	2399.503531
838.452935	2398.477656
838.768842	2399.574107
839.084706	2397.456823
839.400526	2396.095711
839.716303	2400.456309
840.032037	2398.946484
840.347727	2402.200548
840.663373	2401.335991
840.978977	2397.857594
841.294537	2397.676113
841.610054	2398.840619
841.925527	2396.289796
842.240957	2393.391132
842.556344	2398.202913
842.871687	2393.731410
843.186987	2395.914230
843.502244	2395.896586
843.817458	2395.294168
844.132629	2396.602347
844.447756	2393.809548
844.762840	2391.846018
845.077881	2393.680998
845.392879	2391.616646
845.707833	2393.489435
846.022745	2391.256203
846.337613	2397.908006
846.652438	2394.825340
846.967221	2394.666544
847.281960	2395.521020
847.596656	2396.057902
847.911309	2392.879455
848.225919	2391.283930
848.540485	2394.578324
848.855009	2395.828530
849.169490	2391.629249
849.483928	2392.892058
849.798323	2393.048334
850.112675	2391.031872
850.426984	2392.065309
850.741251	2395.026987
851.055474	2393.935577
851.369654	2393.922974
851.683792	2394.608571
851.997887	2394.152346
852.311938	2391.669578
852.625947	2396.191493
852.939914	2393.807027
853.253837	2395.334497
853.567718	2394.477501
853.881555	2391.455329
854.195350	2392.463560
854.509103	2392.609753
854.822812	2393.617984
855.136479	2393.406256
855.450103	2394.878273
855.763685	2395.354662
856.077224	2394.666544
856.390720	2393.048334
856.704173	2392.967675
857.017584	2391.868704
857.330953	2395.394991
857.644278	2394.187634
857.957561	2397.703839
858.270802	2394.323746
858.584000	2393.055895
858.897155	2393.978427
859.210268	2395.430279
859.523339	2393.897768
859.836367	2394.969013
860.149352	2393.650752
860.462295	2393.252500
860.775195	2391.646893
861.088054	2388.682694
861.400869	2392.357696
861.713642	2389.617828
862.026373	2393.146636
862.339062	2395.198386
862.651708	2392.700494
862.964312	2392.496327
863.276873	2394.059085
863.589392	2393.839795
863.901869	2395.873900
864.214303	2393.567573
864.526696	2394.023797
864.839045	2395.921791
865.151353	2392.403066
865.463619	2395.775598
865.775842	2395.798283
866.088023	2394.333828
866.400162	2395.314332
866.712258	2395.871380
867.024313	2395.536143
867.336325	2392.909702
867.648296	2394.991698
867.960224	2393.466749
868.272110	2393.219733
868.583954	2392.801317
868.895755	2395.508417
869.207515	2396.138561
869.519233	2395.962121
869.830909	2396.030176
870.142542	2395.158057
870.454134	2393.928015
870.765684	2393.691081
871.077191	2395.362223
871.388657	2392.140926
871.700081	2394.535474
872.011463	2394.290978
872.322803	2393.643190
872.634101	2395.694939
872.945357	2392.440875
873.256571	2394.202758
873.567744	2391.677140
873.878874	2391.122613
874.189963	2394.119579
874.501010	2394.328787
874.812015	2393.194527
875.122979	2394.853067
875.433900	2394.253169
875.744780	2395.667213
876.055618	2393.348282
876.366415	2396.393139
876.677169	2396.894734
876.987882	2392.801317
877.298554	2389.902654
877.609183	2393.086142
877.919771	2391.228477
878.230317	2392.503889
878.540822	2394.520351
878.851285	2393.028169
879.161707	2394.447254
879.472087	2397.255177
879.782425	2396.882131
880.092722	2400.778943
880.402977	2403.667524
880.713191	2412.270253
881.023363	2414.684966
881.333494	2421.029258
881.643583	2420.540266
881.953631	2418.334761
882.263637	2417.964237
882.573602	2418.773342
882.883526	2415.032806
883.193408	2413.303690
883.503248	2410.072310
883.813048	2408.212124
884.122806	2408.600293
884.432522	2405.414284
884.742197	2402.664335
885.051831	2402.351783
885.361424	2401.275497
885.670975	2400.799108
885.980485	2398.220558
886.289954	2398.971689
886.599382	2396.768705
886.908768	2398.581000
887.218113	2396.473798
887.527417	2394.530433
887.836680	2394.177552
888.145901	2392.390463
888.455082	2395.846174
888.764221	2396.393139
889.073319	2395.702501
889.382376	2396.526730
889.691392	2393.620505
890.000366	2395.120248
890.309300	2394.442213
890.618193	2395.909188
890.927044	2393.812068
891.235855	2395.848695
891.544625	2393.597819
891.853353	2394.157388
892.162041	2393.761657
892.470687	2392.662685
892.779293	2395.770557
893.087858	2395.132851
893.396381	2394.989178
893.704864	2396.335166
894.013306	2394.737120
894.321707	2402.256001
894.630068	2402.898748
894.938387	2402.911351
895.246665	2402.603841
895.554903	2401.930847
895.863100	2399.039745
896.171256	2400.491597
896.479371	2398.817934
896.787446	2398.976731
897.095480	2396.864487
897.403473	2397.229971
897.711425	2397.252656
898.019336	2396.130999
898.327207	2395.810886
898.635038	2394.969013
898.942827	2395.485732
899.250576	2398.059241
899.558284	2391.447767
899.865952	2396.055382
900.173579	2392.211502
900.481165	2394.210320
900.788711	2393.421379
901.096216	2393.461708
901.403681	2395.294168
901.711105	2392.342572
902.018489	2392.007335
902.325832	2397.214847
902.633135	2390.590771
902.940397	2394.931205
903.247619	2398.301216
903.554800	2400.121073
903.861941	2401.593089
904.169041	2402.457647
904.476101	2402.321536
904.783121	2402.041752
905.090100	2400.529406
905.397039	2402.417318
905.703938	2395.979765
906.010796	2400.930178
906.317614	2398.502862
906.624391	2395.505896
906.931129	2394.316184
907.237826	2397.552605
907.544483	2397.292985
907.851099	2396.050341
908.157675	2395.889024
908.464211	2391.639331
908.770707	2386.136912
909.077163	2390.888199
909.383578	2389.655637
909.689954	2390.111862
909.996289	2389.927859
910.302584	2394.142264
910.608839	2391.934239
910.915054	2392.619836
911.221229	2391.924156
911.527363	2393.348282
911.833458	2391.838457
912.139513	2390.555483
912.445527	2389.630431
912.751502	2390.366440
913.057436	2393.491955
913.363331	2394.563200
913.669186	2391.876265
913.975000	2390.517674
914.280775	2394.590927
914.586510	2395.505896
914.892205	2398.565877
915.197859	2397.580331
915.503475	2399.344735
915.809050	2402.140055
916.114585	2402.560991
916.420081	2404.108625
916.725536	2401.850188
917.030952	2401.489746
917.336328	2401.320867
917.641665	2400.612585
917.946961	2401.625857
918.252218	2399.919426
918.557435	2399.432955
918.862612	2395.538664
919.167750	2394.374157
919.472848	2396.010012
919.777906	2394.207799
920.082925	2396.214178
920.387904	2395.246277
920.692843	2396.524209
920.997743	2393.965824
921.302603	2393.287788
921.607423	2391.541029
921.912204	2394.744682
922.216946	2393.744013
922.521647	2394.774929
922.826310	2391.861142
923.130932	2393.786863
923.435516	2392.332490
923.740059	2393.365926
924.044564	2392.824002
924.349028	2394.550598
924.653454	2387.162787
924.957840	2387.046840
925.262186	2389.758981
925.566493	2393.522202
925.870761	2385.584905
926.174989	2391.709907
926.479178	2389.905174
926.783328	2393.791904
927.087438	2389.438868
927.391509	2392.902140
927.695541	2390.011038
927.999533	2391.485576
928.303486	2393.239898
928.607400	2391.480535
928.911275	2391.016749
929.215110	2391.162942
929.518906	2392.410628
929.822663	2389.317880
930.126381	2390.381563
930.430060	2391.299053
930.733699	2389.930380
931.037299	2389.900133
931.340861	2387.881151
931.644383	2391.825854
931.947866	2391.873745
932.251309	2392.075391
932.554714	2391.246121
932.858080	2393.252500
933.161407	2391.026831
933.464694	2391.241080
933.767943	2390.860473
934.071153	2391.384753
934.374323	2392.214023
934.677455	2389.022972
934.980548	2392.924825
935.283602	2391.026831
935.586617	2392.582027
935.889593	2390.736965
936.192530	2390.467263
936.495428	2390.520195
936.798287	2391.084804
937.101108	2391.611605
937.403890	2390.205123
937.706632	2391.984650
938.009336	2390.963817
938.312002	2392.627397
938.614628	2391.041954
938.917216	2390.716800
939.219765	2390.706718
939.522275	2393.118910
939.824747	2393.358365
940.127179	2390.575648
940.429573	2384.649771
940.731929	2390.525236
941.034246	2386.835112
941.336524	2393.139074
941.638763	2390.981461
941.940964	2389.776625
942.243126	2388.644886
942.545250	2389.572458
942.847335	2391.508261
943.149381	2392.108158
943.451389	2391.896430
943.753359	2393.560011
944.055290	2394.449774
944.357182	2390.215205
944.659036	2389.529608
944.960851	2390.421893
945.262628	2390.263096
945.564367	2391.931718
945.866067	2391.306615
946.167729	2388.957437
946.469352	2391.251162
946.770937	2391.800648
947.072484	2389.885010
947.373992	2391.750237
947.675462	2388.115565
947.976893	2390.278220
948.278286	2391.823333
948.579641	2392.347613
948.880958	2392.660165
949.182236	2388.299567
949.483476	2389.862324
949.784678	2392.637480
950.085841	2390.792417
950.386967	2391.765360
950.688054	2388.148332
950.989103	2389.383415
951.290114	2392.418189
951.591087	2391.074722
951.892021	2392.171173
952.192917	2391.893909
952.493776	2388.707900
952.794596	2391.583878
953.095378	2390.827705
953.396122	2390.832747
953.696828	2389.249824
953.997496	2391.805689
954.298126	2391.205792
954.598718	2390.323590
954.899272	2388.390308
955.199788	2389.574979
955.500266	2391.601523
955.800706	2390.192520
956.101108	2383.996942
956.401472	2388.788559
956.701798	2386.262941
957.002087	2386.842673
957.302337	2389.867366
957.602550	2388.909546
957.902724	2390.028683
958.202861	2390.815103
958.502960	2390.459701
958.803022	2390.227808
959.103045	2389.045658
959.403031	2390.421893
959.702979	2388.420554
960.002889	2390.547921
960.302762	2388.140770
960.602596	2390.041285
960.902393	2386.714124
961.202153	2390.434495
961.501875	2392.186296
961.801559	2391.097407
962.101205	2391.737634
962.400814	2389.106151
962.700385	2389.146481
962.999918	2389.879968
963.299414	2389.590102
963.598873	2389.958106
963.898293	2389.179248
964.197677	2388.115565
964.497022	2388.160935
964.796331	2389.678322
965.095601	2390.910884
965.394835	2388.425596
965.694030	2391.432644
965.993189	2387.155225
966.292309	2388.097921
966.591393	2388.866697
966.890439	2388.995246
967.189447	2390.174876
967.488419	2391.122613
967.787353	2392.375340
968.086249	2387.079608
968.385108	2388.052550
968.683930	2387.639176
968.982714	2387.863507
969.281462	2390.545401
969.580172	2387.331665
969.878844	2387.792931
970.177480	2387.732437
970.476078	2386.089021
970.774639	2391.450288
971.073162	2388.728065
971.371649	2387.026675
971.670098	2387.785369
971.968510	2386.086500
972.266885	2384.193547
972.565223	2386.890564
972.863524	2389.900133
973.161788	2389.017931
973.460014	2388.539022
973.758204	2389.698487
974.056356	2389.902654
974.354471	2390.497510
974.652550	2391.508261
974.950591	2390.656306
975.248595	2388.491131
975.546563	2387.079607
975.844493	2392.604712
976.142386	2389.396018
976.440243	2387.067005
976.738062	2388.302087
977.035845	2386.363764
977.333590	2389.353168
977.631299	2389.534649
977.928971	2388.105482
978.226606	2390.268137
978.524204	2391.351985
978.821765	2388.791079
979.119290	2389.539691
979.416777	2390.900802
979.714228	2389.643034
980.011642	2389.280071
980.309020	2390.293343
980.606360	2389.731254
980.903664	2392.014897
981.200931	2390.817623
981.498162	2390.810061
981.795356	2392.093035
982.092513	2391.505741
982.389633	2389.388456
982.686717	2391.147819
982.983764	2392.569424
983.280775	2388.027344
983.577749	2390.079094
983.874686	2389.418703
984.171587	2391.934239
984.468451	2390.008518
984.765279	2392.544218
985.062070	2388.733106
985.358824	2389.764022
985.655543	2390.678991
985.952224	2387.281254
986.248869	2389.547252
986.545478	2385.128681
986.842050	2387.251007
987.138586	2386.756974
987.435086	2386.530122
987.731549	2384.692621
988.027975	2387.450132
988.324366	2388.405431
988.620719	2390.794938
988.917037	2389.879968
989.213318	2386.242776
989.509563	2388.796120
989.805772	2386.966182
990.101944	2389.506923
990.398080	2386.976264
990.694180	2386.663712
990.990244	2387.404762
991.286271	2386.648589
991.582262	2388.443240
991.878217	2386.434340
992.174136	2389.562376
992.470019	2386.199926
992.765865	2387.682025
993.061676	2388.165976
993.357450	2388.176058
993.653188	2387.845863
993.948890	2388.387787
994.244556	2391.167983
994.540186	2389.378374
994.835780	2389.022972
995.131337	2389.146481
995.426859	2387.414844
995.722345	2391.644372
996.017795	2387.452653
996.313208	2390.414331
996.608586	2387.130019
996.903928	2391.089845
997.199234	2387.924001
997.494504	2386.749412
997.789738	2386.925852
998.084936	2388.907026
998.380099	2389.317880
998.675225	2389.900133
998.970316	2388.488610
999.265371	2388.168497
999.560390	2390.595812
999.855373	2387.258568
1000.150320	2390.628580
1000.445232	2388.690256
1000.740108	2387.729916
1001.034948	2387.530791
1001.329752	2388.271840
1001.624521	2387.898795
1001.919254	2381.877137
1002.213951	2387.142622
1002.508613	2385.191695
1002.803239	2388.044988
1003.097829	2383.071890
1003.392384	2389.237221
1003.686903	2389.295195
1003.981386	2389.267468
1004.275834	2385.277395
1004.570246	2388.256717
1004.864623	2389.005328
1005.158964	2389.496841
1005.453270	2387.868548
1005.747540	2387.586243
1006.041775	2388.377705
1006.335974	2388.806203
1006.630138	2387.656820
1006.924266	2387.878630
1007.218359	2386.343599
1007.512416	2388.274361
1007.806438	2386.083980
1008.100425	2387.734958
1008.394376	2387.266130
1008.688292	2387.152704
1008.982172	2388.196223
1009.276017	2387.094731
1009.569827	2388.521378
1009.863602	2389.297715
1010.157341	2386.799823
1010.451045	2387.702190
1010.744714	2388.723024
1011.038347	2387.026675
1011.331945	2385.373177
1011.625508	2387.828219
1011.919036	2387.394680
1012.212528	2387.992056
1012.505986	2387.555997
1012.799408	2384.349823
1013.092795	2386.451984
1013.386147	2387.944165
1013.679464	2386.630945
1013.972745	2389.171686
1014.265992	2385.983157
1014.559204	2388.498692
1014.852380	2386.033568
1015.145521	2388.619680
1015.438628	2386.751933
1015.731699	2390.434495
1016.024736	2386.076418
1016.317737	2388.279402
1016.610703	2388.481048
1016.903635	2387.699669
1017.196531	2383.644061
1017.489393	2387.056922
1017.782219	2383.528115
1018.075011	2387.351830
1018.367768	2388.150853
1018.660490	2386.580533
1018.953177	2386.580533
1019.245829	2386.580533
