Dividing Wavelength (nm)	Counts (n)	Blue Motor Position (mm): 0.000000	Red Motor Position (mm): 16.400000	
326.493990	1982.169089
326.888308	1982.169089
327.282561	1982.169089
327.676750	1956.197065
328.070874	1958.415172
328.464933	1964.439351
328.858929	1971.731380
329.252859	1987.013638
329.646726	2003.024343
330.040528	2013.265447
330.434265	2034.985258
330.827938	2055.139791
331.221547	2072.042780
331.615091	2094.327201
332.008571	2116.110027
332.401986	2136.415794
332.795338	2156.565286
333.188625	2176.505570
333.581847	2196.589527
333.975006	2213.696683
334.368100	2231.333159
334.761129	2247.520304
335.154095	2262.033786
335.546996	2278.241096
335.939833	2297.095011
336.332606	2307.426856
336.725315	2319.596202
337.117960	2327.019301
337.510540	2334.641525
337.903056	2343.067814
338.295508	2350.710203
338.687896	2356.759588
339.080220	2365.082533
339.472480	2369.574201
339.864676	2373.589480
340.256807	2374.910262
340.648875	2377.113246
341.040879	2378.655839
341.432818	2378.023175
341.824694	2382.209853
342.216506	2381.020141
342.608253	2383.205481
342.999937	2379.404451
343.391557	2377.186343
343.783113	2377.566950
344.174605	2376.979656
344.566033	2373.990252
344.957397	2373.750797
345.348697	2370.574870
345.739934	2370.053110
346.131106	2368.881042
346.522215	2367.406505
346.913260	2365.352234
347.304241	2360.694208
347.695159	2362.269569
348.086012	2358.070288
348.476802	2356.066429
348.867528	2357.256141
349.258191	2357.276306
349.648789	2355.574917
350.039324	2353.656758
350.429796	2353.497961
350.820203	2353.482838
351.210548	2351.194154
351.600828	2351.695749
351.991045	2351.857066
352.381198	2353.687004
352.771288	2351.874710
353.161314	2351.249607
353.551276	2352.308249
353.941175	2353.999556
354.331010	2353.190451
354.720782	2353.266068
355.110490	2353.772704
355.500135	2352.517457
355.889717	2353.069463
356.279235	2355.010307
356.668689	2355.622808
357.058080	2355.348065
357.447408	2353.611387
357.836672	2351.226921
358.225873	2352.774556
358.615010	2351.975533
359.004084	2357.351923
359.393095	2358.937366
359.782043	2358.723117
360.170927	2362.806452
360.559748	2360.573221
360.948505	2360.038858
361.337199	2360.104393
361.725830	2362.761081
362.114398	2363.048427
362.502903	2366.244519
362.891344	2362.940042
363.279722	2364.472553
363.668037	2366.983048
364.056289	2366.027749
364.444478	2368.253418
364.832603	2369.244005
365.220665	2371.751979
365.608665	2370.678213
365.996601	2368.961701
366.384474	2370.642925
366.772284	2371.638553
367.160031	2371.618389
367.547715	2372.619058
367.935336	2375.802546
368.322893	2374.779192
368.710388	2377.251878
369.097820	2376.780530
369.485189	2378.033257
369.872495	2379.157434
370.259738	2381.783875
370.646918	2383.386962
371.034035	2380.942003
371.421090	2387.447612
371.808081	2389.882489
372.195010	2393.809548
372.581875	2397.051010
372.968678	2405.149623
373.355418	2412.945768
373.742096	2424.681574
374.128710	2431.288006
374.515262	2442.630602
374.901751	2459.710032
375.288177	2475.839203
375.674540	2495.255207
376.060841	2516.412930
376.447079	2540.212217
376.833254	2563.774570
377.219367	2585.259968
377.605417	2624.142388
377.991404	2646.426808
378.377329	2688.618745
378.763191	2721.721482
379.148991	2769.932557
379.534727	2820.202943
379.920402	2861.351361
380.306013	2910.013619
380.691563	2973.133907
381.077049	3026.330683
381.462474	3080.465113
381.847835	3155.661485
382.233134	3224.437947
382.618371	3282.194446
383.003545	3366.127137
383.388657	3445.621092
383.773706	3537.919578
384.158693	3607.621092
384.543618	3700.751368
384.928480	3782.052576
385.313280	3880.912124
385.698017	3981.589007
386.082692	4102.087708
386.467305	4159.836646
386.851856	4284.199390
387.236344	4438.657824
387.620770	4498.093028
388.005133	4616.396305
388.389435	4763.905508
388.773674	4843.593547
389.157851	4977.068178
389.541965	5108.954845
389.926018	5130.241117
390.310008	5306.063960
390.693936	5428.289256
391.077802	5538.491399
391.461606	5674.269837
391.845348	5785.134893
392.229027	5903.627214
392.612645	6123.023270
392.996200	6237.044088
393.379694	6404.992649
393.763125	6627.947760
394.146494	6716.278858
394.529801	6852.236256
394.913047	7090.955056
395.296230	7085.482883
395.679351	7142.279043
396.062410	7391.833802
396.445408	7280.358767
396.828343	7437.216790
397.211217	7563.651449
397.594028	7453.519881
397.976778	7650.502968
398.359466	7810.458779
398.742092	7786.243597
399.124656	7931.743900
399.507158	8111.778627
399.889598	8138.126218
400.271977	8335.358841
400.654294	8366.424952
401.036549	8555.871513
401.418742	8585.160617
401.800874	8877.953353
402.182944	8954.619221
402.564952	9313.882091
402.946898	9129.597671
403.328783	9189.345426
403.710606	9381.612513
404.092367	9624.550758
404.474067	9979.465633
404.855705	9768.077450
405.237282	9718.457372
405.618797	10130.032296
406.000250	10369.046003
406.381642	10701.729389
406.762972	10651.779116
407.144240	10440.791704
407.525447	10676.548825
407.906593	10597.296846
408.287677	10832.144039
408.668700	10959.811260
409.049661	10912.426934
409.430560	11045.833509
409.811399	10984.545681
410.192176	11111.068561
410.572891	11146.568366
410.953545	11562.806357
411.334138	11030.911694
411.714669	11544.015456
412.095139	10844.199958
412.475547	11252.241033
412.855894	11060.412526
413.236180	11294.992538
413.616405	10938.240163
413.996568	11119.835127
414.376670	11022.737463
414.756711	10837.810296
415.136691	10995.989101
415.516609	11057.781044
415.896466	11025.028667
416.276262	11165.064359
416.655997	11419.546847
417.035670	11349.845333
417.415283	11760.893456
417.794834	11713.972917
418.174324	11391.276056
418.553753	11188.306599
418.933121	11432.754670
419.312428	11151.516258
419.691674	10952.746083
420.070859	11141.214661
420.449983	10756.315003
420.829045	10996.039512
421.208047	10671.588330
421.586988	10827.533904
421.965867	10835.206540
422.344686	10665.607001
422.723444	10866.759122
423.102141	9880.923678
423.480777	10442.205748
423.859352	9985.540224
424.237866	10451.239495
424.616319	10103.808213
424.994712	10293.403489
425.373044	9997.107151
425.751314	10161.993211
426.129524	9528.978043
426.507673	9879.267659
426.885762	9548.855313
427.263789	9443.883366
427.641756	9333.976130
428.019662	9169.780708
428.397508	8999.961879
428.775292	8930.222557
429.153016	8725.828974
429.530679	8562.689674
429.908282	8380.406592
430.285824	8101.713963
430.663305	8161.257552
431.040726	7841.721495
431.418086	7604.941019
431.795385	7629.602344
432.172624	7573.143942
432.549802	7267.866788
432.926920	7144.998745
433.303977	6944.582633
433.680974	6842.000193
434.057910	6750.069712
434.434786	6590.234888
434.811601	6411.185706
435.188355	6481.968547
435.565050	6249.679740
435.941683	6080.816210
436.318257	6101.701710
436.694770	5917.303864
437.071222	5870.774014
437.447614	5559.402106
437.823946	5415.734262
438.200218	5307.344413
438.576429	5137.802848
438.952580	5049.461668
439.328670	4919.256226
439.704700	4854.457234
440.080670	4682.148075
440.456580	4636.581085
440.832429	4546.563722
441.208218	4332.007173
441.583947	4272.755971
441.959616	4182.912527
442.335224	4111.802011
442.710773	4031.652706
443.086261	3981.717557
443.461689	3849.387268
443.837057	3774.568983
444.212365	3739.928695
444.587612	3664.850791
444.962800	3566.029052
445.337927	3516.408974
445.712995	3388.409037
446.088002	3417.791402
446.462949	3368.332642
446.837837	3316.058397
447.212664	3258.332144
447.587431	3312.280052
447.962139	3363.319214
448.336786	3394.077815
448.711374	3295.253555
449.085901	3126.795838
449.460369	3072.903383
449.834776	3026.159283
450.209124	3046.326419
450.583412	3006.934843
450.957640	2981.837459
451.331808	2919.884199
451.705917	2861.179962
452.079965	2834.000581
452.453954	2816.986687
452.827883	2790.258489
453.201752	2768.785694
453.575562	2750.085534
453.949311	2745.004051
454.323001	2729.661299
454.696632	2711.145141
455.070202	2716.587067
455.443713	2706.708926
455.817164	2702.280272
456.190556	2689.057326
456.563888	2675.589883
456.937160	2666.485559
457.310373	2646.114257
457.683526	2642.333391
458.056619	2634.973307
458.429653	2624.583489
458.802628	2624.586009
459.175542	2616.172323
459.548398	2619.307921
459.921194	2628.361833
460.293930	2627.409055
460.666607	2640.170736
461.039224	2643.543268
461.411782	2642.918165
461.784280	2630.015332
462.156719	2619.539814
462.529099	2613.354318
462.901419	2603.708071
463.273680	2589.025710
463.645882	2588.279619
464.018024	2583.392221
464.390106	2585.638055
464.762130	2600.554829
465.134094	2617.853548
465.505999	2646.078969
465.877845	2668.015550
466.249631	2668.559994
466.621358	2658.523057
466.993026	2646.673825
467.364634	2631.373923
467.736184	2615.191819
468.107674	2605.444748
468.479105	2599.849067
468.850477	2596.408480
469.221790	2581.048084
469.593043	2572.725139
469.964238	2566.766495
470.335373	2563.721638
470.706449	2571.812690
471.077467	2583.316603
471.448425	2604.849892
471.819324	2615.935389
472.190164	2608.444235
472.560945	2590.401945
472.931667	2567.671382
473.302330	2565.206258
473.672934	2558.418344
474.043479	2559.368602
474.413965	2555.378529
474.784393	2550.286963
475.154761	2557.969682
475.525070	2556.785011
475.895321	2552.439536
476.265513	2551.199412
476.635645	2561.846329
477.005719	2557.165618
477.375734	2560.465053
477.745691	2563.404046
478.115588	2571.008626
478.485427	2573.544327
478.855207	2591.359764
479.224928	2604.255036
479.594591	2610.115377
479.964194	2604.237392
480.333739	2605.638832
480.703226	2603.070365
481.072653	2607.783843
481.442022	2610.072527
481.811333	2610.160747
482.180584	2604.174377
482.549777	2601.868049
482.918912	2598.029211
483.287988	2597.699015
483.657005	2593.275403
484.025964	2591.460587
484.394864	2589.297932
484.763706	2590.921184
485.132489	2585.832139
485.501213	2581.065728
485.869879	2584.725606
486.238487	2586.580750
486.607036	2581.617734
486.975527	2583.054463
487.343959	2581.872313
487.712333	2582.172261
488.080648	2582.409196
488.448905	2583.452714
488.817104	2584.728126
489.185244	2586.321131
489.553326	2596.428644
489.921350	2607.307454
490.289315	2620.038888
490.657222	2623.202212
491.025070	2623.887809
491.392861	2622.753550
491.760593	2613.881119
492.128267	2604.713781
492.495883	2598.435024
492.863440	2597.172215
493.230939	2586.245514
493.598380	2584.236614
493.965763	2575.354101
494.333088	2577.307548
494.700354	2574.035839
495.067563	2574.247567
495.434713	2571.467371
495.801805	2575.651529
496.168839	2573.866960
496.535815	2573.632547
496.902733	2575.414595
497.269593	2572.188256
497.636395	2575.611200
498.003139	2574.335788
498.369825	2572.533575
498.736453	2575.858216
499.103023	2573.413257
499.469535	2571.989131
499.835989	2572.747824
500.202385	2576.374934
500.568723	2572.773030
500.935003	2576.435428
501.301226	2576.274111
501.667390	2579.974318
502.033497	2585.033116
502.399546	2581.756366
502.765537	2579.303845
503.131470	2583.326686
503.497345	2584.032447
503.863163	2583.568661
504.228923	2585.590164
504.594625	2590.243149
504.960269	2590.336410
505.325856	2594.051740
505.691385	2594.618870
506.056856	2593.623242
506.422270	2599.987699
506.787625	2599.551639
507.152924	2602.445262
507.518164	2608.227465
507.883347	2604.567587
508.248472	2608.925665
508.613540	2613.039246
508.978550	2616.643671
509.343503	2618.859258
509.708398	2622.456122
510.073236	2623.469394
510.438016	2627.164559
510.802738	2624.409569
511.167403	2634.696043
511.532010	2631.409211
511.896561	2640.319450
512.261053	2649.045688
512.625488	2641.040335
512.989866	2642.766931
513.354186	2646.230203
513.718449	2645.370687
514.082655	2656.153715
514.446803	2656.478869
514.810894	2664.559839
515.174927	2662.228305
515.538904	2663.339879
515.902822	2666.901455
516.266684	2669.167453
516.630488	2668.638132
516.994235	2670.765499
517.357925	2673.533092
517.721558	2674.584173
518.085133	2679.393434
518.448651	2682.970132
518.812112	2684.300997
519.175516	2682.120698
519.538863	2684.767304
519.902152	2687.746626
520.265385	2689.190916
520.628560	2692.805424
520.991678	2689.816019
521.354739	2690.254600
521.717743	2693.962368
522.080690	2691.645958
522.443580	2696.982020
522.806413	2699.585776
523.169189	2700.122658
523.531908	2702.502083
523.894569	2701.617361
524.257174	2700.543595
524.619722	2700.843543
524.982213	2705.690613
525.344647	2703.374203
525.707025	2704.087526
526.069345	2709.289997
526.431608	2704.866384
526.793815	2708.932075
527.155964	2703.233050
527.518057	2706.517362
527.880093	2705.877136
528.242072	2709.506766
528.603995	2706.981148
528.965860	2708.690099
529.327669	2708.475850
529.689421	2706.068699
530.051117	2707.129862
530.412755	2705.599872
530.774337	2707.480222
531.135862	2706.482074
531.497331	2702.930581
531.858743	2701.660210
532.220098	2703.462423
532.581396	2700.268852
532.942638	2697.057637
533.303824	2698.229705
533.664953	2701.929912
534.026025	2699.013605
534.387040	2699.109387
534.747999	2697.511341
535.108902	2697.473532
535.469748	2695.376412
535.830537	2693.619570
536.191270	2692.820547
536.551947	2690.191585
536.912567	2688.144877
537.273131	2688.712007
537.633638	2682.468538
537.994089	2680.328568
538.354483	2677.077024
538.714821	2678.788495
539.075103	2680.031140
539.435328	2677.591221
539.795497	2671.239367
540.155609	2667.849192
540.515665	2669.870694
540.875665	2663.730569
541.235609	2664.093532
541.595496	2660.143788
541.955328	2660.756288
542.315102	2659.468273
542.674821	2650.525266
543.034483	2648.866727
543.394090	2643.024029
543.753640	2640.556385
544.113134	2643.812970
544.472571	2636.581435
544.831953	2635.696712
545.191278	2631.310908
545.550548	2625.256483
545.909761	2625.314456
546.268918	2621.047119
546.628019	2619.625514
546.987064	2615.027982
547.346053	2606.841148
547.704986	2608.275356
548.063863	2602.588934
548.422684	2603.894593
548.781449	2596.257245
549.140158	2592.367995
549.498811	2593.247676
549.857408	2588.829105
550.215949	2587.707448
550.574434	2580.889288
550.932864	2577.942733
551.291237	2576.241344
551.649555	2577.473906
552.007817	2573.551888
552.366022	2568.498132
552.724173	2569.556774
553.082267	2567.772205
553.440305	2566.327915
553.798288	2560.550752
554.156215	2556.948848
554.514086	2556.727037
554.871902	2554.546738
555.229661	2554.670247
555.587365	2548.204967
555.945014	2551.184289
556.302606	2546.364946
556.660143	2547.073228
557.017625	2542.720191
557.375050	2540.318082
557.732421	2537.739531
558.089735	2538.939326
558.446994	2539.312371
558.804197	2537.643749
559.161345	2537.361445
559.518437	2529.300640
559.875474	2529.928263
560.232455	2530.255938
560.589381	2529.446833
560.946251	2528.494055
561.303065	2530.515558
561.659825	2525.978519
562.016528	2521.212108
562.373177	2521.945596
562.729770	2521.131450
563.086307	2522.321162
563.442789	2521.688498
563.799216	2521.010462
564.155587	2518.865451
564.511904	2519.364526
564.868164	2518.656243
565.224370	2518.164731
565.580520	2515.210615
565.936615	2519.130112
566.292654	2514.630882
566.648638	2516.544000
567.004567	2512.894205
567.360441	2513.272291
567.716260	2515.780265
568.072023	2513.249606
568.427732	2508.226096
568.783385	2510.532424
569.138982	2510.381189
569.494525	2509.577125
569.850013	2507.709378
570.205445	2509.572084
570.560823	2509.166271
570.916145	2511.588546
571.271412	2511.311282
571.626625	2509.975377
571.981782	2509.045284
572.336884	2510.590397
572.691931	2510.358504
573.046923	2507.212824
573.401860	2505.413132
573.756743	2505.498832
574.111570	2505.972700
574.466342	2506.746517
574.821059	2505.055210
575.175722	2505.561846
575.530330	2506.076044
575.884882	2505.692916
576.239380	2503.608399
576.593823	2505.130828
576.948211	2501.687720
577.302544	2501.854078
577.656823	2500.230826
578.011047	2501.569253
578.365216	2499.588079
578.719330	2502.758965
579.073389	2501.531444
579.427394	2502.758965
579.781344	2498.050527
580.135239	2498.405928
580.489080	2498.441217
580.842866	2499.134375
581.196597	2499.247801
581.550273	2500.981958
581.903895	2498.410970
582.257463	2497.395177
582.610975	2495.653458
582.964434	2499.078923
583.317837	2499.620847
583.671186	2495.015752
584.024481	2494.355361
584.377721	2496.674292
584.730906	2497.788387
585.084037	2493.954590
585.437113	2497.957266
585.790135	2495.005670
586.143103	2493.609271
586.496016	2493.856287
586.848874	2492.187665
587.201679	2489.074753
587.554428	2491.060967
587.907124	2492.482573
588.259765	2485.251038
588.612352	2490.607263
588.964884	2488.389156
589.317362	2489.205823
589.669786	2491.411328
590.022155	2489.178096
590.374470	2491.978457
590.726731	2490.120792
591.078937	2491.103817
591.431090	2487.282622
591.783188	2488.368991
592.135232	2487.499392
592.487222	2485.808085
592.839157	2486.042499
593.191038	2484.893116
593.542866	2487.340596
593.894639	2485.467807
594.246358	2486.017293
594.598022	2486.206336
594.949633	2485.422437
595.301190	2485.220791
595.652692	2485.074597
596.004141	2483.617704
596.355535	2484.971253
596.706876	2482.551500
597.058162	2479.378093
597.409395	2481.480254
597.760573	2480.774493
598.111698	2481.220635
598.462768	2482.264154
598.813785	2481.311376
599.164748	2479.378093
599.515657	2481.772641
599.866511	2478.246354
600.217312	2479.786427
600.568060	2477.885912
600.918753	2483.484113
601.269392	2480.172075
601.619978	2479.824235
601.970510	2480.151910
602.320988	2479.557054
602.671412	2480.721561
603.021783	2478.251395
603.372100	2476.348360
603.722363	2476.169399
604.072572	2478.576550
604.422728	2477.850624
604.772830	2475.660242
605.122878	2474.805767
605.472872	2477.442290
605.822813	2472.864922
606.172701	2479.751139
606.522534	2478.465644
606.872314	2476.081179
607.222041	2477.734677
607.571714	2476.744090
607.921333	2476.174440
608.270899	2476.486992
608.620411	2479.869606
608.969870	2477.154944
609.319276	2476.605459
609.668627	2477.409523
610.017926	2475.403143
610.367171	2477.354070
610.716362	2476.688638
611.065500	2476.751652
611.414585	2476.391210
611.763616	2477.457414
612.112594	2475.917341
612.461518	2477.933803
612.810389	2476.996148
613.159207	2475.438432
613.507971	2477.880871
613.856682	2479.037815
614.205340	2475.115798
614.553945	2478.503453
614.902496	2477.827938
615.250994	2476.988586
615.599439	2474.931796
615.947830	2479.509163
616.296169	2477.560757
616.644454	2479.589822
616.992686	2477.371714
617.340864	2480.202322
617.688990	2477.255767
618.037063	2479.650316
618.385082	2475.766107
618.733048	2479.504122
619.080961	2477.868268
619.428821	2481.495378
619.776628	2476.807105
620.124382	2477.273412
620.472083	2476.444142
620.819731	2478.014461
621.167326	2475.884574
621.514868	2477.671663
621.862357	2477.278453
622.209793	2473.429532
622.557176	2474.334419
622.904506	2473.116980
623.251783	2468.857205
623.599007	2471.150930
623.946179	2468.640436
624.293297	2471.677731
624.640363	2469.252936
624.987376	2472.368369
625.334336	2468.688327
625.681243	2467.695219
626.028097	2468.295117
626.374899	2470.422483
626.721647	2468.035497
627.068343	2469.557926
627.414987	2468.920220
627.761577	2468.602627
628.108115	2465.562811
628.454600	2464.194138
628.801032	2467.521299
629.147412	2466.155147
629.493739	2465.986268
629.840014	2465.905610
630.186236	2465.855198
630.532405	2466.603809
630.878521	2467.357462
631.224585	2466.316464
631.570597	2464.156329
631.916556	2463.745475
632.262462	2465.136834
632.608316	2463.533747
632.954117	2462.200362
633.299866	2465.285548
633.645562	2466.268573
633.991206	2461.756740
634.336797	2458.643828
634.682336	2461.703808
635.027823	2462.558283
635.373257	2461.784466
635.718639	2460.191462
636.063968	2458.805144
636.409245	2460.534260
636.754470	2463.019549
637.099642	2459.299177
637.444762	2455.997222
637.789829	2457.444033
638.134845	2457.514609
638.479808	2458.036368
638.824719	2456.027469
639.169577	2453.436316
639.514383	2455.765329
639.859137	2454.870524
640.203839	2458.800103
640.548489	2454.767180
640.893086	2451.450101
641.237632	2451.238372
641.582125	2450.640996
641.926566	2450.502364
642.270955	2453.113682
642.615292	2454.996553
642.959576	2455.157870
643.303809	2455.122582
643.647990	2454.157201
643.992118	2456.201388
644.336195	2454.452108
644.680219	2455.082252
645.024192	2453.055708
645.368112	2453.867334
645.711981	2451.906325
646.055797	2453.819443
646.399562	2458.263220
646.743274	2455.465380
647.086935	2456.178703
647.430544	2456.113168
647.774101	2457.975875
648.117606	2458.046451
648.461059	2458.195165
648.804460	2461.252625
649.147810	2457.328086
649.491108	2454.981429
649.834354	2454.028651
650.177548	2456.443364
650.520690	2451.868517
650.863781	2452.654937
651.206820	2453.169134
651.549807	2449.431119
651.892742	2448.538835
652.235626	2450.094031
652.578458	2451.039247
652.921238	2451.992025
653.263967	2451.366922
653.606644	2450.189812
653.949269	2449.305090
654.291843	2449.486572
654.634365	2452.728033
654.976836	2448.349791
655.319255	2447.490275
655.661622	2446.953392
656.003938	2447.923814
656.346203	2448.085131
656.688416	2449.741150
657.030577	2447.356684
657.372687	2449.330296
657.714746	2447.548248
658.056753	2449.947837
658.398708	2438.796805
658.740612	2445.199070
659.082465	2441.871909
659.424266	2446.247630
659.766016	2440.866198
660.107715	2446.794595
660.449362	2447.717127
660.790958	2449.116047
661.132503	2447.543207
661.473996	2446.925665
661.815438	2446.103957
662.156829	2446.781993
662.498168	2447.860799
662.839456	2447.843155
663.180693	2448.737960
663.521879	2446.166972
663.863013	2447.076900
664.204097	2448.049843
664.545129	2449.539504
664.886110	2448.317024
665.227040	2451.382045
665.567918	2446.129163
665.908746	2448.193516
666.249522	2446.466920
666.590248	2448.266612
666.930922	2447.933896
667.271545	2448.506067
667.612118	2448.374997
667.952639	2446.212342
668.293109	2448.758125
668.633528	2447.321396
668.973896	2446.981118
669.314213	2446.509770
669.654480	2445.877105
669.994695	2446.479523
670.334859	2446.456838
670.674973	2449.889864
671.015035	2444.127825
671.355047	2445.418360
671.695008	2447.220573
672.034918	2446.643361
672.374777	2445.362908
672.714585	2444.808381
673.054342	2446.706375
673.394049	2446.061108
673.733705	2445.877105
674.073310	2450.540173
674.412864	2445.496498
674.752368	2444.059769
675.091820	2445.546910
675.431223	2441.977773
675.770574	2445.599842
676.109875	2440.931733
676.449125	2438.685899
676.788324	2441.380396
677.127473	2442.602876
677.466571	2437.143306
677.805619	2445.425922
678.144616	2443.593463
678.483562	2441.912238
678.822458	2440.987186
679.161303	2441.130859
679.500098	2439.399223
679.838842	2443.134718
680.177535	2441.045159
680.516179	2442.623041
680.854771	2440.394851
681.193314	2443.109512
681.531805	2443.328802
681.870247	2446.083793
682.208638	2447.165120
682.546978	2449.131170
682.885268	2447.676797
683.223508	2446.504729
683.561697	2446.429112
683.899836	2446.159410
684.237925	2445.861982
684.575963	2446.217383
684.913951	2442.902825
685.251889	2445.814091
685.589776	2443.762341
685.927614	2442.207145
686.265401	2443.616148
686.603137	2443.716971
686.940824	2442.738987
687.278460	2448.584205
687.616046	2444.909204
687.953582	2448.294339
688.291068	2446.943309
688.628504	2449.065635
688.965889	2446.839966
689.303224	2445.385593
689.640510	2448.254009
689.977745	2444.253854
690.314930	2444.384924
690.652065	2442.716302
690.989150	2442.585232
691.326185	2442.141610
691.663170	2441.347629
692.000105	2439.706733
692.336990	2436.253543
692.673825	2436.639191
693.010610	2440.110025
693.347345	2435.492328
693.684030	2432.346648
694.020665	2433.128027
694.357251	2428.023859
694.693786	2435.958635
695.030272	2434.184149
695.366707	2431.731628
695.703093	2433.271700
696.039429	2431.592996
696.375716	2434.703388
696.711952	2430.360434
697.048139	2431.277924
697.384276	2431.792122
697.720363	2432.011412
698.056400	2433.806062
698.392388	2431.908068
698.728326	2431.313212
699.064214	2430.226843
699.400053	2432.235743
699.735842	2430.773808
700.071581	2429.911771
700.407270	2429.604261
700.742910	2431.908068
701.078501	2426.824064
701.414042	2431.645928
701.749533	2428.311205
702.084974	2429.087542
702.420366	2428.916143
702.755709	2426.647624
703.091002	2428.762388
703.426246	2428.182655
703.761440	2427.852460
704.096584	2427.403797
704.431679	2427.852460
704.766725	2428.054106
705.101721	2427.802048
705.436668	2427.116451
705.771565	2427.673499
706.106413	2427.151739
706.441212	2425.399938
706.775961	2426.791297
707.110661	2427.108890
707.445311	2427.711308
707.779913	2428.681730
708.114465	2427.880186
708.448967	2429.949580
708.783421	2429.805907
709.117825	2430.045362
709.452180	2430.904878
709.786485	2430.131061
710.120742	2434.831937
710.454949	2433.145671
710.789107	2427.842378
711.123216	2431.293047
711.457275	2432.268511
711.791286	2429.828592
712.125247	2434.831937
712.459159	2433.037287
712.793023	2435.361258
713.126837	2434.456371
713.460602	2432.104673
713.794318	2433.261618
714.127985	2432.855805
714.461602	2429.148036
714.795171	2432.656679
715.128691	2431.318253
715.462162	2430.325146
715.795584	2429.674837
716.128957	2426.231729
716.462281	2427.509661
716.795556	2426.410690
717.128782	2427.403797
717.461960	2427.544949
717.795088	2427.403797
718.128167	2426.231729
718.461198	2426.720721
718.794180	2424.643765
719.127113	2423.806934
719.459997	2423.595205
719.792833	2422.382808
720.125619	2424.590833
720.458357	2423.194434
720.791046	2424.235432
721.123686	2426.168714
721.456278	2420.527663
721.788821	2425.528488
722.121315	2425.082346
722.453761	2422.904567
722.786158	2422.851635
723.118506	2424.424475
723.450805	2424.134609
723.783056	2422.776018
724.115259	2422.408014
724.447412	2422.034968
724.779518	2425.541091
725.111574	2421.251069
725.443582	2422.841553
725.775542	2423.406162
726.107453	2425.190731
726.439315	2424.870617
726.771129	2428.752306
727.102895	2425.347006
727.434612	2424.575710
727.766281	2424.888261
728.097901	2424.555545
728.429473	2421.775349
728.760996	2423.106213
729.092471	2420.714186
729.423897	2424.192582
729.755276	2425.815834
730.086606	2427.416400
730.417887	2427.429003
730.749120	2428.989240
731.080305	2428.021338
731.411442	2427.028231
731.742530	2430.060485
732.073570	2429.198448
732.404562	2430.836823
732.735506	2427.784404
733.066401	2429.097625
733.397249	2429.637028
733.728048	2426.380443
734.058798	2425.452871
734.389501	2424.190062
734.720156	2425.024373
735.050762	2424.726944
735.381320	2421.992118
735.711831	2421.939186
736.042293	2425.987233
736.372707	2420.293250
736.703073	2421.556059
737.033391	2421.021696
737.363661	2420.245359
737.693883	2420.182344
738.024056	2425.583941
738.354182	2421.316604
738.684260	2422.781059
739.014290	2422.387849
739.344272	2423.824578
739.674207	2424.424475
740.004093	2427.136616
740.333931	2421.049423
740.663722	2423.882551
740.993464	2422.982705
741.323159	2424.376584
741.652806	2425.160484
741.982405	2423.872469
742.311956	2421.225863
742.641460	2424.306008
742.970915	2422.798703
743.300323	2420.409196
743.629683	2420.888106
743.958996	2422.914650
744.288260	2420.303332
744.617477	2419.867272
744.946647	2417.134967
745.275768	2418.347364
745.604842	2415.970460
745.933869	2417.074473
746.262847	2415.443660
746.591778	2419.947931
746.920662	2417.873496
747.249498	2420.066398
747.578286	2420.815009
747.907027	2419.116140
748.235720	2420.666295
748.564365	2419.693352
748.892963	2419.559762
749.221514	2420.910791
749.550017	2420.424320
749.878473	2420.855338
750.206881	2418.448187
750.535242	2420.323497
750.863555	2419.859710
751.191821	2420.605801
751.520039	2419.839546
751.848210	2420.618404
752.176334	2417.729823
752.504411	2420.590678
752.832440	2417.344175
753.160421	2421.367015
753.488356	2416.608166
753.816243	2418.155800
754.144082	2418.365008
754.471875	2419.290060
754.799620	2417.949113
755.127318	2419.312745
755.454969	2415.972981
755.782572	2417.019020
756.110129	2419.239648
756.437638	2418.954823
756.765100	2419.002714
757.092515	2416.401479
757.419882	2419.710996
757.747203	2418.503640
758.074477	2418.294432
758.401703	2416.714030
758.728882	2418.130595
759.056014	2417.482806
759.383099	2418.400296
759.710138	2420.520102
760.037129	2418.768301
760.364073	2420.815009
760.690970	2420.671336
761.017820	2420.847777
761.344623	2421.152766
761.671379	2420.106727
761.998088	2416.134298
762.324751	2422.899526
762.651366	2425.621749
762.977935	2437.294541
763.304456	2437.390323
763.630931	2441.766044
763.957359	2441.801332
764.283740	2436.581218
764.610074	2433.601896
764.936362	2430.763726
765.262602	2424.600916
765.588796	2426.440937
765.914943	2420.883065
766.241044	2420.479772
766.567097	2420.799886
766.893104	2416.048598
767.219064	2418.120512
767.544978	2416.819895
767.870845	2413.769997
768.196665	2414.710172
768.522438	2412.126580
768.848165	2412.660943
769.173846	2414.793351
769.499479	2415.073135
769.825066	2412.081210
770.150607	2413.142373
770.476101	2413.142373
770.801548	2414.523649
771.126949	2409.883267
771.452303	2411.932496
771.777611	2409.341343
772.102872	2409.532907
772.428087	2412.381159
772.753256	2409.432084
773.078378	2413.714544
773.403453	2408.565005
773.728482	2410.089954
774.053465	2408.754048
774.378401	2410.946950
774.703291	2410.999883
775.028135	2408.643143
775.352932	2408.565005
775.677683	2409.333781
776.002388	2408.703637
776.327046	2409.376631
776.651658	2408.055849
776.976224	2409.853020
777.300743	2407.597104
777.625216	2409.858061
777.949643	2408.973339
778.274024	2409.628689
778.598359	2405.547875
778.922647	2403.576783
779.246889	2404.345559
779.571086	2402.699623
779.895236	2406.505694
780.219339	2408.202042
780.543397	2410.170613
780.867409	2409.033832
781.191374	2409.782444
781.515294	2407.581980
781.839167	2410.662125
782.162995	2408.759090
782.486776	2408.060890
782.810511	2408.827145
783.134201	2408.698596
783.457844	2407.629871
783.781441	2406.866136
784.104993	2410.528535
784.428498	2405.925961
784.751958	2405.620971
785.075372	2407.975190
785.398739	2409.454769
785.722061	2406.334295
786.045337	2407.440828
786.368568	2408.875036
786.691752	2405.991496
787.014891	2412.913000
787.337983	2408.007958
787.661030	2411.113308
787.984031	2412.597928
788.306987	2411.892167
788.629897	2414.886612
788.952760	2412.736560
789.275579	2410.326888
789.598351	2410.906621
789.921078	2412.832342
790.243759	2411.995510
790.566395	2411.488874
790.888984	2410.291600
791.211529	2408.199522
791.534027	2406.667011
791.856480	2406.092319
792.178888	2408.212124
792.501249	2406.253636
792.823566	2407.894532
793.145836	2405.810015
793.468062	2408.683472
793.790241	2406.803122
794.112375	2408.106260
794.434464	2407.080385
794.756507	2406.324212
795.078505	2408.766651
795.400457	2407.138359
795.722364	2405.101733
796.044226	2410.798236
796.366042	2409.154820
796.687812	2409.880746
797.009538	2409.626168
797.331218	2413.079358
797.652852	2410.732701
797.974442	2409.439645
798.295986	2409.187588
798.617484	2409.094326
798.938938	2408.033163
799.260346	2409.850499
799.581709	2409.424522
799.903026	2411.977866
800.224299	2407.808832
800.545526	2407.609707
800.866708	2405.530231
801.187845	2409.366549
801.508936	2408.058369
801.829983	2407.811353
802.150984	2408.038205
802.471940	2404.955539
802.792851	2407.279511
803.113717	2410.079872
803.434538	2406.299007
803.755314	2407.498801
804.076045	2405.086609
804.396731	2408.796898
804.717372	2409.676580
805.037967	2405.149623
805.358518	2405.925961
805.679024	2406.667011
805.999485	2405.416805
806.319901	2408.378483
806.640272	2407.758421
806.960598	2406.276321
807.280879	2405.779768
807.601115	2406.228430
807.921306	2408.330592
808.241453	2409.666497
808.561554	2408.476785
808.881611	2406.664490
809.201623	2407.274470
809.521590	2407.334964
809.841513	2406.659449
810.161390	2407.655077
810.481223	2405.999058
810.801011	2406.856054
811.120755	2406.109963
811.440453	2411.110788
811.760107	2406.167937
812.079716	2403.690209
812.399281	2402.192987
812.718801	2406.908986
813.038276	2403.067627
813.357707	2407.133318
813.677093	2408.444018
813.996434	2404.229613
814.315731	2404.078378
814.634983	2406.694737
814.954191	2404.769016
815.273354	2407.181208
815.592473	2410.029460
815.911547	2407.375293
816.230577	2407.854203
816.549562	2409.422001
816.868502	2408.728843
817.187399	2410.334450
817.506250	2406.011661
817.825058	2408.688513
818.143821	2409.820253
818.462539	2410.165572
818.781213	2409.815211
819.099843	2411.829152
819.418429	2416.507343
819.736970	2417.918866
820.055466	2418.072621
820.373919	2423.262489
820.692327	2430.040321
821.010691	2439.311002
821.329011	2460.027624
821.647286	2498.683192
821.965517	2530.916330
822.283704	2556.855587
822.601847	2558.509085
822.919945	2546.115408
823.237999	2524.693025
823.556010	2508.430263
823.873976	2488.885709
824.191897	2476.502115
824.509775	2462.117183
824.827609	2455.036882
825.145398	2446.920624
825.463144	2446.204780
825.780845	2444.639502
826.098502	2451.918928
826.416116	2457.960751
826.733685	2468.852164
827.051210	2468.821917
827.368692	2467.942236
827.686129	2453.884978
828.003522	2445.115891
828.320872	2435.532658
828.638177	2429.989909
828.955439	2420.215112
829.272656	2421.087231
829.589830	2412.376118
829.906960	2416.608166
830.224046	2412.948288
830.541088	2413.321334
830.858086	2411.811508
831.175041	2409.981569
831.491952	2410.115160
831.808819	2411.398134
832.125642	2413.316293
832.442421	2416.419123
832.759157	2418.783424
833.075849	2427.060999
833.392497	2432.271031
833.709101	2441.461055
834.025662	2436.470312
834.342179	2433.778336
834.658653	2428.197779
834.975083	2421.505647
835.291469	2426.534198
835.607811	2416.794689
835.924110	2414.291756
836.240366	2414.306879
836.556578	2410.679769
836.872746	2410.838566
837.188871	2407.627351
837.504952	2406.871178
837.820990	2407.098029
838.136984	2406.946795
838.452935	2407.357649
838.768842	2404.585014
839.084706	2408.403688
839.400526	2408.348236
839.716303	2413.633885
840.032037	2416.736716
840.347727	2416.177148
840.663373	2413.263361
840.978977	2412.476941
841.294537	2406.349418
841.610054	2408.078534
841.925527	2405.958729
842.240957	2407.357649
842.556344	2405.971332
842.871687	2402.936557
843.186987	2404.567370
843.502244	2403.082750
843.817458	2402.654252
844.132629	2401.953532
844.447756	2401.502349
844.762840	2394.159908
845.077881	2400.657955
845.392879	2397.943294
845.707833	2402.061917
846.022745	2397.668551
846.337613	2400.136196
846.652438	2399.478325
846.967221	2401.580487
847.281960	2397.507234
847.596656	2400.015208
847.911309	2398.404560
848.225919	2401.159550
848.540485	2402.747514
848.855009	2401.792215
849.169490	2397.890362
849.483928	2399.206103
849.798323	2400.887328
850.112675	2400.902451
850.426984	2401.217523
850.741251	2400.511762
851.055474	2399.717780
851.369654	2397.262738
851.683792	2395.647048
851.997887	2401.686351
852.311938	2396.927502
852.625947	2397.671072
852.939914	2400.657955
853.253837	2400.320198
853.567718	2400.695764
853.881555	2398.172667
854.195350	2398.885990
854.509103	2401.477143
854.822812	2400.294992
855.136479	2400.035373
855.450103	2399.821124
855.763685	2400.683161
856.077224	2400.368089
856.390720	2401.396484
856.704173	2399.198541
857.017584	2398.099570
857.330953	2398.586041
857.644278	2399.974879
857.957561	2402.412277
858.270802	2400.836916
858.584000	2401.383882
858.897155	2397.847512
859.210268	2400.922616
859.523339	2399.818603
859.836367	2400.128634
860.149352	2399.790877
860.462295	2401.262894
860.775195	2396.488921
861.088054	2395.468087
861.400869	2399.422873
861.713642	2394.694270
862.026373	2398.591082
862.339062	2397.998747
862.651708	2400.199210
862.964312	2400.340363
863.276873	2400.998233
863.589392	2399.455640
863.901869	2399.170815
864.214303	2402.687020
864.526696	2400.194169
864.839045	2399.813562
865.151353	2400.736093
865.463619	2401.063768
865.775842	2399.838768
866.088023	2401.661145
866.400162	2401.593089
866.712258	2398.916237
867.024313	2402.802966
867.336325	2400.040414
867.648296	2400.058058
867.960224	2400.484036
868.272110	2401.101577
868.583954	2400.854560
868.895755	2403.070147
869.207515	2404.320354
869.519233	2399.100239
869.830909	2401.283058
870.142542	2401.696433
870.454134	2399.390105
870.765684	2402.472771
871.077191	2400.421021
871.388657	2403.503687
871.700081	2401.981258
872.011463	2401.817421
872.322803	2403.352452
872.634101	2399.478325
872.945357	2400.403377
873.256571	2404.665673
873.567744	2399.286762
873.878874	2401.688871
874.189963	2402.321536
874.501010	2400.272307
874.812015	2403.430590
875.122979	2404.360683
875.433900	2400.950342
875.744780	2402.946639
876.055618	2403.478481
876.366415	2403.163409
876.677169	2401.945970
876.987882	2403.453275
877.298554	2401.613254
877.609183	2400.531927
877.919771	2399.589231
878.230317	2402.563512
878.540822	2405.595766
878.851285	2409.046435
879.161707	2407.191291
879.472087	2410.949471
879.782425	2415.244534
880.092722	2421.586306
880.402977	2438.143975
880.713191	2450.610749
881.023363	2465.845116
881.333494	2476.943216
881.643583	2477.270891
881.953631	2475.294759
882.263637	2472.638071
882.573602	2466.868470
882.883526	2459.084928
883.193408	2451.916408
883.503248	2445.622527
883.813048	2442.338215
884.122806	2434.027873
884.432522	2433.488470
884.742197	2430.448654
885.051831	2421.293919
885.361424	2420.799886
885.670975	2415.478948
885.980485	2413.749832
886.289954	2414.400141
886.599382	2409.537948
886.908768	2411.297311
887.218113	2408.554923
887.527417	2406.674573
887.836680	2408.181878
888.145901	2405.873029
888.455082	2402.001423
888.764221	2403.221382
889.073319	2403.576783
889.382376	2403.231464
889.691392	2402.162740
890.000366	2403.735580
890.309300	2403.740621
890.618193	2404.227092
890.927044	2401.698954
891.235855	2402.185425
891.544625	2406.170457
891.853353	2403.294479
892.162041	2402.160219
892.470687	2408.570046
892.779293	2405.550395
893.087858	2402.268604
893.396381	2405.479819
893.704864	2411.246899
894.013306	2413.570871
894.321707	2420.026068
894.630068	2422.556728
894.938387	2425.263827
895.246665	2424.910947
895.554903	2423.201995
895.863100	2418.682601
896.171256	2416.966088
896.479371	2414.672363
896.787446	2413.253278
897.095480	2411.773700
897.403473	2412.744122
897.711425	2405.310940
898.019336	2407.556774
898.327207	2406.362021
898.635038	2408.005437
898.942827	2405.699109
899.250576	2404.282545
899.558284	2404.557288
899.865952	2401.910682
900.173579	2402.427400
900.481165	2404.201887
900.788711	2399.780795
901.096216	2401.391443
901.403681	2399.853891
901.711105	2398.447409
902.018489	2401.454458
902.325832	2407.408060
902.633135	2402.117369
902.940397	2406.732546
903.247619	2405.285735
903.554800	2412.091292
903.861941	2421.442633
904.169041	2427.928077
904.476101	2430.257090
904.783121	2428.654003
905.090100	2425.944383
905.397039	2421.056984
905.703938	2418.264185
906.010796	2415.995666
906.317614	2412.625655
906.624391	2413.031467
906.931129	2407.937382
907.237826	2406.805643
907.544483	2404.244736
907.851099	2403.816238
908.157675	2401.078892
908.464211	2401.623336
908.770707	2393.985988
909.077163	2399.395146
909.383578	2398.303737
909.689954	2400.864643
909.996289	2394.517830
910.302584	2400.342883
910.608839	2398.127296
910.915054	2400.781464
911.221229	2398.911196
911.527363	2399.395146
911.833458	2399.485887
912.139513	2399.826165
912.445527	2400.400857
912.751502	2401.885476
913.057436	2399.909344
913.363331	2401.071330
913.669186	2403.296999
913.975000	2404.027967
914.280775	2403.491084
914.586510	2405.464696
914.892205	2408.562485
915.197859	2413.855696
915.503475	2418.307035
915.809050	2425.117634
916.114585	2427.514702
916.420081	2428.270876
916.725536	2428.921184
917.030952	2426.597212
917.336328	2421.301480
917.641665	2423.567479
917.946961	2420.565472
918.252218	2421.359454
918.557435	2416.633372
918.862612	2414.942065
919.167750	2412.013154
919.472848	2410.926786
919.777906	2408.388565
920.082925	2409.066600
920.387904	2406.152813
920.692843	2403.607030
920.997743	2404.600138
921.302603	2403.380178
921.607423	2404.063255
921.912204	2400.789025
922.216946	2402.228275
922.521647	2400.294992
922.826310	2402.046793
923.130932	2399.460681
923.435516	2397.928171
923.740059	2399.049827
924.044564	2397.519837
924.349028	2399.317008
924.653454	2395.589075
924.957840	2396.627553
925.262186	2390.784856
925.566493	2396.078067
925.870761	2391.649413
926.174989	2394.658982
926.479178	2399.886659
926.783328	2397.413973
927.087438	2396.509086
927.391509	2396.879611
927.695541	2396.342728
927.999533	2398.570918
928.303486	2395.095042
928.607400	2396.791390
928.911275	2396.693088
929.215110	2396.052861
929.518906	2395.866339
929.822663	2394.175032
930.126381	2395.412635
930.430060	2394.762326
930.733699	2393.877603
931.037299	2397.146792
931.340861	2396.461195
931.644383	2396.514127
931.947866	2395.432799
932.251309	2394.820299
932.554714	2395.241236
932.858080	2393.764177
933.161407	2397.479508
933.464694	2393.290309
933.767943	2396.378016
934.071153	2394.540515
934.374323	2395.458005
934.677455	2395.944477
934.980548	2393.993550
935.283602	2391.614125
935.586617	2394.727038
935.889593	2397.285423
936.192530	2397.454302
936.495428	2398.981772
936.798287	2394.240567
937.101108	2396.186452
937.403890	2395.546225
937.706632	2394.084291
938.009336	2395.823489
938.312002	2399.448078
938.614628	2397.098901
938.917216	2397.560166
939.219765	2396.435989
939.522275	2398.888510
939.824747	2398.664179
940.127179	2392.587068
940.429573	2395.200906
940.731929	2394.800135
941.034246	2394.114538
941.336524	2397.824827
941.638763	2398.028994
941.940964	2397.308109
942.243126	2397.812224
942.545250	2397.804662
942.847335	2396.783829
943.149381	2398.339025
943.451389	2396.045300
943.753359	2398.649056
944.055290	2396.612429
944.357182	2397.008160
944.659036	2393.328118
944.960851	2397.875238
945.262628	2394.114538
945.564367	2399.218706
945.866067	2394.217881
946.167729	2396.912378
946.469352	2394.321225
946.770937	2395.195865
947.072484	2395.397511
947.373992	2396.632594
947.675462	2396.932543
947.976893	2395.997409
948.278286	2394.091852
948.579641	2396.703170
948.880958	2394.343910
949.182236	2395.523540
949.483476	2394.109497
949.784678	2393.517161
950.085841	2395.480690
950.386967	2398.177708
950.688054	2394.827861
950.989103	2394.724517
951.290114	2398.739796
951.591087	2395.523540
951.892021	2394.270813
952.192917	2396.435989
952.493776	2397.711401
952.794596	2396.534292
953.095378	2395.770557
953.396122	2397.794580
953.696828	2395.034548
953.997496	2395.140412
954.298126	2396.778787
954.598718	2399.523696
954.899272	2395.384908
955.199788	2397.686195
955.500266	2394.427089
955.800706	2392.546739
956.101108	2391.571276
956.401472	2391.457850
956.701798	2392.771070
957.002087	2390.590771
957.302337	2394.623694
957.602550	2393.837274
957.902724	2393.164280
958.202861	2393.726369
958.502960	2394.956410
958.803022	2393.474311
959.103045	2393.333159
959.403031	2393.600340
959.702979	2394.472460
960.002889	2394.747202
960.302762	2393.940618
960.602596	2395.132851
960.902393	2392.519012
961.202153	2391.157901
961.501875	2394.691750
961.801559	2392.178735
962.101205	2392.723179
962.400814	2392.642521
962.700385	2393.474311
962.999918	2394.033879
963.299414	2394.913561
963.598873	2392.317366
963.898293	2394.159908
964.197677	2393.290309
964.497022	2392.413148
964.796331	2392.259393
965.095601	2395.541184
965.394835	2392.312325
965.694030	2392.299722
965.993189	2393.418858
966.292309	2393.585217
966.591393	2394.696791
966.890439	2392.796276
967.189447	2393.519682
967.488419	2393.605381
967.787353	2392.708056
968.086249	2393.249980
968.385108	2392.927346
968.683930	2394.555639
968.982714	2393.350803
969.281462	2392.511451
969.580172	2393.267624
969.878844	2393.870042
970.177480	2393.305433
970.476078	2392.148488
970.774639	2392.148488
971.073162	2388.418034
971.371649	2391.210833
971.670098	2387.679505
971.968510	2392.027500
972.266885	2387.661861
972.565223	2391.654455
972.863524	2392.196379
973.161788	2394.243087
973.460014	2392.241749
973.758204	2390.111862
974.056356	2393.799466
974.354471	2394.409445
974.652550	2393.683519
974.950591	2392.448436
975.248595	2393.809548
975.546563	2393.091183
975.844493	2394.611091
976.142386	2391.571276
976.440243	2391.795607
976.738062	2395.417676
977.035845	2391.770401
977.333590	2393.260062
977.631299	2392.100597
977.928971	2394.210320
978.226606	2393.239898
978.524204	2392.395504
978.821765	2394.442213
979.119290	2389.201933
979.416777	2390.628580
979.714228	2392.892058
980.011642	2392.453477
980.309020	2394.338869
980.606360	2389.955586
980.903664	2393.726369
981.200931	2391.777963
981.498162	2393.262583
981.795356	2393.156718
982.092513	2394.404404
982.389633	2394.396842
982.686717	2394.427089
982.983764	2397.139230
983.280775	2397.033366
983.577749	2396.662841
983.874686	2395.432799
984.171587	2398.177708
984.468451	2394.396842
984.765279	2395.314332
985.062070	2393.728889
985.358824	2394.391801
985.655543	2396.851884
985.952224	2394.520351
986.248869	2393.476832
986.545478	2390.459701
986.842050	2391.377191
987.138586	2392.191338
987.435086	2390.815103
987.731549	2390.303425
988.027975	2391.034393
988.324366	2391.533467
988.620719	2392.400545
988.917037	2392.042623
989.213318	2392.607233
989.509563	2391.470453
989.805772	2391.120092
990.101944	2391.374671
990.398080	2393.290309
990.694180	2392.294681
990.990244	2393.058416
991.286271	2392.493807
991.582262	2390.563045
991.878217	2393.852398
992.174136	2393.580175
992.470019	2394.240567
992.765865	2390.558004
993.061676	2390.449619
993.357450	2392.594630
993.653188	2389.819475
993.948890	2392.130844
994.244556	2390.933570
994.540186	2392.942469
994.835780	2392.771070
995.131337	2394.321225
995.426859	2391.064640
995.722345	2392.778632
996.017795	2393.668396
996.313208	2393.726369
996.608586	2393.658313
996.903928	2392.057747
997.199234	2395.576472
997.494504	2394.013715
997.789738	2393.675957
998.084936	2394.495145
998.380099	2393.128992
998.675225	2392.236708
998.970316	2395.452964
999.265371	2393.814589
999.560390	2392.329969
999.855373	2394.616133
1000.150320	2392.413148
1000.445232	2392.902140
1000.740108	2391.354506
1001.034948	2390.951214
1001.329752	2391.750237
1001.624521	2393.726369
1001.919254	2387.452653
1002.213951	2388.244114
1002.508613	2390.593292
1002.803239	2393.166801
1003.097829	2387.220760
1003.392384	2391.273848
1003.686903	2392.178735
1003.981386	2389.907695
1004.275834	2390.419372
1004.570246	2392.181255
1004.864623	2391.838457
1005.158964	2392.216543
1005.453270	2391.266286
1005.747540	2391.664537
1006.041775	2392.559342
1006.335974	2390.893240
1006.630138	2390.621018
1006.924266	2393.290309
1007.218359	2392.521533
1007.512416	2391.508261
1007.806438	2391.354506
1008.100425	2390.255534
1008.394376	2391.629249
1008.688292	2389.353168
1008.982172	2391.142778
1009.276017	2392.337531
1009.569827	2393.171842
1009.863602	2392.818961
1010.157341	2391.452808
1010.451045	2388.745709
1010.744714	2391.611605
1011.038347	2386.666233
1011.331945	2391.967006
1011.625508	2391.576317
1011.919036	2394.792573
1012.212528	2393.144116
1012.505986	2390.096738
1012.799408	2390.414331
1013.092795	2389.925339
1013.386147	2388.599515
1013.679464	2390.822664
1013.972745	2390.323590
1014.265992	2391.518343
1014.559204	2390.497510
1014.852380	2389.043137
1015.145521	2391.619167
1015.438628	2390.333672
1015.731699	2390.724362
1016.024736	2392.050185
1016.317737	2390.784856
1016.610703	2390.835267
1016.903635	2388.680174
1017.196531	2386.504916
1017.489393	2386.620862
1017.782219	2388.332334
1018.075011	2390.368960
1018.367768	2391.447767
1018.660490	2392.413148
1018.953177	2392.413148
1019.245829	2392.413148
