Dividing Wavelength (nm)	Counts (n)	Blue Motor Position (mm): 0.000000	Red Motor Position (mm): 37.600000	
326.493990	1991.585965
326.888308	1991.585965
327.282561	1991.585965
327.676750	1967.700978
328.070874	1966.201235
328.464933	1973.084930
328.858929	1984.016672
329.252859	1996.382623
329.646726	2011.402741
330.040528	2027.090811
330.434265	2044.134952
330.827938	2062.424259
331.221547	2086.737744
331.615091	2108.097113
332.008571	2127.467746
332.401986	2146.672022
332.795338	2166.221616
333.188625	2188.102745
333.581847	2205.484643
333.975006	2225.815617
334.368100	2243.648698
334.761129	2259.850967
335.154095	2272.683224
335.546996	2301.546350
335.939833	2341.472289
336.332606	2357.752695
336.725315	2366.978007
337.117960	2376.997300
337.510540	2383.586088
337.903056	2394.527912
338.295508	2398.127296
338.687896	2405.207597
339.080220	2412.391241
339.472480	2421.170410
339.864676	2424.285843
340.256807	2427.174425
340.648875	2427.771801
341.040879	2430.002512
341.432818	2429.926895
341.824694	2433.198603
342.216506	2431.335897
342.608253	2433.412852
342.999937	2427.701225
343.391557	2431.426638
343.783113	2428.717018
344.174605	2428.742223
344.566033	2426.539239
344.957397	2425.349527
345.348697	2424.273241
345.739934	2419.002714
346.131106	2422.493713
346.522215	2419.799217
346.913260	2414.170768
347.304241	2417.087076
347.695159	2412.739081
348.086012	2412.701272
348.476802	2409.059038
348.867528	2411.206570
349.258191	2408.191960
349.648789	2406.253636
350.039324	2406.278842
350.429796	2410.253792
350.820203	2402.616444
351.210548	2405.580642
351.600828	2402.334139
351.991045	2405.467216
352.381198	2405.358831
352.771288	2405.111815
353.161314	2405.555436
353.551276	2402.417318
353.941175	2402.465209
354.331010	2404.998389
354.720782	2404.108625
355.110490	2406.079716
355.500135	2402.913872
355.889717	2406.024264
356.279235	2407.697927
356.668689	2410.173133
357.058080	2409.099368
357.447408	2406.581311
357.836672	2404.668193
358.225873	2405.091650
358.615010	2406.069634
359.004084	2411.128432
359.393095	2411.388051
359.782043	2413.787641
360.170927	2414.304359
360.559748	2413.979204
360.948505	2414.753022
361.337199	2417.389545
361.725830	2416.474576
362.114398	2417.971798
362.502903	2423.514547
362.891344	2421.682087
363.279722	2421.293919
363.668037	2423.181831
364.056289	2421.011614
364.444478	2422.808785
364.832603	2425.258786
365.220665	2425.808272
365.608665	2422.239135
365.996601	2425.745258
366.384474	2424.578230
366.772284	2428.217943
367.160031	2428.336411
367.547715	2429.400094
367.935336	2430.783891
368.322893	2430.793973
368.710388	2434.121135
369.097820	2437.014757
369.485189	2433.306988
369.872495	2438.028029
370.259738	2437.050045
370.646918	2445.320058
371.034035	2439.842844
371.421090	2449.108485
371.808081	2450.343568
372.195010	2455.808178
372.581875	2462.543160
372.968678	2469.411732
373.355418	2474.964563
373.742096	2486.329844
374.128710	2496.540702
374.515262	2508.163082
374.901751	2526.969106
375.288177	2544.809750
375.674540	2561.112841
376.060841	2584.632344
376.447079	2609.770058
376.833254	2635.694192
377.219367	2661.736792
377.605417	2697.223995
377.991404	2722.079404
378.377329	2765.183790
378.763191	2798.783080
379.148991	2850.792665
379.534727	2900.816034
379.920402	2947.759259
380.306013	3000.295644
380.691563	3062.833678
381.077049	3123.085548
381.462474	3180.234589
381.847835	3254.054725
382.233134	3328.777228
382.618371	3390.622104
383.003545	3478.136534
383.388657	3563.866397
383.773706	3659.650840
384.158693	3733.803693
384.543618	3830.835822
384.928480	3913.044438
385.313280	4016.481354
385.698017	4125.171151
386.082692	4250.388372
386.467305	4315.227692
386.851856	4443.739307
387.236344	4604.277372
387.620770	4667.677443
388.005133	4794.570847
388.389435	4946.092808
388.773674	5026.179099
389.157851	5163.653885
389.541965	5302.895595
389.926018	5324.920396
390.310008	5512.113562
390.693936	5638.018900
391.077802	5758.550368
391.461606	5897.527418
391.845348	6012.175859
392.229027	6129.400330
392.612645	6358.402305
392.996200	6479.032075
393.379694	6659.142420
393.763125	6888.469550
394.146494	6983.265927
394.529801	7127.465612
394.913047	7377.761421
395.296230	7368.399999
395.679351	7427.424348
396.062410	7699.558436
396.445408	7593.265707
396.828343	7751.227742
397.211217	7891.094556
397.594028	7774.810260
397.976778	7976.587484
398.359466	8157.678333
398.742092	8128.719425
399.124656	8278.978577
399.507158	8466.093605
399.889598	8487.652099
400.271977	8699.562042
400.654294	8734.840037
401.036549	8940.251933
401.418742	8967.552301
401.800874	9275.781050
402.182944	9355.358184
402.564952	9727.231501
402.946898	9545.061845
403.328783	9608.542574
403.710606	9808.431886
404.092367	10072.850488
404.474067	10441.328587
404.855705	10229.746319
405.237282	10181.638588
405.618797	10617.090936
406.000250	10871.240708
406.381642	11244.379353
406.762972	11189.261898
407.144240	10982.809004
407.525447	11247.976217
407.906593	11183.464571
408.287677	11450.585231
408.668700	11614.374840
409.049661	11580.480642
409.430560	11744.602967
409.811399	11717.695809
410.192176	11887.444062
410.572891	11956.827982
410.953545	12461.573511
411.334138	11922.780029
411.714669	12545.296994
412.095139	11830.032881
412.475547	12343.078670
412.855894	12187.203672
413.236180	12526.042307
413.616405	12198.493336
413.996568	12481.818785
414.376670	12454.677213
414.756711	12326.316833
415.136691	12625.811783
415.516609	12808.203250
415.896466	12869.372611
416.276262	13169.888394
416.655997	13617.384059
417.035670	13646.758863
417.415283	14310.469617
417.794834	14406.909410
418.174324	14147.486592
418.553753	14045.665367
418.933121	14553.077666
419.312428	14348.429505
419.691674	14269.729532
420.070859	14731.718514
420.449983	14378.147107
420.829045	14938.942705
421.208047	14684.971895
421.586988	15151.634027
421.965867	15412.823769
422.344686	15407.913685
422.723444	15977.349821
423.102141	14637.322908
423.480777	15861.932604
423.859352	15359.831160
424.237866	16490.529200
424.616319	16173.831313
424.994712	16858.339347
425.373044	16649.625495
425.751314	17330.569433
426.129524	16444.279134
426.507673	17567.710351
426.885762	17249.479953
427.263789	17456.331098
427.641756	17615.664327
428.019662	17686.671500
428.397508	17731.031133
428.775292	18035.912556
429.153016	18000.327051
429.530679	18077.804544
429.908282	18095.219210
430.285824	17813.045665
430.663305	18542.926604
431.040726	18132.254047
431.418086	17949.441644
431.795385	18602.460110
432.172624	19036.140493
432.549802	18584.473273
432.926920	18773.783724
433.303977	18660.042690
433.680974	18918.595909
434.057910	19220.054388
434.434786	19235.934023
434.811601	19158.017949
435.188355	20208.869154
435.565050	19850.218784
435.941683	19796.613674
436.318257	20694.715397
436.694770	20496.618215
437.071222	21102.343097
437.447614	20164.428862
437.823946	20191.028510
438.200218	20346.462407
438.576429	20115.375914
438.952580	20391.467308
439.328670	20362.185766
439.704700	20785.551948
440.080670	20335.502938
440.456580	20940.950556
440.832429	21120.818926
441.208218	20106.319482
441.583947	20550.583767
441.959616	20652.241155
442.335224	20888.013400
442.710773	21039.149713
443.086261	21578.802711
443.461689	20927.636869
443.837057	21049.610107
444.212365	21718.553578
444.587612	21704.718132
444.962800	21267.082963
445.337927	21708.347762
445.712995	20413.509753
446.088002	22302.417496
446.462949	22499.440912
446.837837	22685.613244
447.212664	22640.555411
447.587431	25523.709763
447.962139	28495.187650
448.336786	30915.256569
448.711374	29346.174749
449.085901	25598.727173
449.460369	25548.862600
449.834776	25459.964372
450.209124	27989.844745
450.583412	27499.390887
450.957640	28034.781590
451.331808	26675.157192
451.705917	25279.198678
452.079965	25314.643030
452.453954	25693.490783
452.827883	25570.882360
453.201752	25368.661514
453.575562	25539.954881
453.949311	26668.336511
454.323001	26732.142395
454.696632	26485.592163
455.070202	28062.359222
455.443713	28203.750985
455.817164	28805.495875
456.190556	29334.663274
456.563888	28778.041752
456.937160	29225.761748
457.310373	27518.489298
457.683526	27994.560744
458.056619	27965.145612
458.429653	27899.335869
458.802628	28493.282094
459.175542	28615.729201
459.548398	29914.353117
459.921194	31509.104492
460.293930	32187.608511
460.666607	34222.606373
461.039224	36022.993975
461.411782	36431.035049
461.784280	35221.536213
462.156719	34742.356896
462.529099	34187.945919
462.901419	32878.009654
463.273680	31810.177323
463.645882	31888.095917
464.018024	31859.815044
464.390106	32715.992011
464.762130	35425.224034
465.134094	39498.640179
465.505999	44851.980080
465.877845	49473.762858
466.249631	50652.515698
466.621358	48980.816150
466.993026	46890.897438
467.364634	44797.722141
467.736184	42806.007627
468.107674	41537.028216
468.479105	40742.292833
468.850477	40037.577334
469.221790	38600.372099
469.593043	36823.360327
469.964238	35915.070433
470.335373	35831.505746
470.706449	37580.428209
471.077467	40178.202841
471.448425	44778.626251
471.819324	47621.496742
472.190164	45770.402694
472.560945	42188.176415
472.931667	39050.625275
473.302330	37933.835778
473.672934	37106.617720
474.043479	37609.601366
474.413965	36797.105998
474.784393	36403.850627
475.154761	37317.358116
475.525070	37358.950156
475.895321	36890.568990
476.265513	37488.608633
476.635645	38474.330650
477.005719	38291.394738
477.375734	38761.691543
477.745691	39457.373294
478.115588	40819.752682
478.485427	42789.044144
478.855207	46179.845209
479.224928	48812.302980
479.594591	50449.750408
479.964194	49474.965174
480.333739	49624.465632
480.703226	49655.130971
481.072653	50301.129631
481.442022	50770.491301
481.811333	51035.340921
482.180584	49736.921172
482.549777	49232.694882
482.918912	48677.043781
483.287988	48385.697856
483.657005	47550.726504
484.025964	46919.102694
484.394864	46937.732278
484.763706	46485.024060
485.132489	45621.398789
485.501213	45435.289471
485.869879	45590.287308
486.238487	45184.166913
486.607036	45373.973917
486.975527	44827.142315
487.343959	45022.280339
487.712333	45103.014418
488.080648	45001.407442
488.448905	45495.695097
488.817104	45284.238858
489.185244	46246.673265
489.553326	47922.125952
489.921350	50625.623663
490.289315	53482.001926
490.657222	54072.381535
491.025070	54353.907292
491.392861	53471.939783
491.760593	52235.758119
492.128267	50592.828436
492.495883	49067.082895
492.863440	47659.287752
493.230939	46293.288815
493.598380	45185.754876
493.965763	44850.951685
494.333088	44015.335064
494.700354	43526.083522
495.067563	43221.779311
495.434713	43107.138432
495.801805	43159.831092
496.168839	42778.538380
496.535815	42430.252622
496.902733	42455.902013
497.269593	42028.623895
497.636395	41959.295427
498.003139	42376.382852
498.369825	41824.126969
498.736453	42120.118317
499.103023	41655.989365
499.469535	41514.769002
499.835989	41605.565223
500.202385	41270.091558
500.568723	41281.109000
500.935003	41472.947589
501.301226	41270.015941
501.667390	41894.214131
502.033497	42154.698112
502.399546	41562.803636
502.765537	40882.762064
503.131470	41264.584098
503.497345	41617.762295
503.863163	40274.234301
504.228923	40878.325849
504.594625	41291.909672
504.960269	40566.777500
505.325856	41277.650769
505.691385	40620.122990
506.056856	40778.810952
506.422270	41216.940153
506.787625	40788.857971
507.152924	40970.150466
507.518164	41068.427761
507.883347	40270.317325
508.248472	40548.967104
508.613540	41023.198528
508.978550	41326.960815
509.343503	41065.652605
509.708398	41256.157809
510.073236	41795.188225
510.438016	41792.841568
510.802738	41239.159038
511.167403	41865.383772
511.532010	42092.696961
511.896561	42392.786767
512.261053	43258.393212
512.625488	42775.922021
512.989866	42665.341791
513.354186	42507.417564
513.718449	42486.741272
514.082655	43170.508256
514.446803	42845.270654
514.810894	43365.384140
515.174927	43285.396152
515.538904	43185.961913
515.902822	43869.388619
516.266684	43293.020897
516.630488	43731.203031
516.994235	43573.190584
517.357925	44152.202391
517.721558	44326.152446
518.085133	44620.679339
518.448651	44767.152584
518.812112	44509.481567
519.175516	44630.229805
519.538863	44965.688346
519.902152	44909.965952
520.265385	45373.003495
520.628560	45429.298060
520.991678	45218.061111
521.354739	45436.595130
521.717743	45747.442758
522.080690	45642.740514
522.443580	46183.467278
522.806413	46232.810092
523.169189	46186.436518
523.531908	46352.865171
523.894569	46217.293420
524.257174	46379.852988
524.619722	46681.795418
524.982213	46664.665577
525.344647	46566.995742
525.707025	46597.837521
526.069345	46978.419431
526.431608	46900.092503
526.793815	47225.400681
527.155964	46752.510204
527.518057	46918.699402
527.880093	46671.889551
528.242072	47195.569653
528.603995	46896.160403
528.965860	46900.450425
529.327669	46978.888258
529.689421	46878.448309
530.051117	46820.580904
530.412755	46957.949826
530.774337	47016.069288
531.135862	46801.691701
531.497331	47002.644696
531.858743	46891.825011
532.220098	47235.593894
532.581396	46924.466482
532.942638	46582.217506
533.303824	46869.674181
533.664953	46811.199317
534.026025	46503.169693
534.387040	46972.027248
534.747999	46900.546207
535.108902	47072.424347
535.469748	46591.321830
535.830537	46658.306162
536.191270	46846.699122
536.551947	46477.195148
536.912567	46775.560880
537.273131	46875.342958
537.633638	46348.960797
537.994089	46672.789397
538.354483	46253.178874
538.714821	46782.676468
539.075103	47121.247922
539.435328	46843.319028
539.795497	46724.186481
540.155609	46688.364042
540.515665	47111.352137
540.875665	46555.801860
541.235609	46850.273300
541.595496	46796.685835
541.955328	47437.865151
542.315102	46778.618339
542.674821	46539.506330
543.034483	46543.871969
543.394090	46481.855695
543.753640	46407.685198
544.113134	47382.261224
544.472571	46353.686879
544.831953	47558.898214
545.191278	46726.328971
545.550548	46412.398677
545.909761	46837.534304
546.268918	46990.092223
546.628019	47249.283148
546.987064	46778.169677
547.346053	46012.463778
547.704986	46833.813933
548.063863	46339.208685
548.422684	46487.892477
548.781449	46293.999617
549.140158	46628.008827
549.498811	46434.801565
549.857408	45818.001268
550.215949	46569.579333
550.574434	46457.645553
550.932864	46162.823753
551.291237	46809.296281
551.649555	46354.175871
552.007817	46530.036523
552.366022	46113.060003
552.724173	46220.010602
553.082267	46540.645631
553.440305	46756.245699
553.798288	46024.635644
554.156215	46239.393839
554.514086	46378.572535
554.871902	46063.699545
555.229661	46003.591347
555.587365	45746.305978
555.945014	45763.834070
556.302606	45597.793586
556.660143	45751.437873
557.017625	45751.463079
557.375050	45468.765253
557.732421	45720.465024
558.089735	45598.085973
558.446994	45436.491786
558.804197	45801.199102
559.161345	45643.650442
559.518437	44815.328371
559.875474	45022.706317
560.232455	45058.869034
560.589381	45150.555020
560.946251	44763.215443
561.303065	45318.501060
561.659825	45022.489547
562.016528	44612.363956
562.373177	44227.055964
562.729770	44577.980766
563.086307	44004.163868
563.442789	44333.444475
563.799216	44270.709836
564.155587	43954.198471
564.511904	43846.579919
564.868164	43804.965194
565.224370	43922.061115
565.580520	43531.795149
565.936615	43607.593938
566.292654	43216.213877
566.648638	43319.255062
567.004567	43134.584994
567.360441	43064.926330
567.716260	42781.008545
568.072023	42885.814134
568.427732	42743.162083
568.783385	42198.230996
569.138982	42399.529310
569.494525	42221.352248
569.850013	41867.115408
570.205445	41689.329036
570.560823	41505.911694
570.916145	41238.639800
571.271412	41123.131842
571.626625	40749.358010
571.981782	40645.994192
572.336884	40226.991128
572.691931	40338.564466
573.046923	39829.072690
573.401860	39537.618381
573.756743	39362.831495
574.111570	39312.142693
574.466342	38996.410186
574.821059	38931.613715
575.175722	38344.727626
575.530330	38206.090854
575.884882	37813.468148
576.239380	37604.575336
576.593823	37418.907119
576.948211	37167.368665
577.302544	36601.403364
577.656823	36438.107788
578.011047	36436.025792
578.365216	36049.608747
578.719330	35707.097631
579.073389	35409.225932
579.427394	35313.456612
579.781344	35088.832879
580.135239	34621.979183
580.489080	34508.054147
580.842866	33927.315745
581.196597	34079.505659
581.550273	33837.895758
581.903895	33543.746952
582.257463	33661.568799
582.610975	33009.901362
582.964434	33008.046217
583.317837	32570.821903
583.671186	32245.848962
584.024481	32214.475341
584.377721	31687.314321
584.730906	31701.926106
585.084037	31536.861085
585.437113	31132.162295
585.790135	30962.159464
586.143103	30494.882311
586.496016	30397.701468
586.848874	30211.960154
587.201679	30022.528716
587.554428	29462.496853
587.907124	29386.816531
588.259765	29018.315747
588.612352	29006.617749
588.964884	28403.756243
589.317362	28375.608961
589.669786	28150.803746
590.022155	27804.786508
590.374470	27886.402788
590.726731	27390.940544
591.078937	26894.820430
591.431090	26758.439574
591.783188	26366.739400
592.135232	25992.279972
592.487222	25930.462823
592.839157	25795.349817
593.191038	25416.842342
593.542866	25075.069756
593.894639	24537.849114
594.246358	24525.450396
594.598022	24320.063706
594.949633	23903.677001
595.301190	23699.754766
595.652692	23419.141458
596.004141	23421.765378
596.355535	22702.733003
596.706876	22483.440290
597.058162	22225.141649
597.409395	22299.339872
597.760573	22160.498933
598.111698	21760.616966
598.462768	21582.727250
598.813785	21421.836304
599.164748	20961.566355
599.515657	20980.505970
599.866511	20559.350334
600.217312	20682.097389
600.568060	19998.242184
600.918753	20181.876295
601.269392	19991.698767
601.619978	19655.927673
601.970510	19580.547300
602.320988	19501.786833
602.671412	19464.268045
603.021783	19180.153656
603.372100	18844.294342
603.722363	18732.189163
604.072572	18600.972970
604.422728	18437.538762
604.772830	18191.941308
605.122878	18052.608857
605.472872	17865.491309
605.822813	17807.525601
606.172701	17569.628510
606.522534	17502.777769
606.872314	17456.444524
607.222041	17187.738421
607.571714	17180.267431
607.921333	16797.303576
608.270899	16754.305055
608.620411	16729.883185
608.969870	16501.478586
609.319276	16338.157805
609.668627	16196.183789
610.017926	16228.686628
610.367171	16130.109385
610.716362	16001.958213
611.065500	15826.984805
611.414585	15746.827938
611.763616	15693.023703
612.112594	15523.683783
612.461518	15444.968687
612.810389	15403.132151
613.159207	15198.138671
613.507971	15085.937710
613.856682	15089.305201
614.205340	14911.750721
614.553945	14983.640095
614.902496	14670.899514
615.250994	14675.834803
615.599439	14552.117326
615.947830	14483.860103
616.296169	14358.524416
616.644454	14256.660340
616.992686	14168.288913
617.340864	14183.949258
617.688990	13965.528665
618.037063	14006.518287
618.385082	13867.291700
618.733048	13817.326303
619.080961	13694.614536
619.428821	13570.576946
619.776628	13466.182212
620.124382	13291.516313
620.472083	13192.563504
620.819731	13105.404475
621.167326	12884.796021
621.514868	12752.596802
621.862357	12509.885409
622.209793	12379.327086
622.557176	12181.580265
622.904506	11993.454486
623.251783	11798.366873
623.599007	11622.775923
623.946179	11456.969852
624.293297	11338.028868
624.640363	11095.040212
624.987376	10982.612399
625.334336	10824.264715
625.681243	10646.710236
626.028097	10525.009220
626.374899	10397.856197
626.721647	10294.164703
627.068343	10175.385036
627.414987	10032.619559
627.761577	9897.395649
628.108115	9863.710659
628.454600	9683.378503
628.801032	9612.845199
629.147412	9522.769862
629.493739	9436.140154
629.840014	9287.022823
630.186236	9268.776367
630.532405	9116.094940
630.878521	9072.980472
631.224585	8977.914393
631.570597	8849.669960
631.916556	8804.788567
632.262462	8716.243220
632.608316	8647.620513
632.954117	8555.614415
633.299866	8480.007189
633.645562	8389.672233
633.991206	8235.675065
634.336797	8093.993436
634.682336	8018.792024
635.027823	7904.972852
635.373257	7806.483830
635.718639	7694.479473
636.063968	7605.351873
636.409245	7447.203316
636.754470	7389.809779
637.099642	7289.029552
637.444762	7158.788822
637.789829	7116.531350
638.134845	7009.167376
638.479808	6943.377797
638.824719	6875.349947
639.169577	6765.490602
639.514383	6718.499486
639.859137	6622.488190
640.203839	6600.206290
640.548489	6502.549058
640.893086	6459.938705
641.237632	6370.538883
641.582125	6338.421692
641.926566	6278.689060
642.270955	6226.810546
642.615292	6180.583165
642.959576	6130.196832
643.303809	6078.330921
643.647990	6051.703546
643.992118	6001.838973
644.336195	5951.523216
644.680219	5920.245377
645.024192	5907.022431
645.368112	5915.983082
645.711981	5875.411876
646.055797	5922.133289
646.399562	5880.473194
646.743274	5934.186688
647.086935	5947.575993
647.430544	5900.148817
647.774101	5873.322317
648.117606	5851.093349
648.461059	5841.983984
648.804460	5764.884578
649.147810	5663.905225
649.491108	5594.158341
649.834354	5522.049676
650.177548	5414.138737
650.520690	5328.968443
650.863781	5288.863543
651.206820	5244.118262
651.549807	5171.145039
651.892742	5095.772228
652.235626	5050.147265
652.578458	5003.640100
652.921238	4929.492288
653.263967	4921.121453
653.606644	4865.875448
653.949269	4830.206763
654.291843	4769.798617
654.634365	4769.249131
654.976836	4715.097057
655.319255	4686.329712
655.661622	4662.240558
656.003938	4613.119555
656.346203	4575.752003
656.688416	4565.702462
657.030577	4524.896843
657.372687	4486.705061
657.714746	4473.235098
658.056753	4458.754383
658.398708	4399.886309
658.740612	4375.749265
659.082465	4367.721227
659.424266	4331.682018
659.766016	4318.154082
660.107715	4293.200371
660.449362	4275.768061
660.790958	4257.942541
661.132503	4240.311105
661.473996	4215.377558
661.815438	4197.035320
662.156829	4184.210624
662.498168	4151.022188
662.839456	4132.332110
663.180693	4114.332670
663.521879	4102.092749
663.863013	4077.905293
664.204097	4063.245617
664.545129	4062.905339
664.886110	4041.104870
665.227040	4024.153990
665.567918	4016.819111
665.908746	3995.164835
666.249522	3987.426663
666.590248	3969.520485
666.930922	3960.781645
667.271545	3941.335394
667.612118	3926.506840
667.952639	3899.813930
668.293109	3881.607803
668.633528	3860.316490
668.973896	3834.359589
669.314213	3819.500788
669.654480	3792.800316
669.994695	3773.167543
670.334859	3753.108792
670.674973	3729.543918
671.015035	3724.197774
671.355047	3704.237326
671.695008	3688.143442
672.034918	3669.029907
672.374777	3655.380983
672.714585	3639.594610
673.054342	3634.243425
673.394049	3609.209055
673.733705	3608.999847
674.073310	3584.459510
674.412864	3570.198086
674.752368	3543.326215
675.091820	3536.543343
675.431223	3506.520751
675.770574	3483.674242
676.109875	3465.747899
676.449125	3443.965073
676.788324	3426.976385
677.127473	3396.195099
677.466571	3378.160371
677.805619	3359.545911
678.144616	3345.223993
678.483562	3336.643949
678.822458	3315.902121
679.161303	3299.810758
679.500098	3287.959006
679.838842	3275.260339
680.177535	3269.352107
680.516179	3264.018566
680.854771	3263.733741
681.193314	3278.786626
681.531805	3301.262611
681.870247	3312.549754
682.208638	3326.029799
682.546978	3318.475630
682.885268	3312.015392
683.223508	3292.276754
683.561697	3275.411574
683.899836	3261.218205
684.237925	3241.688775
684.575963	3230.608319
684.913951	3210.421018
685.251889	3208.674258
685.589776	3200.966334
685.927614	3194.758153
686.265401	3191.798996
686.603137	3183.652491
686.940824	3193.704552
687.278460	3199.922815
687.616046	3199.085984
687.953582	3207.318188
688.291068	3202.118238
688.628504	3201.382229
688.965889	3191.665405
689.303224	3181.288190
689.640510	3160.362361
689.977745	3140.354021
690.314930	3114.208077
690.652065	3092.503389
690.989150	3071.380954
691.326185	3042.283414
691.663170	3020.553520
692.000105	2997.109634
692.336990	2976.324957
692.673825	2961.819037
693.010610	2948.510391
693.347345	2929.192689
693.684030	2910.900863
694.020665	2901.761251
694.357251	2881.362222
694.693786	2880.427088
695.030272	2874.342415
695.366707	2858.296422
695.703093	2852.070597
696.039429	2847.241172
696.375716	2837.186590
696.711952	2834.817248
697.048139	2828.102431
697.384276	2821.007007
697.720363	2823.330979
698.056400	2815.665905
698.392388	2814.813950
698.728326	2806.901859
699.064214	2801.825417
699.400053	2798.042031
699.735842	2786.628858
700.071581	2780.256840
700.407270	2774.366252
700.742910	2766.532299
701.078501	2759.252872
701.414042	2753.258941
701.749533	2746.980183
702.084974	2737.578432
702.420366	2737.628843
702.755709	2731.869325
703.091002	2723.594271
703.426246	2723.826164
703.761440	2720.309959
704.096584	2712.062631
704.431679	2711.997096
704.766725	2709.794112
705.101721	2706.149358
705.436668	2705.889738
705.771565	2698.028059
706.106413	2704.226158
706.441212	2699.978986
706.775961	2702.295396
707.110661	2699.641228
707.445311	2704.637012
707.779913	2700.220961
708.114465	2700.513348
708.448967	2704.445448
708.783421	2711.046839
709.117825	2711.387117
709.452180	2717.577654
709.786485	2718.353991
710.120742	2725.804817
710.454949	2728.383367
710.789107	2731.307236
711.123216	2738.475757
711.457275	2740.973649
711.791286	2747.854824
712.125247	2747.595204
712.459159	2747.585122
712.793023	2753.879002
713.126837	2741.137486
713.460602	2743.095974
713.794318	2735.090622
714.127985	2730.331773
714.461602	2718.051522
714.795171	2715.654453
715.128691	2702.781867
715.462162	2694.582430
715.795584	2687.842408
716.128957	2684.023734
716.462281	2676.857733
716.795556	2674.039728
717.128782	2669.343894
717.461960	2661.250321
717.795088	2657.855104
718.128167	2654.880823
718.461198	2648.473517
718.794180	2643.487816
719.127113	2640.352218
719.459997	2636.069758
719.792833	2631.389046
720.125619	2630.796711
720.458357	2629.359982
720.791046	2623.605505
721.123686	2621.526029
721.456278	2617.465379
721.788821	2619.449073
722.121315	2618.266923
722.453761	2614.110492
722.786158	2610.795933
723.118506	2609.119749
723.450805	2611.978083
723.783056	2612.376335
724.115259	2612.341047
724.447412	2611.559668
724.779518	2611.514297
725.111574	2612.036057
725.443582	2615.617797
725.775542	2613.397168
726.107453	2617.049484
726.439315	2619.297839
726.771129	2623.882768
727.102895	2626.133643
727.434612	2628.944087
727.766281	2626.945269
728.097901	2628.618932
728.429473	2627.570372
728.760996	2629.881741
729.092471	2629.690177
729.423897	2629.574231
729.755276	2627.688839
730.086606	2630.174128
730.417887	2632.230919
730.749120	2638.721405
731.080305	2641.325161
731.411442	2644.755666
731.742530	2647.079638
732.073570	2647.427477
732.404562	2650.464772
732.735506	2649.499392
733.066401	2643.039153
733.397249	2639.016312
733.728048	2631.411732
734.058798	2622.715741
734.389501	2614.856582
734.720156	2610.165789
735.050762	2604.852413
735.381320	2599.430652
735.711831	2591.574013
736.042293	2590.096955
736.372707	2591.125351
736.703073	2589.018148
737.033391	2589.534867
737.363661	2588.304825
737.693883	2588.244331
738.024056	2590.686770
738.354182	2591.440423
738.684260	2595.823706
739.014290	2598.321598
739.344272	2603.587083
739.674207	2602.871239
740.004093	2604.950715
740.333931	2605.941302
740.663722	2609.512959
740.993464	2606.205962
741.323159	2604.670931
741.652806	2599.286979
741.982405	2597.668768
742.311956	2591.362285
742.641460	2591.359764
742.970915	2589.560072
743.300323	2582.860379
743.629683	2581.481623
743.958996	2579.145048
744.288260	2572.825962
744.617477	2571.616085
744.946647	2565.778429
745.275768	2564.059396
745.604842	2564.319015
745.933869	2559.376164
746.262847	2557.556307
746.591778	2558.861966
746.920662	2561.334652
747.249498	2558.355330
747.578286	2561.032183
747.907027	2563.031000
748.235720	2567.555436
748.564365	2565.937225
748.892963	2563.656103
749.221514	2563.988819
749.550017	2562.534447
749.878473	2563.630897
750.206881	2559.799621
750.535242	2562.063099
750.863555	2560.218036
751.191821	2559.721483
751.520039	2556.936245
751.848210	2556.732078
752.176334	2553.326779
752.504411	2556.016235
752.832440	2552.605894
753.160421	2554.604712
753.488356	2553.122612
753.816243	2548.855276
754.144082	2550.665050
754.471875	2547.504246
754.799620	2548.850234
755.127318	2548.477189
755.454969	2548.141952
755.782572	2548.182282
756.110129	2544.910573
756.437638	2544.721529
756.765100	2546.417878
757.092515	2547.582384
757.419882	2546.433001
757.747203	2547.156407
758.074477	2548.888043
758.401703	2546.899308
758.728882	2548.726726
759.056014	2550.297046
759.383099	2551.401058
759.710138	2551.874927
760.037129	2551.476676
760.364073	2555.398693
760.690970	2552.482386
761.017820	2554.171172
761.344623	2552.293343
761.671379	2558.105793
761.998088	2564.016546
762.324751	2582.542786
762.651366	2616.280708
762.977935	2654.003662
763.304456	2676.255316
763.630931	2688.792665
763.957359	2677.795388
764.283740	2658.951555
764.610074	2637.564460
764.936362	2616.653754
765.262602	2596.985692
765.588796	2578.260326
765.914943	2567.174829
766.241044	2555.922973
766.567097	2549.029195
766.893104	2538.515869
767.219064	2534.082174
767.544978	2529.852646
767.870845	2523.286543
768.196665	2523.352078
768.522438	2521.474248
768.848165	2519.304032
769.173846	2517.789165
769.499479	2513.219359
769.825066	2514.093999
770.150607	2512.256499
770.476101	2511.046622
770.801548	2510.383710
771.126949	2506.812053
771.452303	2507.411950
771.777611	2505.584532
772.102872	2504.558657
772.428087	2501.995230
772.753256	2504.384737
773.078378	2500.402225
773.403453	2499.719149
773.728482	2499.169663
774.053465	2497.745537
774.378401	2495.111534
774.703291	2493.757985
775.028135	2493.062305
775.352932	2494.884683
775.677683	2491.504589
776.002388	2493.248828
776.327046	2492.792604
776.651658	2490.377891
776.976224	2488.729434
777.300743	2487.650627
777.625216	2488.605925
777.949643	2487.819505
778.274024	2490.541728
778.598359	2484.366315
778.922647	2483.574854
779.246889	2484.522591
779.571086	2482.135604
779.895236	2485.601398
780.219339	2486.637355
780.543397	2485.568630
780.867409	2487.312869
781.191374	2482.128043
781.515294	2484.522591
781.839167	2486.118116
782.162995	2488.132057
782.486776	2486.443270
782.810511	2483.035450
783.134201	2486.987715
783.457844	2486.539052
783.781441	2486.365132
784.104993	2482.554020
784.428498	2483.655512
784.751958	2482.997642
785.075372	2484.923363
785.398739	2483.400934
785.722061	2484.467138
786.045337	2483.176603
786.368568	2484.724237
786.691752	2485.845894
787.014891	2487.214567
787.337983	2491.945690
787.661030	2497.921978
787.984031	2501.584376
788.306987	2507.951353
788.629897	2509.715757
788.952760	2511.296159
789.275579	2504.853564
789.598351	2502.801815
789.921078	2500.480363
790.243759	2496.409632
790.566395	2493.566421
790.888984	2489.490648
791.211529	2489.954434
791.534027	2488.621049
791.856480	2482.808598
792.178888	2486.513847
792.501249	2482.861531
792.823566	2482.901860
793.145836	2478.022023
793.468062	2478.692496
793.790241	2480.522435
794.112375	2481.059318
794.434464	2480.673670
794.756507	2483.411016
795.078505	2483.521922
795.400457	2486.589464
795.722364	2484.177272
796.044226	2492.197748
796.366042	2492.384270
796.687812	2493.730258
797.009538	2495.872749
797.331218	2494.206647
797.652852	2492.931235
797.974442	2492.074239
798.295986	2490.695484
798.617484	2489.467963
798.938938	2490.463591
799.260346	2485.508136
799.581709	2484.676346
799.903026	2487.035606
800.224299	2483.768938
800.545526	2482.743063
800.866708	2480.650985
801.187845	2483.204329
801.508936	2480.010758
801.829983	2479.315079
802.150984	2476.328195
802.471940	2474.800726
802.792851	2474.697382
803.113717	2477.283494
803.434538	2476.504636
803.755314	2473.916003
804.076045	2474.284007
804.396731	2473.187556
804.717372	2475.057824
805.037967	2474.130252
805.358518	2473.928606
805.679024	2478.337095
805.999485	2475.541775
806.319901	2478.669811
806.640272	2478.445480
806.960598	2478.327013
807.280879	2478.518577
807.601115	2479.816674
807.921306	2476.343319
808.241453	2480.393886
808.561554	2476.486992
808.881611	2476.592856
809.201623	2475.438432
809.521590	2479.862044
809.841513	2478.982363
810.161390	2478.097640
810.481223	2477.727115
810.801011	2477.505305
811.120755	2474.994810
811.440453	2478.957157
811.760107	2474.457927
812.079716	2472.774182
812.399281	2470.180508
812.718801	2472.920375
813.038276	2469.368882
813.357707	2472.885087
813.677093	2473.525314
813.996434	2474.931796
814.315731	2470.724953
814.634983	2473.789974
814.954191	2474.215952
815.273354	2474.767958
815.592473	2476.570171
815.911547	2478.390027
816.230577	2480.343474
816.549562	2480.804740
816.868502	2481.886067
817.187399	2480.819863
817.506250	2482.170893
817.825058	2485.177941
818.143821	2485.820688
818.462539	2489.452839
818.781213	2495.343428
819.099843	2501.685199
819.418429	2513.766324
819.736970	2525.996163
820.055466	2540.718853
820.373919	2559.028324
820.692327	2585.103692
821.010691	2631.938532
821.329011	2739.471385
821.647286	2899.699419
821.965517	3077.478230
822.283704	3179.027233
822.601847	3213.546534
822.919945	3144.394506
823.237999	3058.982236
823.556010	2973.580049
823.873976	2892.238511
824.191897	2817.150524
824.509775	2764.004160
824.827609	2715.740153
825.145398	2681.878723
825.463144	2668.925478
825.780845	2670.639470
826.098502	2692.666792
826.416116	2729.079046
826.733685	2770.908020
827.051210	2779.677107
827.368692	2759.116761
827.686129	2717.812067
828.003522	2674.498473
828.320872	2632.258645
828.638177	2602.961980
828.955439	2574.323185
829.272656	2555.756615
829.589830	2535.534027
829.906960	2522.704290
830.224046	2517.769000
830.541088	2505.753410
830.858086	2501.866681
831.175041	2498.816783
831.491952	2494.831750
831.808819	2496.427276
832.125642	2502.809376
832.442421	2514.988804
832.759157	2535.607123
833.075849	2571.351425
833.392497	2605.880808
833.709101	2626.501648
834.025662	2621.112654
834.342179	2606.964656
834.658653	2581.295101
834.975083	2559.116544
835.291469	2546.122970
835.607811	2525.020700
835.924110	2516.264216
836.240366	2504.568739
836.556578	2493.810917
836.872746	2490.166163
837.188871	2480.345995
837.504952	2477.129739
837.820990	2473.878194
838.136984	2471.776033
838.452935	2471.161012
838.768842	2467.755713
839.084706	2476.194605
839.400526	2492.041472
839.716303	2509.672907
840.032037	2522.903416
840.347727	2519.271264
840.663373	2508.011847
840.978977	2495.945845
841.294537	2487.113744
841.610054	2478.304328
841.925527	2472.736373
842.240957	2469.535240
842.556344	2466.298820
842.871687	2461.890331
843.186987	2457.290278
843.502244	2453.983281
843.817458	2452.465893
844.132629	2452.113013
844.447756	2452.133177
844.762840	2445.025150
845.077881	2446.890377
845.392879	2444.919286
845.707833	2448.853907
846.022745	2444.165634
846.337613	2445.529266
846.652438	2445.372990
846.967221	2444.155551
847.281960	2445.960284
847.596656	2446.449276
847.911309	2443.505243
848.225919	2444.657146
848.540485	2442.081117
848.855009	2445.816612
849.169490	2440.770417
849.483928	2443.958946
849.798323	2441.574481
850.112675	2442.297886
850.426984	2441.612289
850.741251	2441.720674
851.055474	2441.692948
851.369654	2444.984821
851.683792	2442.338215
851.997887	2444.510953
852.311938	2444.868875
852.625947	2445.168823
852.939914	2442.738987
853.253837	2446.048505
853.567718	2442.360901
853.881555	2444.258895
854.195350	2443.343926
854.509103	2445.178906
854.822812	2441.602207
855.136479	2444.654626
855.450103	2440.788061
855.763685	2440.011723
856.077224	2439.303441
856.390720	2444.936930
856.704173	2441.433328
857.017584	2442.832248
857.330953	2441.710592
857.644278	2442.418874
857.957561	2444.783175
858.270802	2443.699327
858.584000	2445.219235
858.897155	2444.556323
859.210268	2443.815273
859.523339	2442.502053
859.836367	2440.904007
860.149352	2443.346446
860.462295	2446.255192
860.775195	2441.166147
861.088054	2437.012236
861.400869	2444.107660
861.713642	2438.058276
862.026373	2444.183278
862.339062	2441.052721
862.651708	2445.173864
862.964312	2443.379214
863.276873	2442.595314
863.589392	2445.514142
863.901869	2447.172682
864.214303	2444.878957
864.526696	2447.185285
864.839045	2447.656633
865.151353	2448.052363
865.463619	2446.953392
865.775842	2450.348609
866.088023	2448.916921
866.400162	2447.006324
866.712258	2448.198557
867.024313	2451.518157
867.336325	2448.329627
867.648296	2449.022785
867.960224	2449.413475
868.272110	2446.320727
868.583954	2450.114195
868.895755	2448.924483
869.207515	2450.474638
869.519233	2451.581171
869.830909	2451.828187
870.142542	2448.251489
870.454134	2450.588064
870.765684	2449.352981
871.077191	2449.108485
871.388657	2452.196192
871.700081	2451.119905
872.011463	2452.216356
872.322803	2456.362705
872.634101	2454.734413
872.945357	2456.193827
873.256571	2457.227263
873.567744	2457.504527
873.878874	2457.607870
874.189963	2457.055864
874.501010	2457.484362
874.812015	2460.403190
875.122979	2457.771708
875.433900	2459.344548
875.744780	2462.341514
876.055618	2459.810855
876.366415	2462.896041
876.677169	2462.195320
876.987882	2460.768674
877.298554	2456.367747
877.609183	2461.721452
877.919771	2461.081225
878.230317	2465.693881
878.540822	2473.696713
878.851285	2478.818525
879.161707	2485.074597
879.472087	2500.140085
879.782425	2520.274454
880.092722	2555.554969
880.402977	2614.586881
880.713191	2680.479802
881.023363	2741.873495
881.333494	2779.661984
881.643583	2795.004736
881.953631	2788.967954
882.263637	2773.184101
882.573602	2747.562437
882.883526	2725.325907
883.193408	2697.544108
883.503248	2668.781805
883.813048	2644.458238
884.122806	2623.930659
884.432522	2597.963676
884.742197	2575.152455
885.051831	2558.435988
885.361424	2540.209697
885.670975	2526.286030
885.980485	2514.877899
886.289954	2503.994048
886.599382	2499.673779
886.908768	2490.682881
887.218113	2484.923362
887.527417	2479.131077
887.836680	2480.159472
888.145901	2472.507001
888.455082	2467.599437
888.764221	2466.429890
889.073319	2463.768160
889.382376	2464.327728
889.691392	2463.599282
890.000366	2463.669858
890.309300	2463.770681
890.618193	2462.611216
890.927044	2463.347224
891.235855	2462.785135
891.544625	2465.618264
891.853353	2464.297482
892.162041	2468.206896
892.470687	2468.761423
892.779293	2474.543627
893.087858	2479.410861
893.396381	2488.056440
893.704864	2504.997237
894.013306	2521.287726
894.321707	2545.873433
894.630068	2557.440361
894.938387	2561.606874
895.246665	2556.815257
895.554903	2548.739329
895.863100	2536.564942
896.171256	2526.323838
896.479371	2516.662467
896.787446	2509.428411
897.095480	2501.554129
897.403473	2496.328973
897.711425	2491.176914
898.019336	2490.241780
898.327207	2482.009576
898.635038	2479.357929
898.942827	2473.106898
899.250576	2473.152268
899.558284	2466.235805
899.865952	2463.972327
900.173579	2459.727676
900.481165	2464.499128
900.788711	2459.014352
901.096216	2456.755915
901.403681	2458.701801
901.711105	2456.897068
902.018489	2461.083746
902.325832	2460.728345
902.633135	2461.708849
902.940397	2467.692699
903.247619	2482.445635
903.554800	2511.543175
903.861941	2548.210008
904.169041	2575.568350
904.476101	2584.909608
904.783121	2576.896694
905.090100	2563.741803
905.397039	2548.885522
905.703938	2534.243491
906.010796	2523.929290
906.317614	2511.044101
906.624391	2500.467760
906.931129	2492.815289
907.237826	2485.619042
907.544483	2477.129739
907.851099	2473.157309
908.157675	2468.768985
908.464211	2459.336986
908.770707	2454.384053
909.077163	2448.508588
909.383578	2445.945161
909.689954	2445.317537
909.996289	2441.481219
910.302584	2445.390634
910.608839	2442.045828
910.915054	2444.417691
911.221229	2445.481375
911.527363	2444.251333
911.833458	2444.924327
912.139513	2446.739143
912.445527	2444.894080
912.751502	2450.275512
913.057436	2449.610080
913.363331	2453.529577
913.669186	2453.484207
913.975000	2462.303705
914.280775	2467.087760
914.586510	2481.424802
914.892205	2496.855774
915.197859	2519.298991
915.503475	2539.642567
915.809050	2560.215516
916.114585	2575.699420
916.420081	2578.703948
916.725536	2576.231262
917.030952	2568.719942
917.336328	2556.747202
917.641665	2551.844680
917.946961	2541.890922
918.252218	2535.667617
918.557435	2524.632531
918.862612	2518.683970
919.167750	2506.217196
919.472848	2500.480363
919.777906	2489.828405
920.082925	2488.978971
920.387904	2477.280973
920.692843	2473.502628
920.997743	2468.272431
921.302603	2464.763788
921.607423	2461.560135
921.912204	2460.042748
922.216946	2458.038889
922.521647	2453.068311
922.826310	2448.962292
923.130932	2449.857096
923.435516	2446.184616
923.740059	2447.134873
924.044564	2447.669236
924.349028	2443.187650
924.653454	2438.411157
924.957840	2438.317895
925.262186	2436.792946
925.566493	2439.552978
925.870761	2435.608275
926.174989	2438.511980
926.479178	2438.285128
926.783328	2436.603903
927.087438	2434.574838
927.391509	2434.098449
927.695541	2434.295054
927.999533	2431.388829
928.303486	2435.270518
928.607400	2433.090219
928.911275	2431.595517
929.215110	2434.773964
929.518906	2431.605599
929.822663	2433.470826
930.126381	2430.443613
930.430060	2431.098963
930.733699	2432.044179
931.037299	2429.183324
931.340861	2430.176432
931.644383	2431.071237
931.947866	2433.059972
932.251309	2431.063675
932.554714	2431.618202
932.858080	2430.930084
933.161407	2428.911102
933.464694	2430.826741
933.767943	2431.116607
934.071153	2428.104518
934.374323	2429.135433
934.677455	2429.271545
934.980548	2431.093922
935.283602	2431.207348
935.586617	2427.613005
935.889593	2430.927564
936.192530	2429.470670
936.495428	2434.731114
936.798287	2428.303643
937.101108	2431.633325
937.403890	2431.787080
937.706632	2435.502411
938.009336	2435.058789
938.312002	2438.108687
938.614628	2437.589448
938.917216	2441.697989
939.219765	2438.454006
939.522275	2443.802671
939.824747	2442.307968
940.127179	2437.992741
940.429573	2438.108687
940.731929	2438.310333
941.034246	2439.094233
941.336524	2439.293358
941.638763	2438.678338
941.940964	2440.861157
942.243126	2439.686568
942.545250	2435.890580
942.847335	2437.672627
943.149381	2436.682041
943.451389	2436.119952
943.753359	2434.600044
944.055290	2435.280600
944.357182	2436.762699
944.659036	2432.253387
944.960851	2434.685744
945.262628	2431.933274
945.564367	2432.901175
945.866067	2433.236412
946.167729	2433.740528
946.469352	2434.847061
946.770937	2432.586103
947.072484	2433.634663
947.373992	2430.330187
947.675462	2430.216761
947.976893	2433.808583
948.278286	2429.805907
948.579641	2432.500404
948.880958	2430.612492
949.182236	2430.541915
949.483476	2431.446802
949.784678	2431.282965
950.085841	2430.957811
950.386967	2431.567790
950.688054	2432.386978
950.989103	2433.473346
951.290114	2430.776329
951.591087	2433.309509
951.892021	2431.529982
952.192917	2435.867894
952.493776	2434.042997
952.794596	2434.506783
953.095378	2435.845209
953.396122	2435.179777
953.696828	2436.132555
953.997496	2436.253543
954.298126	2433.944694
954.598718	2436.150199
954.899272	2433.813624
955.199788	2432.381937
955.500266	2431.620722
955.800706	2430.829261
956.101108	2425.425144
956.401472	2426.569486
956.701798	2422.700401
957.002087	2425.919177
957.302337	2425.490679
957.602550	2423.615370
957.902724	2424.910947
958.202861	2425.324321
958.502960	2426.168714
958.803022	2423.232242
959.103045	2422.922211
959.403031	2420.633527
959.702979	2421.752664
960.002889	2421.878693
960.302762	2420.956161
960.602596	2421.704773
960.902393	2420.182344
961.202153	2421.223343
961.501875	2422.153435
961.801559	2421.503127
962.101205	2419.615214
962.400814	2419.728640
962.700385	2421.442633
962.999918	2422.314752
963.299414	2417.805440
963.598873	2421.069587
963.898293	2419.300142
964.197677	2418.808630
964.497022	2416.895512
964.796331	2418.044895
965.095601	2417.865934
965.394835	2419.058167
965.694030	2416.393917
965.993189	2421.644279
966.292309	2419.211922
966.591393	2422.637386
966.890439	2419.098496
967.189447	2418.581778
967.488419	2420.179824
967.787353	2419.128743
968.086249	2417.555903
968.385108	2418.700245
968.683930	2419.108578
968.982714	2419.753846
969.281462	2422.793662
969.580172	2418.465831
969.878844	2418.813671
970.177480	2420.106727
970.476078	2421.114958
970.774639	2419.647982
971.073162	2422.566810
971.371649	2417.066911
971.670098	2416.608166
971.968510	2416.557755
972.266885	2415.975501
972.565223	2419.826943
972.863524	2420.210071
973.161788	2418.864082
973.460014	2419.169072
973.758204	2419.007755
974.056356	2420.441964
974.354471	2420.746953
974.652550	2421.606470
974.950591	2422.357602
975.248595	2420.046233
975.546563	2417.223187
975.844493	2420.076480
976.142386	2418.576737
976.440243	2420.043712
976.738062	2419.723599
977.035845	2419.030441
977.333590	2419.549679
977.631299	2419.012797
977.928971	2420.252920
978.226606	2417.293763
978.524204	2421.447674
978.821765	2418.843918
979.119290	2419.453898
979.416777	2418.042374
979.714228	2417.303845
980.011642	2416.373752
980.309020	2423.083528
980.606360	2417.576068
980.903664	2419.627817
981.200931	2419.438774
981.498162	2424.371543
981.795356	2425.788107
982.092513	2427.444126
982.389633	2428.195258
982.686717	2430.005032
982.983764	2433.483429
983.280775	2433.133068
983.577749	2435.885538
983.874686	2435.673810
984.171587	2433.813624
984.468451	2432.354210
984.765279	2432.303799
985.062070	2429.579055
985.358824	2429.062337
985.655543	2430.640218
985.952224	2426.652665
986.248869	2421.848446
986.545478	2418.130595
986.842050	2419.123702
987.138586	2416.335944
987.435086	2415.708320
987.731549	2412.771848
988.027975	2415.811664
988.324366	2417.334092
988.620719	2414.828639
988.917037	2416.041036
989.213318	2414.730336
989.509563	2416.159503
989.805772	2415.083217
990.101944	2415.299987
990.398080	2414.619431
990.694180	2412.303021
990.990244	2413.414595
991.286271	2415.375604
991.582262	2414.747980
991.878217	2417.066911
992.174136	2414.788310
992.470019	2413.207908
992.765865	2415.937693
993.061676	2415.536921
993.357450	2416.363670
993.653188	2413.258319
993.948890	2416.439288
994.244556	2417.082035
994.540186	2418.226377
994.835780	2416.570357
995.131337	2417.424833
995.426859	2417.956675
995.722345	2421.656882
996.017795	2423.423806
996.313208	2426.035124
996.608586	2421.397262
996.903928	2425.407500
997.199234	2426.113262
997.494504	2424.406831
997.789738	2419.693352
998.084936	2424.119485
998.380099	2421.858528
998.675225	2423.930442
998.970316	2419.010276
999.265371	2418.191088
999.560390	2418.707807
999.855373	2418.261665
1000.150320	2414.528690
1000.445232	2415.010120
1000.740108	2413.752352
1001.034948	2416.756880
1001.329752	2414.884092
1001.624521	2413.694379
1001.919254	2412.154307
1002.213951	2411.380490
1002.508613	2410.205901
1002.803239	2410.601631
1003.097829	2410.026940
1003.392384	2412.446694
1003.686903	2410.687331
1003.981386	2411.884605
1004.275834	2409.114491
1004.570246	2413.505336
1004.864623	2412.915521
1005.158964	2409.568195
1005.453270	2409.396796
1005.747540	2412.335788
1006.041775	2410.432753
1006.335974	2410.037022
1006.630138	2411.710685
1006.924266	2409.865623
1007.218359	2413.102044
1007.512416	2411.314955
1007.806438	2409.177505
1008.100425	2408.892680
1008.394376	2409.918555
1008.688292	2409.968967
1008.982172	2411.723288
1009.276017	2411.289749
1009.569827	2409.336302
1009.863602	2412.209759
1010.157341	2410.074831
1010.451045	2408.131466
1010.744714	2412.030798
1011.038347	2411.032650
1011.331945	2409.633730
1011.625508	2410.367218
1011.919036	2409.444687
1012.212528	2413.033988
1012.505986	2409.245561
1012.799408	2410.326888
1013.092795	2407.881929
1013.386147	2412.471899
1013.679464	2411.037691
1013.972745	2411.549368
1014.265992	2410.989800
1014.559204	2409.399316
1014.852380	2410.689852
1015.145521	2409.963925
1015.438628	2410.944430
1015.731699	2410.372259
1016.024736	2410.163051
1016.317737	2408.242371
1016.610703	2410.513411
1016.903635	2409.726991
1017.196531	2406.019223
1017.489393	2406.762793
1017.782219	2405.290776
1018.075011	2409.626168
1018.367768	2407.070303
1018.660490	2411.715726
1018.953177	2411.715726
1019.245829	2411.715726
