Dividing Wavelength (nm)	Counts (n)	Blue Motor Position (mm): 0.000000	Red Motor Position (mm): 30.800000	
326.493990	1987.742085
326.888308	1987.742085
327.282561	1987.742085
327.676750	1965.669393
328.070874	1966.551595
328.464933	1971.209621
328.858929	1982.088431
329.252859	1994.656027
329.646726	2009.013234
330.040528	2024.048475
330.434265	2043.862730
330.827938	2059.621377
331.221547	2082.808164
331.615091	2100.341297
332.008571	2124.808538
332.401986	2144.844603
332.795338	2164.941163
333.188625	2182.955727
333.581847	2204.899869
333.975006	2222.435523
334.368100	2239.701475
334.761129	2256.158322
335.154095	2269.877822
335.546996	2292.147119
335.939833	2323.006542
336.332606	2339.995231
336.725315	2348.219873
337.117960	2354.909484
337.510540	2365.309385
337.903056	2375.739532
338.295508	2381.128525
338.687896	2389.116234
339.080220	2393.106307
339.472480	2399.322050
339.864676	2405.628533
340.256807	2404.753893
340.648875	2409.968967
341.040879	2412.176992
341.432818	2411.141035
341.824694	2410.505849
342.216506	2410.846127
342.608253	2411.698082
342.999937	2411.756056
343.391557	2409.585839
343.783113	2409.837897
344.174605	2407.738256
344.566033	2405.258008
344.957397	2406.414953
345.348697	2404.443862
345.739934	2401.497307
346.131106	2398.759961
346.522215	2397.542522
346.913260	2397.577810
347.304241	2395.009342
347.695159	2390.605895
348.086012	2392.733262
348.476802	2389.912736
348.867528	2390.159753
349.258191	2388.080277
349.648789	2388.579351
350.039324	2387.319062
350.429796	2386.434340
350.820203	2386.169679
351.210548	2384.725389
351.600828	2384.793444
351.991045	2384.606922
352.381198	2383.049205
352.771288	2385.423588
353.161314	2383.883516
353.551276	2385.852087
353.941175	2384.427961
354.331010	2384.344782
354.720782	2383.283619
355.110490	2383.044164
355.500135	2383.913763
355.889717	2388.115565
356.279235	2385.776469
356.668689	2386.215050
357.058080	2387.475338
357.447408	2386.504916
357.836672	2384.843856
358.225873	2386.474669
358.615010	2385.642879
359.004084	2391.268806
359.393095	2391.578837
359.782043	2394.666544
360.170927	2393.149157
360.559748	2393.499517
360.948505	2396.768705
361.337199	2396.499003
361.725830	2395.493293
362.114398	2399.130486
362.502903	2396.511606
362.891344	2398.059241
363.279722	2398.467574
363.668037	2402.303892
364.056289	2399.521175
364.444478	2402.878584
364.832603	2403.370096
365.220665	2407.113153
365.608665	2404.847154
365.996601	2406.049469
366.384474	2407.529048
366.772284	2407.581980
367.160031	2407.397978
367.547715	2406.422515
367.935336	2411.604821
368.322893	2411.047773
368.710388	2410.710016
369.097820	2415.065573
369.485189	2418.029772
369.872495	2417.780234
370.259738	2415.894843
370.646918	2421.959351
371.034035	2419.453897
371.421090	2428.243149
371.808081	2429.526123
372.195010	2433.354879
372.581875	2440.236054
372.968678	2445.877105
373.355418	2453.269958
373.742096	2465.572893
374.128710	2476.136631
374.515262	2488.316059
374.901751	2499.346104
375.288177	2517.176665
375.674540	2536.806918
376.060841	2560.696946
376.447079	2584.604618
376.833254	2608.897938
377.219367	2635.376599
377.605417	2673.437311
377.991404	2697.133254
378.377329	2738.352249
378.763191	2772.833741
379.148991	2820.427274
379.534727	2870.896786
379.920402	2916.163827
380.306013	2968.372537
380.691563	3032.175901
381.077049	3089.783686
381.462474	3144.215545
381.847835	3221.975343
382.233134	3296.183648
382.618371	3351.830425
383.003545	3439.629681
383.388657	3524.439532
383.773706	3616.125518
384.158693	3688.355170
384.543618	3783.280097
384.928480	3866.517109
385.313280	3969.356647
385.698017	4077.229778
386.082692	4197.640258
386.467305	4261.488992
386.851856	4393.748705
387.236344	4550.296696
387.620770	4614.508393
388.005133	4734.210591
388.389435	4881.772726
388.773674	4970.912929
389.157851	5101.055357
389.541965	5237.327828
389.926018	5263.138535
390.310008	5442.550680
390.693936	5569.043312
391.077802	5687.213000
391.461606	5822.358773
391.845348	5934.645433
392.229027	6058.400719
392.612645	6281.287775
392.996200	6404.561630
393.379694	6574.710655
393.763125	6805.101468
394.146494	6898.698051
394.529801	7040.288939
394.913047	7288.230529
395.296230	7284.956300
395.679351	7336.988569
396.062410	7608.671473
396.445408	7501.869588
396.828343	7656.413721
397.211217	7801.099877
397.594028	7677.677308
397.976778	7885.269502
398.359466	8051.655306
398.742092	8028.266872
399.124656	8172.166609
399.507158	8366.044345
399.889598	8381.485399
400.271977	8601.738452
400.654294	8629.283316
401.036549	8829.422165
401.418742	8855.240435
401.800874	9160.512547
402.182944	9239.383919
402.564952	9615.151527
402.946898	9433.145709
403.328783	9490.198967
403.710606	9687.282877
404.092367	9943.744017
404.474067	10309.426797
404.855705	10097.766391
405.237282	10061.404548
405.618797	10482.668569
406.000250	10735.164842
406.381642	11099.942734
406.762972	11050.471371
407.144240	10858.053049
407.525447	11104.073960
407.906593	11039.892509
408.287677	11315.499952
408.668700	11464.239196
409.049661	11437.833632
409.430560	11606.545928
409.811399	11570.993191
410.192176	11741.243038
410.572891	11813.434882
410.953545	12300.170889
411.334138	11773.839139
411.714669	12379.397663
412.095139	11677.563183
412.475547	12185.285513
412.855894	12029.962522
413.236180	12359.661545
413.616405	12050.202755
413.996568	12323.400526
414.376670	12299.260960
414.756711	12171.618945
415.136691	12457.762399
415.516609	12643.995225
415.896466	12705.278012
416.276262	13004.737674
416.655997	13445.914252
417.035670	13475.740239
417.415283	14130.623933
417.794834	14229.070105
418.174324	13969.785919
418.553753	13877.336199
418.933121	14373.272311
419.312428	14184.148383
419.691674	14083.466459
420.070859	14542.400502
420.449983	14197.083984
420.829045	14757.884623
421.208047	14486.574764
421.586988	14951.341423
421.965867	15211.031422
422.344686	15205.912130
422.723444	15770.828871
423.102141	14450.366677
423.480777	15647.176929
423.859352	15154.252906
424.237866	16267.503513
424.616319	15967.244828
424.994712	16634.307949
425.373044	16429.632062
425.751314	17104.534177
426.129524	16226.166051
426.507673	17324.058783
426.885762	17013.173346
427.263789	17214.653142
427.641756	17383.680509
428.019662	17453.737424
428.397508	17492.246799
428.775292	17799.734498
429.153016	17756.373013
429.530679	17834.684818
429.908282	17859.971245
430.285824	17572.819561
430.663305	18284.411193
431.040726	17879.840953
431.418086	17711.806693
431.795385	18365.112505
432.172624	18786.437020
432.549802	18341.827415
432.926920	18523.336680
433.303977	18400.032578
433.680974	18662.195263
434.057910	18953.301733
434.434786	18975.467686
434.811601	18885.357061
435.188355	19939.835376
435.565050	19573.270394
435.941683	19530.292037
436.318257	20415.077552
436.694770	20227.501258
437.071222	20831.396201
437.447614	19888.324866
437.823946	19916.618342
438.200218	20072.851261
438.576429	19846.362301
438.952580	20128.293871
439.328670	20088.007490
439.704700	20509.775627
440.080670	20070.484439
440.456580	20666.865542
440.832429	20843.328612
441.208218	19827.591565
441.583947	20268.987434
441.959616	20377.243692
442.335224	20623.466249
442.710773	20743.826317
443.086261	21297.266872
443.461689	20643.101543
443.837057	20784.856269
444.212365	21422.670615
444.587612	21422.748753
444.962800	20995.185810
445.337927	21422.300090
445.712995	20144.206273
446.088002	22014.542406
446.462949	22183.272346
446.837837	22372.590358
447.212664	22335.363957
447.587431	25169.510732
447.962139	28117.184291
448.336786	30512.911998
448.711374	28964.692993
449.085901	25259.759988
449.460369	25204.055238
449.834776	25117.186075
450.209124	27606.981713
450.583412	27134.683571
450.957640	27675.599379
451.331808	26321.162328
451.705917	24944.108140
452.079965	24983.071218
452.453954	25333.844785
452.827883	25210.626382
453.201752	25014.585992
453.575562	25187.008577
453.949311	26307.523486
454.323001	26367.770316
454.696632	26124.287626
455.070202	27678.624071
455.443713	27806.871025
455.817164	28411.176822
456.190556	28949.226733
456.563888	28382.860660
456.937160	28835.722634
457.310373	27156.098393
457.683526	27603.460467
458.056619	27587.338857
458.429653	27511.063679
458.802628	28095.179654
459.175542	28212.250370
459.548398	29516.296047
459.921194	31075.373697
460.293930	31740.498494
460.666607	33776.585245
461.039224	35520.980751
461.411782	35926.733142
461.784280	34748.439048
462.156719	34267.593629
462.529099	33707.566808
462.901419	32414.213418
463.273680	31341.697855
463.645882	31423.782963
464.018024	31395.232388
464.390106	32224.759295
464.762130	34907.205147
465.134094	38968.159560
465.505999	44244.710085
465.877845	48846.847487
466.249631	50032.209279
466.621358	48356.070995
466.993026	46246.643018
467.364634	44158.914688
467.736184	42185.744058
468.107674	40943.606271
468.479105	40125.482454
468.850477	39439.068864
469.221790	38008.797736
469.593043	36258.317557
469.964238	35354.605030
470.335373	35264.655722
470.706449	36987.843095
471.077467	39522.449549
471.448425	44093.293988
471.819324	46905.909995
472.190164	45081.161016
472.560945	41521.244364
472.931667	38413.879653
473.302330	37303.464696
473.672934	36470.877809
474.043479	36964.240412
474.413965	36156.438358
474.784393	35777.852746
475.154761	36655.699112
475.525070	36672.818870
475.895321	36211.187810
476.265513	36778.050436
476.635645	37731.302382
477.005719	37550.735813
477.375734	37999.784153
477.745691	38670.232409
478.115588	39983.397533
478.485427	41929.298041
478.855207	45223.046812
479.224928	47787.456568
479.594591	49422.625394
479.964194	48405.255013
480.333739	48537.875167
480.703226	48537.628151
481.072653	49133.520262
481.442022	49561.436086
481.811333	49807.182253
482.180584	48480.292588
482.549777	47925.309440
482.918912	47336.568206
483.287988	47011.433947
483.657005	46138.575803
484.025964	45450.854034
484.394864	45425.744046
484.763706	44951.643692
485.132489	44028.779822
485.501213	43795.502948
485.869879	43878.203077
486.238487	43415.785596
486.607036	43534.840006
486.975527	42940.871095
487.343959	43051.438723
487.712333	43056.399218
488.080648	42887.036613
488.448905	43231.692740
488.817104	42969.255312
489.185244	43773.629382
489.553326	45279.638805
489.921350	47782.163356
490.289315	50567.194169
490.657222	51057.567368
491.025070	51231.845098
491.392861	50188.177538
491.760593	48813.384308
492.128267	47024.482974
492.495883	45440.174349
492.863440	43957.029079
493.230939	42520.685881
493.598380	41342.908505
493.965763	40883.664431
494.333088	39979.656997
494.700354	39376.659380
495.067563	38932.513561
495.434713	38652.086776
495.801805	38557.144205
496.168839	38033.953094
496.535815	37577.569874
496.902733	37418.723117
497.269593	36875.410240
497.636395	36648.525550
498.003139	36819.027455
498.369825	36145.320093
498.736453	36244.545125
499.103023	35646.991953
499.469535	35338.203636
499.835989	35218.728290
500.202385	34734.018827
500.568723	34561.074483
500.935003	34504.711862
501.301226	34126.736229
501.667390	34437.379691
502.033497	34440.119558
502.399546	33732.240735
502.765537	32945.616568
503.131470	33059.486151
503.497345	33115.125366
503.863163	31811.102375
504.228923	32086.883737
504.594625	32159.299912
504.960269	31367.775744
505.325856	31676.927024
505.691385	30954.222167
506.056856	30812.827884
506.422270	30904.516390
506.787625	30345.293633
507.152924	30237.675080
507.518164	30075.682643
507.883347	29245.026518
508.248472	29164.617593
508.613540	29255.247457
508.978550	29222.986593
509.343503	28755.472506
509.708398	28645.414035
510.073236	28757.221786
510.438016	28479.025711
510.802738	27831.887751
511.167403	27991.664601
511.532010	27867.879069
511.896561	27803.538822
512.261053	28092.205374
512.625488	27493.200350
512.989866	27140.259087
513.354186	26753.569820
513.718449	26483.580743
514.082655	26616.720137
514.446803	26139.073330
514.810894	26166.035942
515.174927	25837.619892
515.538904	25488.570400
515.902822	25607.070283
516.266684	25002.668704
516.630488	24954.434944
516.994235	24600.422436
517.357925	24629.741787
517.721558	24438.969402
518.085133	24317.459950
518.448651	24102.326189
518.812112	23699.593449
519.175516	23458.235606
519.538863	23350.430531
519.902152	23044.245970
520.265385	23002.124609
520.628560	22732.720306
520.991678	22342.030883
521.354739	22189.916586
521.717743	22063.494530
522.080690	21738.196434
522.443580	21716.222045
522.806413	21463.370371
523.169189	21160.374339
523.531908	20971.681430
523.894569	20642.337808
524.257174	20430.017011
524.619722	20291.440733
524.982213	20021.900319
525.344647	19726.491224
525.707025	19482.983329
526.069345	19377.497185
526.431608	19084.326362
526.793815	18967.820256
527.155964	18515.311163
527.518057	18329.259819
527.880093	17979.494482
528.242072	17934.073686
528.603995	17562.535607
528.965860	17323.932754
529.327669	17114.624046
529.689421	16847.432810
530.051117	16595.775890
530.412755	16409.477529
530.774337	16211.771037
531.135862	15924.783189
531.497331	15765.384425
531.858743	15511.136352
532.220098	15391.303083
532.581396	15087.071969
532.942638	14782.198108
533.303824	14655.922246
533.664953	14438.835038
534.026025	14156.908509
534.387040	14090.410648
534.747999	13884.550090
535.108902	13732.090474
535.469748	13411.825970
535.830537	13249.641969
536.191270	13112.830094
536.551947	12832.831807
536.912567	12725.964387
537.273131	12563.437587
537.633638	12265.828028
537.994089	12163.006134
538.354483	11906.182030
538.714821	11855.399967
539.075103	11763.945875
539.435328	11551.214223
539.795497	11365.372087
540.155609	11199.301356
540.515665	11128.326951
540.875665	10874.814886
541.235609	10778.276789
541.595496	10619.402305
541.955328	10593.480692
542.315102	10334.042751
542.674821	10144.681889
543.034483	10009.624336
543.394090	9857.961223
543.753640	9709.655518
544.113134	9739.388243
544.472571	9452.594480
544.831953	9507.759827
545.191278	9253.962936
545.550548	9073.285462
545.909761	9015.607100
546.268918	8914.766379
546.628019	8837.427517
546.987064	8650.798961
547.346053	8426.228160
547.704986	8428.100949
548.063863	8247.045388
548.422684	8161.764188
548.781449	8023.911316
549.140158	7966.124569
549.498811	7828.780853
549.857408	7654.087228
550.215949	7639.740104
550.574434	7522.545880
550.932864	7391.571662
551.291237	7371.649022
551.649555	7230.894966
552.007817	7157.248749
552.366022	7021.891248
552.724173	6943.607170
553.082267	6884.343365
553.440305	6819.065464
553.798288	6665.040570
554.156215	6604.377845
554.514086	6539.185644
554.871902	6429.558192
555.229661	6340.581826
555.587365	6239.960395
555.945014	6167.203943
556.302606	6082.278144
556.660143	6018.830182
557.017625	5944.263955
557.375050	5850.616960
557.732421	5799.827335
558.089735	5721.775150
558.446994	5641.580475
558.804197	5601.742757
559.161345	5527.400861
559.518437	5407.151698
559.875474	5352.445096
560.232455	5298.522394
560.589381	5245.696143
560.946251	5164.024409
561.303065	5136.280419
561.659825	5064.012958
562.016528	4983.770392
562.373177	4908.042179
562.729770	4875.950193
563.086307	4790.061535
563.442789	4763.293008
563.799216	4710.557497
564.155587	4643.341273
564.511904	4594.023665
564.868164	4550.034556
565.224370	4512.256149
565.580520	4450.743990
565.936615	4413.003392
566.292654	4356.620607
566.648638	4323.240606
567.004567	4281.061272
567.360441	4235.527050
567.716260	4192.009289
568.072023	4159.788755
568.427732	4118.610089
568.783385	4068.143098
569.138982	4042.760889
569.494525	4009.295189
569.850013	3965.772387
570.205445	3936.586627
570.560823	3900.590268
570.916145	3870.439127
571.271412	3841.351669
571.626625	3806.255156
571.981782	3777.137451
572.336884	3745.005137
572.691931	3721.301631
573.046923	3686.626055
573.401860	3659.091272
573.756743	3634.210657
574.111570	3617.557206
574.466342	3587.252309
574.821059	3573.850402
575.175722	3539.494938
575.530330	3517.263450
575.884882	3489.821929
576.239380	3471.840133
576.593823	3449.959005
576.948211	3431.742796
577.302544	3405.528796
577.656823	3387.357957
578.011047	3377.510063
578.365216	3357.073225
578.719330	3337.127900
579.073389	3319.778769
579.427394	3309.698982
579.781344	3294.983853
580.135239	3277.410391
580.489080	3268.845471
580.842866	3245.976276
581.196597	3240.355390
581.550273	3229.655541
581.903895	3216.195660
582.257463	3215.290773
582.610975	3194.203626
582.964434	3189.417051
583.317837	3172.788805
583.671186	3160.090138
584.024481	3153.108140
584.377721	3138.047693
584.730906	3132.719193
585.084037	3126.795838
585.437113	3112.287397
585.790135	3106.132148
586.143103	3089.052719
586.496016	3086.164138
586.848874	3077.024526
587.201679	3072.222827
587.554428	3055.448387
587.907124	3051.649878
588.259765	3040.526572
588.612352	3041.557488
588.964884	3026.595343
589.317362	3024.515867
589.669786	3017.899353
590.022155	3006.695388
590.374470	3007.297806
590.726731	2998.387567
591.078937	2987.725527
591.431090	2980.683035
591.783188	2970.744400
592.135232	2962.310549
592.487222	2959.613532
592.839157	2958.272585
593.191038	2948.202880
593.542866	2942.098043
593.894639	2929.646393
594.246358	2927.347627
594.598022	2925.895775
594.949633	2914.167530
595.301190	2906.774678
595.652692	2902.204872
596.004141	2901.146230
596.355535	2889.213819
596.706876	2880.515308
597.058162	2877.566233
597.409395	2879.013044
597.760573	2875.007847
598.111698	2866.221116
598.462768	2865.061651
598.813785	2860.108717
599.164748	2849.590349
599.515657	2849.973477
599.866511	2842.386541
600.217312	2844.130780
600.568060	2829.529078
600.918753	2836.876559
601.269392	2829.899602
601.619978	2824.268634
601.970510	2822.930207
602.320988	2822.698314
602.671412	2822.589929
603.021783	2816.805205
603.372100	2810.360090
603.722363	2810.367652
604.072572	2805.127372
604.422728	2804.421611
604.772830	2797.525312
605.122878	2795.110600
605.472872	2791.244035
605.822813	2788.088272
606.172701	2787.760597
606.522534	2788.088272
606.872314	2786.820422
607.222041	2783.221038
607.571714	2783.828497
607.921333	2774.736777
608.270899	2774.603186
608.620411	2777.509411
608.969870	2774.817435
609.319276	2767.253184
609.668627	2765.408121
610.017926	2766.179418
610.367171	2764.548605
610.716362	2767.054058
611.065500	2761.546597
611.414585	2758.103489
611.763616	2760.951741
612.112594	2759.789755
612.461518	2753.188364
612.810389	2754.012593
613.159207	2752.066708
613.507971	2749.495719
613.856682	2752.520412
614.205340	2743.521952
614.553945	2751.333220
614.902496	2744.532703
615.250994	2741.203021
615.599439	2743.834503
615.947830	2742.879205
616.296169	2740.530027
616.644454	2739.967938
616.992686	2737.623802
617.340864	2740.852661
617.688990	2736.169429
618.037063	2738.735376
618.385082	2736.209758
618.733048	2736.252608
619.080961	2734.273955
619.428821	2734.168091
619.776628	2728.995867
620.124382	2729.749520
620.472083	2723.737944
620.819731	2724.259703
621.167326	2721.146791
621.514868	2722.419682
621.862357	2716.506408
622.209793	2718.117057
622.557176	2710.293186
622.904506	2705.123483
623.251783	2699.071578
623.599007	2698.943028
623.946179	2695.361289
624.293297	2696.366999
624.640363	2691.323324
624.987376	2691.310722
625.334336	2686.125895
625.681243	2685.157993
626.028097	2683.133970
626.374899	2679.975687
626.721647	2679.922755
627.068343	2678.738084
627.414987	2677.666839
627.761577	2671.017557
628.108115	2673.238185
628.454600	2670.029491
628.801032	2668.466733
629.147412	2666.838440
629.493739	2667.637463
629.840014	2665.091680
630.186236	2664.927843
630.532405	2659.637152
630.878521	2664.683347
631.224585	2660.683191
631.570597	2657.814775
631.916556	2658.520536
632.262462	2655.989877
632.608316	2655.959630
632.954117	2657.441729
633.299866	2656.299908
633.645562	2656.597336
633.991206	2650.628610
634.336797	2646.099133
634.682336	2646.716675
635.027823	2646.404123
635.373257	2642.429173
635.718639	2637.708133
636.063968	2639.346508
636.409245	2634.305354
636.754470	2635.013636
637.099642	2631.419293
637.444762	2629.221350
637.789829	2628.356792
638.134845	2628.986937
638.479808	2628.865949
638.824719	2623.098869
639.169577	2623.721451
639.514383	2621.589043
639.859137	2619.907818
640.203839	2620.033847
640.548489	2617.044443
640.893086	2613.830708
641.237632	2612.640995
641.582125	2613.951695
641.926566	2609.969184
642.270955	2613.903804
642.615292	2613.016561
642.959576	2612.527569
643.303809	2612.194853
643.647990	2612.270470
643.992118	2609.656632
644.336195	2610.901797
644.680219	2610.332147
645.024192	2613.724843
645.368112	2613.755090
645.711981	2616.941099
646.055797	2617.495626
646.399562	2617.598970
646.743274	2620.369084
647.086935	2623.741616
647.430544	2622.125926
647.774101	2623.504682
648.117606	2622.541821
648.461059	2625.354785
648.804460	2623.020731
649.147810	2619.189454
649.491108	2617.563682
649.834354	2617.667026
650.177548	2610.962291
650.520690	2609.213011
650.863781	2607.385592
651.206820	2613.359360
651.549807	2604.232351
651.892742	2602.669593
652.235626	2602.125148
652.578458	2602.838472
652.921238	2596.063161
653.263967	2598.866042
653.606644	2593.300608
653.949269	2596.595002
654.291843	2594.081987
654.634365	2594.449992
654.976836	2592.589806
655.319255	2596.254725
655.661622	2590.916143
656.003938	2590.303642
656.346203	2591.510999
656.688416	2592.685588
657.030577	2587.818354
657.372687	2589.176945
657.714746	2588.486307
658.056753	2587.717531
658.398708	2586.275761
658.740612	2588.075452
659.082465	2585.542273
659.424266	2586.527818
659.766016	2584.103023
660.107715	2586.956316
660.449362	2587.299115
660.790958	2586.774835
661.132503	2586.661409
661.473996	2587.788107
661.815438	2588.143508
662.156829	2587.135277
662.498168	2587.132757
662.839456	2586.616038
663.180693	2588.324990
663.521879	2586.749629
663.863013	2585.033116
664.204097	2588.108220
664.545129	2591.561410
664.886110	2588.536718
665.227040	2588.466142
665.567918	2590.684250
665.908746	2589.834815
666.249522	2591.105186
666.590248	2590.606112
666.930922	2589.378591
667.271545	2588.602253
667.612118	2590.777511
667.952639	2587.538570
668.293109	2592.504106
668.633528	2588.781214
668.973896	2589.595360
669.314213	2587.914136
669.654480	2587.830957
669.994695	2587.558734
670.334859	2587.437747
670.674973	2585.360791
671.015035	2587.220977
671.355047	2587.135277
671.695008	2585.617890
672.034918	2584.627303
672.374777	2588.728282
672.714585	2583.460276
673.054342	2585.693507
673.394049	2582.389031
673.733705	2583.321644
674.073310	2585.731316
674.412864	2586.870617
674.752368	2583.719896
675.091820	2585.547314
675.431223	2581.393403
675.770574	2579.311407
676.109875	2573.267063
676.449125	2576.523648
676.788324	2574.928123
677.127473	2572.936867
677.466571	2567.873028
677.805619	2574.902917
678.144616	2572.586507
678.483562	2571.608523
678.822458	2569.198852
679.161303	2568.377144
679.500098	2570.648184
679.838842	2568.921588
680.177535	2570.595252
680.516179	2570.224727
680.854771	2571.273287
681.193314	2577.302507
681.531805	2580.528845
681.870247	2583.893815
682.208638	2585.259968
682.546978	2588.761049
682.885268	2589.537387
683.223508	2590.157449
683.561697	2587.936821
683.899836	2583.520770
684.237925	2578.436766
684.575963	2582.242838
684.913951	2577.355439
685.251889	2581.398444
685.589776	2579.308886
685.927614	2579.765110
686.265401	2581.022878
686.603137	2580.344843
686.940824	2581.945409
687.278460	2584.559248
687.616046	2587.054619
687.953582	2589.943200
688.291068	2590.107037
688.628504	2588.191399
688.965889	2587.916656
689.303224	2587.329362
689.640510	2588.861872
689.977745	2583.359453
690.314930	2578.275449
690.652065	2580.352405
690.989150	2575.376786
691.326185	2571.726991
691.663170	2564.797925
692.000105	2562.047975
692.336990	2559.303067
692.673825	2555.852397
693.010610	2557.558828
693.347345	2550.551624
693.684030	2546.324616
694.020665	2544.474513
694.357251	2539.796322
694.693786	2545.886036
695.030272	2541.240613
695.366707	2542.125335
695.703093	2537.089223
696.039429	2537.628626
696.375716	2538.362114
696.711952	2540.524769
697.048139	2538.140303
697.384276	2539.158616
697.720363	2536.068389
698.056400	2536.759027
698.392388	2533.847761
698.728326	2534.344314
699.064214	2534.815662
699.400053	2534.122503
699.735842	2530.697039
700.071581	2529.613191
700.407270	2529.305681
700.742910	2528.536905
701.078501	2528.138654
701.414042	2526.437264
701.749533	2523.931811
702.084974	2522.043899
702.420366	2521.789321
702.755709	2522.946265
703.091002	2520.970133
703.426246	2520.241686
703.761440	2518.200019
704.096584	2522.106913
704.431679	2517.786644
704.766725	2519.634227
705.101721	2516.725482
705.436668	2519.498116
705.771565	2515.291273
706.106413	2517.965605
706.441212	2516.707838
706.775961	2520.292098
707.110661	2519.414937
707.445311	2521.444002
707.779913	2518.759587
708.114465	2521.002901
708.448967	2522.358971
708.783421	2526.953983
709.117825	2526.638911
709.452180	2530.850795
709.786485	2530.507996
710.120742	2537.371527
710.454949	2535.584438
710.789107	2536.401105
711.123216	2533.353728
711.457275	2541.475026
711.791286	2542.339584
712.125247	2542.296734
712.459159	2542.579039
712.793023	2549.883671
713.126837	2544.640871
713.460602	2547.345450
713.794318	2543.002496
714.127985	2541.235572
714.461602	2534.634181
714.795171	2536.443955
715.128691	2533.199972
715.462162	2529.212420
715.795584	2526.805269
716.128957	2525.660927
716.462281	2524.766122
716.795556	2523.100021
717.128782	2522.144722
717.461960	2518.232787
717.795088	2516.634741
718.128167	2513.731036
718.461198	2512.495953
718.794180	2509.897239
719.127113	2508.271467
719.459997	2511.296159
719.792833	2505.897083
720.125619	2507.578308
720.458357	2506.920437
720.791046	2505.198883
721.123686	2503.442041
721.456278	2502.128821
721.788821	2500.656804
722.121315	2503.820128
722.453761	2500.941629
722.786158	2502.285096
723.118506	2501.652432
723.450805	2500.757627
723.783056	2502.650580
724.115259	2502.060765
724.447412	2502.219561
724.779518	2505.266939
725.111574	2504.936743
725.443582	2504.183091
725.775542	2505.816425
726.107453	2507.018740
726.439315	2505.539161
726.771129	2514.451921
727.102895	2511.233144
727.434612	2512.276663
727.766281	2513.720954
728.097901	2515.417302
728.429473	2511.782630
728.760996	2514.262878
729.092471	2510.882784
729.423897	2512.773217
729.755276	2512.997548
730.086606	2516.664988
730.417887	2519.820750
730.749120	2520.473579
731.080305	2521.617921
731.411442	2521.988446
731.742530	2524.307377
732.073570	2525.885258
732.404562	2525.025741
732.735506	2525.736544
733.066401	2523.974661
733.397249	2524.826616
733.728048	2516.901922
734.058798	2513.665501
734.389501	2511.548217
734.720156	2505.849192
735.050762	2505.483708
735.381320	2503.356342
735.711831	2500.946670
736.042293	2500.621516
736.372707	2501.922133
736.703073	2494.400732
737.033391	2500.346773
737.363661	2499.882987
737.693883	2502.665703
738.024056	2505.362721
738.354182	2500.465240
738.684260	2505.413132
739.014290	2507.795078
739.344272	2507.427073
739.674207	2509.282218
740.004093	2511.480161
740.333931	2509.506549
740.663722	2512.937054
740.993464	2509.801457
741.323159	2511.200377
741.652806	2505.100581
741.982405	2507.477485
742.311956	2504.520848
742.641460	2507.858092
742.970915	2504.346928
743.300323	2500.495487
743.629683	2501.034890
743.958996	2496.870897
744.288260	2494.183962
744.617477	2493.755464
744.946647	2489.712459
745.275768	2490.808910
745.604842	2487.630462
745.933869	2487.789258
746.262847	2486.314721
746.591778	2490.370329
746.920662	2488.376553
747.249498	2492.291009
747.578286	2489.984681
747.907027	2494.574652
748.235720	2490.294712
748.564365	2495.240084
748.892963	2490.156080
749.221514	2494.584734
749.550017	2492.986688
749.878473	2493.112717
750.206881	2489.382263
750.535242	2490.266986
750.863555	2488.860504
751.191821	2491.242449
751.520039	2489.851090
751.848210	2488.792448
752.176334	2490.733292
752.504411	2493.205978
752.832440	2488.116933
753.160421	2488.225318
753.488356	2486.899495
753.816243	2489.092397
754.144082	2488.300936
754.471875	2485.619042
754.799620	2487.161635
755.127318	2487.726244
755.454969	2482.259113
755.782572	2488.094248
756.110129	2486.501244
756.437638	2487.597695
756.765100	2483.716006
757.092515	2484.313383
757.419882	2486.186172
757.747203	2486.859166
758.074477	2487.438898
758.401703	2485.435040
758.728882	2486.370174
759.056014	2488.558034
759.383099	2491.282778
759.710138	2491.542398
760.037129	2490.924856
760.364073	2492.550628
760.690970	2490.803868
761.017820	2490.700525
761.344623	2493.364775
761.671379	2494.725886
761.998088	2494.922491
762.324751	2509.188957
762.651366	2528.050434
762.977935	2553.903991
763.304456	2566.824468
763.630931	2577.012640
763.957359	2569.392936
764.283740	2553.662016
764.610074	2541.850592
764.936362	2528.912471
765.262602	2521.091121
765.588796	2507.858092
765.914943	2496.898623
766.241044	2491.928046
766.567097	2487.547283
766.893104	2484.356233
767.219064	2481.026551
767.544978	2478.596714
767.870845	2476.802064
768.196665	2475.067907
768.522438	2473.348873
768.848165	2473.573205
769.173846	2470.344346
769.499479	2468.728656
769.825066	2467.934674
770.150607	2467.105404
770.476101	2466.077009
770.801548	2465.671196
771.126949	2463.185907
771.452303	2464.766309
771.777611	2463.657255
772.102872	2461.867645
772.428087	2462.825465
772.753256	2462.023921
773.078378	2461.270269
773.403453	2456.176183
773.728482	2459.261369
774.053465	2457.174331
774.378401	2457.494444
774.703291	2457.933025
775.028135	2456.839094
775.352932	2456.791203
775.677683	2456.352623
776.002388	2456.435802
776.327046	2455.475462
776.651658	2455.624176
776.976224	2453.864814
777.300743	2452.075204
777.625216	2453.529577
777.949643	2452.662498
778.274024	2457.575103
778.598359	2449.582353
778.922647	2448.551438
779.246889	2452.816254
779.571086	2448.070007
779.895236	2453.181737
780.219339	2451.460183
780.543397	2453.413630
780.867409	2451.921449
781.191374	2453.910184
781.515294	2450.577981
781.839167	2452.644854
782.162995	2453.350616
782.486776	2453.960596
782.810511	2453.854731
783.134201	2452.849021
783.457844	2452.702828
783.781441	2453.597632
784.104993	2452.758280
784.428498	2453.007818
784.751958	2448.884154
785.075372	2452.901953
785.398739	2450.620831
785.722061	2451.361881
786.045337	2453.673250
786.368568	2452.460852
786.691752	2453.806840
787.014891	2454.908332
787.337983	2457.451595
787.661030	2461.701287
787.984031	2467.095322
788.306987	2466.082050
788.629897	2468.181691
788.952760	2466.729838
789.275579	2467.634725
789.598351	2463.647173
789.921078	2462.780094
790.243759	2459.460494
790.566395	2454.741974
790.888984	2454.885647
791.211529	2455.929166
791.534027	2454.384053
791.856480	2453.564865
792.178888	2450.618311
792.501249	2452.049998
792.823566	2448.622014
793.145836	2451.387087
793.468062	2450.212498
793.790241	2446.915583
794.112375	2450.469597
794.434464	2452.375153
794.756507	2448.982456
795.078505	2452.574278
795.400457	2452.334823
795.722364	2453.980760
796.044226	2456.476131
796.366042	2455.515792
796.687812	2455.820781
797.009538	2460.619960
797.331218	2457.086111
797.652852	2458.180041
797.974442	2456.014866
798.295986	2456.440843
798.617484	2457.421348
798.938938	2452.934721
799.260346	2455.331789
799.581709	2452.042437
799.903026	2453.577468
800.224299	2450.129319
800.545526	2450.956068
800.866708	2451.248455
801.187845	2449.809205
801.508936	2450.998918
801.829983	2449.073197
802.150984	2448.803495
802.471940	2446.401385
802.792851	2447.155038
803.113717	2447.641509
803.434538	2450.106633
803.755314	2448.377518
804.076045	2448.463217
804.396731	2446.847527
804.717372	2445.766200
805.037967	2446.540017
805.358518	2443.578339
805.679024	2447.099585
805.999485	2445.932558
806.319901	2448.115378
806.640272	2447.359205
806.960598	2446.514811
807.280879	2448.412806
807.601115	2448.788372
807.921306	2447.328958
808.241453	2448.264092
808.561554	2448.112857
808.881611	2449.736109
809.201623	2447.765017
809.521590	2448.624534
809.841513	2444.599173
810.161390	2448.546396
810.481223	2446.204780
810.801011	2445.572116
811.120755	2447.828032
811.440453	2448.248968
811.760107	2445.756118
812.079716	2440.576332
812.399281	2441.095571
812.718801	2442.466765
813.038276	2440.702361
813.357707	2441.773606
813.677093	2444.205963
813.996434	2445.345264
814.315731	2443.643874
814.634983	2443.565736
814.954191	2445.551951
815.273354	2446.575305
815.592473	2446.839966
815.911547	2449.282405
816.230577	2450.877930
816.549562	2451.213167
816.868502	2449.708382
817.187399	2455.137705
817.506250	2452.470935
817.825058	2452.642334
818.143821	2457.131481
818.462539	2457.459156
818.781213	2458.820268
819.099843	2467.586834
819.418429	2473.381641
819.736970	2482.957312
820.055466	2490.889568
820.373919	2505.037566
820.692327	2522.149763
821.010691	2558.819116
821.329011	2635.061527
821.647286	2745.896335
821.965517	2870.130531
822.283704	2941.727518
822.601847	2965.546970
822.919945	2914.820360
823.237999	2855.922039
823.556010	2795.433234
823.873976	2735.947618
824.191897	2688.346523
824.509775	2649.149031
824.827609	2617.543517
825.145398	2593.751792
825.463144	2584.299628
825.780845	2584.657550
826.098502	2598.871083
826.416116	2626.509209
826.733685	2655.069867
827.051210	2660.390804
827.368692	2646.154586
827.686129	2618.584516
828.003522	2590.467480
828.320872	2553.256203
828.638177	2535.065199
828.955439	2514.396468
829.272656	2502.698471
829.589830	2487.922849
829.906960	2484.038640
830.224046	2474.399954
830.541088	2466.611371
830.858086	2465.489714
831.175041	2464.224385
831.491952	2462.512913
831.808819	2462.782615
832.125642	2463.120372
832.442421	2474.329378
832.759157	2489.979640
833.075849	2510.613083
833.392497	2534.873635
833.709101	2553.861141
834.025662	2553.397355
834.342179	2536.098636
834.658653	2518.981398
834.975083	2504.402381
835.291469	2495.466936
835.607811	2481.046715
835.924110	2475.035139
836.240366	2468.194293
836.556578	2460.383026
836.872746	2455.394804
837.188871	2449.892384
837.504952	2446.504729
837.820990	2443.767382
838.136984	2446.686211
838.452935	2438.219593
838.768842	2443.709409
839.084706	2447.671756
839.400526	2460.577110
839.716303	2472.781743
840.032037	2478.029585
840.347727	2476.456745
840.663373	2472.186887
840.978977	2462.160032
841.294537	2455.672067
841.610054	2448.760645
841.925527	2449.310131
842.240957	2444.742846
842.556344	2440.840993
842.871687	2436.447627
843.186987	2434.085847
843.502244	2432.286155
843.817458	2429.387491
844.132629	2431.219951
844.447756	2426.151070
844.762840	2425.755340
845.077881	2424.341296
845.392879	2422.281985
845.707833	2422.554207
846.022745	2418.727971
846.337613	2426.821544
846.652438	2424.689136
846.967221	2425.858683
847.281960	2423.746440
847.596656	2427.739034
847.911309	2424.789959
848.225919	2425.036975
848.540485	2424.764753
848.855009	2425.702408
849.169490	2423.837181
849.483928	2424.981523
849.798323	2422.483631
850.112675	2424.149732
850.426984	2422.970102
850.741251	2422.846594
851.055474	2423.391039
851.369654	2422.904567
851.683792	2421.036820
851.997887	2423.471697
852.311938	2423.779207
852.625947	2424.109403
852.939914	2421.374577
853.253837	2421.939186
853.567718	2423.945566
853.881555	2425.074784
854.195350	2424.003539
854.509103	2425.415062
854.822812	2423.146543
855.136479	2421.135122
855.450103	2421.765267
855.763685	2422.632345
856.077224	2425.470515
856.390720	2423.973292
856.704173	2424.242994
857.017584	2423.353230
857.330953	2421.820719
857.644278	2421.553538
857.957561	2427.529826
858.270802	2423.443971
858.584000	2423.025555
858.897155	2425.415062
859.210268	2422.917170
859.523339	2423.486821
859.836367	2422.314752
860.149352	2423.131419
860.462295	2425.644434
860.775195	2420.898188
861.088054	2419.186716
861.400869	2420.154618
861.713642	2416.772004
862.026373	2424.058992
862.339062	2421.210740
862.651708	2425.586461
862.964312	2421.921542
863.276873	2424.215267
863.589392	2422.135791
863.901869	2426.393046
864.214303	2423.640576
864.526696	2424.742068
864.839045	2424.016142
865.151353	2424.351378
865.463619	2427.330700
865.775842	2427.575196
866.088023	2427.590320
866.400162	2426.899682
866.712258	2425.485638
867.024313	2427.983530
867.336325	2422.924732
867.648296	2427.613005
867.960224	2425.452871
868.272110	2426.196441
868.583954	2428.321287
868.895755	2426.108221
869.207515	2424.908426
869.519233	2428.482604
869.830909	2429.619384
870.142542	2428.238108
870.454134	2426.052768
870.765684	2429.725248
871.077191	2427.068560
871.388657	2430.743562
871.700081	2429.369847
872.011463	2429.997471
872.322803	2433.669951
872.634101	2431.091401
872.945357	2431.900506
873.256571	2433.856474
873.567744	2434.945363
873.878874	2431.051072
874.189963	2432.596186
874.501010	2431.403953
874.812015	2434.126176
875.122979	2434.877308
875.433900	2433.906886
875.744780	2434.095929
876.055618	2435.429314
876.366415	2435.184818
876.677169	2434.758841
876.987882	2433.433017
877.298554	2433.748089
877.609183	2436.142637
877.919771	2435.441917
878.230317	2440.465427
878.540822	2443.716971
878.851285	2445.161262
879.161707	2451.903805
879.472087	2462.167594
879.782425	2478.561426
880.092722	2505.418173
880.402977	2546.833773
880.713191	2595.243973
881.023363	2643.560912
881.333494	2670.457989
881.643583	2681.430060
881.953631	2679.103567
882.263637	2665.250477
882.573602	2645.068217
882.883526	2629.347379
883.193408	2607.700664
883.503248	2586.290884
883.813048	2568.911506
884.122806	2551.942982
884.432522	2535.299613
884.742197	2517.690863
885.051831	2503.363903
885.361424	2493.639518
885.670975	2484.230204
885.980485	2472.806949
886.289954	2467.957359
886.599382	2460.771194
886.908768	2458.593416
887.218113	2451.956737
887.527417	2450.368773
887.836680	2444.274018
888.145901	2445.468772
888.455082	2444.069852
888.764221	2440.848554
889.073319	2435.653645
889.382376	2437.932247
889.691392	2439.510128
890.000366	2438.627926
890.309300	2435.394026
890.618193	2437.617175
890.927044	2438.136414
891.235855	2434.514345
891.544625	2438.847216
891.853353	2435.353697
892.162041	2440.447783
892.470687	2442.451641
892.779293	2446.887857
893.087858	2446.938268
893.396381	2449.907508
893.704864	2465.187245
894.013306	2477.207877
894.321707	2492.570793
894.630068	2504.427587
894.938387	2506.199552
895.246665	2503.943636
895.554903	2497.803511
895.863100	2485.707262
896.171256	2483.869761
896.479371	2473.379120
896.787446	2474.132773
897.095480	2464.521813
897.403473	2461.844960
897.711425	2453.940431
898.019336	2456.224074
898.327207	2451.931531
898.635038	2447.681838
898.942827	2444.379883
899.250576	2438.300251
899.558284	2439.459717
899.865952	2436.714808
900.173579	2436.858481
900.481165	2435.709098
900.788711	2433.070054
901.096216	2432.810435
901.403681	2433.233892
901.711105	2432.618871
902.018489	2431.696340
902.325832	2435.956115
902.633135	2434.847061
902.940397	2439.908379
903.247619	2450.313321
903.554800	2473.961373
903.861941	2497.070023
904.169041	2516.135667
904.476101	2525.267717
904.783121	2519.145235
905.090100	2511.207939
905.397039	2496.603716
905.703938	2491.002994
906.010796	2478.664770
906.317614	2470.155302
906.624391	2466.679427
906.931129	2459.674743
907.237826	2454.618466
907.544483	2446.366097
907.851099	2443.694286
908.157675	2438.547268
908.464211	2434.738676
908.770707	2425.102510
909.077163	2426.957655
909.383578	2421.498085
909.689954	2423.423806
909.996289	2418.634710
910.302584	2425.460432
910.608839	2422.571851
910.915054	2423.711152
911.221229	2423.401121
911.527363	2421.533373
911.833458	2421.172931
912.139513	2423.121337
912.445527	2425.755340
912.751502	2427.318097
913.057436	2426.319949
913.363331	2428.051585
913.669186	2432.195414
913.975000	2433.178439
914.280775	2441.191353
914.586510	2451.462704
914.892205	2461.862604
915.197859	2478.384986
915.503475	2491.963334
915.809050	2506.456651
916.114585	2515.770183
916.420081	2520.934845
916.725536	2522.749660
917.030952	2513.927641
917.336328	2507.837927
917.641665	2502.746362
917.946961	2495.252687
918.252218	2489.785555
918.557435	2482.438074
918.862612	2475.682928
919.167750	2468.554736
919.472848	2465.119190
919.777906	2456.249279
920.082925	2452.750719
920.387904	2448.168310
920.692843	2441.196394
920.997743	2437.859150
921.302603	2436.687082
921.607423	2437.176074
921.912204	2432.941505
922.216946	2431.746751
922.521647	2430.441092
922.826310	2428.389343
923.130932	2428.454878
923.435516	2423.529670
923.740059	2421.732499
924.044564	2422.924732
924.349028	2425.631832
924.653454	2415.032806
924.957840	2416.638413
925.262186	2416.257806
925.566493	2416.719072
925.870761	2415.088258
926.174989	2419.710996
926.479178	2416.411561
926.783328	2416.426685
927.087438	2414.710172
927.391509	2416.703948
927.695541	2414.828639
927.999533	2416.666139
928.303486	2412.623134
928.607400	2415.012641
928.911275	2415.483989
929.215110	2411.415778
929.518906	2414.808474
929.822663	2416.628331
930.126381	2414.042219
930.430060	2417.099679
930.733699	2411.657753
931.037299	2413.956519
931.340861	2415.060532
931.644383	2416.567837
931.947866	2410.878895
932.251309	2413.621283
932.554714	2413.570871
932.858080	2411.491395
933.161407	2414.531211
933.464694	2414.826118
933.767943	2411.940058
934.071153	2412.570202
934.374323	2412.847465
934.677455	2410.649522
934.980548	2412.819739
935.283602	2411.806467
935.586617	2410.823442
935.889593	2415.249575
936.192530	2410.778072
936.495428	2414.233783
936.798287	2414.984915
937.101108	2413.016344
937.403890	2414.248906
937.706632	2416.673701
938.009336	2420.079001
938.312002	2419.300142
938.614628	2418.107909
938.917216	2422.907088
939.219765	2418.601942
939.522275	2421.112437
939.824747	2421.414906
940.127179	2415.695717
940.429573	2415.413413
940.731929	2420.338620
941.034246	2420.416758
941.336524	2419.315266
941.638763	2419.731161
941.940964	2417.361819
942.243126	2417.119843
942.545250	2417.671850
942.847335	2418.135636
943.149381	2419.181675
943.451389	2414.528690
943.753359	2416.441808
944.055290	2416.013310
944.357182	2416.194792
944.659036	2416.093968
944.960851	2415.700758
945.262628	2415.809143
945.564367	2414.793351
945.866067	2416.323341
946.167729	2416.835018
946.469352	2414.143042
946.770937	2418.208733
947.072484	2411.751014
947.373992	2414.014493
947.675462	2415.360481
947.976893	2416.522467
948.278286	2417.412230
948.579641	2415.685635
948.880958	2412.497105
949.182236	2414.750501
949.483476	2413.112126
949.784678	2414.647157
950.085841	2413.959040
950.386967	2415.821746
950.688054	2414.236303
950.989103	2415.985584
951.290114	2414.511046
951.591087	2414.440470
951.892021	2414.654719
952.192917	2417.394586
952.493776	2416.101530
952.794596	2417.034144
953.095378	2416.562796
953.396122	2417.142528
953.696828	2415.758732
953.997496	2416.711510
954.298126	2415.045408
954.598718	2417.598753
954.899272	2412.610531
955.199788	2415.506674
955.500266	2413.893505
955.800706	2409.893349
956.101108	2407.864285
956.401472	2411.700603
956.701798	2408.577608
957.002087	2409.694224
957.302337	2411.307393
957.602550	2412.645819
957.902724	2409.989131
958.202861	2409.391754
958.502960	2410.049625
958.803022	2409.051477
959.103045	2408.136507
959.403031	2407.957546
959.702979	2408.416291
960.002889	2408.837228
960.302762	2409.908473
960.602596	2406.271280
960.902393	2406.137690
961.202153	2406.601476
961.501875	2406.810684
961.801559	2408.902762
962.101205	2408.068452
962.400814	2405.769685
962.700385	2406.036867
962.999918	2407.539130
963.299414	2405.129459
963.598873	2406.208266
963.898293	2404.151475
964.197677	2406.314130
964.497022	2407.627351
964.796331	2408.859913
965.095601	2405.331105
965.394835	2404.837072
965.694030	2406.641805
965.993189	2406.409912
966.292309	2406.288924
966.591393	2406.031825
966.890439	2404.393450
967.189447	2405.822617
967.488419	2406.034346
967.787353	2405.784809
968.086249	2404.312792
968.385108	2408.005437
968.683930	2404.700961
968.982714	2406.417474
969.281462	2406.422515
969.580172	2404.403533
969.878844	2405.613410
970.177480	2404.252298
970.476078	2407.690365
970.774639	2408.617937
971.073162	2406.765313
971.371649	2403.969993
971.670098	2403.354973
971.968510	2404.501835
972.266885	2404.519479
972.565223	2406.016702
972.863524	2408.401168
973.161788	2407.120715
973.460014	2403.601989
973.758204	2407.082906
974.056356	2406.120046
974.354471	2406.354459
974.652550	2406.074675
974.950591	2408.174316
975.248595	2407.357649
975.546563	2405.348749
975.844493	2405.946126
976.142386	2406.500653
976.440243	2406.568708
976.738062	2408.796898
977.035845	2402.432442
977.333590	2406.515776
977.631299	2407.239182
977.928971	2405.366393
978.226606	2403.728018
978.524204	2406.450241
978.821765	2405.447052
979.119290	2406.798081
979.416777	2403.412946
979.714228	2407.342525
980.011642	2404.862278
980.309020	2408.126425
980.606360	2407.682803
980.903664	2407.266908
981.200931	2409.918555
981.498162	2408.731363
981.795356	2408.219686
982.092513	2410.790675
982.389633	2411.506518
982.686717	2415.988104
982.983764	2419.582447
983.280775	2416.802251
983.577749	2416.250244
983.874686	2420.084042
984.171587	2415.342837
984.468451	2416.346026
984.765279	2415.756211
985.062070	2414.629513
985.358824	2414.788310
985.655543	2413.880902
985.952224	2412.648340
986.248869	2410.609193
986.545478	2402.790363
986.842050	2405.593245
987.138586	2402.808007
987.435086	2401.172153
987.731549	2401.451937
988.027975	2404.821948
988.324366	2402.326577
988.620719	2403.763306
988.917037	2403.463358
989.213318	2404.811866
989.509563	2402.644170
989.805772	2402.087122
990.101944	2403.612072
990.398080	2401.734242
990.694180	2404.511918
990.990244	2404.267422
991.286271	2400.569735
991.582262	2404.673234
991.878217	2402.089643
992.174136	2400.562173
992.470019	2406.520817
992.765865	2402.387071
993.061676	2403.788512
993.357450	2405.454613
993.653188	2403.428069
993.948890	2405.099212
994.244556	2407.501322
994.540186	2406.639284
994.835780	2406.137690
995.131337	2405.615930
995.426859	2407.072824
995.722345	2408.648184
996.017795	2409.994172
996.313208	2411.209090
996.608586	2410.094995
996.903928	2413.429719
997.199234	2411.677918
997.494504	2407.186250
997.789738	2410.397465
998.084936	2409.732032
998.380099	2409.308575
998.675225	2407.682803
998.970316	2406.684655
999.265371	2407.372772
999.560390	2407.282032
999.855373	2407.803791
1000.150320	2405.888153
1000.445232	2404.801784
1000.740108	2407.498801
1001.034948	2402.886145
1001.329752	2402.129972
1001.624521	2401.146947
1001.919254	2395.964641
1002.213951	2399.735424
1002.508613	2399.450599
1002.803239	2403.962432
1003.097829	2397.038407
1003.392384	2403.165929
1003.686903	2401.545198
1003.981386	2400.834396
1004.275834	2403.523851
1004.570246	2403.838923
1004.864623	2403.758265
1005.158964	2402.550909
1005.453270	2401.693912
1005.747540	2402.573594
1006.041775	2403.382699
1006.335974	2403.924623
1006.630138	2402.324057
1006.924266	2399.160733
1007.218359	2401.860271
1007.512416	2403.599469
1007.806438	2402.503018
1008.100425	2401.272976
1008.394376	2400.103428
1008.688292	2401.535116
1008.982172	2401.577966
1009.276017	2401.593089
1009.569827	2402.674417
1009.863602	2402.296330
1010.157341	2401.603172
1010.451045	2400.143758
1010.744714	2400.471433
1011.038347	2400.481515
1011.331945	2400.461350
1011.625508	2403.556619
1011.919036	2401.063768
1012.212528	2402.220713
1012.505986	2398.248284
1012.799408	2401.557801
1013.092795	2399.435476
1013.386147	2402.863460
1013.679464	2400.731052
1013.972745	2401.797256
1014.265992	2400.476474
1014.559204	2402.313974
1014.852380	2398.628891
1015.145521	2398.369272
1015.438628	2404.053172
1015.731699	2399.758109
1016.024736	2401.278017
1016.317737	2400.983110
1016.610703	2401.509910
1016.903635	2398.429765
1017.196531	2397.295506
1017.489393	2400.045455
1017.782219	2397.900444
1018.075011	2401.847668
1018.367768	2400.090826
1018.660490	2401.212482
1018.953177	2401.212482
1019.245829	2401.212482
