Dividing Wavelength (nm)	Counts (n)	Blue Motor Position (mm): 27.600000	Red Motor Position (mm): 0.000000	
326.493990	1971.917903
326.888308	1971.917903
327.282561	1971.917903
327.676750	1949.293205
328.070874	1948.486620
328.464933	1954.898968
328.858929	1965.361882
329.252859	1975.376135
329.646726	1990.567652
330.040528	2006.107008
330.434265	2025.898578
330.827938	2044.608821
331.221547	2065.796791
331.615091	2084.842270
332.008571	2107.257760
332.401986	2127.142592
332.795338	2146.619090
333.188625	2168.931237
333.581847	2186.469411
333.975006	2205.015816
334.368100	2222.153218
334.761129	2237.256515
335.154095	2254.724113
335.546996	2293.256173
335.939833	2366.625126
336.332606	2381.204143
336.725315	2391.228477
337.117960	2401.174674
337.510540	2405.837741
337.903056	2417.500450
338.295508	2424.963879
338.687896	2432.258428
339.080220	2440.956939
339.472480	2443.109512
339.864676	2446.948351
340.256807	2451.591253
340.648875	2451.571089
341.040879	2452.707869
341.432818	2454.409258
341.824694	2458.071657
342.216506	2455.215843
342.608253	2456.760957
342.999937	2454.363888
343.391557	2454.399176
343.783113	2453.784155
344.174605	2449.408434
344.566033	2448.289297
344.957397	2447.407096
345.348697	2446.529935
345.739934	2443.414502
346.131106	2445.516663
346.522215	2440.117587
346.913260	2438.234716
347.304241	2435.426793
347.695159	2436.117432
348.086012	2434.859664
348.476802	2433.062492
348.867528	2430.630136
349.258191	2430.504107
349.648789	2427.096287
350.039324	2427.885227
350.429796	2426.178797
350.820203	2423.930442
351.210548	2429.137954
351.600828	2427.302974
351.991045	2425.783066
352.381198	2423.254928
352.771288	2426.277099
353.161314	2422.672674
353.551276	2423.655699
353.941175	2420.494896
354.331010	2422.954979
354.720782	2426.655186
355.110490	2425.974630
355.500135	2427.358427
355.889717	2421.631676
356.279235	2423.854825
356.668689	2424.490010
357.058080	2425.203333
357.447408	2424.530339
357.836672	2423.106213
358.225873	2422.690318
358.615010	2422.382808
359.004084	2426.559404
359.393095	2429.821030
359.782043	2431.134251
360.170927	2430.143664
360.559748	2428.149888
360.948505	2429.473191
361.337199	2432.354210
361.725830	2430.521751
362.114398	2435.172215
362.502903	2432.034097
362.891344	2433.092739
363.279722	2432.064344
363.668037	2432.916299
364.056289	2437.198759
364.444478	2434.284972
364.832603	2435.953594
365.220665	2434.897472
365.608665	2436.946701
365.996601	2438.108687
366.384474	2435.948553
366.772284	2437.400405
367.160031	2439.505087
367.547715	2440.094902
367.935336	2438.050714
368.322893	2437.720518
368.710388	2441.193873
369.097820	2443.328802
369.485189	2441.569439
369.872495	2444.236210
370.259738	2442.491971
370.646918	2442.441559
371.034035	2443.348967
371.421090	2445.231838
371.808081	2443.439707
372.195010	2444.062290
372.581875	2446.655964
372.968678	2443.590942
373.355418	2442.643205
373.742096	2443.520366
374.128710	2444.405088
374.515262	2446.368618
374.901751	2445.405758
375.288177	2445.640171
375.674540	2447.031530
376.060841	2447.775100
376.447079	2447.132353
376.833254	2448.750563
377.219367	2444.253854
377.605417	2445.927517
377.991404	2444.281580
378.377329	2448.541355
378.763191	2442.494491
379.148991	2447.757456
379.534727	2454.265585
379.920402	2450.366253
380.306013	2449.945317
380.691563	2455.104937
381.077049	2450.588064
381.462474	2452.223918
381.847835	2451.929011
382.233134	2453.484207
382.618371	2453.385904
383.003545	2455.576285
383.388657	2453.801799
383.773706	2456.897068
384.158693	2457.897737
384.543618	2455.646862
384.928480	2455.238528
385.313280	2456.009825
385.698017	2455.341872
386.082692	2456.327417
386.467305	2454.827674
386.851856	2457.489403
387.236344	2460.556945
387.620770	2462.989302
388.005133	2460.816565
388.389435	2462.006277
388.773674	2459.604167
389.157851	2463.957204
389.541965	2461.388736
389.926018	2462.230608
390.310008	2459.558797
390.693936	2463.755558
391.077802	2459.768005
391.461606	2462.394446
391.845348	2463.112810
392.229027	2464.108438
392.612645	2464.098356
392.996200	2466.596248
393.379694	2466.535754
393.763125	2464.330249
394.146494	2467.657411
394.529801	2468.159005
394.913047	2468.847123
395.296230	2468.930302
395.679351	2469.696557
396.062410	2467.750672
396.445408	2468.804273
396.828343	2468.136320
397.211217	2465.051134
397.594028	2466.087091
397.976778	2463.876545
398.359466	2469.656228
398.742092	2466.160188
399.124656	2469.845271
399.507158	2470.929119
399.889598	2473.389203
400.271977	2471.312247
400.654294	2472.595221
401.036549	2475.065386
401.418742	2473.416929
401.800874	2476.479430
402.182944	2473.200159
402.564952	2475.642598
402.946898	2472.625468
403.328783	2475.352732
403.710606	2478.047229
404.092367	2479.098309
404.474067	2477.361632
404.855705	2477.822897
405.237282	2480.421612
405.618797	2478.682414
406.000250	2480.025882
406.381642	2480.630820
406.762972	2482.246510
407.144240	2482.296921
407.525447	2484.189875
407.906593	2481.535707
408.287677	2484.104175
408.668700	2484.189875
409.049661	2485.185503
409.430560	2485.094762
409.811399	2483.824391
410.192176	2485.553507
410.572891	2486.856645
410.953545	2486.818836
411.334138	2485.387149
411.714669	2487.083497
412.095139	2488.510143
412.475547	2488.711790
412.855894	2487.832108
413.236180	2488.109372
413.616405	2491.381081
413.996568	2490.995432
414.376670	2490.466111
414.756711	2486.229021
415.136691	2491.227325
415.516609	2492.535505
415.896466	2494.574652
416.276262	2494.509117
416.655997	2491.129023
417.035670	2491.076091
417.415283	2498.405928
417.794834	2493.034579
418.174324	2496.553304
418.553753	2493.163128
418.933121	2496.613798
419.312428	2499.525065
419.691674	2495.653458
420.070859	2500.921464
420.449983	2501.433141
420.829045	2499.794766
421.208047	2500.147647
421.586988	2500.515651
421.965867	2500.954232
422.344686	2503.736949
422.723444	2504.276352
423.102141	2501.884325
423.480777	2505.796260
423.859352	2502.441372
424.237866	2511.495284
424.616319	2510.393792
424.994712	2512.637106
425.373044	2514.613238
425.751314	2512.798423
426.129524	2511.996879
426.507673	2516.118023
426.885762	2514.648526
427.263789	2517.063239
427.641756	2521.113806
428.019662	2517.567354
428.397508	2521.391069
428.775292	2524.793848
429.153016	2525.136647
429.530679	2526.230577
429.908282	2525.960875
430.285824	2528.990609
430.663305	2529.146885
431.040726	2530.326515
431.418086	2532.330373
431.795385	2537.991589
432.172624	2534.888759
432.549802	2537.149716
432.926920	2538.175591
433.303977	2543.768751
433.680974	2546.606921
434.057910	2545.752445
434.434786	2550.859134
434.811601	2552.323589
435.188355	2559.731565
435.565050	2560.906154
435.941683	2565.004612
436.318257	2570.227247
436.694770	2569.639953
437.071222	2582.487333
437.447614	2580.796026
437.823946	2586.490010
438.200218	2597.038624
438.576429	2599.559201
438.952580	2611.370624
439.328670	2619.660802
439.704700	2633.879376
440.080670	2639.757362
440.456580	2656.380567
440.832429	2674.407733
441.208218	2678.473423
441.583947	2698.330528
441.959616	2712.710420
442.335224	2734.200858
442.710773	2756.918818
443.086261	2785.539969
443.461689	2801.500262
443.837057	2828.248625
444.212365	2869.442413
444.587612	2899.868297
444.962800	2922.934097
445.337927	2967.187866
445.712995	2976.123311
446.088002	3061.354099
446.462949	3113.494753
446.837837	3170.124555
447.212664	3220.881412
447.587431	3388.172103
447.962139	3576.149168
448.336786	3743.833068
448.711374	3751.500663
449.085901	3658.725789
449.460369	3731.482242
449.834776	3822.074297
450.209124	4060.175555
450.583412	4142.177484
450.957640	4262.900515
451.331808	4274.903503
451.705917	4280.352990
452.079965	4383.094226
452.453954	4519.875853
452.827883	4632.916167
453.201752	4727.626844
453.575562	4860.425960
453.949311	5092.853399
454.323001	5242.542901
454.696632	5359.303586
455.070202	5673.947203
455.443713	5845.525395
455.817164	6076.506023
456.190556	6314.740872
456.563888	6402.731691
456.937160	6615.654906
457.310373	6538.560541
457.683526	6764.915910
458.056619	6937.693896
458.429653	7105.019875
458.802628	7381.668316
459.175542	7606.781041
459.548398	8059.559835
459.921194	8597.266948
460.293930	8985.829004
460.666607	9664.706069
461.039224	10311.448299
461.411782	10647.708384
461.784280	10595.320713
462.156719	10698.752587
462.529099	10796.903853
462.901419	10715.632891
463.273680	10666.809316
463.645882	10921.831207
464.018024	11174.980309
464.390106	11670.737461
464.762130	12812.221049
465.134094	14459.337410
465.505999	16622.340250
465.877845	18688.915899
466.249631	19501.965794
466.621358	19180.335137
466.993026	18724.879490
467.364634	18275.765615
467.736184	17854.317591
468.107674	17702.278912
468.479105	17714.060088
468.850477	17760.133714
469.221790	17469.546483
469.593043	17028.440480
469.964238	16940.220288
470.335373	17195.181685
470.706449	18312.886151
471.077467	19865.100270
471.448425	22480.851657
471.819324	24306.192971
472.190164	23689.301934
472.560945	22156.836535
472.931667	20865.353413
473.302330	20599.409863
473.672934	20457.345106
474.043479	21023.244872
474.413965	20880.290352
474.784393	20949.454983
475.154761	21734.344993
475.525070	22037.393956
475.895321	22047.720760
476.265513	22685.512421
476.635645	23556.207910
477.005719	23716.204051
477.375734	24288.947184
477.745691	25002.260371
478.115588	26124.267462
478.485427	27722.242655
478.855207	30271.715472
479.224928	32399.110121
479.594591	33883.520721
479.964194	33472.938905
480.333739	33911.602468
480.703226	34261.476189
481.072653	35065.580557
481.442022	35740.013845
481.811333	36267.494977
482.180584	35590.740238
482.549777	35496.011916
482.918912	35367.633892
483.287988	35435.354233
483.657005	35079.708391
484.025964	34851.281107
484.394864	35125.129187
484.763706	35054.555553
485.132489	34618.538596
485.501213	34735.823560
485.869879	35103.658913
486.238487	35009.316239
486.607036	35421.226399
486.975527	35206.891661
487.343959	35594.379951
487.712333	35876.510647
488.080648	36026.716867
488.448905	36602.416636
488.817104	36642.972719
489.185244	37662.843512
489.553326	39313.529010
489.921350	41890.992834
490.289315	44802.354962
490.657222	45617.416277
491.025070	46100.323528
491.392861	45430.437361
491.760593	44423.363536
492.128267	43042.336919
492.495883	41821.198059
492.863440	40740.485579
493.230939	39708.929391
493.598380	38883.143021
493.965763	38745.756455
494.333088	38179.952471
494.700354	37888.472956
495.067563	37756.205682
495.434713	37768.569111
495.801805	37970.346335
496.168839	37735.841941
496.535815	37558.438696
496.902733	37696.750313
497.269593	37444.662374
497.636395	37465.729356
498.003139	37947.484702
498.369825	37547.091058
498.736453	37917.638551
499.103023	37580.735719
499.469535	37567.858092
499.835989	37720.151349
500.202385	37477.074472
500.568723	37586.399455
500.935003	37832.506066
501.301226	37733.328925
501.667390	38363.836119
502.033497	38675.883542
502.399546	38200.417035
502.765537	37619.227449
503.131470	38045.116729
503.497345	38428.922457
503.863163	37232.323933
504.228923	37861.185190
504.594625	38278.781772
504.960269	37647.490678
505.325856	38342.403654
505.691385	37785.875392
506.056856	37936.515152
506.422270	38397.473218
506.787625	38021.884572
507.152924	38244.391020
507.518164	38367.886686
507.883347	37657.696494
508.248472	37915.717872
508.613540	38403.661235
508.978550	38708.149448
509.343503	38497.590534
509.708398	38691.894247
510.073236	39241.125438
510.438016	39247.444524
510.802738	38742.043645
511.167403	39372.901199
511.532010	39583.946585
511.896561	39912.256770
512.261053	40728.974105
512.625488	40318.261218
512.989866	40198.138084
513.354186	40051.690044
513.718449	40047.619312
514.082655	40729.241286
514.446803	40415.626064
514.810894	40918.513927
515.174927	40851.799298
515.538904	40784.477208
515.902822	41436.510129
516.266684	40918.334967
516.630488	41326.741525
516.994235	41199.482637
517.357925	41751.821699
517.721558	41931.248968
518.085133	42238.668612
518.448651	42383.810993
518.812112	42151.471773
519.175516	42264.297838
519.538863	42592.839916
519.902152	42574.056577
520.265385	43024.697922
520.628560	43051.610122
520.991678	42863.164229
521.354739	43095.548819
521.717743	43412.846604
522.080690	43320.497706
522.443580	43865.695974
522.806413	43914.080969
523.169189	43874.162592
523.531908	44053.857042
523.894569	43910.746246
524.257174	44074.024178
524.619722	44382.613369
524.982213	44376.170774
525.344647	44301.420545
525.707025	44349.442577
526.069345	44738.050003
526.431608	44667.002502
526.793815	44978.636550
527.155964	44530.084763
527.518057	44690.723651
527.880093	44480.691538
528.242072	45004.127144
528.603995	44710.618565
528.965860	44710.706785
529.327669	44817.987580
529.689421	44718.994442
530.051117	44678.082958
530.412755	44830.048540
530.774337	44884.556016
531.135862	44709.443976
531.497331	44911.937043
531.858743	44826.214743
532.220098	45142.383309
532.581396	44862.183376
532.942638	44544.517587
533.303824	44832.674982
533.664953	44803.113655
534.026025	44547.244851
534.387040	44987.355226
534.747999	44941.722701
535.108902	45102.469974
535.469748	44634.298016
535.830537	44756.094813
536.191270	44956.412623
536.551947	44602.306854
536.912567	44902.452112
537.273131	45030.872986
537.633638	44519.621848
537.994089	44865.066916
538.354483	44476.272966
538.714821	45032.960024
539.075103	45384.797274
539.435328	45149.198949
539.795497	45042.628957
540.155609	45037.134099
540.515665	45483.571122
540.875665	44937.583914
541.235609	45265.447957
541.595496	45233.308081
541.955328	45905.795483
542.315102	45286.915711
542.674821	45082.456593
543.034483	45115.778620
543.394090	45090.116626
543.753640	45040.378082
544.113134	46034.370112
544.472571	45066.952524
544.831953	46286.324461
545.191278	45520.875661
545.550548	45248.655873
545.909761	45694.445108
546.268918	45899.224339
546.628019	46197.327931
546.987064	45779.864939
547.346053	45069.445375
547.704986	45914.521720
548.063863	45501.409245
548.422684	45692.083327
548.781449	45555.659622
549.140158	45945.262677
549.498811	45784.303675
549.857408	45245.966418
550.215949	46056.341981
550.574434	46000.417941
550.932864	45774.748168
551.291237	46479.657752
551.649555	46085.421877
552.007817	46328.498754
552.366022	45995.235635
552.724173	46159.547003
553.082267	46565.095227
553.440305	46851.566356
553.798288	46177.511155
554.156215	46485.704616
554.514086	46703.132102
554.871902	46449.562063
555.229661	46462.066645
555.587365	46297.072201
555.945014	46378.885086
556.302606	46313.534088
556.660143	46539.531536
557.017625	46624.679145
557.375050	46411.042607
557.732421	46782.326108
558.089735	46762.945392
558.446994	46680.363730
558.804197	47130.206053
559.161345	47075.181858
559.518437	46353.833072
559.875474	46643.588513
560.232455	46817.289031
560.589381	46995.889550
560.946251	46679.345417
561.303065	47346.985750
561.659825	47150.872263
562.016528	46843.543360
562.373177	46562.428457
562.729770	47040.488638
563.086307	46574.892710
563.442789	47036.269192
563.799216	47074.450891
564.155587	46868.252575
564.511904	46896.699807
564.868164	46993.290835
565.224370	47223.222903
565.580520	46974.709142
565.936615	47176.471242
566.292654	46909.668175
566.648638	47143.681057
567.004567	47107.140253
567.360441	47131.839387
567.716260	46988.479053
568.072023	47282.224568
568.427732	47278.259700
568.783385	46829.753283
569.138982	47224.780619
569.494525	47203.305304
569.850013	46946.685368
570.205445	46936.335879
570.560823	46879.174235
570.916145	46758.458765
571.271412	46786.104453
571.626625	46573.224088
571.981782	46624.865668
572.336884	46302.771225
572.691931	46631.477141
573.046923	46239.340907
573.401860	46071.057109
573.756743	46076.156236
574.111570	46185.594645
574.466342	46035.693415
574.821059	46158.861406
575.175722	45690.545776
575.530330	45712.255505
575.884882	45432.935252
576.239380	45401.312094
576.593823	45381.248302
576.948211	45302.626467
577.302544	44839.694788
577.656823	44874.574532
578.011047	45090.650988
578.365216	44824.483107
578.719330	44623.104134
579.073389	44478.901928
579.427394	44563.610957
579.781344	44537.255804
580.135239	44202.931523
580.489080	44284.124346
580.842866	43767.829534
581.196597	44230.047889
581.550273	44181.516701
581.903895	44045.748346
582.257463	44459.372498
582.610975	43864.259245
582.964434	44139.503725
583.317837	43794.063699
583.671186	43634.448165
584.024481	43860.768246
584.377721	43384.074218
584.730906	43681.194785
585.084037	43708.298548
585.437113	43432.980972
585.790135	43463.119510
586.143103	43073.713061
586.496016	43204.707444
586.848874	43220.912233
587.201679	43245.853341
587.554428	42731.716143
587.907124	42912.365891
588.259765	42669.722553
588.612352	42933.062348
588.964884	42327.029956
589.317362	42601.132614
589.669786	42550.297619
590.022155	42337.477747
590.374470	42740.407092
590.726731	42284.734675
591.078937	41819.907523
591.431090	41900.623958
591.783188	41559.630230
592.135232	41229.830383
592.487222	41482.409835
592.839157	41568.563154
593.191038	41243.184400
593.542866	41015.674606
593.894639	40435.715062
594.246358	40708.960724
594.598022	40662.929948
594.949633	40282.857195
595.301190	40249.257905
595.652692	40092.626734
596.004141	40400.651316
596.355535	39440.855953
596.706876	39394.931042
597.058162	39238.602340
597.409395	39679.052993
597.760573	39771.424576
598.111698	39327.954272
598.462768	39342.450110
598.813785	39391.193026
599.164748	38861.904640
599.515657	39251.205225
599.866511	38721.168227
600.217312	39327.740023
600.568060	38322.881785
600.918753	39050.647960
601.269392	39007.924182
601.619978	38671.089405
601.970510	38867.379333
602.320988	39049.397754
602.671412	39351.619968
603.021783	39099.970610
603.372100	38755.591746
603.722363	38855.235193
604.072572	38918.778937
604.422728	38953.888053
604.772830	38755.364894
605.122878	38846.569450
605.472872	38790.116088
605.822813	39070.774767
606.172701	38909.359542
606.522534	39123.812747
606.872314	39383.918641
607.222041	39147.685131
607.571714	39540.844719
607.921333	38985.760749
608.270899	39279.118094
608.620411	39612.781985
608.969870	39400.735930
609.319276	39414.856202
609.668627	39453.589908
610.017926	39942.896903
610.367171	40095.472465
610.716362	40185.570488
611.065500	40127.022527
611.414585	40333.871151
611.763616	40604.560948
612.112594	40533.828519
612.461518	40750.146951
612.810389	41041.636548
613.159207	40910.193503
613.507971	40979.877373
613.856682	41449.246604
614.205340	41332.730416
614.553945	42012.575382
614.902496	41483.397901
615.250994	41936.459000
615.599439	42016.366330
615.947830	42226.741242
616.296169	42274.753191
616.644454	42399.730956
616.992686	42578.810385
617.340864	43080.861417
617.688990	42816.410048
618.037063	43404.712702
618.385082	43381.190678
618.733048	43671.321685
619.080961	43671.241026
619.428821	43697.422259
619.776628	43794.771981
620.124382	43610.384217
620.472083	43741.111419
620.819731	43861.983164
621.167326	43535.248340
621.514868	43510.428219
621.862357	43088.468518
622.209793	43104.227165
622.557176	42775.070066
622.904506	42531.433621
623.251783	42187.021990
623.599007	41964.828093
623.946179	41753.323963
624.293297	41704.008876
624.640363	41110.342434
624.987376	41098.291556
625.334336	40866.408561
625.681243	40510.651814
626.028097	40480.165436
626.374899	40328.618269
626.721647	40313.358696
627.068343	40198.377539
627.414987	39976.569290
627.761577	39750.092933
628.108115	40078.249363
628.454600	39536.703411
628.801032	39727.082586
629.147412	39683.297645
629.493739	39678.498466
629.840014	39340.194193
630.186236	39686.639930
630.532405	39316.672169
630.878521	39519.664311
631.224585	39389.002645
631.570597	39105.599058
631.916556	39268.138461
632.262462	39230.400383
632.608316	39245.922096
632.954117	39143.195983
633.299866	39124.314342
633.645562	39032.126761
633.991206	38548.912000
634.336797	38119.781259
634.682336	38125.669326
635.027823	37875.262612
635.373257	37699.066723
635.718639	37460.171484
636.063968	37324.304826
636.409245	36748.778976
636.754470	36798.404095
637.099642	36565.568322
637.444762	36103.387776
637.789829	36243.088231
638.134845	35898.351446
638.479808	35852.948294
638.824719	35769.277743
639.169577	35370.293101
639.514383	35443.689781
639.859137	35149.130120
640.203839	35376.586982
640.548489	35008.996126
640.893086	35071.619859
641.237632	34840.624108
641.582125	34944.000529
641.926566	34895.791975
642.270955	34849.544429
642.615292	34877.046444
642.959576	34840.482955
643.303809	34848.926888
643.647990	34991.773023
643.992118	34953.430007
644.336195	34955.547292
644.680219	35044.319491
645.024192	35341.692115
645.368112	35856.111618
645.711981	35870.879678
646.055797	36749.330983
646.399562	36673.832142
646.743274	37607.121118
647.086935	38047.188643
647.430544	37935.111190
647.774101	38051.503871
648.117606	38295.271386
648.461059	38586.622352
648.804460	38192.736837
649.147810	37600.378575
649.491108	37330.558377
649.834354	36988.385019
650.177548	36166.782806
650.520690	35714.561059
650.863781	35735.345736
651.206820	35589.492553
651.549807	35149.697250
651.892742	34680.970765
652.235626	34496.855224
652.578458	34359.952609
652.921238	33764.683081
653.263967	34101.835450
653.606644	33782.669918
653.949269	33731.842484
654.291843	33336.946218
654.634365	33735.005808
654.976836	33340.979141
655.319255	33326.437933
655.661622	33332.202492
656.003938	33098.015690
656.346203	32971.228150
656.688416	33200.338510
657.030577	33002.135465
657.372687	32832.062057
657.714746	33105.063223
658.056753	33226.996132
658.398708	32668.839578
658.740612	32745.749942
659.082465	32985.648371
659.424266	32831.636080
659.766016	32947.854841
660.107715	32829.564166
660.449362	32961.178610
660.790958	32955.378763
661.132503	32985.182064
661.473996	32999.501462
661.815438	33102.519961
662.156829	33302.502534
662.498168	33076.999120
662.839456	33110.850468
663.180693	33249.162085
663.521879	33417.652570
663.863013	33370.447206
664.204097	33363.220712
664.545129	33831.851414
664.886110	33800.472752
665.227040	33857.425188
665.567918	33973.596058
665.908746	34045.583735
666.249522	34204.586768
666.590248	34193.765931
666.930922	34308.074095
667.271545	34261.687918
667.612118	34357.293400
667.952639	34152.955270
668.293109	34204.493507
668.633528	34088.098306
668.973896	34008.415307
669.314213	34048.779826
669.654480	33805.947445
669.994695	33817.274918
670.334859	33724.918459
670.674973	33613.849237
671.015035	33771.261786
671.355047	33722.559199
671.695008	33661.964530
672.034918	33573.215016
672.374777	33661.478058
672.714585	33492.211236
673.054342	33723.602718
673.394049	33485.214114
673.733705	33760.786269
674.073310	33429.174127
674.412864	33504.408307
674.752368	33105.998357
675.091820	33399.199427
675.431223	32979.730056
675.770574	32715.583677
676.109875	32564.565831
676.449125	32294.594399
676.788324	32217.184961
677.127473	31687.092511
677.466571	31606.668463
677.805619	31272.432401
678.144616	31260.356317
678.483562	31188.915605
678.822458	30867.075741
679.161303	30798.805915
679.500098	30698.711285
679.838842	30600.628075
680.177535	30756.702198
680.516179	31043.329603
680.854771	31269.874015
681.193314	32125.894706
681.531805	33254.823301
681.870247	34020.743449
682.208638	34771.915701
682.546978	34988.193804
682.885268	35074.437864
683.223508	34536.957603
683.561697	34198.471848
683.899836	34021.575239
684.237925	33518.692417
684.575963	33364.735578
684.913951	32902.814652
685.251889	33063.829105
685.589776	33048.219172
685.927614	33044.382854
686.265401	33187.697817
686.603137	33301.980775
686.940824	33804.719924
687.278460	34185.195970
687.616046	34326.809543
687.953582	34937.469714
688.291068	34807.924663
688.628504	35094.340340
688.965889	35007.813975
689.303224	34623.110922
689.640510	34272.511275
689.977745	33540.369378
690.314930	32747.640374
690.652065	32218.241083
690.989150	31477.070480
691.326185	30585.252556
691.663170	29880.872293
692.000105	29123.486819
692.336990	28461.424523
692.673825	27991.309200
693.010610	27488.668353
693.347345	26901.999033
693.684030	26260.456753
694.020665	25995.460940
694.357251	25323.056716
694.693786	25279.254130
695.030272	25045.059767
695.366707	24505.636141
695.703093	24222.351021
696.039429	24203.769328
696.375716	23953.924702
696.711952	23915.097735
697.048139	23768.309417
697.384276	23584.226643
697.720363	23710.537794
698.056400	23497.544003
698.392388	23282.256487
698.728326	23256.551643
699.064214	23050.708729
699.400053	22987.631292
699.735842	22627.284573
700.071581	22365.101724
700.407270	22076.586407
700.742910	21889.531873
701.078501	21618.884926
701.414042	21331.105617
701.749533	21041.662728
702.084974	20692.487207
702.420366	20898.584699
702.755709	20465.458843
703.091002	20168.028246
703.426246	20195.989006
703.761440	20085.723848
704.096584	19811.986673
704.431679	19772.373286
704.766725	19681.491365
705.101721	19626.961203
705.436668	19710.064625
705.771565	19390.067302
706.106413	19734.957842
706.441212	19717.104596
706.775961	19839.516414
707.110661	19921.374670
707.445311	20276.710482
707.779913	20118.007397
708.114465	20372.270594
708.448967	20649.579426
708.783421	21346.443328
709.117825	21617.221345
709.452180	21834.689160
709.786485	22234.200602
710.120742	23039.373695
710.454949	23059.566036
710.789107	23520.597200
711.123216	24225.279931
711.457275	24347.739640
711.791286	24891.470933
712.125247	24963.922396
712.459159	24652.185003
712.793023	25295.945391
713.126837	24201.026940
713.460602	24450.503562
713.794318	24064.998965
714.127985	23676.792310
714.461602	22793.748515
714.795171	22742.432089
715.128691	21736.121999
715.462162	21205.321267
715.795584	20761.004049
716.128957	20504.724391
716.462281	20105.308730
716.795556	19882.567868
717.128782	19382.898781
717.461960	18834.333023
717.795088	18765.269215
718.128167	18365.588894
718.461198	17897.174961
718.794180	17752.965193
719.127113	17400.346564
719.459997	17195.716047
719.792833	16867.650358
720.125619	16831.094431
720.458357	16512.695154
720.791046	16349.424783
721.123686	16181.214082
721.456278	15952.630523
721.788821	15905.863739
722.121315	15653.513660
722.453761	15731.437295
722.786158	15652.994421
723.118506	15660.357026
723.450805	15533.201482
723.783056	15693.164855
724.115259	15594.864876
724.447412	15522.365522
724.779518	15764.595485
725.111574	15789.052642
725.443582	15984.576315
725.775542	15961.424816
726.107453	16436.036848
726.439315	16320.218859
726.771129	16718.641412
727.102895	17090.819718
727.434612	17298.679094
727.766281	17421.526972
728.097901	17684.811314
728.429473	17705.258234
728.760996	17697.552830
729.092471	17774.765663
729.423897	17664.205598
729.755276	17511.040220
730.086606	17634.787944
730.417887	18153.303385
730.749120	18672.733795
731.080305	18858.550726
731.411442	19184.577268
731.742530	19244.471217
732.073570	19343.630713
732.404562	19637.661053
732.735506	19439.997410
733.066401	19162.139093
733.397249	18632.873391
733.728048	18000.874016
734.058798	17167.946851
734.389501	16492.228069
734.720156	16026.304466
735.050762	15518.262023
735.381320	15158.207691
735.711831	14925.611373
736.042293	14574.164812
736.372707	14575.407457
736.703073	14369.856929
737.033391	14569.322784
737.363661	14526.266289
737.693883	14631.016425
738.024056	14802.042610
738.354182	14994.355068
738.684260	15280.281752
739.014290	15502.752913
739.344272	15698.485793
739.674207	15972.890920
740.004093	16085.696820
740.333931	16070.926239
740.663722	16112.349400
740.993464	16099.665857
741.323159	15923.782520
741.652806	15649.495860
741.982405	15438.498366
742.311956	15087.742443
742.641460	14975.664990
742.970915	14674.357745
743.300323	14345.394730
743.629683	14127.785763
743.958996	13845.793699
744.288260	13580.341661
744.617477	13285.149336
744.946647	13218.165004
745.275768	12936.382148
745.604842	12753.955393
745.933869	12589.651587
746.262847	12536.800130
746.591778	12468.469810
746.920662	12366.520035
747.249498	12371.077238
747.578286	12483.484887
747.907027	12631.165488
748.235720	12845.938807
748.564365	12871.958723
748.892963	12775.271912
749.221514	12831.198473
749.550017	12687.727235
749.878473	12651.728355
750.206881	12432.360025
750.535242	12338.438287
750.863555	12250.349165
751.191821	12159.247953
751.520039	12173.068277
751.848210	12092.702202
752.176334	12120.254628
752.504411	12016.631191
752.832440	11869.863038
753.160421	11927.735484
753.488356	11809.059160
753.816243	11717.718494
754.144082	11570.310114
754.471875	11517.821620
754.799620	11457.743669
755.127318	11432.212746
755.454969	11400.463559
755.782572	11356.582835
756.110129	11361.782785
756.437638	11282.712287
756.765100	11267.908939
757.092515	11279.581731
757.419882	11293.759976
757.747203	11298.826336
758.074477	11368.656399
758.401703	11318.386012
758.728882	11490.251550
759.056014	11524.102898
759.383099	11647.681743
759.710138	11747.017680
760.037129	11827.454331
760.364073	11839.071670
760.690970	11828.177736
761.017820	11830.058087
761.344623	12016.938701
761.671379	12335.441322
761.998088	12961.827372
762.324751	14517.262788
762.651366	17385.265952
762.977935	21042.572656
763.304456	23264.002469
763.630931	23722.550864
763.957359	22534.487013
764.283740	20629.510592
764.610074	18744.353467
764.936362	16619.086185
765.262602	15111.808911
765.588796	13644.366835
765.914943	12609.334772
766.241044	11771.121957
766.567097	11140.443364
766.893104	10594.010013
767.219064	10230.699097
767.544978	9849.822280
767.870845	9540.638232
768.196665	9353.006486
768.522438	9156.766970
768.848165	8996.314604
769.173846	8830.422834
769.499479	8702.939615
769.825066	8553.799599
770.150607	8370.288996
770.476101	8307.675345
770.801548	8196.220475
771.126949	8054.342241
771.452303	7964.977707
771.777611	7807.852503
772.102872	7780.058101
772.428087	7660.731469
772.753256	7538.675052
773.078378	7450.112061
773.403453	7310.630896
773.728482	7212.688839
774.053465	7142.248796
774.378401	7055.919036
774.703291	6966.103319
775.028135	6870.767538
775.352932	6830.781106
775.677683	6751.700525
776.002388	6664.460837
776.327046	6658.938253
776.651658	6572.174954
776.976224	6505.525859
777.300743	6485.855277
777.625216	6417.865235
777.949643	6375.900150
778.274024	6381.921808
778.598359	6309.518236
778.922647	6314.788762
779.246889	6275.651765
779.571086	6278.880624
779.895236	6295.675228
780.219339	6291.196162
780.543397	6287.001923
780.867409	6338.832546
781.191374	6332.803326
781.515294	6300.154293
781.839167	6355.637232
782.162995	6326.774106
782.486776	6279.513288
782.810511	6234.140383
783.134201	6159.359907
783.457844	6143.568493
783.781441	6100.254899
784.104993	6055.083640
784.428498	6023.946953
784.751958	6007.432133
785.075372	5989.780533
785.398739	5947.497855
785.722061	5971.637420
786.045337	5964.363035
786.368568	6078.913174
786.691752	6106.231187
787.014891	6354.124886
787.337983	6629.936495
787.661030	7069.870430
787.984031	7488.603792
788.306987	7756.488186
788.629897	7844.171496
788.952760	7755.011128
789.275579	7569.852068
789.598351	7280.058819
789.921078	7014.649630
790.243759	6733.945581
790.566395	6532.417895
790.888984	6339.187947
791.211529	6192.044228
791.534027	6036.741402
791.856480	5893.204628
792.178888	5841.643707
792.501249	5774.661895
792.823566	5664.318599
793.145836	5664.003527
793.468062	5641.774559
793.790241	5604.754846
794.112375	5647.881917
794.434464	5746.728862
794.756507	5776.620384
795.078505	5895.959619
795.400457	6113.064471
795.722364	6352.090780
796.044226	6544.246962
796.366042	6702.660181
796.687812	6646.325286
797.009538	6674.923752
797.331218	6584.601399
797.652852	6511.308063
797.974442	6392.049486
798.295986	6319.754299
798.617484	6190.637746
798.938938	6084.655048
799.260346	6015.835737
799.581709	5878.045878
799.903026	5830.414536
800.224299	5756.866622
800.545526	5639.168283
800.866708	5567.780503
801.187845	5524.620665
801.508936	5445.613181
801.829983	5419.061424
802.150984	5312.168797
802.471940	5288.891270
802.792851	5272.711686
803.113717	5248.158747
803.434538	5224.881219
803.755314	5187.294376
804.076045	5180.042676
804.396731	5146.241739
804.717372	5162.045757
805.037967	5164.626827
805.358518	5192.393503
805.679024	5249.648408
805.999485	5261.069142
806.319901	5281.816010
806.640272	5293.125839
806.960598	5346.103325
807.280879	5331.630172
807.601115	5371.639289
807.921306	5336.439433
808.241453	5331.655378
808.561554	5339.968240
808.881611	5304.145801
809.201623	5304.380215
809.521590	5251.306947
809.841513	5242.749588
810.161390	5257.588225
810.481223	5168.405172
810.801011	5151.973531
811.120755	5127.871775
811.440453	5072.179628
811.760107	5040.319535
812.079716	5018.972769
812.399281	4965.370180
812.718801	4958.541938
813.038276	4928.998255
813.357707	4889.347060
813.677093	4917.854785
813.996434	4854.651318
814.315731	4871.662692
814.634983	4872.691087
814.954191	4880.749372
815.273354	4936.302887
815.592473	4975.999453
815.911547	5053.978542
816.230577	5108.964927
816.549562	5191.851579
816.868502	5241.116255
817.187399	5300.808557
817.506250	5378.482656
817.825058	5401.989556
818.143821	5551.835334
818.462539	5729.840997
818.781213	5956.362724
819.099843	6318.557025
819.418429	6945.265709
819.736970	7571.339208
820.055466	8276.072352
820.373919	9193.196868
820.692327	10642.798300
821.010691	13335.384434
821.329011	19547.184944
821.647286	29134.103489
821.965517	39492.313531
822.283704	44956.180730
822.601847	46438.327852
822.919945	41843.805113
823.237999	36720.427527
823.556010	31498.984375
823.873976	26781.931351
824.191897	22583.852513
824.509775	19511.773359
824.827609	16745.271307
825.145398	15196.893506
825.463144	14434.880252
825.780845	14727.531836
826.098502	15986.494474
826.416116	18454.860167
826.733685	20733.098742
827.051210	21276.779623
827.368692	19836.038018
827.686129	17273.165814
828.003522	14783.249189
828.320872	12566.832804
828.638177	10921.599314
828.955439	9675.889869
829.272656	8618.349054
829.589830	7774.623737
829.906960	7036.049328
830.224046	6506.839080
830.541088	6098.293890
830.858086	5837.998952
831.175041	5636.917408
831.491952	5581.094191
831.808819	5613.521413
832.125642	5858.702971
832.442421	6409.864924
832.759157	7517.986157
833.075849	9287.554665
833.392497	11134.691408
833.709101	12254.324115
834.025662	12005.565858
834.342179	10944.977665
834.658653	9641.829313
834.975083	8531.311012
835.291469	7622.862321
835.607811	6889.805455
835.924110	6372.351178
836.240366	5885.365634
836.556578	5427.462507
836.872746	5080.752110
837.188871	4808.643228
837.504952	4585.388168
837.820990	4415.324843
838.136984	4302.594561
838.452935	4255.855503
838.768842	4284.209473
839.084706	4568.197833
839.400526	5309.272655
839.716303	6210.487289
840.032037	6777.312107
840.347727	6630.231403
840.663373	6029.948447
840.978977	5453.129541
841.294537	5011.642932
841.610054	4680.587838
841.925527	4441.390129
842.240957	4238.022421
842.556344	4054.204308
842.871687	3893.701531
843.186987	3743.598655
843.502244	3626.686735
843.817458	3537.609547
844.132629	3464.727065
844.447756	3418.093872
844.762840	3372.234495
845.077881	3333.798218
845.392879	3302.790080
845.707833	3274.748662
846.022745	3250.863675
846.337613	3238.540574
846.652438	3215.068962
846.967221	3205.231150
847.281960	3187.869417
847.596656	3175.997499
847.911309	3165.373267
848.225919	3149.370125
848.540485	3141.737818
848.855009	3134.468474
849.169490	3124.779376
849.483928	3113.325875
849.798323	3107.475616
850.112675	3099.762650
850.426984	3100.251642
850.741251	3090.217225
851.055474	3087.374015
851.369654	3090.716300
851.683792	3088.644385
851.997887	3090.277719
852.311938	3088.893922
852.625947	3090.030703
852.939914	3084.896288
853.253837	3090.575147
853.567718	3089.458532
853.881555	3080.331523
854.195350	3087.991556
854.509103	3084.301431
854.822812	3083.051225
855.136479	3078.194073
855.450103	3080.699527
855.763685	3075.217272
856.077224	3078.642736
856.390720	3084.525763
856.704173	3097.247114
857.017584	3101.547219
857.330953	3104.829010
857.644278	3112.864609
857.957561	3118.112450
858.270802	3117.089096
858.584000	3113.038529
858.897155	3107.745317
859.210268	3098.744337
859.523339	3088.331834
859.836367	3084.452666
860.149352	3077.637026
860.462295	3074.385482
860.775195	3067.595048
861.088054	3063.143709
861.400869	3065.066909
861.713642	3056.988460
862.026373	3068.583114
862.339062	3073.331881
862.651708	3083.164651
862.964312	3095.863318
863.276873	3105.784308
863.589392	3138.602220
863.901869	3162.509892
864.214303	3182.740042
864.526696	3202.458516
864.839045	3218.650702
865.151353	3230.996488
865.463619	3236.403125
865.775842	3234.946232
866.088023	3240.040318
866.400162	3232.841550
866.712258	3233.645614
867.024313	3232.594533
867.336325	3233.292733
867.648296	3230.739389
867.960224	3230.895665
868.272110	3233.998495
868.583954	3235.215933
868.895755	3240.458733
869.207515	3236.312384
869.519233	3256.093872
869.830909	3264.678957
870.142542	3275.497273
870.454134	3282.234775
870.765684	3292.017134
871.077191	3310.729898
871.388657	3326.440653
871.700081	3342.453879
872.011463	3362.815099
872.322803	3383.050291
872.634101	3398.642579
872.945357	3419.777617
873.256571	3448.308027
873.567744	3463.066005
873.878874	3470.300061
874.189963	3483.888491
874.501010	3487.472751
874.812015	3483.971670
875.122979	3498.838033
875.433900	3495.289060
875.744780	3499.800893
876.055618	3509.046369
876.366415	3506.654342
876.677169	3511.090557
876.987882	3528.278371
877.298554	3549.050446
877.609183	3587.532093
877.919771	3631.208650
878.230317	3706.059703
878.540822	3807.386895
878.851285	3960.496820
879.161707	4179.567722
879.472087	4554.863982
879.782425	5188.650446
880.092722	6381.470625
880.402977	8317.583733
880.713191	10700.721158
881.023363	13095.586828
881.333494	14444.642447
881.643583	14906.066820
881.953631	14495.810158
882.263637	13645.705262
882.573602	12600.631220
882.883526	11641.304684
883.193408	10680.972438
883.503248	9758.879864
883.813048	8935.546015
884.122806	8157.196903
884.432522	7396.070892
884.742197	6727.500466
885.051831	6165.943654
885.361424	5667.612993
885.670975	5270.697745
885.980485	4942.692550
886.289954	4674.672044
886.599382	4461.307728
886.908768	4276.932567
887.218113	4109.147844
887.527417	3977.871156
887.836680	3858.615100
888.145901	3756.546858
888.455082	3678.807225
888.764221	3608.682254
889.073319	3552.692679
889.382376	3518.080117
889.691392	3496.940038
890.000366	3485.050477
890.309300	3480.394971
890.618193	3484.067452
890.927044	3481.272132
891.235855	3484.148110
891.544625	3501.998836
891.853353	3531.960934
892.162041	3589.546034
892.470687	3681.549613
892.779293	3800.782983
893.087858	3979.028101
893.396381	4251.938526
893.704864	4666.686856
894.013306	5239.540894
894.321707	5819.528165
894.630068	6179.973185
894.938387	6220.836778
895.246665	6039.435898
895.554903	5720.698864
895.863100	5376.027614
896.171256	5110.182366
896.479371	4861.910580
896.787446	4640.150222
897.095480	4440.150005
897.403473	4287.841624
897.711425	4145.721415
898.019336	4023.110471
898.327207	3900.224784
898.635038	3796.084628
898.942827	3691.528577
899.250576	3602.146398
899.558284	3521.268647
899.865952	3466.309988
900.173579	3400.820358
900.481165	3353.224304
900.788711	3313.724343
901.096216	3279.716719
901.403681	3255.665374
901.711105	3240.529310
902.018489	3238.046541
902.325832	3271.048455
902.633135	3328.666323
902.940397	3498.830471
903.247619	3908.504879
903.554800	4664.383049
903.861941	5635.488241
904.169041	6342.847825
904.476101	6559.309930
904.783121	6284.327590
905.090100	5880.689964
905.397039	5454.142813
905.703938	5097.145942
906.010796	4770.358185
906.317614	4516.664638
906.624391	4277.993730
906.931129	4077.111311
907.237826	3897.721851
907.544483	3725.326993
907.851099	3553.383317
908.157675	3393.263668
908.464211	3252.166813
908.770707	3152.097389
909.077163	3067.005232
909.383578	3010.781244
909.689954	2964.632001
909.996289	2936.237702
910.302584	2915.861358
910.608839	2904.012126
910.915054	2890.224570
911.221229	2888.437481
911.527363	2890.010321
911.833458	2894.050806
912.139513	2909.133938
912.445527	2921.676329
912.751502	2958.020528
913.057436	3003.484173
913.363331	3056.612894
913.669186	3145.495998
913.975000	3263.879934
914.280775	3452.580405
914.586510	3720.096796
914.892205	4102.682564
915.197859	4600.302422
915.503475	5195.634965
915.809050	5689.042938
916.114585	5984.721735
916.420081	6048.739348
916.725536	5987.186859
917.030952	5742.378346
917.336328	5533.412437
917.641665	5321.867977
917.946961	5092.377010
918.252218	4891.691196
918.557435	4656.070186
918.862612	4463.051967
919.167750	4288.335657
919.472848	4095.859362
919.777906	3927.547838
920.082925	3767.854167
920.387904	3611.674179
920.692843	3501.545132
920.997743	3400.651479
921.302603	3308.232006
921.607423	3240.806573
921.912204	3178.006399
922.216946	3125.805251
922.521647	3075.673497
922.826310	3032.987526
923.130932	2997.863287
923.435516	2959.021197
923.740059	2929.041455
924.044564	2897.075498
924.349028	2876.555481
924.653454	2844.072807
924.957840	2819.005669
925.262186	2799.919861
925.566493	2774.633433
925.870761	2748.457242
926.174989	2740.172105
926.479178	2724.670557
926.783328	2711.114894
927.087438	2699.812627
927.391509	2682.614731
927.695541	2675.350428
927.999533	2660.368119
928.303486	2652.524084
928.607400	2645.484112
928.911275	2643.049235
929.215110	2637.879532
929.518906	2634.769140
929.822663	2634.045734
930.126381	2631.890641
930.430060	2637.065386
930.733699	2639.331384
931.037299	2644.939668
931.340861	2639.452372
931.644383	2642.998824
931.947866	2643.843217
932.251309	2639.132259
932.554714	2640.810963
932.858080	2636.972124
933.161407	2634.804428
933.464694	2630.779067
933.767943	2629.112965
934.071153	2624.936369
934.374323	2618.090482
934.677455	2616.023609
934.980548	2614.312138
935.283602	2609.817949
935.586617	2605.976590
935.889593	2612.648557
936.192530	2614.526387
936.495428	2621.450412
936.798287	2631.149592
937.101108	2645.171561
937.403890	2667.060251
937.706632	2692.260979
938.009336	2724.131154
938.312002	2753.979826
938.614628	2777.274997
938.917216	2796.083542
939.219765	2807.307672
939.522275	2814.193888
939.824747	2817.720175
940.127179	2810.982673
940.429573	2803.637712
940.731929	2804.880356
941.034246	2791.952317
941.336524	2791.390228
941.638763	2786.918725
941.940964	2778.709206
942.243126	2764.341917
942.545250	2751.502098
942.847335	2738.984913
943.149381	2726.525702
943.451389	2709.146324
943.753359	2697.380271
944.055290	2688.822912
944.357182	2680.797395
944.659036	2677.981911
944.960851	2670.818431
945.262628	2666.195693
945.564367	2667.839109
945.866067	2668.648214
946.167729	2665.951197
946.469352	2664.310302
946.770937	2661.537667
947.072484	2655.750422
947.373992	2657.787048
947.675462	2654.107006
947.976893	2644.012096
948.278286	2645.274905
948.579641	2636.599079
948.880958	2637.539254
949.182236	2636.233595
949.483476	2632.515744
949.784678	2634.691002
950.085841	2630.655558
950.386967	2637.476240
950.688054	2641.877167
950.989103	2651.891419
951.290114	2660.705877
951.591087	2670.200890
951.892021	2683.232272
952.192917	2695.822554
952.493776	2707.823021
952.794596	2707.686910
953.095378	2710.935933
953.396122	2709.219421
953.696828	2705.998123
953.997496	2700.868749
954.298126	2691.608150
954.598718	2686.887109
954.899272	2673.535613
955.199788	2663.050013
955.500266	2647.639206
955.800706	2632.185549
956.101108	2616.515122
956.401472	2606.548761
956.701798	2591.926894
957.002087	2578.076324
957.302337	2568.843451
957.602550	2557.505896
957.902724	2544.088865
958.202861	2535.082843
958.502960	2528.617563
958.803022	2521.580113
959.103045	2510.842455
959.403031	2505.902124
959.702979	2500.311485
960.002889	2497.609426
960.302762	2490.445947
960.602596	2489.901502
960.902393	2483.758856
961.202153	2479.925058
961.501875	2479.632672
961.801559	2475.957670
962.101205	2475.057824
962.400814	2473.389202
962.700385	2471.748307
962.999918	2467.503655
963.299414	2466.500466
963.598873	2465.824951
963.898293	2464.990640
964.197677	2465.330918
964.497022	2462.522995
964.796331	2458.832871
965.095601	2461.834878
965.394835	2457.451595
965.694030	2457.005453
965.993189	2457.996039
966.292309	2457.839763
966.591393	2455.334310
966.890439	2457.209619
967.189447	2453.796758
967.488419	2457.867490
967.787353	2458.187603
968.086249	2459.236163
968.385108	2456.718107
968.683930	2458.658951
968.982714	2460.151133
969.281462	2461.882769
969.580172	2461.275310
969.878844	2465.726649
970.177480	2470.845940
970.476078	2472.885087
970.774639	2474.294090
971.073162	2474.924234
971.371649	2475.582104
971.670098	2476.721405
971.968510	2481.059318
972.266885	2479.277270
972.565223	2485.472848
972.863524	2482.299442
973.161788	2484.615852
973.460014	2485.949237
973.758204	2487.058291
974.056356	2488.154742
974.354471	2486.811275
974.652550	2487.446460
974.950591	2488.454691
975.248595	2487.937973
975.546563	2484.827581
975.844493	2487.685915
976.142386	2484.562920
976.440243	2481.230717
976.738062	2479.118474
977.035845	2477.434728
977.333590	2473.076651
977.631299	2472.322998
977.928971	2472.055817
978.226606	2466.573562
978.524204	2468.264870
978.821765	2466.379478
979.119290	2464.746144
979.416777	2465.698922
979.714228	2465.996350
980.011642	2469.562967
980.309020	2472.857361
980.606360	2474.803246
980.903664	2483.635348
981.200931	2496.717142
981.498162	2519.016686
981.795356	2544.943340
982.092513	2585.670822
982.389633	2629.911988
982.686717	2672.514779
982.983764	2704.188349
983.280775	2723.798437
983.577749	2723.800958
983.874686	2711.891232
984.171587	2696.397246
984.468451	2683.572550
984.765279	2665.373985
985.062070	2644.266674
985.358824	2625.609363
985.655543	2604.807042
985.952224	2580.309555
986.248869	2553.530946
986.545478	2527.969775
986.842050	2507.001096
987.138586	2488.086687
987.435086	2473.479943
987.731549	2461.247583
988.027975	2460.947635
988.324366	2450.199895
988.620719	2447.417178
988.917037	2443.532969
989.213318	2442.035746
989.509563	2438.753955
989.805772	2437.533996
990.101944	2435.444437
990.398080	2436.419901
990.694180	2434.879828
990.990244	2434.998295
991.286271	2436.109870
991.582262	2436.314037
991.878217	2436.823193
992.174136	2437.198759
992.470019	2437.191197
992.765865	2438.436362
993.061676	2440.467947
993.357450	2441.803853
993.653188	2445.443566
993.948890	2451.825667
994.244556	2458.545525
994.540186	2470.288893
994.835780	2479.627630
995.131337	2493.528612
995.426859	2508.571415
995.722345	2530.863398
996.017795	2546.702703
996.313208	2564.278686
996.608586	2572.276476
996.903928	2577.536920
997.199234	2576.082548
997.494504	2573.461148
997.789738	2562.980589
998.084936	2551.189330
998.380099	2543.478885
998.675225	2532.973120
998.970316	2515.172806
999.265371	2506.502022
999.560390	2488.699187
999.855373	2481.558392
1000.150320	2466.278655
1000.445232	2460.037707
1000.740108	2453.675770
1001.034948	2446.222424
1001.329752	2442.912907
1001.624521	2438.121290
1001.919254	2429.508479
1002.213951	2431.134251
1002.508613	2425.722572
1002.803239	2427.413879
1003.097829	2420.010945
1003.392384	2424.641245
1003.686903	2419.731161
1003.981386	2420.515060
1004.275834	2418.365008
1004.570246	2420.746953
1004.864623	2419.615214
1005.158964	2418.218815
1005.453270	2418.652354
1005.747540	2419.244690
1006.041775	2416.711510
1006.335974	2418.871644
1006.630138	2413.049112
1006.924266	2414.523649
1007.218359	2414.697569
1007.512416	2416.630851
1007.806438	2414.440470
1008.100425	2416.439288
1008.394376	2415.642785
1008.688292	2412.159348
1008.982172	2412.441652
1009.276017	2414.261509
1009.569827	2412.633216
1009.863602	2412.481982
1010.157341	2411.466189
1010.451045	2412.938206
1010.744714	2413.044070
1011.038347	2411.045253
1011.331945	2409.981569
1011.625508	2412.469379
1011.919036	2410.258833
1012.212528	2411.962743
1012.505986	2408.466703
1012.799408	2410.178174
1013.092795	2409.232958
1013.386147	2409.933678
1013.679464	2408.406209
1013.972745	2407.067783
1014.265992	2408.116343
1014.559204	2409.502660
1014.852380	2407.317320
1015.145521	2409.830335
1015.438628	2409.646333
1015.731699	2408.905283
1016.024736	2409.807650
1016.317737	2408.905283
1016.610703	2411.367887
1016.903635	2406.901424
1017.196531	2405.681465
1017.489393	2409.971487
1017.782219	2406.089799
1018.075011	2410.730181
1018.367768	2409.606003
1018.660490	2409.570715
1018.953177	2409.570715
1019.245829	2409.570715
