Dividing Wavelength (nm)	Counts (n)	Blue Motor Position (mm): 20.000000	Red Motor Position (mm): 0.000000	
326.493990	1974.836731
326.888308	1974.836731
327.282561	1974.836731
327.676750	1948.605087
328.070874	1950.992073
328.464933	1955.763526
328.858929	1967.063272
329.252859	1979.915694
329.646726	1993.582262
330.040528	2009.633296
330.434265	2024.789525
330.827938	2045.546476
331.221547	2064.649928
331.615091	2089.308732
332.008571	2105.894128
332.401986	2129.796759
332.795338	2149.379121
333.188625	2168.094405
333.581847	2188.841274
333.975006	2205.414067
334.368100	2225.082129
334.761129	2239.409088
335.154095	2254.310739
335.546996	2287.859618
335.939833	2350.180882
336.332606	2363.239991
336.725315	2378.141642
337.117960	2385.267313
337.510540	2393.865001
337.903056	2406.235992
338.295508	2407.322361
338.687896	2417.316448
339.080220	2423.113775
339.472480	2432.185332
339.864676	2433.100301
340.256807	2437.652463
340.648875	2440.236054
341.040879	2440.417536
341.432818	2441.440890
341.824694	2443.031374
342.216506	2442.134049
342.608253	2439.371496
342.999937	2441.589604
343.391557	2439.096753
343.783113	2436.341763
344.174605	2434.292534
344.566033	2432.913778
344.957397	2433.536361
345.348697	2431.403953
345.739934	2429.442944
346.131106	2427.466812
346.522215	2428.802717
346.913260	2423.781728
347.304241	2422.203847
347.695159	2420.928435
348.086012	2420.893147
348.476802	2416.214956
348.867528	2416.703948
349.258191	2412.227403
349.648789	2416.439288
350.039324	2412.643299
350.429796	2414.125398
350.820203	2410.818401
351.210548	2410.001734
351.600828	2412.171951
351.991045	2409.164903
352.381198	2412.136663
352.771288	2409.406878
353.161314	2408.111301
353.551276	2410.233627
353.941175	2408.280180
354.331010	2408.373441
354.720782	2408.880077
355.110490	2411.551889
355.500135	2407.508883
355.889717	2410.599111
356.279235	2409.076682
356.668689	2410.336971
357.058080	2410.452917
357.447408	2409.732032
357.836672	2406.097360
358.225873	2409.316137
358.615010	2405.550395
359.004084	2412.875192
359.393095	2415.181520
359.782043	2414.561458
360.170927	2412.834863
360.559748	2414.329565
360.948505	2415.909966
361.337199	2416.035995
361.725830	2415.922569
362.114398	2417.654206
362.502903	2419.847108
362.891344	2418.186047
363.279722	2418.949782
363.668037	2419.774011
364.056289	2420.618404
364.444478	2418.337282
364.832603	2418.594381
365.220665	2421.150246
365.608665	2420.046233
365.996601	2421.407345
366.384474	2421.674526
366.772284	2424.706780
367.160031	2424.616039
367.547715	2421.460277
367.935336	2420.381470
368.322893	2422.281985
368.710388	2424.694177
369.097820	2425.465473
369.485189	2424.454722
369.872495	2423.842222
370.259738	2424.174938
370.646918	2425.440268
371.034035	2425.026893
371.421090	2424.653848
371.808081	2424.517737
372.195010	2426.919846
372.581875	2428.538057
372.968678	2426.299784
373.355418	2426.503951
373.742096	2426.062850
374.128710	2427.300453
374.515262	2428.379260
374.901751	2428.711977
375.288177	2428.170052
375.674540	2427.817172
376.060841	2430.529312
376.447079	2428.172573
376.833254	2430.577203
377.219367	2426.405649
377.605417	2429.097625
377.991404	2424.734506
378.377329	2427.265165
378.763191	2427.129054
379.148991	2432.631474
379.534727	2432.714653
379.920402	2431.156936
380.306013	2433.632143
380.691563	2433.407811
381.077049	2434.940322
381.462474	2431.749272
381.847835	2435.489808
382.233134	2434.176587
382.618371	2433.377564
383.003545	2432.074426
383.388657	2435.893100
383.773706	2435.913265
384.158693	2437.823862
384.543618	2437.919644
384.928480	2435.298244
385.313280	2439.457196
385.698017	2438.249840
386.082692	2436.487956
386.467305	2439.111877
386.851856	2440.127669
387.236344	2435.681372
387.620770	2437.965014
388.005133	2441.546754
388.389435	2437.508790
388.773674	2438.287648
389.157851	2440.883842
389.541965	2436.397216
389.926018	2440.601538
390.310008	2437.029880
390.693936	2438.877463
391.077802	2438.577515
391.461606	2440.823349
391.845348	2440.273863
392.229027	2440.906528
392.612645	2439.961311
392.996200	2441.158585
393.379694	2443.225458
393.763125	2445.534307
394.146494	2440.909048
394.529801	2442.499532
394.913047	2443.827876
395.296230	2444.775613
395.679351	2443.946343
396.062410	2447.860799
396.445408	2443.278391
396.828343	2442.456683
397.211217	2440.604058
397.594028	2444.866354
397.976778	2441.957608
398.359466	2444.107660
398.742092	2440.571291
399.124656	2447.228135
399.507158	2444.957095
399.889598	2444.720161
400.271977	2446.164451
400.654294	2449.133691
401.036549	2447.943978
401.418742	2447.749894
401.800874	2448.211160
402.182944	2448.737960
402.564952	2446.666046
402.946898	2448.639658
403.328783	2449.801644
403.710606	2447.545727
404.092367	2452.249124
404.474067	2449.587395
404.855705	2449.168979
405.237282	2448.939606
405.618797	2448.420368
406.000250	2452.294494
406.381642	2448.967333
406.762972	2452.753239
407.144240	2453.186778
407.525447	2451.460183
407.906593	2451.152673
408.287677	2450.378856
408.668700	2451.074535
409.049661	2454.520164
409.430560	2451.303908
409.811399	2452.770883
410.192176	2453.055708
410.572891	2454.827674
410.953545	2452.536470
411.334138	2455.621656
411.714669	2456.806327
412.095139	2455.190637
412.475547	2456.493775
412.855894	2454.968826
413.236180	2454.033692
413.616405	2454.333641
413.996568	2456.334979
414.376670	2454.724330
414.756711	2454.580657
415.136691	2456.108127
415.516609	2456.922273
415.896466	2457.126440
416.276262	2457.176852
416.655997	2455.440174
417.035670	2456.395473
417.415283	2457.436471
417.794834	2454.545369
418.174324	2457.423868
418.553753	2457.217181
418.933121	2457.754064
419.312428	2458.986626
419.691674	2455.026800
420.070859	2457.701132
420.449983	2461.950824
420.829045	2460.783797
421.208047	2457.232304
421.586988	2461.824796
421.965867	2458.290947
422.344686	2463.253963
422.723444	2460.188941
423.102141	2460.375464
423.480777	2461.907975
423.859352	2461.429065
424.237866	2463.606843
424.616319	2465.729169
424.994712	2462.074333
425.373044	2461.313118
425.751314	2464.920064
426.129524	2461.970989
426.507673	2466.928964
426.885762	2464.315126
427.263789	2466.674386
427.641756	2465.149437
428.019662	2465.333439
428.397508	2467.753193
428.775292	2466.757565
429.153016	2466.712194
429.530679	2467.004581
429.908282	2466.374437
430.285824	2465.388891
430.663305	2468.126238
431.040726	2466.870991
431.418086	2467.692699
431.795385	2468.189252
432.172624	2468.194293
432.549802	2467.745631
432.926920	2469.162195
433.303977	2468.647997
433.680974	2470.266208
434.057910	2470.087247
434.434786	2472.718729
434.811601	2472.156640
435.188355	2473.870633
435.565050	2471.178657
435.941683	2471.486167
436.318257	2470.407360
436.694770	2469.802422
437.071222	2471.934830
437.447614	2470.223358
437.823946	2470.344346
438.200218	2472.988431
438.576429	2473.742083
438.952580	2474.357104
439.328670	2474.125211
439.704700	2476.734008
440.080670	2470.782926
440.456580	2472.577577
440.832429	2475.445993
441.208218	2476.093782
441.583947	2479.214256
441.959616	2477.737198
442.335224	2474.009264
442.710773	2477.306179
443.086261	2475.277115
443.461689	2476.761734
443.837057	2477.633854
444.212365	2479.788947
444.587612	2480.338433
444.962800	2480.041005
445.337927	2480.167034
445.712995	2481.495378
446.088002	2480.915645
446.462949	2482.964874
446.837837	2482.979998
447.212664	2480.141828
447.587431	2486.818836
447.962139	2489.334372
448.336786	2494.685557
448.711374	2490.637510
449.085901	2486.304639
449.460369	2488.618528
449.834776	2487.075935
450.209124	2489.772952
450.583412	2492.747233
450.957640	2492.348982
451.331808	2493.858808
451.705917	2492.245638
452.079965	2490.047695
452.453954	2494.120948
452.827883	2496.003819
453.201752	2495.030876
453.575562	2493.596668
453.949311	2498.196721
454.323001	2494.355361
454.696632	2493.808396
455.070202	2498.247132
455.443713	2498.771412
455.817164	2500.828203
456.190556	2497.188490
456.563888	2503.084119
456.937160	2500.394664
457.310373	2502.892555
457.683526	2501.710405
458.056619	2507.472444
458.429653	2504.510766
458.802628	2512.440501
459.175542	2507.076713
459.548398	2512.957219
459.921194	2516.138187
460.293930	2521.683456
460.666607	2523.142870
461.039224	2525.116482
461.411782	2529.184693
461.784280	2529.293078
462.156719	2528.753675
462.529099	2528.965403
462.901419	2528.975485
463.273680	2529.323325
463.645882	2527.785773
464.018024	2531.730476
464.390106	2534.036804
464.762130	2543.456200
465.134094	2555.244938
465.505999	2565.934705
465.877845	2582.726788
466.249631	2585.854824
466.621358	2582.754515
466.993026	2582.625965
467.364634	2581.305183
467.736184	2573.536765
468.107674	2570.920406
468.479105	2572.488205
468.850477	2572.644481
469.221790	2572.909141
469.593043	2566.910168
469.964238	2568.649366
470.335373	2567.290775
470.706449	2574.292938
471.077467	2587.810792
471.448425	2603.277052
471.819324	2611.105964
472.190164	2609.954060
472.560945	2600.292689
472.931667	2591.332038
473.302330	2588.508992
473.672934	2587.747777
474.043479	2593.345979
474.413965	2588.128385
474.784393	2589.088724
475.154761	2593.764395
475.525070	2596.862184
475.895321	2596.020311
476.265513	2599.985178
476.635645	2608.676128
477.005719	2613.162755
477.375734	2618.524022
477.745691	2619.088631
478.115588	2629.841412
478.485427	2640.715181
478.855207	2657.088849
479.224928	2673.641477
479.594591	2684.351409
479.964194	2682.269412
480.333739	2688.555731
480.703226	2692.702080
481.072653	2703.588452
481.442022	2712.171016
481.811333	2719.533621
482.180584	2719.256358
482.549777	2722.497820
482.918912	2726.195506
483.287988	2731.695405
483.657005	2733.714387
484.025964	2741.944071
484.394864	2746.405492
484.763706	2752.901019
485.132489	2753.430340
485.501213	2762.937956
485.869879	2777.073351
486.238487	2785.108951
486.607036	2798.314253
486.975527	2801.812814
487.343959	2819.444249
487.712333	2836.243895
488.080648	2847.147910
488.448905	2865.802700
488.817104	2883.749208
489.185244	2911.301634
489.553326	2951.698921
489.921350	3010.287211
490.289315	3072.094277
490.657222	3108.539299
491.025070	3141.069865
491.392861	3154.686021
491.760593	3160.511075
492.128267	3165.481652
492.495883	3171.062210
492.863440	3179.773323
493.230939	3190.841177
493.598380	3208.681820
493.965763	3233.854822
494.333088	3256.625714
494.700354	3286.189561
495.067563	3319.002431
495.434713	3355.472658
495.801805	3401.185842
496.168839	3441.963735
496.535815	3475.376503
496.902733	3527.922970
497.269593	3566.752457
497.636395	3614.653501
498.003139	3683.964325
498.369825	3724.666602
498.736453	3791.739153
499.103023	3839.932584
499.469535	3898.281419
499.835989	3963.191316
500.202385	4018.023947
500.568723	4086.129935
500.935003	4173.818286
501.301226	4242.435951
501.667390	4347.538968
502.033497	4441.155715
502.399546	4496.479858
502.765537	4543.602044
503.131470	4653.466430
503.497345	4761.092544
503.863163	4775.240542
504.228923	4907.389349
504.594625	5031.338720
504.960269	5087.529941
505.325856	5232.692487
505.691385	5295.202794
506.056856	5405.006687
506.422270	5550.819541
506.787625	5630.414319
507.152924	5758.999030
507.518164	5889.038114
507.883347	5938.995949
508.248472	6081.942907
508.613540	6252.633856
508.978550	6409.028092
509.343503	6514.864597
509.708398	6663.069479
510.073236	6863.223451
510.438016	7000.211766
510.802738	7079.995587
511.167403	7299.200080
511.532010	7476.678942
511.896561	7666.856471
512.261053	7932.926050
512.625488	8033.255094
512.989866	8169.522524
513.354186	8307.234244
513.718449	8466.537226
514.082655	8740.085357
514.446803	8857.463583
514.810894	9109.107901
515.174927	9274.107387
515.538904	9432.122354
515.902822	9720.526766
516.266684	9812.331219
516.630488	10066.294467
516.994235	10223.374300
517.357925	10518.657366
517.721558	10744.286810
518.085133	11002.154432
518.448651	11231.988197
518.812112	11380.755168
519.175516	11600.720875
519.538863	11879.249666
519.902152	12069.616238
520.265385	12389.676575
520.628560	12622.814817
520.991678	12790.902010
521.354739	13064.772775
521.717743	13373.974467
522.080690	13570.055187
522.443580	13933.287965
522.806413	14174.232434
523.169189	14391.740578
523.531908	14670.597044
523.894569	14852.018089
524.257174	15130.922446
524.619722	15458.814216
524.982213	15697.359095
525.344647	15914.242137
525.707025	16162.708007
526.069345	16544.741769
526.431608	16756.727329
526.793815	17112.542050
527.155964	17188.353442
527.518057	17507.909664
527.880093	17675.971651
528.242072	18133.342936
528.603995	18276.925080
528.965860	18521.126134
529.327669	18816.157142
529.689421	19028.367034
530.051117	19266.349825
530.412755	19576.363142
530.774337	19851.161480
531.135862	20028.219406
531.497331	20371.211952
531.858743	20580.432439
532.220098	20976.672173
532.581396	21112.017071
532.942638	21213.513142
533.303824	21600.764498
533.664953	21846.689627
534.026025	21965.194551
534.387040	22438.203496
534.747999	22670.946007
535.108902	23006.578468
535.469748	23021.074306
535.830537	23334.356812
536.191270	23697.108160
536.551947	23768.841259
536.912567	24174.334030
537.273131	24491.745241
537.633638	24466.899914
537.994089	24899.534258
538.354483	24932.437869
538.714821	25498.314950
539.075103	25934.523472
539.435328	26067.660345
539.795497	26242.822797
540.155609	26483.056463
540.515665	26994.368095
540.875665	26912.146876
541.235609	27349.673659
541.595496	27580.606396
541.955328	28240.841274
542.315102	28092.936341
542.674821	28209.684423
543.034483	28466.213619
543.394090	28691.044039
543.753640	28895.793023
544.113134	29777.190882
544.472571	29378.173473
544.831953	30429.861509
545.191278	30135.916869
545.550548	30197.444152
545.909761	30717.444212
546.268918	31079.792268
546.628019	31524.260721
546.987064	31447.413372
547.346053	31175.735508
547.704986	31991.736999
548.063863	31896.741496
548.422684	32266.139606
548.781449	32371.275390
549.140158	32859.569113
549.498811	32961.828919
549.857408	32758.352826
550.215949	33579.776078
550.574434	33730.196547
550.932864	33770.631642
551.291237	34516.286352
551.649555	34418.626599
552.007817	34788.115449
552.366022	34730.248044
552.724173	35048.833844
553.082267	35535.358122
553.440305	35974.901367
553.798288	35622.985979
554.156215	36051.544550
554.514086	36378.932204
554.871902	36373.714610
555.229661	36558.926602
555.587365	36615.337113
555.945014	36853.082970
556.302606	36967.146637
556.660143	37317.963054
557.017625	37564.266269
557.375050	37553.878972
557.732421	38012.520628
558.089735	38157.494131
558.446994	38251.272195
558.804197	38795.096748
559.161345	38895.012418
559.518437	38430.596120
559.875474	38842.052576
560.232455	39141.918051
560.589381	39450.202252
560.946251	39330.449643
561.303065	40061.311086
561.659825	40014.768633
562.016528	39904.410214
562.373177	39798.233432
562.729770	40354.386127
563.086307	40068.512375
563.442789	40590.962436
563.799216	40768.723603
564.155587	40714.558925
564.511904	40866.884950
564.868164	41048.646273
565.224370	41403.674574
565.580520	41284.310133
565.936615	41599.546086
566.292654	41463.752525
566.648638	41791.682103
567.004567	41847.769981
567.360441	41997.414112
567.716260	41988.584531
568.072023	42343.963192
568.427732	42445.812144
568.783385	42130.379586
569.138982	42600.792336
569.494525	42666.236596
569.850013	42525.333825
570.205445	42597.457613
570.560823	42657.381809
570.916145	42646.515602
571.271412	42746.350612
571.626625	42618.403607
571.981782	42751.487548
572.336884	42534.871688
572.691931	42926.203858
573.046923	42613.251548
573.401860	42560.437900
573.756743	42621.002322
574.111570	42804.565857
574.466342	42733.861154
574.821059	42934.133593
575.175722	42562.310688
575.530330	42631.429949
575.884882	42448.226856
576.239380	42466.435504
576.593823	42514.780169
576.948211	42496.415246
577.302544	42132.602735
577.656823	42202.246275
578.011047	42486.287568
578.365216	42283.502113
578.719330	42145.591267
579.073389	42058.278483
579.427394	42214.395456
579.781344	42237.589805
580.135239	41955.116311
580.489080	42092.618823
580.842866	41650.131544
581.196597	42130.926551
581.550273	42107.800258
581.903895	42024.538040
582.257463	42478.352792
582.610975	41948.882924
582.964434	42249.227308
583.317837	41957.281486
583.671186	41855.349355
584.024481	42115.777884
584.377721	41716.644528
584.730906	42010.127902
585.084037	42076.330855
585.437113	41836.659277
585.790135	41933.371293
586.143103	41597.270005
586.496016	41731.016857
586.848874	41796.105715
587.201679	41856.960004
587.554428	41374.708104
587.907124	41595.745056
588.259765	41400.846486
588.612352	41673.134329
588.964884	41123.540175
589.317362	41418.273755
589.669786	41381.848898
590.022155	41203.608822
590.374470	41634.340130
590.726731	41215.616850
591.078937	40776.166866
591.431090	40884.528989
591.783188	40571.251524
592.135232	40299.505606
592.487222	40566.180123
592.839157	40668.969250
593.191038	40377.368747
593.542866	40156.102423
593.894639	39592.854303
594.246358	39882.448427
594.598022	39880.845340
594.949633	39525.544817
595.301190	39498.181434
595.652692	39361.455260
596.004141	39700.145181
596.355535	38753.779452
596.706876	38735.187676
597.058162	38574.954601
597.409395	39038.143378
597.760573	39140.955190
598.111698	38733.617357
598.462768	38762.430072
598.813785	38838.538892
599.164748	38299.823548
599.515657	38706.367400
599.866511	38203.068682
600.217312	38817.318155
600.568060	37828.833585
600.918753	38550.270591
601.269392	38528.843167
601.619978	38200.507776
601.970510	38418.814943
602.320988	38585.823329
602.671412	38899.640197
603.021783	38664.863580
603.372100	38340.127573
603.722363	38452.061353
604.072572	38531.101604
604.422728	38560.975482
604.772830	38372.325422
605.122878	38474.481884
605.472872	38428.872045
605.822813	38699.150988
606.172701	38540.803304
606.522534	38774.879201
606.872314	39056.074763
607.222041	38814.560643
607.571714	39210.419770
607.921333	38679.493008
608.270899	38973.835899
608.620411	39299.895209
608.969870	39114.655491
609.319276	39127.863314
609.668627	39191.989311
610.017926	39661.691259
610.367171	39827.560344
610.716362	39929.633627
611.065500	39874.397705
611.414585	40074.118138
611.763616	40370.290967
612.112594	40308.304940
612.461518	40520.149348
612.810389	40817.337970
613.159207	40690.459689
613.507971	40767.097831
613.856682	41249.301840
614.205340	41126.058231
614.553945	41821.961793
614.902496	41282.031531
615.250994	41751.219282
615.599439	41837.652385
615.947830	42049.484190
616.296169	42099.976387
616.644454	42238.744229
616.992686	42409.049529
617.340864	42934.993110
617.688990	42660.658559
618.037063	43238.394954
618.385082	43223.843664
618.733048	43528.599058
619.080961	43532.228688
619.428821	43552.605032
619.776628	43666.908155
620.124382	43476.675173
620.472083	43635.237106
620.819731	43742.369187
621.167326	43435.199080
621.514868	43423.785907
621.862357	42985.734844
622.209793	43021.395966
622.557176	42694.749362
622.904506	42442.197636
623.251783	42098.940430
623.599007	41889.041907
623.946179	41682.276462
624.293297	41631.917855
624.640363	41059.537686
624.987376	41054.804042
625.334336	40818.278145
625.681243	40461.666922
626.028097	40436.040216
626.374899	40290.434049
626.721647	40256.325602
627.068343	40172.438282
627.414987	39934.276530
627.761577	39725.471938
628.108115	40052.655425
628.454600	39504.855922
628.801032	39697.485972
629.147412	39669.772229
629.493739	39664.743678
629.840014	39344.002785
630.186236	39681.452582
630.532405	39296.252976
630.878521	39526.185044
631.224585	39406.603833
631.570597	39105.846074
631.916556	39275.125500
632.262462	39238.972865
632.608316	39248.926623
632.954117	39145.882918
633.299866	39129.557142
633.645562	39069.176721
633.991206	38577.177750
634.336797	38155.515478
634.682336	38151.618666
635.027823	37904.042559
635.373257	37719.248983
635.718639	37500.624223
636.063968	37373.113277
636.409245	36781.526312
636.754470	36852.959462
637.099642	36620.547146
637.444762	36131.963556
637.789829	36290.046579
638.134845	35949.186441
638.479808	35891.558491
638.824719	35786.470598
639.169577	35419.971152
639.514383	35491.270711
639.859137	35196.310279
640.203839	35430.965908
640.548489	35063.748098
640.893086	35150.113145
641.237632	34886.803597
641.582125	35015.106004
641.926566	34947.153771
642.270955	34914.560191
642.615292	34935.705310
642.959576	34912.097587
643.303809	34921.887508
643.647990	35063.760700
643.992118	35024.810225
644.336195	35037.060229
644.680219	35130.361904
645.024192	35436.579233
645.368112	35928.694151
645.711981	35949.441020
646.055797	36822.188259
646.399562	36753.056395
646.743274	37679.151645
647.086935	38131.227198
647.430544	38026.010756
647.774101	38141.012078
648.117606	38373.169816
648.461059	38653.097527
648.804460	38283.439798
649.147810	37676.913373
649.491108	37430.272400
649.834354	37076.416168
650.177548	36253.324294
650.520690	35804.059184
650.863781	35827.200601
651.206820	35663.350498
651.549807	35244.307105
651.892742	34765.523518
652.235626	34579.363789
652.578458	34437.344403
652.921238	33846.352293
653.263967	34184.616237
653.606644	33860.192781
653.949269	33816.501101
654.291843	33427.760084
654.634365	33820.211390
654.976836	33423.830504
655.319255	33423.454938
655.661622	33420.694907
656.003938	33205.079716
656.346203	33062.372212
656.688416	33286.428815
657.030577	33080.699327
657.372687	32943.063224
657.714746	33196.827347
658.056753	33322.941893
658.398708	32781.330406
658.740612	32839.671679
659.082465	33112.176291
659.424266	32932.461677
659.766016	33064.174424
660.107715	32935.859415
660.449362	33058.004052
660.790958	33047.833524
661.132503	33070.009560
661.473996	33094.839763
661.815438	33214.778896
662.156829	33415.111829
662.498168	33176.559388
662.839456	33216.520614
663.180693	33364.831360
663.521879	33514.785523
663.863013	33472.817917
664.204097	33465.014211
664.545129	33933.231539
664.886110	33895.347268
665.227040	33958.744818
665.567918	34073.012653
665.908746	34147.190711
666.249522	34319.993903
666.590248	34309.286492
666.930922	34422.820839
667.271545	34385.186105
667.612118	34469.678364
667.952639	34257.591980
668.293109	34303.905061
668.633528	34199.984195
668.973896	34130.824605
669.314213	34176.378992
669.654480	33889.615476
669.994695	33928.253399
670.334859	33823.261288
670.674973	33731.877772
671.015035	33875.001171
671.355047	33836.779142
671.695008	33797.876558
672.034918	33686.804815
672.374777	33772.509472
672.714585	33614.060965
673.054342	33844.240050
673.394049	33609.894452
673.733705	33879.472674
674.073310	33554.862696
674.412864	33620.251502
674.752368	33216.933989
675.091820	33516.335678
675.431223	33092.724999
675.770574	32815.101095
676.109875	32691.688608
676.449125	32398.540471
676.788324	32335.846161
677.127473	31799.517803
677.466571	31725.304457
677.805619	31368.302544
678.144616	31374.644316
678.483562	31310.614100
678.822458	30985.000932
679.161303	30914.417217
679.500098	30815.958441
679.838842	30706.348633
680.177535	30868.557840
680.516179	31138.446093
680.854771	31384.169576
681.193314	32254.048398
681.531805	33376.879718
681.870247	34148.239271
682.208638	34886.957353
682.546978	35113.947907
682.885268	35192.426070
683.223508	34662.885626
683.561697	34330.257692
683.899836	34133.776201
684.237925	33628.274499
684.575963	33475.804801
684.913951	33032.553787
685.251889	33184.206818
685.589776	33169.012780
685.927614	33157.831501
686.265401	33292.311842
686.603137	33402.584562
686.940824	33911.768826
687.278460	34288.519459
687.616046	34434.070173
687.953582	35031.371287
688.291068	34901.090227
688.628504	35174.076270
688.965889	35114.661231
689.303224	34729.098661
689.640510	34392.465531
689.977745	33648.847448
690.314930	32846.426825
690.652065	32310.668118
690.989150	31563.110373
691.326185	30667.398157
691.663170	29959.143768
692.000105	29220.501304
692.336990	28546.761175
692.673825	28097.806096
693.010610	27574.428462
693.347345	26994.703332
693.684030	26355.976536
694.020665	26075.882467
694.357251	25406.596197
694.693786	25348.000345
695.030272	25119.862928
695.366707	24588.089253
695.703093	24293.355673
696.039429	24277.949907
696.375716	24019.726883
696.711952	23986.921574
697.048139	23842.994112
697.384276	23662.694724
697.720363	23778.182517
698.056400	23582.429472
698.392388	23357.248692
698.728326	23321.632940
699.064214	23115.709367
699.400053	23060.788516
699.735842	22710.549312
700.071581	22416.854209
700.407270	22140.843474
700.742910	21949.125873
701.078501	21678.428514
701.414042	21394.543497
701.749533	21109.123449
702.084974	20760.457084
702.420366	20955.027978
702.755709	20509.652118
703.091002	20225.598223
703.426246	20247.103785
703.761440	20145.027981
704.096584	19876.132835
704.431679	19836.169088
704.766725	19731.970959
705.101721	19686.330872
705.436668	19761.194527
705.771565	19446.611404
706.106413	19790.438261
706.441212	19776.824625
706.775961	19914.503578
707.110661	19985.256172
707.445311	20334.562763
707.779913	20183.635658
708.114465	20421.968809
708.448967	20702.740914
708.783421	21396.151625
709.117825	21675.035818
709.452180	21897.897667
709.786485	22295.952216
710.120742	23099.587757
710.454949	23111.005970
710.789107	23585.436520
711.123216	24295.929182
711.457275	24405.780965
711.791286	24942.348778
712.125247	25005.922769
712.459159	24703.980339
712.793023	25360.414187
713.126837	24246.911522
713.460602	24499.490974
713.794318	24113.792293
714.127985	23728.874991
714.461602	22837.467921
714.795171	22784.472792
715.128691	21776.892331
715.462162	21236.452912
715.795584	20819.413378
716.128957	20555.014941
716.462281	20156.037861
716.795556	19913.999462
717.128782	19429.484084
717.461960	18878.090238
717.795088	18799.153330
718.128167	18401.373524
718.461198	17948.418290
718.794180	17790.978014
719.127113	17430.641378
719.459997	17237.139208
719.792833	16894.630613
720.125619	16864.668515
720.458357	16548.777212
720.791046	16373.834050
721.123686	16224.726802
721.456278	15982.501880
721.788821	15940.425890
722.121315	15687.700244
722.453761	15760.701193
722.786158	15679.526013
723.118506	15689.867941
723.450805	15560.733744
723.783056	15717.329626
724.115259	15619.221211
724.447412	15546.477361
724.779518	15792.372242
725.111574	15817.028526
725.443582	16014.694689
725.775542	15994.605691
726.107453	16463.833770
726.439315	16344.406315
726.771129	16752.472595
727.102895	17111.743027
727.434612	17309.464643
727.766281	17440.035568
728.097901	17694.339095
728.429473	17740.180827
728.760996	17724.865802
729.092471	17805.244479
729.423897	17669.957554
729.755276	17544.611784
730.086606	17667.978901
730.417887	18186.401080
730.749120	18707.963898
731.080305	18873.313745
731.411442	19203.025371
731.742530	19264.789588
732.073570	19372.347646
732.404562	19664.469909
732.735506	19469.359611
733.066401	19184.809161
733.397249	18666.394544
733.728048	18026.626750
734.058798	17190.173298
734.389501	16521.242430
734.720156	16049.476130
735.050762	15533.347675
735.381320	15182.337174
735.711831	14940.976810
736.042293	14593.177524
736.372707	14606.345018
736.703073	14396.693512
737.033391	14581.156893
737.363661	14546.012489
737.693883	14657.600950
738.024056	14828.992619
738.354182	15011.346277
738.684260	15296.302539
739.014290	15515.164233
739.344272	15698.909250
739.674207	15972.152391
740.004093	16094.120588
740.333931	16082.155409
740.663722	16115.472395
740.993464	16103.295488
741.323159	15930.063798
741.652806	15656.866027
741.982405	15449.145283
742.311956	15111.110712
742.641460	14989.724768
742.970915	14680.228169
743.300323	14349.457900
743.629683	14129.981185
743.958996	13852.460625
744.288260	13591.759874
744.617477	13280.708079
744.946647	13212.468500
745.275768	12942.106378
745.604842	12760.818924
745.933869	12591.519334
746.262847	12544.825647
746.591778	12463.118625
746.920662	12369.229655
747.249498	12368.758307
747.578286	12484.213333
747.907027	12629.980817
748.235720	12849.679343
748.564365	12876.397458
748.892963	12772.945420
749.221514	12836.416067
749.550017	12695.110004
749.878473	12646.183086
750.206881	12434.797423
750.535242	12341.228566
750.863555	12253.930905
751.191821	12161.551761
751.520039	12179.248731
751.848210	12087.189700
752.176334	12113.829678
752.504411	12025.601924
752.832440	11871.413192
753.160421	11922.722056
753.488356	11805.956330
753.816243	11717.778988
754.144082	11568.288612
754.471875	11513.864315
754.799620	11458.787188
755.127318	11433.193250
755.454969	11394.313351
755.782572	11349.111845
756.110129	11357.923782
756.437638	11275.105186
756.765100	11263.623958
757.092515	11272.183838
757.419882	11285.374017
757.747203	11296.956068
758.074477	11361.777744
758.401703	11328.712816
758.728882	11486.286683
759.056014	11520.155675
759.383099	11640.561114
759.710138	11743.481311
760.037129	11818.622229
760.364073	11836.379694
760.690970	11825.979793
761.017820	11823.703712
761.344623	12006.722803
761.671379	12333.644150
761.998088	12966.535810
762.324751	14515.712634
762.651366	17373.691463
762.977935	21036.684588
763.304456	23256.203804
763.630931	23705.521846
763.957359	22515.975897
764.283740	20607.626943
764.610074	18738.054546
764.936362	16615.990917
765.262602	15102.427324
765.588796	13637.349549
765.914943	12612.588837
766.241044	11756.263156
766.567097	11126.247475
766.893104	10586.216390
767.219064	10225.753725
767.544978	9841.375827
767.870845	9531.395277
768.196665	9344.852420
768.522438	9152.595415
768.848165	8992.949634
769.173846	8823.866814
769.499479	8697.464922
769.825066	8540.906848
770.150607	8362.555866
770.476101	8296.950290
770.801548	8187.075822
771.126949	8042.868575
771.452303	7956.382539
771.777611	7793.482694
772.102872	7768.478571
772.428087	7651.733009
772.753256	7532.587859
773.078378	7443.833304
773.403453	7303.288456
773.728482	7199.047476
774.053465	7136.348125
774.378401	7050.623304
774.703291	6954.339786
775.028135	6860.370158
775.352932	6826.720456
775.677683	6744.436223
776.002388	6659.298696
776.327046	6650.585061
776.651658	6566.995169
776.976224	6491.027501
777.300743	6476.708103
777.625216	6409.469193
777.949643	6365.895980
778.274024	6365.527976
778.598359	6300.653367
778.922647	6303.615045
779.246889	6265.120794
779.571086	6275.992042
779.895236	6284.211644
780.219339	6280.526560
780.543397	6277.869872
780.867409	6322.713456
781.191374	6322.957952
781.515294	6292.678262
781.839167	6345.592733
782.162995	6314.997970
782.486776	6266.900322
782.810511	6221.928188
783.134201	6148.750799
783.457844	6131.396627
783.781441	6088.017498
784.104993	6046.483431
784.428498	6015.152660
784.751958	5998.252192
785.075372	5972.678418
785.398739	5934.534528
785.722061	5960.834228
786.045337	5958.888342
786.368568	6068.861113
786.691752	6089.734011
787.014891	6340.460838
787.337983	6614.744978
787.661030	7050.378808
787.984031	7478.014848
788.306987	7742.193995
788.629897	7823.076787
788.952760	7738.138386
789.275579	7559.744555
789.598351	7268.746469
789.921078	7002.606314
790.243759	6718.996040
790.566395	6518.441296
790.888984	6319.053579
791.211529	6186.088105
791.534027	6020.695409
791.856480	5884.919492
792.178888	5827.389844
792.501249	5762.548003
792.823566	5653.560777
793.145836	5654.674872
793.468062	5635.430267
793.790241	5589.074337
794.112375	5632.075379
794.434464	5732.737139
794.756507	5765.403816
795.078505	5883.321446
795.400457	6104.565085
795.722364	6342.875551
796.044226	6532.357401
796.366042	6689.772471
796.687812	6630.029757
797.009538	6660.490929
797.331218	6564.454427
797.652852	6498.354818
797.974442	6376.638679
798.295986	6302.609335
798.617484	6177.271127
798.938938	6071.222894
799.260346	6004.069683
799.581709	5868.346698
799.903026	5813.650179
800.224299	5742.040589
800.545526	5625.927692
800.866708	5560.125511
801.187845	5511.483418
801.508936	5436.957520
801.829983	5407.323097
802.150984	5300.213701
802.471940	5276.840391
802.792851	5260.517135
803.113717	5235.074432
803.434538	5212.275813
803.755314	5178.454712
804.076045	5166.358464
804.396731	5129.706755
804.717372	5148.863139
805.037967	5152.165095
805.358518	5178.754661
805.679024	5242.666409
805.999485	5248.534312
806.319901	5266.314462
806.640272	5284.881032
806.960598	5331.811653
807.280879	5320.277493
807.601115	5356.321743
807.921306	5322.470395
808.241453	5317.474612
808.561554	5324.156661
808.881611	5293.241785
809.201623	5286.532010
809.521590	5237.910081
809.841513	5221.790991
810.161390	5237.680708
810.481223	5151.376154
810.801011	5137.966685
811.120755	5109.103559
811.440453	5056.267225
811.760107	5032.281415
812.079716	5006.498434
812.399281	4954.428356
812.718801	4941.911171
813.038276	4915.480401
813.357707	4879.741141
813.677093	4897.939707
813.996434	4837.947455
814.315731	4860.189026
814.634983	4853.983366
814.954191	4859.742884
815.273354	4921.078603
815.592473	4961.889264
815.911547	5038.250142
816.230577	5092.719809
816.549562	5175.518240
816.868502	5233.360439
817.187399	5281.851298
817.506250	5359.696796
817.825058	5389.336260
818.143821	5538.864445
818.462539	5707.879210
818.781213	5937.060146
819.099843	6293.499970
819.418429	6923.341731
819.736970	7535.438631
820.055466	8251.189216
820.373919	9153.548193
820.692327	10596.654099
821.010691	13274.230197
821.329011	19460.832499
821.647286	28972.627769
821.965517	39248.944268
822.283704	44660.980843
822.601847	46123.018802
822.919945	41558.450600
823.237999	36471.291183
823.556010	31299.047173
823.873976	26622.693904
824.191897	22446.531482
824.509775	19386.835922
824.827609	16639.878424
825.145398	15103.649804
825.463144	14363.976423
825.780845	14657.545497
826.098502	15905.324335
826.416116	18352.229836
826.733685	20627.877258
827.051210	21136.093622
827.368692	19725.026769
827.686129	17173.164445
828.003522	14710.792685
828.320872	12500.715550
828.638177	10865.677794
828.955439	9618.070355
829.272656	8571.751148
829.589830	7737.387254
829.906960	7009.404310
830.224046	6480.128526
830.541088	6068.520835
830.858086	5812.750333
831.175041	5612.626608
831.491952	5559.641560
831.808819	5588.890335
832.125642	5834.054249
832.442421	6376.696652
832.759157	7485.377453
833.075849	9240.213189
833.392497	11083.062430
833.709101	12178.880727
834.025662	11929.641040
834.342179	10887.954653
834.658653	9586.248072
834.975083	8483.256213
835.291469	7586.382012
835.607811	6858.515013
835.924110	6339.460169
836.240366	5860.054000
836.556578	5407.900309
836.872746	5060.632865
837.188871	4784.576759
837.504952	4566.587185
837.820990	4399.359509
838.136984	4285.051345
838.452935	4241.641970
838.768842	4273.892751
839.084706	4553.467582
839.400526	5286.925220
839.716303	6182.894534
840.032037	6747.123158
840.347727	6601.330468
840.663373	6000.442573
840.978977	5430.232621
841.294537	4988.569570
841.610054	4659.833408
841.925527	4419.811470
842.240957	4220.080955
842.556344	4035.549518
842.871687	3880.715519
843.186987	3730.937797
843.502244	3614.958491
843.817458	3528.154863
844.132629	3456.610808
844.447756	3407.628436
844.762840	3362.142105
845.077881	3326.856549
845.392879	3291.830612
845.707833	3266.226591
846.022745	3239.939495
846.337613	3230.441961
846.652438	3202.869370
846.967221	3194.702701
847.281960	3176.476409
847.596656	3165.509379
847.911309	3158.308090
848.225919	3143.628250
848.540485	3131.337917
848.855009	3128.204840
849.169490	3112.292438
849.483928	3107.621809
849.798323	3102.830192
850.112675	3090.207143
850.426984	3092.347113
850.741251	3085.168510
851.055474	3082.068200
851.369654	3082.728591
851.683792	3079.658529
851.997887	3081.702717
852.311938	3081.130546
852.625947	3083.595670
852.939914	3077.974783
853.253837	3081.458221
853.567718	3078.587283
853.881555	3074.793815
854.195350	3076.182653
854.509103	3075.179463
854.822812	3074.526634
855.136479	3070.637384
855.450103	3071.320460
855.763685	3064.928277
856.077224	3070.536561
856.390720	3078.317582
856.704173	3085.763366
857.017584	3092.596650
857.330953	3098.882969
857.644278	3106.936212
857.957561	3110.913682
858.270802	3107.473095
858.584000	3108.632560
858.897155	3099.898761
859.210268	3088.725044
859.523339	3077.493353
859.836367	3076.356573
860.149352	3071.322981
860.462295	3067.781570
860.775195	3056.320507
861.088054	3052.985784
861.400869	3052.504353
861.713642	3050.593756
862.026373	3060.308060
862.339062	3064.025911
862.651708	3072.537899
862.964312	3088.558686
863.276873	3099.896241
863.589392	3127.516723
863.901869	3150.832059
864.214303	3175.717715
864.526696	3191.302442
864.839045	3210.501677
865.151353	3222.174468
865.463619	3222.620611
865.775842	3225.723441
866.088023	3226.832495
866.400162	3219.427040
866.712258	3225.405848
867.024313	3222.481979
867.336325	3223.835529
867.648296	3220.644478
867.960224	3217.665156
868.272110	3225.105899
868.583954	3223.853173
868.895755	3229.330386
869.207515	3225.055488
869.519233	3244.733632
869.830909	3250.515835
870.142542	3261.714759
870.454134	3269.551232
870.765684	3284.659570
871.077191	3301.681026
871.388657	3313.212666
871.700081	3328.857887
872.011463	3349.103161
872.322803	3368.960266
872.634101	3383.836711
872.945357	3405.536357
873.256571	3436.400822
873.567744	3451.340281
873.878874	3453.553348
874.189963	3468.376861
874.501010	3473.196204
874.812015	3467.136737
875.122979	3485.186588
875.433900	3481.453614
875.744780	3486.114160
876.055618	3493.267558
876.366415	3488.619614
876.677169	3495.301663
876.987882	3512.242461
877.298554	3533.415307
877.609183	3567.851429
877.919771	3615.369345
878.230317	3683.863502
878.540822	3784.628606
878.851285	3934.645783
879.161707	4157.154752
879.472087	4524.773334
879.782425	5145.261235
880.092722	6320.810421
880.402977	8234.989468
880.713191	10584.653632
881.023363	12946.071246
881.333494	14271.811528
881.643583	14722.717534
881.953631	14315.709896
882.263637	13477.277791
882.573602	12446.147581
882.883526	11509.629745
883.193408	10562.797709
883.503248	9652.410695
883.813048	8828.774377
884.122806	8077.032474
884.432522	7321.981054
884.742197	6662.328429
885.051831	6108.219922
885.361424	5610.973109
885.670975	5222.514397
885.980485	4906.033279
886.289954	4640.596364
886.599382	4428.015948
886.908768	4243.862598
887.218113	4090.803085
887.527417	3951.566416
887.836680	3830.576203
888.145901	3732.303950
888.455082	3657.979698
888.764221	3592.878237
889.073319	3530.080584
889.382376	3499.926922
889.691392	3476.175526
890.000366	3468.306284
890.309300	3465.304277
890.618193	3468.137406
890.927044	3461.525933
891.235855	3469.201089
891.544625	3481.234323
891.853353	3509.056452
892.162041	3570.498035
892.470687	3661.132940
892.779293	3775.625105
893.087858	3947.818318
893.396381	4226.914239
893.704864	4635.678719
894.013306	5195.589594
894.321707	5761.393578
894.630068	6120.900944
894.938387	6157.812273
895.246665	5978.364840
895.554903	5668.190206
895.863100	5328.628165
896.171256	5058.266043
896.479371	4824.041432
896.787446	4602.815437
897.095480	4410.389553
897.403473	4258.834825
897.711425	4114.635140
898.019336	3993.662571
898.327207	3870.749158
898.635038	3771.940022
898.942827	3667.787263
899.250576	3585.440015
899.558284	3499.994977
899.865952	3446.783078
900.173579	3383.897204
900.481165	3339.247705
900.788711	3295.583751
901.096216	3264.663834
901.403681	3238.389340
901.711105	3225.398286
902.018489	3220.571382
902.325832	3254.256372
902.633135	3314.750218
902.940397	3480.984786
903.247619	3880.692834
903.554800	4627.297801
903.861941	5579.964972
904.169041	6276.677639
904.476101	6483.518702
904.783121	6211.054419
905.090100	5815.896013
905.397039	5402.002159
905.703938	5044.440678
906.010796	4725.880085
906.317614	4476.756344
906.624391	4244.349069
906.931129	4049.909245
907.237826	3872.468191
907.544483	3702.717418
907.851099	3533.788352
908.157675	3373.151985
908.464211	3232.052609
908.770707	3135.776653
909.077163	3056.035682
909.383578	2996.202227
909.689954	2954.637913
909.996289	2923.165990
910.302584	2904.624626
910.608839	2890.774056
910.915054	2878.261912
911.221229	2875.980790
911.527363	2880.129659
911.833458	2885.803478
912.139513	2896.543656
912.445527	2908.120666
912.751502	2946.304886
913.057436	2989.210146
913.363331	3045.507232
913.669186	3134.178607
913.975000	3247.279415
914.280775	3432.526695
914.586510	3698.636604
914.892205	4065.851894
915.197859	4557.679466
915.503475	5138.914422
915.809050	5623.833093
916.114585	5912.729017
916.420081	5973.263192
916.725536	5911.322535
917.030952	5673.198592
917.336328	5470.546728
917.641665	5265.674236
917.946961	5040.140574
918.252218	4837.226570
918.557435	4614.924288
918.862612	4419.635030
919.167750	4248.182867
919.472848	4060.445256
919.777906	3893.409144
920.082925	3736.483066
920.387904	3584.940940
920.692843	3478.076041
920.997743	3378.299003
921.302603	3287.664098
921.607423	3223.611197
921.912204	3160.412772
922.216946	3110.306223
922.521647	3062.800910
922.826310	3022.663243
923.130932	2986.185454
923.435516	2942.957560
923.740059	2919.155752
924.044564	2886.804147
924.349028	2863.090559
924.653454	2835.139882
924.957840	2810.463434
925.262186	2792.156484
925.566493	2766.171856
925.870761	2744.298290
926.174989	2734.198338
926.479178	2718.941286
926.783328	2701.037628
927.087438	2691.661082
927.391509	2679.622806
927.695541	2666.800632
927.999533	2657.938283
928.303486	2647.954278
928.607400	2644.566622
928.911275	2638.302989
929.215110	2631.263017
929.518906	2626.350413
929.822663	2627.109107
930.126381	2628.800414
930.430060	2633.082874
930.733699	2633.357617
931.037299	2635.631177
931.340861	2635.540437
931.644383	2636.667134
931.947866	2634.668317
932.251309	2634.144037
932.554714	2635.611013
932.858080	2632.203193
933.161407	2628.608850
933.464694	2624.941411
933.767943	2621.208436
934.071153	2618.453446
934.374323	2613.316510
934.677455	2611.158896
934.980548	2608.897938
935.283602	2606.712598
935.586617	2605.379213
935.889593	2607.783843
936.192530	2609.747373
936.495428	2612.333485
936.798287	2623.439147
937.101108	2636.566311
937.403890	2656.473828
937.706632	2685.074814
938.009336	2716.357694
938.312002	2747.501943
938.614628	2770.345932
938.917216	2787.546348
939.219765	2794.193110
939.522275	2804.787095
939.824747	2806.254070
940.127179	2800.650828
940.429573	2792.300157
940.731929	2792.222019
941.034246	2782.273302
941.336524	2784.927469
941.638763	2772.828700
941.940964	2769.998092
942.243126	2753.384969
942.545250	2744.202508
942.847335	2729.658779
943.149381	2718.439691
943.451389	2703.608616
943.753359	2693.372553
944.055290	2678.773372
944.357182	2672.313133
944.659036	2670.626867
944.960851	2661.986330
945.262628	2659.737975
945.564367	2659.669919
945.866067	2661.446926
946.167729	2658.770073
946.469352	2658.563386
946.770937	2656.577172
947.072484	2650.280770
947.373992	2649.789258
947.675462	2645.811787
947.976893	2638.950777
948.278286	2637.965232
948.579641	2633.564304
948.880958	2632.203193
949.182236	2632.135137
949.483476	2626.990640
949.784678	2627.368726
950.085841	2624.482666
950.386967	2629.601957
950.688054	2636.899027
950.989103	2645.128711
951.290114	2651.672129
951.591087	2664.718635
951.892021	2674.052331
952.192917	2687.466842
952.493776	2697.198789
952.794596	2701.176260
953.095378	2703.013760
953.396122	2703.238092
953.696828	2696.230888
953.997496	2693.828778
954.298126	2685.586491
954.598718	2675.988134
954.899272	2666.813234
955.199788	2656.493992
955.500266	2645.040491
955.800706	2626.902419
956.101108	2608.015737
956.401472	2603.403081
956.701798	2588.319948
957.002087	2573.509038
957.302337	2563.862791
957.602550	2552.479865
957.902724	2540.222300
958.202861	2532.073274
958.502960	2524.279651
958.803022	2517.418640
959.103045	2511.074348
959.403031	2505.662669
959.702979	2500.160250
960.002889	2493.763026
960.302762	2489.593992
960.602596	2484.648620
960.902393	2482.135604
961.202153	2482.201139
961.501875	2477.439770
961.801559	2475.166209
962.101205	2475.488843
962.400814	2470.180508
962.700385	2466.639098
962.999918	2465.772019
963.299414	2462.893520
963.598873	2464.035342
963.898293	2462.757409
964.197677	2464.622636
964.497022	2459.936883
964.796331	2458.485031
965.095601	2458.842953
965.394835	2455.866152
965.694030	2453.945472
965.993189	2456.060236
966.292309	2455.795576
966.591393	2454.492437
966.890439	2455.150308
967.189447	2454.719289
967.488419	2453.814402
967.787353	2455.528394
968.086249	2455.661985
968.385108	2456.440843
968.683930	2457.020576
968.982714	2457.355813
969.281462	2458.820268
969.580172	2461.774384
969.878844	2461.013170
970.177480	2463.095166
970.476078	2466.863429
970.774639	2471.939871
971.073162	2474.026908
971.371649	2474.503297
971.670098	2474.957001
971.968510	2475.466158
972.266885	2475.269553
972.565223	2480.207363
972.863524	2478.936992
973.161788	2486.828919
973.460014	2486.496203
973.758204	2487.101141
974.056356	2484.807416
974.354471	2483.963023
974.652550	2487.859835
974.950591	2487.138950
975.248595	2486.861686
975.546563	2481.739874
975.844493	2481.709627
976.142386	2480.066211
976.440243	2476.948257
976.738062	2480.787096
977.035845	2471.155971
977.333590	2471.937350
977.631299	2471.060189
977.928971	2468.731176
978.226606	2467.002061
978.524204	2466.079529
978.821765	2460.829168
979.119290	2460.826647
979.416777	2462.031483
979.714228	2464.635239
980.011642	2465.182204
980.309020	2468.020374
980.606360	2471.410550
980.903664	2482.690131
981.200931	2493.674806
981.498162	2511.444873
981.795356	2541.749769
982.092513	2577.279822
982.389633	2623.255145
982.686717	2665.061433
982.983764	2695.033614
983.280775	2716.304762
983.577749	2713.816953
983.874686	2705.935109
984.171587	2684.643796
984.468451	2671.372958
984.765279	2653.396203
985.062070	2637.067906
985.358824	2619.239866
985.655543	2595.276741
985.952224	2574.406364
986.248869	2548.091541
986.545478	2520.244207
986.842050	2504.485560
987.138586	2483.206850
987.435086	2471.864253
987.731549	2459.140381
988.027975	2458.321194
988.324366	2449.489092
988.620719	2444.135387
988.917037	2444.120263
989.213318	2440.644388
989.509563	2433.755651
989.805772	2432.765064
990.101944	2431.789601
990.398080	2432.444951
990.694180	2432.928902
990.990244	2431.809766
991.286271	2432.492842
991.582262	2434.118614
991.878217	2434.673141
992.174136	2435.754468
992.470019	2437.387802
992.765865	2437.571804
993.061676	2442.449121
993.357450	2441.148503
993.653188	2445.065480
993.948890	2450.867848
994.244556	2456.544187
994.540186	2467.939715
994.835780	2475.919862
995.131337	2489.934269
995.426859	2502.080930
995.722345	2525.872655
996.017795	2539.687937
996.313208	2557.631924
996.608586	2564.689540
996.903928	2570.348235
997.199234	2568.339335
997.494504	2567.888152
997.789738	2558.700649
998.084936	2548.701520
998.380099	2535.478574
998.675225	2525.587830
998.970316	2511.545696
999.265371	2500.301402
999.560390	2487.506954
999.855373	2477.434728
1000.150320	2465.298151
1000.445232	2458.883282
1000.740108	2453.126285
1001.034948	2446.076231
1001.329752	2440.541044
1001.624521	2437.723039
1001.919254	2429.510999
1002.213951	2430.315063
1002.508613	2425.699887
1002.803239	2425.392377
1003.097829	2421.094793
1003.392384	2424.124527
1003.686903	2422.506316
1003.981386	2420.578075
1004.275834	2420.134453
1004.570246	2420.462128
1004.864623	2416.724113
1005.158964	2417.865934
1005.453270	2417.276119
1005.747540	2415.887281
1006.041775	2417.248393
1006.335974	2415.768814
1006.630138	2415.294946
1006.924266	2415.453742
1007.218359	2415.191602
1007.512416	2414.879050
1007.806438	2412.587846
1008.100425	2414.624472
1008.394376	2413.598597
1008.688292	2411.846796
1008.982172	2414.148083
1009.276017	2411.763617
1009.569827	2414.304359
1009.863602	2412.965933
1010.157341	2409.663977
1010.451045	2413.364184
1010.744714	2413.036509
1011.038347	2412.754204
1011.331945	2411.468710
1011.625508	2412.141704
1011.919036	2411.506518
1012.212528	2410.503329
1012.505986	2408.055849
1012.799408	2409.847979
1013.092795	2410.213462
1013.386147	2408.068452
1013.679464	2408.101219
1013.972745	2407.289593
1014.265992	2411.115829
1014.559204	2409.653894
1014.852380	2412.066087
1015.145521	2410.397465
1015.438628	2411.574574
1015.731699	2408.416291
1016.024736	2407.334964
1016.317737	2410.319327
1016.610703	2409.946281
1016.903635	2408.020561
1017.196531	2405.230282
1017.489393	2404.786660
1017.782219	2408.209604
1018.075011	2410.999883
1018.367768	2411.372928
1018.660490	2408.897721
1018.953177	2408.897721
1019.245829	2408.897721
