Dividing Wavelength (nm)	Counts (n)	Blue Motor Position (mm): 40.000000	Red Motor Position (mm): 0.000000	
326.493990	1972.129632
326.888308	1972.129632
327.282561	1972.129632
327.676750	1947.740529
328.070874	1949.303287
328.464933	1953.789914
328.858929	1966.385237
329.252859	1976.822946
329.646726	1992.362302
330.040528	2007.339571
330.434265	2025.507889
330.827938	2043.121681
331.221547	2064.319733
331.615091	2084.829667
332.008571	2106.947729
332.401986	2125.786521
332.795338	2145.149593
333.188625	2165.881338
333.581847	2187.288598
333.975006	2204.466330
334.368100	2221.790255
334.761129	2236.949005
335.154095	2255.402148
335.546996	2295.438992
335.939833	2378.071066
336.332606	2394.074208
336.725315	2405.656259
337.117960	2415.420974
337.510540	2419.065729
337.903056	2431.661052
338.295508	2434.612647
338.687896	2443.538010
339.080220	2449.111006
339.472480	2455.495627
339.864676	2455.924125
340.256807	2461.441668
340.648875	2462.986782
341.040879	2468.758903
341.432818	2466.558439
341.824694	2468.317802
342.216506	2467.690178
342.608253	2466.598768
342.999937	2467.596917
343.391557	2464.549539
343.783113	2463.576597
344.174605	2460.660289
344.566033	2461.943263
344.957397	2459.982254
345.348697	2456.965123
345.739934	2456.256841
346.131106	2451.737447
346.522215	2454.061419
346.913260	2453.151490
347.304241	2452.402879
347.695159	2450.729216
348.086012	2446.781993
348.476802	2444.334512
348.867528	2446.885336
349.258191	2442.549944
349.648789	2441.430808
350.039324	2440.659511
350.429796	2441.024995
350.820203	2440.115067
351.210548	2437.473502
351.600828	2436.359407
351.991045	2437.085333
352.381198	2437.869232
352.771288	2437.009716
353.161314	2435.961156
353.551276	2436.268666
353.941175	2433.611978
354.331010	2436.692123
354.720782	2441.594645
355.110490	2439.651280
355.500135	2434.917637
355.889717	2436.354366
356.279235	2440.140272
356.668689	2440.863678
357.058080	2438.595159
357.447408	2437.329829
357.836672	2436.805549
358.225873	2437.755807
358.615010	2435.235230
359.004084	2440.173040
359.393095	2440.891404
359.782043	2440.054573
360.170927	2443.888370
360.559748	2440.372165
360.948505	2446.076231
361.337199	2447.722168
361.725830	2446.219904
362.114398	2447.825511
362.502903	2447.243258
362.891344	2448.483382
363.279722	2446.565223
363.668037	2448.528752
364.056289	2447.913732
364.444478	2451.929011
364.832603	2449.148814
365.220665	2451.918928
365.608665	2451.767694
365.996601	2455.069649
366.384474	2451.871037
366.772284	2454.983950
367.160031	2452.786007
367.547715	2456.221553
367.935336	2455.485545
368.322893	2458.132150
368.710388	2457.260031
369.097820	2463.374950
369.485189	2458.996708
369.872495	2461.260186
370.259738	2459.195834
370.646918	2461.499641
371.034035	2462.906123
371.421090	2462.694395
371.808081	2461.660958
372.195010	2464.458798
372.581875	2461.958386
372.968678	2462.386884
373.355418	2464.983078
373.742096	2463.710187
374.128710	2468.632874
374.515262	2470.112453
374.901751	2467.445682
375.288177	2471.360138
375.674540	2468.678244
376.060841	2471.390385
376.447079	2471.523976
376.833254	2471.725622
377.219367	2469.263018
377.605417	2470.684623
377.991404	2469.840230
378.377329	2471.806280
378.763191	2472.902731
379.148991	2479.156283
379.534727	2477.376755
379.920402	2477.948926
380.306013	2481.286170
380.691563	2482.465800
381.077049	2483.514360
381.462474	2482.460759
381.847835	2483.700883
382.233134	2483.779021
382.618371	2484.996459
383.003545	2487.262458
383.388657	2486.539052
383.773706	2489.225987
384.158693	2486.995277
384.543618	2490.529126
384.928480	2490.050216
385.313280	2492.727069
385.698017	2494.196565
386.082692	2497.148161
386.467305	2497.564056
386.851856	2502.421207
387.236344	2500.946670
387.620770	2505.554285
388.005133	2504.914058
388.389435	2506.199552
388.773674	2509.473782
389.157851	2511.691889
389.541965	2511.447393
389.926018	2513.015192
390.310008	2517.557272
390.693936	2519.132633
391.077802	2525.870135
391.461606	2527.763088
391.845348	2536.655683
392.229027	2545.298742
392.612645	2554.982798
392.996200	2568.621640
393.379694	2578.487178
393.763125	2594.172728
394.146494	2610.004472
394.529801	2631.305867
394.913047	2654.916111
395.296230	2677.903773
395.679351	2699.590817
396.062410	2735.143554
396.445408	2760.301432
396.828343	2795.647483
397.211217	2836.453102
397.594028	2863.413193
397.976778	2920.305135
398.359466	2979.148003
398.742092	3021.423119
399.124656	3089.766042
399.507158	3161.307577
399.889598	3228.720407
400.271977	3313.973880
400.654294	3387.403327
401.036549	3481.262050
401.418742	3555.465314
401.800874	3681.405940
402.182944	3780.699027
402.564952	3934.383643
402.946898	3985.805932
403.328783	4091.110595
403.710606	4229.341554
404.092367	4386.723857
404.474067	4580.072271
404.855705	4636.611332
405.237282	4730.031475
405.618797	4966.360767
406.000250	5163.885778
406.381642	5401.843363
406.762972	5510.001318
407.144240	5563.906377
407.525447	5785.054234
407.906593	5887.858484
408.287677	6118.745851
408.668700	6311.179296
409.049661	6449.274144
409.430560	6647.542725
409.811399	6767.930520
410.192176	6979.641337
410.572891	7162.715881
410.953545	7541.818212
411.334138	7416.323728
411.714669	7876.215590
412.095139	7642.026268
412.475547	8056.177221
412.855894	8104.244623
413.236180	8434.243595
413.616405	8385.898929
413.996568	8688.181637
414.376670	8805.963156
414.756711	8855.893264
415.136691	9166.367847
415.516609	9411.824148
415.896466	9588.952651
416.276262	9909.968286
416.655997	10352.740390
417.035670	10504.005253
417.415283	11098.944586
417.794834	11297.876078
418.174324	11227.907383
418.553753	11275.974785
418.933121	11767.638520
419.312428	11750.687640
419.691674	11780.831219
420.070859	12263.378027
420.449983	12092.891245
420.829045	12656.265393
421.208047	12547.963765
421.586988	13046.163355
421.965867	13359.092980
422.344686	13452.066981
422.723444	14034.718501
423.102141	12964.962970
423.480777	14097.407770
423.859352	13745.220159
424.237866	14795.055571
424.616319	14619.482265
424.994712	15274.832265
425.373044	15163.425286
425.751314	15844.916189
426.129524	15100.342807
426.507673	16146.425080
426.885762	15936.382884
427.263789	16177.438258
427.641756	16385.622789
428.019662	16483.801780
428.397508	16574.852581
428.775292	16874.012294
429.153016	16888.931589
429.530679	16994.140469
429.908282	17058.160603
430.285824	16817.642112
430.663305	17524.363990
431.040726	17165.814443
431.418086	17021.100560
431.795385	17661.135535
432.172624	18087.397860
432.549802	17674.847473
432.926920	17878.525212
433.303977	17774.226260
433.680974	18043.330614
434.057910	18338.578392
434.434786	18376.689515
434.811601	18310.100913
435.188355	19327.415842
435.565050	19005.943982
435.941683	18959.956056
436.318257	19820.319700
436.694770	19637.356063
437.071222	20222.339117
437.447614	19321.348813
437.823946	19344.989304
438.200218	19503.402523
438.576429	19286.650551
438.952580	19566.669003
439.328670	19536.043994
439.704700	19940.094995
440.080670	19528.225164
440.456580	20107.025243
440.832429	20268.695047
441.208218	19296.891655
441.583947	19721.946624
441.959616	19834.742442
442.335224	20067.570652
442.710773	20199.132165
443.086261	20723.344109
443.461689	20099.952504
443.837057	20225.857842
444.212365	20860.249245
444.587612	20860.667661
444.962800	20447.345977
445.337927	20856.864110
445.712995	19623.848291
446.088002	21424.505595
446.462949	21612.825459
446.837837	21789.530504
447.212664	21755.906008
447.587431	24517.717266
447.962139	27398.489672
448.336786	29750.742468
448.711374	28228.702176
449.085901	24619.359530
449.460369	24548.105341
449.834776	24460.333812
450.209124	26899.465853
450.583412	26455.146115
450.957640	26971.156102
451.331808	25654.656254
451.705917	24314.026924
452.079965	24333.717671
452.453954	24680.937224
452.827883	24586.831485
453.201752	24393.039449
453.575562	24546.091400
453.949311	25634.854602
454.323001	25702.370776
454.696632	25473.872916
455.070202	26995.215009
455.443713	27137.993088
455.817164	27706.718421
456.190556	28239.248270
456.563888	27684.948198
456.937160	28106.877652
457.310373	26481.299621
457.683526	26912.451865
458.056619	26879.482719
458.429653	26830.122261
458.802628	27393.617397
459.175542	27502.302153
459.548398	28801.016810
459.921194	30360.848113
460.293930	31032.811235
460.666607	33044.239182
461.039224	34770.751195
461.411782	35145.823123
461.784280	33927.615693
462.156719	33415.628547
462.529099	32852.859337
462.901419	31563.911916
463.273680	30528.400943
463.645882	30633.914814
464.018024	30617.520981
464.390106	31463.275362
464.762130	34138.013290
465.134094	38183.753501
465.505999	43470.955984
465.877845	48015.331845
466.249631	49133.570673
466.621358	47347.867952
466.993026	45180.633064
467.364634	43071.804984
467.736184	41142.842753
468.107674	39907.026573
468.479105	39145.585490
468.850477	38441.835372
469.221790	37024.671244
469.593043	35333.774983
469.964238	34462.648475
470.335373	34376.278386
470.706449	36047.037758
471.077467	38572.360927
471.448425	43121.689722
471.819324	45985.284397
472.190164	44172.183005
472.560945	40649.225571
472.931667	37546.828918
473.302330	36463.674000
473.672934	35627.447400
474.043479	36154.041290
474.413965	35375.740068
474.784393	35004.519581
475.154761	35861.808122
475.525070	35913.739568
475.895321	35463.488912
476.265513	36047.219240
476.635645	37003.034612
477.005719	36844.777669
477.375734	37292.197717
477.745691	37970.623599
478.115588	39283.758476
478.485427	41242.554256
478.855207	44572.823665
479.224928	47196.061166
479.594591	48816.000666
479.964194	47769.827653
480.333739	47887.410046
480.703226	47899.455883
481.072653	48552.771777
481.442022	49052.806348
481.811333	49320.347944
482.180584	48017.290333
482.549777	47496.110643
482.918912	46984.141141
483.287988	46693.231276
483.657005	45852.044180
484.025964	45216.737808
484.394864	45229.940590
484.763706	44784.867199
485.132489	43914.098613
485.501213	43774.854382
485.869879	43917.403089
486.238487	43511.696069
486.607036	43735.263680
486.975527	43199.147051
487.343959	43399.127103
487.712333	43465.055313
488.080648	43375.645409
488.448905	43809.633302
488.817104	43635.040501
489.185244	44572.180918
489.553326	46238.075577
489.921350	48979.928907
490.289315	51906.588417
490.657222	52529.707799
491.025070	52834.750539
491.392861	51887.860530
491.760593	50617.570419
492.128267	48899.570394
492.495883	47364.201291
492.863440	45975.378530
493.230939	44640.007123
493.598380	43564.494594
493.965763	43231.410436
494.333088	42442.293418
494.700354	41967.779689
495.067563	41695.295241
495.434713	41567.065932
495.801805	41632.603452
496.168839	41275.493155
496.535815	40928.044229
496.902733	40971.672895
497.269593	40562.064021
497.636395	40505.098983
498.003139	40895.468293
498.369825	40365.801820
498.736453	40663.222335
499.103023	40200.351151
499.469535	40086.060631
499.835989	40176.198983
500.202385	39840.324546
500.568723	39855.100168
500.935003	40047.158047
501.301226	39860.327844
501.667390	40452.227361
502.033497	40715.567156
502.399546	40137.598867
502.765537	39467.944593
503.131470	39845.733704
503.497345	40192.567609
503.863163	38870.754385
504.228923	39483.879681
504.594625	39884.787523
504.960269	39184.314155
505.325856	39860.186692
505.691385	39235.005477
506.056856	39355.242038
506.422270	39791.571547
506.787625	39375.235254
507.152924	39559.620497
507.518164	39661.905508
507.883347	38881.529852
508.248472	39139.677258
508.613540	39589.955640
508.978550	39894.332948
509.343503	39654.527780
509.708398	39841.017704
510.073236	40359.651612
510.438016	40361.970543
510.802738	39820.409467
511.167403	40427.989494
511.532010	40650.548874
511.896561	40967.027472
512.261053	41784.566514
512.625488	41335.815602
512.989866	41197.524149
513.354186	41048.250542
513.718449	41040.429192
514.082655	41715.369116
514.446803	41387.883159
514.810894	41901.203691
515.174927	41813.265803
515.538904	41719.840619
515.902822	42377.819581
516.266684	41835.028464
516.630488	42260.338011
516.994235	42110.053653
517.357925	42671.368490
517.721558	42844.567413
518.085133	43146.640913
518.448651	43277.799133
518.812112	43049.719689
519.175516	43153.406142
519.538863	43485.645906
519.902152	43452.313797
520.265385	43900.764761
520.628560	43950.031957
520.991678	43739.606634
521.354739	43979.303417
521.717743	44300.843333
522.080690	44192.365264
522.443580	44735.491618
522.806413	44782.029029
523.169189	44755.033651
523.531908	44909.086271
523.894569	44765.950269
524.257174	44940.893431
524.619722	45242.248567
524.982213	45245.026243
525.344647	45147.069062
525.707025	45202.010077
526.069345	45599.762157
526.431608	45512.489701
526.793815	45824.343040
527.155964	45379.806532
527.518057	45555.329427
527.880093	45350.706471
528.242072	45855.820004
528.603995	45564.640438
528.965860	45570.536067
529.327669	45667.452250
529.689421	45572.366006
530.051117	45525.548810
530.412755	45686.016299
530.774337	45742.782212
531.135862	45557.648357
531.497331	45775.075843
531.858743	45683.679724
532.220098	46006.908426
532.581396	45732.447846
532.942638	45389.717440
533.303824	45704.358537
533.664953	45664.273802
534.026025	45390.277008
534.387040	45862.968361
534.747999	45814.180074
535.108902	45967.126161
535.469748	45509.061717
535.830537	45623.027082
536.191270	45812.037583
536.551947	45455.101206
536.912567	45762.208298
537.273131	45898.354740
537.633638	45399.459470
537.994089	45738.484628
538.354483	45345.801429
538.714821	45895.486323
539.075103	46263.437622
539.435328	46022.546086
539.795497	45920.898780
540.155609	45911.923006
540.515665	46365.614249
540.875665	45805.358054
541.235609	46159.854513
541.595496	46117.284490
541.955328	46785.572611
542.315102	46170.249373
542.674821	45968.877962
543.034483	45992.720099
543.394090	45954.480426
543.753640	45934.018383
544.113134	46920.355421
544.472571	45952.592514
544.831953	47178.767488
545.191278	46410.140240
545.550548	46126.993752
545.909761	46579.954028
546.268918	46794.634085
546.628019	47093.090558
546.987064	46651.198135
547.346053	45957.800026
547.704986	46826.975608
548.063863	46382.527320
548.422684	46575.984119
548.781449	46428.933662
549.140158	46824.714650
549.498811	46683.643001
549.857408	46103.244876
550.215949	46933.006197
550.574434	46878.788587
550.932864	46644.213616
551.291237	47371.402579
551.649555	46983.780698
552.007817	47217.738127
552.366022	46865.875671
552.724173	47045.189514
553.082267	47440.892364
553.440305	47736.351871
553.798288	47056.010350
554.156215	47369.756642
554.514086	47575.788600
554.871902	47305.756674
555.229661	47340.893516
555.587365	47158.660846
555.945014	47260.250178
556.302606	47180.433589
556.660143	47413.445802
557.017625	47501.045932
557.375050	47296.896846
557.732421	47643.778642
558.089735	47624.453379
558.446994	47547.994198
558.804197	48016.266979
559.161345	47947.248542
559.518437	47207.305460
559.875474	47494.195004
560.232455	47674.257458
560.589381	47847.292543
560.946251	47539.767035
561.303065	48219.528823
561.659825	48019.069861
562.016528	47711.879589
562.373177	47424.284283
562.729770	47907.090710
563.086307	47413.753313
563.442789	47875.069301
563.799216	47931.759597
564.155587	47725.465499
564.511904	47755.087319
564.868164	47837.691666
565.224370	48087.443030
565.580520	47825.499635
565.936615	48019.647073
566.292654	47755.125128
566.648638	47984.900920
567.004567	47937.889640
567.360441	47966.299062
567.716260	47833.517590
568.072023	48130.156727
568.427732	48112.432030
568.783385	47670.733692
569.138982	48062.779185
569.494525	48026.225778
569.850013	47787.625446
570.205445	47756.854243
570.560823	47712.030824
570.916145	47575.402952
571.271412	47603.525028
571.626625	47360.513687
571.981782	47430.368956
572.336884	47108.566900
572.691931	47439.748022
573.046923	47048.254535
573.401860	46887.764361
573.756743	46865.893315
574.111570	46974.187382
574.466342	46831.260588
574.821059	46966.918038
575.175722	46475.763460
575.530330	46481.991806
575.884882	46209.497276
576.239380	46179.610795
576.593823	46145.961093
576.948211	46071.677171
577.302544	45591.769407
577.656823	45629.497403
578.011047	45860.805706
578.365216	45560.068111
578.719330	45365.746754
579.073389	45220.861472
579.427394	45316.598024
579.781344	45259.322955
580.135239	44932.225167
580.489080	45010.010171
580.842866	44515.440211
581.196597	44954.262571
581.550273	44907.299182
581.903895	44783.233865
582.257463	45198.821547
582.610975	44585.602990
582.964434	44853.666346
583.317837	44493.584289
583.671186	44327.034648
584.024481	44559.313373
584.377721	44099.013177
584.730906	44378.043563
585.084037	44402.137758
585.437113	44114.832318
585.790135	44157.241025
586.143103	43750.437553
586.496016	43871.117735
586.848874	43905.143003
587.201679	43919.381742
587.554428	43403.402002
587.907124	43598.585397
588.259765	43355.798386
588.612352	43578.879526
588.964884	42981.701921
589.317362	43258.350362
589.669786	43210.776993
590.022155	42981.298629
590.374470	43395.426897
590.726731	42927.438941
591.078937	42436.009620
591.431090	42537.863613
591.783188	42196.580018
592.135232	41881.971689
592.487222	42109.536935
592.839157	42199.934906
593.191038	41871.309648
593.542866	41638.816674
593.894639	41045.548484
594.246358	41335.631600
594.598022	41308.999184
594.949633	40914.458319
595.301190	40876.274099
595.652692	40701.661133
596.004141	41033.951309
596.355535	40052.607534
596.706876	40011.776709
597.058162	39829.518833
597.409395	40301.194392
597.760573	40393.404658
598.111698	39952.190270
598.462768	39970.330862
598.813785	40010.440803
599.164748	39468.189089
599.515657	39861.570489
599.866511	39342.208134
600.217312	39948.341349
600.568060	38921.879247
600.918753	39659.266464
601.269392	39619.988314
601.619978	39271.170715
601.970510	39488.381431
602.320988	39666.107310
602.671412	39968.899175
603.021783	39710.875277
603.372100	39375.797342
603.722363	39470.568514
604.072572	39542.364627
604.422728	39567.010828
604.772830	39384.876460
605.122878	39474.435079
605.472872	39408.895038
605.822813	39686.725629
606.172701	39516.624496
606.522534	39771.918609
606.872314	40010.181183
607.222041	39770.184452
607.571714	40159.064101
607.921333	39614.397674
608.270899	39897.329913
608.620411	40240.521585
608.969870	40054.243389
609.319276	40024.205673
609.668627	40093.849214
610.017926	40566.041492
610.367171	40723.960677
610.716362	40813.390746
611.065500	40766.651688
611.414585	40968.754067
611.763616	41252.255956
612.112594	41173.581189
612.461518	41399.490416
612.810389	41682.094980
613.159207	41542.142467
613.507971	41625.971814
613.856682	42096.281221
614.205340	41986.868018
614.553945	42691.454968
614.902496	42120.730817
615.250994	42584.769029
615.599439	42669.488140
615.947830	42877.103020
616.296169	42927.373406
616.644454	43042.440263
616.992686	43215.412334
617.340864	43757.129685
617.688990	43456.686998
618.037063	44066.291048
618.385082	44023.647927
618.733048	44331.430534
619.080961	44333.152088
619.428821	44347.506774
619.776628	44458.074401
620.124382	44270.435093
620.472083	44395.717848
620.819731	44529.295823
621.167326	44196.962796
621.514868	44171.890618
621.862357	43731.772681
622.209793	43758.425262
622.557176	43427.841516
622.904506	43186.904609
623.251783	42834.318747
623.599007	42604.215280
623.946179	42376.672719
624.293297	42331.826614
624.640363	41750.531164
624.987376	41739.319638
625.334336	41492.971052
625.681243	41153.875318
626.028097	41115.194545
626.374899	40951.518362
626.721647	40931.913314
627.068343	40820.491212
627.414987	40589.142579
627.761577	40370.860618
628.108115	40695.679804
628.454600	40150.582359
628.801032	40351.379079
629.147412	40305.239918
629.493739	40297.373197
629.840014	39965.433381
630.186236	40292.410182
630.532405	39918.850599
630.878521	40118.134972
631.224585	40012.633705
631.570597	39712.927026
631.916556	39877.109845
632.262462	39816.046349
632.608316	39840.218682
632.954117	39723.770548
633.299866	39727.120395
633.645562	39643.366665
633.991206	39141.905448
634.336797	38714.851662
634.682336	38710.181032
635.027823	38458.546797
635.373257	38272.820607
635.718639	38035.104997
636.063968	37891.812720
636.409245	37308.306724
636.754470	37363.285548
637.099642	37126.673951
637.444762	36657.718094
637.789829	36805.670918
638.134845	36440.623324
638.479808	36398.073465
638.824719	36304.885216
639.169577	35914.281492
639.514383	35968.186550
639.859137	35682.181728
640.203839	35919.947749
640.548489	35554.469136
640.893086	35638.910984
641.237632	35366.688676
641.582125	35487.615875
641.926566	35415.043424
642.270955	35389.028549
642.615292	35400.166979
642.959576	35381.895317
643.303809	35365.493923
643.647990	35521.999064
643.992118	35494.401268
644.336195	35486.920195
644.680219	35576.377991
645.024192	35879.457201
645.368112	36402.073621
645.711981	36412.909581
646.055797	37283.789072
646.399562	37210.024389
646.743274	38168.123403
647.086935	38598.781615
647.430544	38485.096034
647.774101	38606.915517
648.117606	38847.781847
648.461059	39146.492898
648.804460	38731.711801
649.147810	38132.172415
649.491108	37879.245123
649.834354	37515.367077
650.177548	36693.903496
650.520690	36237.520277
650.863781	36244.134271
651.206820	36087.470332
651.549807	35652.383467
651.892742	35178.109193
652.235626	34984.518803
652.578458	34859.788054
652.921238	34247.776854
653.263967	34586.890232
653.606644	34266.398876
653.949269	34203.215574
654.291843	33809.864422
654.634365	34221.194849
654.976836	33811.439783
655.319255	33814.235102
655.661622	33812.236285
656.003938	33592.179837
656.346203	33446.747590
656.688416	33664.172555
657.030577	33461.477841
657.372687	33301.171670
657.714746	33572.589913
658.056753	33698.981723
658.398708	33149.896725
658.740612	33196.086297
659.082465	33480.293948
659.424266	33311.362362
659.766016	33406.861981
660.107715	33295.056750
660.449362	33427.863428
660.790958	33402.264448
661.132503	33429.973150
661.473996	33462.173521
661.815438	33566.187648
662.156829	33758.001031
662.498168	33538.415931
662.839456	33586.279167
663.180693	33714.702561
663.521879	33882.376379
663.863013	33833.978781
664.204097	33834.712269
664.545129	34290.624141
664.886110	34246.430866
665.227040	34317.080116
665.567918	34428.499698
665.908746	34504.858056
666.249522	34671.271585
666.590248	34668.435936
666.930922	34778.847288
667.271545	34724.526335
667.612118	34833.611863
667.952639	34604.103252
668.293109	34656.899256
668.633528	34550.540992
668.973896	34478.366792
669.314213	34509.546329
669.654480	34232.524843
669.994695	34269.138743
670.334859	34161.552958
670.674973	34052.187646
671.015035	34208.859146
671.355047	34193.332392
671.695008	34111.471615
672.034918	34023.841238
672.374777	34097.558031
672.714585	33919.237296
673.054342	34157.048687
673.394049	33900.411107
673.733705	34209.779157
674.073310	33858.982904
674.412864	33938.592806
674.752368	33529.470404
675.091820	33830.747402
675.431223	33398.649941
675.770574	33121.842704
676.109875	32993.106758
676.449125	32706.698643
676.788324	32635.890597
677.127473	32087.841556
677.466571	32009.940606
677.805619	31671.863185
678.144616	31658.229384
678.483562	31590.277151
678.822458	31265.538623
679.161303	31193.969362
679.500098	31112.859717
679.838842	30982.056898
680.177535	31156.246408
680.516179	31424.622315
680.854771	31664.588800
681.193314	32538.298899
681.531805	33686.625854
681.870247	34468.481090
682.208638	35193.756935
682.546978	35426.179333
682.885268	35503.182958
683.223508	34965.095237
683.561697	34614.490549
683.899836	34437.485555
684.237925	33927.671146
684.575963	33772.186838
684.913951	33306.273317
685.251889	33466.841629
685.589776	33445.182312
685.927614	33438.328863
686.265401	33595.799386
686.603137	33688.453273
686.940824	34209.002819
687.278460	34589.390644
687.616046	34718.688678
687.953582	35347.600347
688.291068	35189.169485
688.628504	35458.911545
688.965889	35387.289351
689.303224	34988.745811
689.640510	34644.306453
689.977745	33908.839916
690.314930	33103.140023
690.652065	32569.352407
690.989150	31827.765909
691.326185	30922.888876
691.663170	30212.799507
692.000105	29459.507449
692.336990	28768.682849
692.673825	28313.764085
693.010610	27807.004615
693.347345	27225.157159
693.684030	26571.639618
694.020665	26288.800641
694.357251	25618.581758
694.693786	25561.614198
695.030272	25335.372255
695.366707	24769.414516
695.703093	24497.363607
696.039429	24481.587316
696.375716	24233.350818
696.711952	24191.768861
697.048139	24032.990159
697.384276	23847.269010
697.720363	23975.468073
698.056400	23780.564462
698.392388	23557.271594
698.728326	23521.633157
699.064214	23305.481083
699.400053	23248.647114
699.735842	22874.734651
700.071581	22609.567438
700.407270	22312.870329
700.742910	22129.631948
701.078501	21852.582736
701.414042	21566.116648
701.749533	21266.964496
702.084974	20922.260478
702.420366	21125.585337
702.755709	20695.554749
703.091002	20386.786596
703.426246	20405.249822
703.761440	20301.641508
704.096584	20034.649397
704.431679	19998.413583
704.766725	19898.845754
705.101721	19844.179482
705.436668	19941.675397
705.771565	19601.689899
706.106413	19946.308217
706.441212	19937.516445
706.775961	20072.044677
707.110661	20135.177567
707.445311	20488.582616
707.779913	20335.628967
708.114465	20584.765311
708.448967	20871.606965
708.783421	21572.748286
709.117825	21844.025377
709.452180	22070.325294
709.786485	22467.041416
710.120742	23279.161218
710.454949	23287.905100
710.789107	23764.841103
711.123216	24465.589214
711.457275	24579.801596
711.791286	25133.126204
712.125247	25194.419073
712.459159	24877.675815
712.793023	25542.563678
713.126837	24422.958697
713.460602	24680.823798
713.794318	24295.740138
714.127985	23905.489296
714.461602	23002.122088
714.795171	22969.218477
715.128691	21952.594187
715.462162	21390.535780
715.795584	20972.321657
716.128957	20713.526462
716.462281	20308.570574
716.795556	20062.025383
717.128782	19582.772969
717.461960	19032.614206
717.795088	18958.393298
718.128167	18553.351710
718.461198	18093.182584
718.794180	17943.135160
719.127113	17586.715501
719.459997	17380.471815
719.792833	17027.316303
720.125619	16999.647930
720.458357	16674.112900
720.791046	16507.555697
721.123686	16356.285794
721.456278	16114.012981
721.788821	16061.395938
722.121315	15807.578883
722.453761	15881.603186
722.786158	15809.708770
723.118506	15814.029039
723.450805	15681.010633
723.783056	15838.657596
724.115259	15741.239819
724.447412	15671.321536
724.779518	15908.606127
725.111574	15933.441371
725.443582	16133.434026
725.775542	16112.760254
726.107453	16594.313955
726.439315	16471.410624
726.771129	16878.748458
727.102895	17242.891165
727.434612	17453.215665
727.766281	17582.987568
728.097901	17843.020366
728.429473	17870.850055
728.760996	17857.085185
729.092471	17947.992312
729.423897	17822.921285
729.755276	17680.145726
730.086606	17798.829611
730.417887	18331.346856
730.749120	18833.085337
731.080305	19014.347585
731.411442	19345.906794
731.742530	19419.265665
732.073570	19519.889616
732.404562	19811.444749
732.735506	19622.958527
733.066401	19331.920113
733.397249	18806.510894
733.728048	18165.069438
734.058798	17331.300400
734.389501	16642.267931
734.720156	16176.382137
735.050762	15657.526418
735.381320	15302.563652
735.711831	15062.332507
736.042293	14700.428072
736.372707	14713.746801
736.703073	14508.917158
737.033391	14693.042782
737.363661	14662.009439
737.693883	14762.948462
738.024056	14942.315237
738.354182	15128.497651
738.684260	15412.725467
739.014290	15626.780421
739.344272	15818.893753
739.674207	16108.923936
740.004093	16221.137500
740.333931	16209.951180
740.663722	16242.481746
740.993464	16233.223667
741.323159	16050.315482
741.652806	15776.285920
741.982405	15568.204734
742.311956	15223.745212
742.641460	15099.947076
742.970915	14786.480568
743.300323	14460.151557
743.629683	14244.738012
743.958996	13957.641779
744.288260	13699.799363
744.617477	13392.828382
744.946647	13321.322135
745.275768	13043.095813
745.604842	12866.400850
745.933869	12692.080271
746.262847	12644.673260
746.591778	12570.449832
746.920662	12470.665232
747.249498	12464.731794
747.578286	12588.139240
747.907027	12733.694996
748.235720	12953.136423
748.564365	12983.353099
748.892963	12878.071122
749.221514	12941.624948
749.550017	12790.357565
749.878473	12756.143254
750.206881	12531.554809
750.535242	12436.783637
750.863555	12356.077285
751.191821	12250.329001
751.520039	12266.962288
751.848210	12179.069770
752.176334	12205.918956
752.504411	12111.117537
752.832440	11963.338633
753.160421	12015.126406
753.488356	11900.636761
753.816243	11809.306177
754.144082	11661.683548
754.471875	11606.145156
754.799620	11550.095087
755.127318	11521.045438
755.454969	11477.096659
755.782572	11435.713827
756.110129	11446.154057
756.437638	11366.604649
756.765100	11358.642147
757.092515	11355.377999
757.419882	11375.330886
757.747203	11375.582944
758.074477	11446.973244
758.401703	11413.177349
758.728882	11578.118862
759.056014	11611.755961
759.383099	11720.009698
759.710138	11831.404075
760.037129	11910.436764
760.364073	11929.719178
760.690970	11913.161508
761.017820	11909.423492
761.344623	12102.930703
761.671379	12424.994899
761.998088	13062.899986
762.324751	14633.703360
762.651366	17520.010953
762.977935	21195.291891
763.304456	23426.735956
763.630931	23896.647112
763.957359	22703.050595
764.283740	20783.487595
764.610074	18887.005518
764.936362	16736.194709
765.262602	15216.009561
765.588796	13743.196136
765.914943	12706.976881
766.241044	11846.189779
766.567097	11216.675693
766.893104	10666.322845
767.219064	10308.915119
767.544978	9921.381459
767.870845	9607.491494
768.196665	9416.940920
768.522438	9220.126712
768.848165	9048.956853
769.173846	8885.295794
769.499479	8760.292822
769.825066	8612.662632
770.150607	8424.380577
770.476101	8361.363633
770.801548	8252.207529
771.126949	8113.762321
771.452303	8020.642127
771.777611	7855.534257
772.102872	7841.867688
772.428087	7716.829429
772.753256	7590.719924
773.078378	7499.331367
773.403453	7360.008998
773.728482	7253.101248
774.053465	7193.096394
774.378401	7105.339988
774.703291	7009.754670
775.028135	6915.205309
775.352932	6873.923300
775.677683	6791.326515
776.002388	6705.697476
776.327046	6708.167641
776.651658	6618.384691
776.976224	6536.836466
777.300743	6526.683582
777.625216	6461.546833
777.949643	6415.768115
778.274024	6416.262148
778.598359	6352.947777
778.922647	6348.960224
779.246889	6314.599719
779.571086	6322.804197
779.895236	6330.648232
780.219339	6328.876267
780.543397	6322.985679
780.867409	6372.056270
781.191374	6368.741712
781.515294	6340.425550
781.839167	6390.897583
782.162995	6359.186204
782.486776	6312.651313
782.810511	6270.766887
783.134201	6197.057656
783.457844	6185.967117
783.781441	6136.399972
784.104993	6087.493218
784.428498	6067.217697
784.751958	6048.862856
785.075372	6021.668352
785.398739	5981.717207
785.722061	6009.173852
786.045337	6006.839798
786.368568	6118.214009
786.691752	6139.805271
787.014891	6386.978086
787.337983	6667.102402
787.661030	7104.886284
787.984031	7537.684465
788.306987	7800.368910
788.629897	7885.839153
788.952760	7802.881925
789.275579	7623.648741
789.598351	7324.294944
789.921078	7056.723100
790.243759	6777.186078
790.566395	6572.595891
790.888984	6383.053547
791.211529	6235.453604
791.534027	6070.249951
791.856480	5932.119815
792.178888	5869.034816
792.501249	5805.556607
792.823566	5703.954672
793.145836	5700.776224
793.468062	5678.837122
793.790241	5634.038909
794.112375	5679.137071
794.434464	5778.581393
794.756507	5809.745806
795.078505	5930.249547
795.400457	6148.186190
795.722364	6394.615434
796.044226	6588.155412
796.366042	6741.260296
796.687812	6688.582758
797.009538	6712.581171
797.331218	6619.370237
797.652852	6554.026801
797.974442	6428.665907
798.295986	6359.677717
798.617484	6229.525207
798.938938	6123.018229
799.260346	6052.290841
799.581709	5912.464356
799.903026	5867.618252
800.224299	5790.279390
800.545526	5666.297252
800.866708	5604.341472
801.187845	5556.795829
801.508936	5480.490404
801.829983	5451.602072
802.150984	5341.609136
802.471940	5314.296164
802.792851	5305.113703
803.113717	5280.538078
803.434538	5251.674951
803.755314	5225.395416
804.076045	5209.815730
804.396731	5175.329197
804.717372	5193.600859
805.037967	5192.441394
805.358518	5220.666814
805.679024	5279.280310
805.999485	5289.629799
806.319901	5310.112007
806.640272	5328.063556
806.960598	5368.551583
807.280879	5362.363566
807.601115	5402.445781
807.921306	5366.678794
808.241453	5359.580849
808.561554	5371.525863
808.881611	5335.811809
809.201623	5329.769986
809.521590	5282.582266
809.841513	5269.949134
810.161390	5285.279283
810.481223	5190.961815
810.801011	5179.551163
811.120755	5151.156864
811.440453	5098.282722
811.760107	5068.325665
812.079716	5048.723139
812.399281	4993.537628
812.718801	4988.579653
813.038276	4952.963901
813.357707	4918.184980
813.677093	4942.075008
813.996434	4879.461357
814.315731	4897.788472
814.634983	4896.765118
814.954191	4905.554369
815.273354	4961.080158
815.592473	5004.119009
815.911547	5079.229681
816.230577	5132.945696
816.549562	5222.305189
816.868502	5275.527171
817.187399	5332.061191
817.506250	5409.357202
817.825058	5439.717552
818.143821	5593.434935
818.462539	5761.254947
818.781213	5995.305638
819.099843	6362.301638
819.418429	6998.916189
819.736970	7622.113710
820.055466	8339.991662
820.373919	9257.688349
820.692327	10724.953985
821.010691	13451.288122
821.329011	19721.699608
821.647286	29361.751914
821.965517	39763.210015
822.283704	45257.482934
822.601847	46758.005061
822.919945	42139.854434
823.237999	36967.212173
823.556010	31736.584038
823.873976	26996.906316
824.191897	22755.329881
824.509775	19673.238996
824.827609	16873.614043
825.145398	15306.193283
825.463144	14550.715885
825.780845	14847.183622
826.098502	16118.978518
826.416116	18601.492209
826.733685	20906.988303
827.051210	21429.067839
827.368692	19989.750361
827.686129	17405.107934
828.003522	14906.671758
828.320872	12661.606496
828.638177	10999.197795
828.955439	9743.579962
829.272656	8675.775358
829.589830	7822.749112
829.906960	7087.774087
830.224046	6550.563528
830.541088	6132.102388
830.858086	5877.478749
831.175041	5672.515516
831.491952	5614.519561
831.808819	5646.914016
832.125642	5901.088993
832.442421	6456.004085
832.759157	7577.875064
833.075849	9358.171148
833.392497	11223.924872
833.709101	12350.716018
834.025662	12084.885893
834.342179	11021.237720
834.658653	9714.921003
834.975083	8595.600847
835.291469	7682.421033
835.607811	6937.671211
835.924110	6411.311735
836.240366	5919.950470
836.556578	5462.793433
836.872746	5107.692036
837.188871	4834.932845
837.504952	4610.730048
837.820990	4442.128658
838.136984	4326.393848
838.452935	4278.949029
838.768842	4310.652845
839.084706	4592.796144
839.400526	5338.980174
839.716303	6254.098311
840.032037	6824.220044
840.347727	6670.497619
840.663373	6070.559982
840.978977	5484.941743
841.294537	5038.887848
841.610054	4703.147001
841.925527	4464.466011
842.240957	4254.164196
842.556344	4070.840116
842.871687	3909.981938
843.186987	3757.245058
843.502244	3637.477325
843.817458	3550.668656
844.132629	3478.814570
844.447756	3428.496293
844.762840	3385.250754
845.077881	3345.770958
845.392879	3312.247285
845.707833	3287.298614
846.022745	3263.988319
846.337613	3251.445928
846.652438	3224.785786
846.967221	3216.409909
847.281960	3196.915767
847.596656	3186.513346
847.911309	3175.851306
848.225919	3161.383194
848.540485	3150.232162
848.855009	3146.073210
849.169490	3132.273051
849.483928	3125.878348
849.798323	3119.660084
850.112675	3109.572736
850.426984	3107.488218
850.741251	3102.472270
851.055474	3097.307608
851.369654	3101.045624
851.683792	3098.139399
851.997887	3102.540326
852.311938	3102.053855
852.625947	3097.448761
852.939914	3094.411465
853.253837	3099.447578
853.567718	3099.006477
853.881555	3089.965168
854.195350	3097.557145
854.509103	3093.297370
854.822812	3090.905343
855.136479	3089.982812
855.450103	3090.917946
855.763685	3087.016093
856.077224	3090.633121
856.390720	3091.880806
856.704173	3106.059051
857.017584	3113.063735
857.330953	3117.273098
857.644278	3122.956999
857.957561	3123.604787
858.270802	3125.500261
858.584000	3127.393214
858.897155	3119.486165
859.210268	3109.081223
859.523339	3097.597475
859.836367	3097.544542
860.149352	3087.474838
860.462295	3083.749425
860.775195	3077.669793
861.088054	3074.236768
861.400869	3071.582600
861.713642	3069.697209
862.026373	3077.884042
862.339062	3081.652305
862.651708	3091.903491
862.964312	3108.027622
863.276873	3117.479785
863.589392	3146.468941
863.901869	3172.471212
864.214303	3195.395859
864.526696	3212.223231
864.839045	3232.644945
865.151353	3243.261615
865.463619	3245.288159
865.775842	3247.032398
866.088023	3249.805033
866.400162	3243.964856
866.712258	3245.094074
867.024313	3243.170874
867.336325	3240.620050
867.648296	3241.887901
867.960224	3239.551326
868.272110	3244.206831
868.583954	3246.177922
868.895755	3252.035743
869.207515	3254.495826
869.519233	3270.569545
869.830909	3275.235133
870.142542	3287.376752
870.454134	3292.488482
870.765684	3306.394505
871.077191	3321.853203
871.388657	3336.641428
871.700081	3355.893595
872.011463	3374.603837
872.322803	3394.269378
872.634101	3414.751587
872.945357	3435.868980
873.256571	3463.320583
873.567744	3474.895073
873.878874	3485.302535
874.189963	3502.127386
874.501010	3501.308198
874.812015	3499.553877
875.122979	3512.562574
875.433900	3512.076103
875.744780	3514.387472
876.055618	3523.212012
876.366415	3518.974922
876.677169	3524.991539
876.987882	3544.795712
877.298554	3563.884041
877.609183	3603.068930
877.919771	3651.645488
878.230317	3718.952454
878.540822	3826.165193
878.851285	3983.923062
879.161707	4208.246846
879.472087	4589.388324
879.782425	5227.817691
880.092722	6428.345794
880.402977	8395.711535
880.713191	10798.943000
881.023363	13212.702914
881.333494	14568.473350
881.643583	15033.421490
881.953631	14614.234424
882.263637	13777.932207
882.573602	12729.667114
882.883526	11750.599420
883.193408	10780.671338
883.503248	9848.057876
883.813048	9004.224175
884.122806	8236.159016
884.432522	7451.959644
884.742197	6782.118848
885.051831	6208.294387
885.361424	5706.419796
885.670975	5306.217715
885.980485	4980.775947
886.289954	4704.261096
886.599382	4487.362932
886.908768	4303.048265
887.218113	4134.225063
887.527417	4000.468128
887.836680	3876.266701
888.145901	3775.667955
888.455082	3694.722148
888.764221	3624.539204
889.073319	3566.528126
889.382376	3533.417827
889.691392	3509.774816
890.000366	3505.217613
890.309300	3497.975995
890.618193	3500.607478
890.927044	3496.151098
891.235855	3499.329545
891.544625	3521.482896
891.853353	3548.523645
892.162041	3607.570680
892.470687	3699.750699
892.779293	3820.798885
893.087858	3995.384125
893.396381	4279.395171
893.704864	4698.244479
894.013306	5275.449033
894.321707	5865.125401
894.630068	6228.222069
894.938387	6268.604232
895.246665	6087.188228
895.554903	5765.333240
895.863100	5424.526034
896.171256	5146.430783
896.479371	4897.917021
896.787446	4670.689532
897.095480	4473.371209
897.403473	4316.283814
897.711425	4170.024818
898.019336	4049.934451
898.327207	3926.524484
898.635038	3818.895849
898.942827	3707.771174
899.250576	3627.047178
899.558284	3537.299516
899.865952	3482.945795
900.173579	3416.649581
900.481165	3370.008826
900.788711	3325.724810
901.096216	3295.523257
901.403681	3268.590893
901.711105	3256.905498
902.018489	3250.162955
902.325832	3283.303500
902.633135	3344.445134
902.940397	3517.896115
903.247619	3930.244855
903.554800	4698.826732
903.861941	5684.142937
904.169041	6398.217338
904.476101	6616.935359
904.783121	6336.246434
905.090100	5923.116314
905.397039	5505.315566
905.703938	5138.155728
906.010796	4811.209175
906.317614	4551.030184
906.624391	4303.340652
906.931129	4105.379581
907.237826	3920.449893
907.544483	3745.594952
907.851099	3571.241605
908.157675	3407.835123
908.464211	3264.467229
908.770707	3161.352947
909.077163	3083.404106
909.383578	3019.015968
909.689954	2977.055924
909.996289	2945.899073
910.302584	2921.071390
910.608839	2912.009916
910.915054	2897.670354
911.221229	2892.387225
911.527363	2898.164387
911.833458	2905.355593
912.139513	2919.811102
912.445527	2928.890220
912.751502	2970.394040
913.057436	3013.505987
913.363331	3071.993454
913.669186	3157.715755
913.975000	3283.900877
914.280775	3472.923981
914.586510	3744.516145
914.892205	4125.735760
915.197859	4634.030262
915.503475	5234.242641
915.809050	5739.850208
916.114585	6033.870464
916.420081	6095.105360
916.725536	6038.936824
917.030952	5787.542043
917.336328	5579.508748
917.641665	5366.056212
917.946961	5129.036281
918.252218	4928.980611
918.557435	4695.509653
918.862612	4492.237727
919.167750	4316.810615
919.472848	4127.134681
919.777906	3955.324596
920.082925	3792.943989
920.387904	3629.335862
920.692843	3521.394676
920.997743	3417.289808
921.302603	3322.382525
921.607423	3257.434819
921.912204	3191.289839
922.216946	3139.696150
922.521647	3087.986515
922.826310	3046.039074
923.130932	3005.893845
923.435516	2967.636528
923.740059	2939.937909
924.044564	2908.874319
924.349028	2883.965978
924.653454	2852.415916
924.957840	2823.063798
925.262186	2809.039308
925.566493	2783.916718
925.870761	2760.593819
926.174989	2748.709299
926.479178	2732.204562
926.783328	2715.110009
927.087438	2705.093236
927.391509	2692.876000
927.695541	2677.455110
927.999533	2667.710560
928.303486	2658.966678
928.607400	2652.997952
928.911275	2648.163486
929.215110	2642.351035
929.518906	2639.250726
929.822663	2637.985396
930.126381	2637.267032
930.430060	2641.705768
930.733699	2642.817342
931.037299	2644.727939
931.340861	2646.179792
931.644383	2648.002169
931.947866	2647.291366
932.251309	2645.738691
932.554714	2643.742394
932.858080	2642.782054
933.161407	2640.596714
933.464694	2634.998512
933.767943	2633.579428
934.071153	2627.956021
934.374323	2623.524846
934.677455	2620.510236
934.980548	2619.386059
935.283602	2615.947992
935.586617	2612.101592
935.889593	2618.410596
936.192530	2621.117695
936.495428	2627.444343
936.798287	2634.867442
937.101108	2647.694658
937.403890	2670.226096
937.706632	2697.844057
938.009336	2733.885786
938.312002	2760.835795
938.614628	2785.174486
938.917216	2803.680561
939.219765	2814.541727
939.522275	2825.236535
939.824747	2826.484221
940.127179	2817.715134
940.429573	2810.526448
940.731929	2811.711119
941.034246	2801.848102
941.336524	2803.640232
941.638763	2793.318470
941.940964	2787.319497
942.243126	2767.306116
942.545250	2761.425610
942.847335	2746.851634
943.149381	2729.187431
943.451389	2716.670246
943.753359	2704.377392
944.055290	2695.704087
944.357182	2686.110771
944.659036	2679.834535
944.960851	2677.331602
945.262628	2671.723318
945.564367	2674.347239
945.866067	2672.000582
946.167729	2671.181394
946.469352	2671.955211
946.770937	2668.875066
947.072484	2660.892399
947.373992	2661.031031
947.675462	2657.477017
947.976893	2650.810092
948.278286	2646.315903
948.579641	2644.881695
948.880958	2644.032260
949.182236	2642.434214
949.483476	2635.931126
949.784678	2639.001189
950.085841	2637.657721
950.386967	2644.269194
950.688054	2646.928403
950.989103	2657.585402
951.290114	2664.101094
951.591087	2676.769513
951.892021	2688.422140
952.192917	2701.768595
952.493776	2711.054401
952.794596	2714.880636
953.095378	2720.204095
953.396122	2715.271326
953.696828	2713.885008
953.997496	2708.198587
954.298126	2696.205682
954.598718	2689.828622
954.899272	2680.280677
955.199788	2667.539161
955.500266	2656.776297
955.800706	2641.685603
956.101108	2620.479989
956.401472	2612.744339
956.701798	2596.035434
957.002087	2581.665625
957.302337	2572.064748
957.602550	2561.576627
957.902724	2550.123126
958.202861	2540.905376
958.502960	2531.980013
958.803022	2525.476925
959.103045	2515.455111
959.403031	2508.757938
959.702979	2506.809532
960.002889	2502.068327
960.302762	2495.867708
960.602596	2493.508448
960.902393	2486.700369
961.202153	2484.376397
961.501875	2481.311376
961.801559	2480.194760
962.101205	2477.623772
962.400814	2472.938019
962.700385	2471.692854
962.999918	2471.534058
963.299414	2468.070785
963.598873	2468.388378
963.898293	2464.552060
964.197677	2468.645477
964.497022	2463.208592
964.796331	2462.966617
965.095601	2462.880917
965.394835	2463.243880
965.694030	2459.132819
965.993189	2461.204734
966.292309	2461.434106
966.591393	2458.149794
966.890439	2456.776080
967.189447	2458.724486
967.488419	2458.255659
967.787353	2460.650207
968.086249	2457.963272
968.385108	2459.238684
968.683930	2461.774384
968.982714	2461.136678
969.281462	2463.740434
969.580172	2465.003243
969.878844	2468.882411
970.177480	2469.749489
970.476078	2471.995323
970.774639	2475.433390
971.073162	2478.889101
971.371649	2479.095789
971.670098	2480.043526
971.968510	2478.175778
972.266885	2478.909266
972.565223	2486.581902
972.863524	2487.905205
973.161788	2489.059629
973.460014	2488.381594
973.758204	2491.234887
974.056356	2490.254383
974.354471	2488.739516
974.652550	2490.345123
974.950591	2492.603560
975.248595	2492.679178
975.546563	2489.450319
975.844493	2484.789772
976.142386	2484.111737
976.440243	2482.649802
976.738062	2483.292549
977.035845	2478.619400
977.333590	2475.420788
977.631299	2473.628657
977.928971	2472.925416
978.226606	2470.898873
978.524204	2472.708647
978.821765	2466.500466
979.119290	2467.710343
979.416777	2467.438120
979.714228	2465.656072
980.011642	2470.165385
980.309020	2473.923565
980.606360	2480.288022
980.903664	2488.792448
981.200931	2497.228819
981.498162	2524.690505
981.795356	2551.033054
982.092513	2591.206009
982.389633	2632.903913
982.686717	2678.065090
982.983764	2712.206304
983.280775	2730.026783
983.577749	2729.056361
983.874686	2722.661657
984.171587	2702.325643
984.468451	2687.103879
984.765279	2667.566887
985.062070	2650.081645
985.358824	2630.441309
985.655543	2608.653442
985.952224	2584.899526
986.248869	2554.657644
986.545478	2526.409538
986.842050	2511.041581
987.138586	2489.430154
987.435086	2474.762917
987.731549	2462.593572
988.027975	2457.562500
988.324366	2452.796089
988.620719	2448.090172
988.917037	2443.457352
989.213318	2444.243772
989.509563	2438.534665
989.805772	2437.105498
990.101944	2436.505600
990.398080	2437.302103
990.694180	2433.107863
990.990244	2436.959304
991.286271	2435.578028
991.582262	2433.065013
991.878217	2437.413008
992.174136	2438.872422
992.470019	2437.105498
992.765865	2440.810746
993.061676	2439.880653
993.357450	2445.468772
993.653188	2447.525563
993.948890	2451.195523
994.244556	2460.035186
994.540186	2471.377782
994.835780	2478.707620
995.131337	2496.581031
995.426859	2511.417147
995.722345	2534.331711
996.017795	2550.090358
996.313208	2566.300188
996.608586	2579.064390
996.903928	2581.118660
997.199234	2581.484144
997.494504	2576.674883
997.789738	2569.859243
998.084936	2559.068653
998.380099	2547.637837
998.675225	2535.002185
998.970316	2520.004752
999.265371	2507.792557
999.560390	2492.517861
999.855373	2484.426809
1000.150320	2473.638740
1000.445232	2459.571400
1000.740108	2456.375308
1001.034948	2446.348453
1001.329752	2444.362239
1001.624521	2443.187650
1001.919254	2433.483429
1002.213951	2431.262800
1002.508613	2428.114600
1002.803239	2429.074940
1003.097829	2423.769125
1003.392384	2422.864238
1003.686903	2422.556728
1003.981386	2422.924732
1004.275834	2421.203178
1004.570246	2423.411203
1004.864623	2419.184196
1005.158964	2417.508012
1005.453270	2418.962385
1005.747540	2417.787796
1006.041775	2419.705955
1006.335974	2418.254103
1006.630138	2418.412899
1006.924266	2415.143711
1007.218359	2414.458114
1007.512416	2416.454411
1007.806438	2417.041705
1008.100425	2415.574730
1008.394376	2413.119688
1008.688292	2415.078176
1008.982172	2414.228742
1009.276017	2414.695048
1009.569827	2414.528690
1009.863602	2410.636919
1010.157341	2411.531724
1010.451045	2409.598442
1010.744714	2411.514080
1011.038347	2411.514080
1011.331945	2411.254461
1011.625508	2410.473082
1011.919036	2410.606672
1012.212528	2410.044584
1012.505986	2412.393762
1012.799408	2410.631878
1013.092795	2409.994172
1013.386147	2407.816394
1013.679464	2408.002917
1013.972745	2410.702454
1014.265992	2408.438976
1014.559204	2409.200191
1014.852380	2407.889491
1015.145521	2407.864285
1015.438628	2410.906621
1015.731699	2409.996693
1016.024736	2410.271436
1016.317737	2409.391754
1016.610703	2412.618093
1016.903635	2408.406209
1017.196531	2407.372772
1017.489393	2409.931158
1017.782219	2407.879408
1018.075011	2411.428381
1018.367768	2414.359812
1018.660490	2412.217321
1018.953177	2412.217321
1019.245829	2412.217321
