Dividing Wavelength (nm)	Counts (n)	Blue Motor Position (mm): 25.000000	Red Motor Position (mm): 0.000000	
326.493990	1968.888170
326.888308	1968.888170
327.282561	1968.888170
327.676750	1946.268512
328.070874	1945.363625
328.464933	1953.474842
328.858929	1962.183435
329.252859	1977.251444
329.646726	1991.127220
330.040528	2004.602224
330.434265	2025.873373
330.827938	2042.191588
331.221547	2064.861657
331.615091	2086.100038
332.008571	2103.204673
332.401986	2125.393311
332.795338	2145.583133
333.188625	2165.253715
333.581847	2184.664678
333.975006	2202.832996
334.368100	2222.465770
334.761129	2237.488408
335.154095	2254.678743
335.546996	2288.232663
335.939833	2359.602798
336.332606	2375.094264
336.725315	2384.851418
337.117960	2396.435989
337.510540	2402.734911
337.903056	2412.522311
338.295508	2416.527508
338.687896	2424.968920
339.080220	2432.704570
339.472480	2434.123655
339.864676	2442.986004
340.256807	2443.114553
340.648875	2444.939451
341.040879	2449.216870
341.432818	2449.025306
341.824694	2450.129319
342.216506	2446.197219
342.608253	2450.971191
342.999937	2447.349122
343.391557	2444.977259
343.783113	2443.807712
344.174605	2443.795109
344.566033	2440.248657
344.957397	2443.142279
345.348697	2438.038111
345.739934	2437.113059
346.131106	2437.856630
346.522215	2432.502924
346.913260	2433.342276
347.304241	2432.772626
347.695159	2426.803900
348.086012	2428.860691
348.476802	2424.623601
348.867528	2427.673499
349.258191	2422.271903
349.648789	2424.144691
350.039324	2420.079001
350.429796	2421.898857
350.820203	2419.476583
351.210548	2418.110430
351.600828	2419.695873
351.991045	2419.864752
352.381198	2418.705286
352.771288	2418.594381
353.161314	2414.596746
353.551276	2418.105389
353.941175	2415.700758
354.331010	2416.033475
354.720782	2416.283012
355.110490	2420.192427
355.500135	2417.671850
355.889717	2418.803589
356.279235	2417.951634
356.668689	2419.658064
357.058080	2416.454411
357.447408	2418.228897
357.836672	2413.235634
358.225873	2415.766293
358.615010	2416.071283
359.004084	2420.399114
359.393095	2422.158477
359.782043	2420.527663
360.170927	2424.159815
360.559748	2422.985226
360.948505	2420.409196
361.337199	2426.456060
361.725830	2425.858683
362.114398	2425.057140
362.502903	2427.693663
362.891344	2428.636359
363.279722	2424.001018
363.668037	2427.139137
364.056289	2425.364650
364.444478	2426.967737
364.832603	2428.956473
365.220665	2428.989240
365.608665	2430.098294
365.996601	2430.557039
366.384474	2431.091401
366.772284	2431.900506
367.160031	2429.029569
367.547715	2432.296237
367.935336	2430.420928
368.322893	2430.632656
368.710388	2431.797163
369.097820	2434.010229
369.485189	2435.333532
369.872495	2436.482915
370.259738	2433.969900
370.646918	2435.215065
371.034035	2432.480239
371.421090	2434.942843
371.808081	2434.133737
372.195010	2435.089036
372.581875	2437.559202
372.968678	2438.640529
373.355418	2436.608944
373.742096	2439.580704
374.128710	2434.040476
374.515262	2440.697320
374.901751	2437.851588
375.288177	2437.637339
375.674540	2437.019798
376.060841	2438.234716
376.447079	2438.025508
376.833254	2438.184305
377.219367	2437.009716
377.605417	2441.123297
377.991404	2437.057607
378.377329	2438.912751
378.763191	2434.474015
379.148991	2440.233534
379.534727	2442.086158
379.920402	2443.991714
380.306013	2443.575819
380.691563	2444.236210
381.077049	2441.607248
381.462474	2442.600355
381.847835	2443.374172
382.233134	2448.044802
382.618371	2444.699996
383.003545	2446.688731
383.388657	2447.137394
383.773706	2444.906683
384.158693	2446.706375
384.543618	2446.507250
384.928480	2445.967846
385.313280	2448.024637
385.698017	2445.902311
386.082692	2448.243927
386.467305	2446.766869
386.851856	2451.248455
387.236344	2449.007662
387.620770	2453.085955
388.005133	2450.255347
388.389435	2447.933896
388.773674	2451.200564
389.157851	2452.160904
389.541965	2450.207457
389.926018	2450.532611
390.310008	2452.692745
390.693936	2453.252313
391.077802	2449.645368
391.461606	2452.538990
391.845348	2452.395317
392.229027	2453.711058
392.612645	2453.027982
392.996200	2455.152828
393.379694	2454.857921
393.763125	2454.686522
394.146494	2457.214660
394.529801	2455.442695
394.913047	2457.832202
395.296230	2455.724999
395.679351	2455.372119
396.062410	2458.074177
396.445408	2455.420010
396.828343	2457.083590
397.211217	2454.704166
397.594028	2453.947993
397.976778	2453.232149
398.359466	2457.257510
398.742092	2452.181068
399.124656	2458.369085
399.507158	2463.001905
399.889598	2459.868828
400.271977	2461.056020
400.654294	2462.303705
401.036549	2459.664661
401.418742	2463.591720
401.800874	2461.481997
402.182944	2461.509723
402.564952	2463.894189
402.946898	2460.148612
403.328783	2465.335959
403.710606	2461.577779
404.092367	2460.440999
404.474067	2464.912502
404.855705	2466.044241
405.237282	2464.118521
405.618797	2465.560291
406.000250	2467.856536
406.381642	2465.351083
406.762972	2467.531382
407.144240	2465.761937
407.525447	2468.678244
407.906593	2468.025415
408.287677	2466.631536
408.668700	2466.903758
409.049661	2470.016671
409.430560	2465.973665
409.811399	2470.997175
410.192176	2471.985241
410.572891	2472.191928
410.953545	2472.348204
411.334138	2471.070272
411.714669	2472.882567
412.095139	2473.031281
412.475547	2472.499439
412.855894	2473.553040
413.236180	2472.060858
413.616405	2473.802577
413.996568	2471.720581
414.376670	2475.229224
414.756711	2472.164202
415.136691	2474.470530
415.516609	2472.254943
415.896466	2473.391723
416.276262	2475.675366
416.655997	2473.994141
417.035670	2473.835345
417.415283	2479.108392
417.794834	2474.321816
418.174324	2478.543782
418.553753	2477.921200
418.933121	2479.368011
419.312428	2477.903556
419.691674	2477.880871
420.070859	2478.851293
420.449983	2483.758856
420.829045	2479.317599
421.208047	2482.274236
421.586988	2480.769452
421.965867	2482.624596
422.344686	2482.947230
422.723444	2487.101141
423.102141	2484.562920
423.480777	2482.841366
423.859352	2483.927735
424.237866	2485.503095
424.616319	2486.433188
424.994712	2485.193064
425.373044	2487.083497
425.751314	2488.409320
426.129524	2487.123826
426.507673	2487.874958
426.885762	2490.272027
427.263789	2491.106338
427.641756	2490.551811
428.019662	2490.319918
428.397508	2490.705566
428.775292	2490.251862
429.153016	2491.519712
429.530679	2489.694815
429.908282	2493.268993
430.285824	2493.389980
430.663305	2493.906699
431.040726	2493.132882
431.418086	2496.906185
431.795385	2495.587923
432.172624	2496.442399
432.549802	2496.366782
432.926920	2494.360402
433.303977	2498.239570
433.680974	2499.875425
434.057910	2498.259735
434.434786	2499.807369
434.811601	2502.953049
435.188355	2505.637464
435.565050	2501.365086
435.941683	2503.900786
436.318257	2501.392812
436.694770	2502.088491
437.071222	2502.743841
437.447614	2502.257370
437.823946	2503.298368
438.200218	2510.920593
438.576429	2506.829697
438.952580	2508.536127
439.328670	2509.567043
439.704700	2513.607528
440.080670	2512.468227
440.456580	2512.009482
440.832429	2512.858917
441.208218	2513.985614
441.583947	2517.085924
441.959616	2515.944103
442.335224	2520.604649
442.710773	2518.958713
443.086261	2522.868127
443.461689	2524.078004
443.837057	2523.319311
444.212365	2525.789476
444.587612	2528.718387
444.962800	2527.944569
445.337927	2532.965559
445.712995	2530.313912
446.088002	2537.449665
446.462949	2535.997813
446.837837	2538.432690
447.212664	2539.324974
447.587431	2551.758980
447.962139	2561.881617
448.336786	2572.102557
448.711374	2571.711867
449.085901	2564.961762
449.460369	2563.527554
449.834776	2569.723132
450.209124	2582.205029
450.583412	2589.272727
450.957640	2591.553849
451.331808	2594.245825
451.705917	2589.791965
452.079965	2597.474684
452.453954	2607.131014
452.827883	2615.045626
453.201752	2618.886985
453.575562	2625.576596
453.949311	2643.588639
454.323001	2654.134733
454.696632	2661.908192
455.070202	2688.298632
455.443713	2698.882535
455.817164	2720.113354
456.190556	2741.487846
456.563888	2754.854466
456.937160	2771.364245
457.310373	2775.775254
457.683526	2800.270221
458.056619	2822.307625
458.429653	2844.927282
458.802628	2878.876933
459.175542	2909.993455
459.548398	2964.422793
459.921194	3031.018956
460.293930	3092.503389
460.666607	3182.868592
461.039224	3269.538629
461.411782	3325.036692
461.784280	3337.813497
462.156719	3370.838095
462.529099	3404.235740
462.901419	3418.063625
463.273680	3439.342335
463.645882	3499.274092
464.018024	3566.026531
464.390106	3667.081501
464.762130	3869.509034
465.134094	4168.250331
465.505999	4546.110018
465.877845	4899.240324
466.249631	5060.146393
466.621358	5059.032298
466.993026	5028.051887
467.364634	5021.211042
467.736184	5016.452192
468.107674	5060.153955
468.479105	5129.449656
468.850477	5196.796951
469.221790	5212.364034
469.593043	5198.004307
469.964238	5246.001133
470.335373	5357.675293
470.706449	5635.301718
471.077467	6035.163520
471.448425	6651.943652
471.819324	7109.531707
472.190164	7066.981848
472.560945	6831.817063
472.931667	6630.894314
473.302330	6654.406256
473.672934	6708.901129
474.043479	6925.093532
474.413965	6978.020607
474.784393	7081.898623
475.154761	7365.886983
475.525070	7535.796553
475.895321	7632.112839
476.265513	7892.536326
476.635645	8215.326448
477.005719	8375.526755
477.375734	8631.672823
477.745691	8948.048077
478.115588	9374.481801
478.485427	9963.638931
478.855207	10861.188647
479.224928	11670.538335
479.594591	12262.826021
479.964194	12275.905295
480.333739	12566.048904
480.703226	12852.578007
481.072653	13308.273108
481.442022	13730.900762
481.811333	14078.936982
482.180584	14030.108366
482.549777	14167.590714
482.918912	14314.550431
483.287988	14525.126988
483.657005	14568.730449
484.025964	14660.418955
484.394864	14955.147494
484.763706	15108.723725
485.132489	15129.400018
485.501213	15369.880700
485.869879	15711.623040
486.238487	15874.497680
486.607036	16230.219139
486.975527	16337.953638
487.343959	16707.747478
487.712333	17043.780711
488.080648	17319.950243
488.448905	17790.655380
488.817104	18047.479483
489.185244	18737.807529
489.553326	19768.463871
489.921350	21290.791510
490.289315	22999.898939
490.657222	23693.065155
491.025070	24223.550815
491.392861	24117.411842
491.760593	23842.525284
492.128267	23361.019475
492.495883	22958.785809
492.863440	22622.329119
493.230939	22313.732366
493.598380	22092.219025
493.965763	22261.667329
494.333088	22169.325993
494.700354	22231.937124
495.067563	22400.263772
495.434713	22633.921252
495.801805	22979.197441
496.168839	23055.863309
496.535815	23190.570501
496.902733	23498.128777
497.269593	23563.656215
497.636395	23820.750020
498.003139	24339.814947
498.369825	24309.081552
498.736453	24772.086327
499.103023	24786.861949
499.469535	24982.163811
499.835989	25328.652397
500.202385	25382.582661
500.568723	25665.847616
500.935003	26078.952530
501.301226	26225.763533
501.667390	26875.119601
502.033497	27316.583525
502.399546	27197.929887
502.765537	27010.030960
503.131470	27538.790025
503.497345	28027.416464
503.863163	27377.155509
504.228923	28050.222644
504.594625	28591.231713
504.960269	28335.176386
505.325856	29058.912159
505.691385	28844.574900
506.056856	29189.188177
506.422270	29767.731157
506.787625	29676.738330
507.152924	30049.604754
507.518164	30349.029128
507.883347	29981.720576
508.248472	30398.392106
508.613540	30971.929220
508.978550	31433.852668
509.343503	31443.443463
509.708398	31803.979224
510.073236	32451.311269
510.438016	32658.207785
510.802738	32412.380958
511.167403	33109.297792
511.532010	33509.930892
511.896561	33942.519865
512.261053	34834.264692
512.625488	34657.431097
512.989866	34724.793516
513.354186	34789.491684
513.718449	34948.771981
514.082655	35707.022013
514.446803	35594.490857
514.810894	36206.842335
515.174927	36312.230177
515.538904	36384.137195
515.902822	37112.478062
516.266684	36791.727087
516.630488	37326.911102
516.994235	37332.106011
517.357925	37975.702561
517.721558	38273.370093
518.085133	38693.761994
518.448651	38956.229669
518.812112	38877.595231
519.175516	39107.542423
519.538863	39523.382162
519.902152	39597.852608
520.265385	40152.024129
520.628560	40306.517851
520.991678	40225.602290
521.354739	40537.155680
521.717743	40935.074118
522.080690	40946.096601
522.443580	41555.448593
522.806413	41712.704866
523.169189	41739.793506
523.531908	42013.893644
523.894569	41962.315078
524.257174	42206.382542
524.619722	42558.789443
524.982213	42638.618634
525.344647	42641.633244
525.707025	42770.971608
526.069345	43208.077455
526.431608	43188.222871
526.793815	43558.732555
527.155964	43188.187582
527.518057	43406.131787
527.880093	43252.018672
528.242072	43823.577134
528.603995	43588.858490
528.965860	43645.664732
529.327669	43794.572855
529.689421	43731.208072
530.051117	43752.504426
530.412755	43930.056385
530.774337	44037.430442
531.135862	43897.750151
531.497331	44118.648471
531.858743	44066.588476
532.220098	44438.406339
532.581396	44194.875759
532.942638	43882.636772
533.303824	44219.385849
533.664953	44223.138988
534.026025	43982.665867
534.387040	44455.815964
534.747999	44416.547896
535.108902	44603.138644
535.469748	44162.831664
535.830537	44310.532431
536.191270	44516.385427
536.551947	44177.834138
536.912567	44502.885218
537.273131	44637.942770
537.633638	44158.276982
537.994089	44520.372980
538.354483	44146.289118
538.714821	44725.517695
539.075103	45075.189770
539.435328	44871.081012
539.795497	44762.623108
540.155609	44769.426145
540.515665	45226.237862
540.875665	44711.087392
541.235609	45029.660589
541.595496	45027.523139
541.955328	45681.522110
542.315102	45091.210557
542.674821	44889.695473
543.034483	44941.561384
543.394090	44898.378860
543.753640	44878.317588
544.113134	45871.808024
544.472571	44918.470379
544.831953	46136.430792
545.191278	45384.530093
545.550548	45130.473583
545.909761	45571.798876
546.268918	45781.299148
546.628019	46078.142451
546.987064	45670.744123
547.346053	44968.024921
547.704986	45816.569581
548.063863	45406.940543
548.422684	45619.072296
548.781449	45475.033928
549.140158	45862.759153
549.498811	45715.862450
549.857408	45179.181212
550.215949	45992.858731
550.574434	45931.901098
550.932864	45721.314458
551.291237	46426.972653
551.649555	46027.171344
552.007817	46285.749769
552.366022	45927.762311
552.724173	46117.899511
553.082267	46499.058632
553.440305	46808.330900
553.798288	46145.353634
554.156215	46451.404605
554.514086	46664.814291
554.871902	46408.698470
555.229661	46430.196471
555.587365	46258.300686
555.945014	46363.093672
556.302606	46297.903991
556.660143	46519.659308
557.017625	46611.408308
557.375050	46413.359017
557.732421	46761.342305
558.089735	46749.520799
558.446994	46671.955086
558.804197	47110.275851
559.161345	47068.804799
559.518437	46344.333018
559.875474	46641.836712
560.232455	46811.176632
560.589381	46976.095459
560.946251	46680.860284
561.303065	47359.659211
561.659825	47159.837955
562.016528	46853.088785
562.373177	46557.062148
562.729770	47065.704489
563.086307	46577.877073
563.442789	47035.951599
563.799216	47064.330775
564.155587	46883.035759
564.511904	46917.403825
564.868164	46994.611617
565.224370	47241.043382
565.580520	46968.395097
565.936615	47197.903708
566.292654	46918.427180
566.648638	47153.012233
567.004567	47112.539329
567.360441	47153.871749
567.716260	47018.342849
568.072023	47319.244281
568.427732	47286.885114
568.783385	46834.093717
569.138982	47252.771626
569.494525	47216.644197
569.850013	46965.831670
570.205445	46954.461347
570.560823	46904.372443
570.916145	46783.656973
571.271412	46812.593196
571.626625	46577.667865
571.981782	46643.838050
572.336884	46337.222470
572.691931	46659.468148
573.046923	46250.454130
573.401860	46103.877541
573.756743	46088.610407
574.111570	46204.188941
574.466342	46051.142031
574.821059	46197.060749
575.175722	45699.670264
575.530330	45726.108595
575.884882	45455.658253
576.239380	45414.734166
576.593823	45411.096974
576.948211	45311.972766
577.302544	44857.207757
577.656823	44880.820521
578.011047	45114.798115
578.365216	44831.941494
578.719330	44638.265404
579.073389	44482.828987
579.427394	44566.252521
579.781344	44552.590994
580.135239	44211.866968
580.489080	44296.293692
580.842866	43786.864931
581.196597	44243.943830
581.550273	44202.220720
581.903895	44047.744643
582.257463	44485.934338
582.610975	43866.744534
582.964434	44152.633410
583.317837	43814.785362
583.671186	43648.023992
584.024481	43881.086617
584.377721	43411.760235
584.730906	43703.126324
585.084037	43734.242847
585.437113	43462.864932
585.790135	43500.454296
586.143103	43080.843773
586.496016	43227.319539
586.848874	43236.761620
587.201679	43264.477884
587.554428	42741.085127
587.907124	42936.787761
588.259765	42695.276162
588.612352	42963.863798
588.964884	42357.710418
589.317362	42647.884275
589.669786	42584.632918
590.022155	42369.587377
590.374470	42787.183959
590.726731	42316.940087
591.078937	41841.249248
591.431090	41940.106275
591.783188	41600.261930
592.135232	41272.793617
592.487222	41523.749817
592.839157	41628.487350
593.191038	41306.889461
593.542866	41063.326113
593.894639	40466.803858
594.246358	40749.831879
594.598022	40726.181305
594.949633	40342.015135
595.301190	40292.944544
595.652692	40151.091516
596.004141	40474.708387
596.355535	39492.726906
596.706876	39445.148496
597.058162	39277.888052
597.409395	39738.347045
597.760573	39824.974232
598.111698	39384.344619
598.462768	39410.992158
598.813785	39448.173188
599.164748	38916.616283
599.515657	39311.928444
599.866511	38800.198396
600.217312	39401.111496
600.568060	38375.012357
600.918753	39120.929207
601.269392	39080.925130
601.619978	38736.906710
601.970510	38942.731980
602.320988	39132.972523
602.671412	39415.940050
603.021783	39168.295888
603.372100	38824.874844
603.722363	38938.517575
604.072572	39002.227678
604.422728	39023.118219
604.772830	38836.388840
605.122878	38933.945249
605.472872	38871.550888
605.822813	39152.905246
606.172701	38984.949123
606.522534	39216.224658
606.872314	39482.397582
607.222041	39234.755940
607.571714	39613.034042
607.921333	39071.286444
608.270899	39379.389164
608.620411	39705.501407
608.969870	39494.695476
609.319276	39491.693469
609.668627	39559.312986
610.017926	40028.105006
610.367171	40185.205004
610.716362	40277.884097
611.065500	40219.426877
611.414585	40423.404564
611.763616	40699.395134
612.112594	40634.291153
612.461518	40859.323220
612.810389	41138.996353
613.159207	41012.891889
613.507971	41086.888466
613.856682	41551.995402
614.205340	41439.010542
614.553945	42125.068730
614.902496	41567.471744
615.250994	42044.478324
615.599439	42108.395114
615.947830	42327.198835
616.296169	42379.778069
616.644454	42516.726055
616.992686	42683.144626
617.340864	43192.948952
617.688990	42929.009260
618.037063	43523.305846
618.385082	43505.117363
618.733048	43789.907267
619.080961	43787.981547
619.428821	43804.133403
619.776628	43900.704267
620.124382	43722.769180
620.472083	43849.622255
620.819731	43968.530472
621.167326	43645.198426
621.514868	43645.223631
621.862357	43190.866956
622.209793	43235.486208
622.557176	42888.120462
622.904506	42661.807942
623.251783	42305.058087
623.599007	42074.931935
623.946179	41869.134391
624.293297	41823.179232
624.640363	41222.795453
624.987376	41219.269166
625.334336	40980.202527
625.681243	40625.098609
626.028097	40582.100087
626.374899	40458.032250
626.721647	40421.216703
627.068343	40324.305562
627.414987	40076.903375
627.761577	39864.905212
628.108115	40198.017096
628.454600	39656.098099
628.801032	39824.346609
629.147412	39792.186568
629.493739	39813.722377
629.840014	39457.900094
630.186236	39804.111417
630.532405	39427.353223
630.878521	39636.089759
631.224585	39506.544708
631.570597	39220.129032
631.916556	39382.376048
632.262462	39331.162966
632.608316	39362.569355
632.954117	39251.265719
633.299866	39229.056916
633.645562	39150.793002
633.991206	38668.949435
634.336797	38237.653518
634.682336	38252.053574
635.027823	37985.121957
635.373257	37814.763725
635.718639	37557.737975
636.063968	37404.761641
636.409245	36861.816769
636.754470	36911.704028
637.099642	36672.526483
637.444762	36206.454166
637.789829	36344.422985
638.134845	36016.937028
638.479808	35958.041228
638.824719	35868.442280
639.169577	35478.428372
639.514383	35539.582609
639.859137	35244.183597
640.203839	35483.645966
640.548489	35112.932115
640.893086	35178.338566
641.237632	34932.194147
641.582125	35054.008588
641.926566	34984.896890
642.270955	34955.101150
642.615292	34966.305114
642.959576	34947.907423
643.303809	34939.851659
643.647990	35097.453252
643.992118	35052.728135
644.336195	35056.289710
644.680219	35147.153988
645.024192	35441.300274
645.368112	35957.446372
645.711981	35970.732333
646.055797	36826.747982
646.399562	36764.605679
646.743274	37695.628656
647.086935	38139.734146
647.430544	38019.139663
647.774101	38154.965992
648.117606	38383.605004
648.461059	38685.015592
648.804460	38301.028383
649.147810	37694.111269
649.491108	37445.436191
649.834354	37079.692918
650.177548	36269.471110
650.520690	35813.418086
650.863781	35830.883163
651.206820	35667.234707
651.549807	35245.191827
651.892742	34764.918580
652.235626	34575.575362
652.578458	34443.527378
652.921238	33850.168447
653.263967	34171.723486
653.606644	33862.637741
653.949269	33812.531192
654.291843	33426.131791
654.634365	33825.156762
654.976836	33414.963115
655.319255	33419.817746
655.661622	33422.814712
656.003938	33190.634289
656.346203	33056.877354
656.688416	33272.487504
657.030577	33085.022116
657.372687	32909.640374
657.714746	33190.256203
658.056753	33294.124137
658.398708	32759.751747
658.740612	32793.502272
659.082465	33074.816300
659.424266	32909.910076
659.766016	33025.720503
660.107715	32912.402926
660.449362	33024.409803
660.790958	33015.126518
661.132503	33051.652198
661.473996	33071.915116
661.815438	33173.575025
662.156829	33367.014180
662.498168	33149.329595
662.839456	33190.515822
663.180693	33327.423478
663.521879	33485.473734
663.863013	33439.079995
664.204097	33417.743311
664.545129	33891.556320
664.886110	33870.917836
665.227040	33934.471663
665.567918	34040.159453
665.908746	34102.972230
666.249522	34284.967966
666.590248	34266.635810
666.930922	34381.992534
667.271545	34348.151268
667.612118	34422.200777
667.952639	34222.145107
668.293109	34274.247952
668.633528	34164.340716
668.973896	34075.394598
669.314213	34119.713902
669.654480	33855.479303
669.994695	33882.237747
670.334859	33780.794608
670.674973	33679.366593
671.015035	33835.095397
671.355047	33787.138900
671.695008	33734.305087
672.034918	33640.363186
672.374777	33713.500246
672.714585	33549.937488
673.054342	33797.135508
673.394049	33547.306006
673.733705	33804.994667
674.073310	33491.407172
674.412864	33558.353695
674.752368	33164.437933
675.091820	33455.637665
675.431223	33036.866494
675.770574	32755.038268
676.109875	32628.026397
676.449125	32348.224714
676.788324	32282.115022
677.127473	31741.221900
677.466571	31665.402946
677.805619	31324.734372
678.144616	31327.751503
678.483562	31244.282598
678.822458	30920.196899
679.161303	30854.185510
679.500098	30753.294378
679.838842	30645.827060
680.177535	30803.700875
680.516179	31088.435327
680.854771	31313.674081
681.193314	32180.175330
681.531805	33295.185299
681.870247	34067.590892
682.208638	34803.806041
682.546978	35034.489241
682.885268	35120.932426
683.223508	34591.351653
683.561697	34249.468161
683.899836	34061.735592
684.237925	33565.300405
684.575963	33411.472116
684.913951	32944.381486
685.251889	33120.078300
685.589776	33100.211113
685.927614	33089.138218
686.265401	33240.098091
686.603137	33336.157277
686.940824	33851.902604
687.278460	34231.274637
687.616046	34367.055595
687.953582	34969.360053
688.291068	34846.129048
688.628504	35113.872290
688.965889	35045.864604
689.303224	34658.598125
689.640510	34317.077596
689.977745	33584.751697
690.314930	32796.267344
690.652065	32263.611467
690.989150	31511.357887
691.326185	30619.429058
691.663170	29902.536652
692.000105	29161.935699
692.336990	28490.799326
692.673825	28035.522640
693.010610	27518.731274
693.347345	26939.658973
693.684030	26297.148792
694.020665	26025.566710
694.357251	25344.892474
694.693786	25306.194057
695.030272	25070.971298
695.366707	24538.007910
695.703093	24253.031483
696.039429	24231.959460
696.375716	23968.851558
696.711952	23938.967598
697.048139	23785.827427
697.384276	23616.323670
697.720363	23731.940013
698.056400	23531.443242
698.392388	23314.356034
698.728326	23275.680302
699.064214	23076.229570
699.400053	23013.540302
699.735842	22657.544099
700.071581	22373.424669
700.407270	22102.238318
700.742910	21908.005181
701.078501	21631.966720
701.414042	21350.783761
701.749533	21056.650078
702.084974	20711.338602
702.420366	20911.389230
702.755709	20479.170782
703.091002	20187.688746
703.426246	20197.758451
703.761440	20092.148798
704.096584	19835.564150
704.431679	19781.195305
704.766725	19693.297747
705.101721	19634.590990
705.436668	19729.480629
705.771565	19408.449869
706.106413	19752.001983
706.441212	19735.671166
706.775961	19854.251707
707.110661	19927.837430
707.445311	20281.068559
707.779913	20127.620877
708.114465	20369.528206
708.448967	20669.189514
708.783421	21349.241168
709.117825	21627.306173
709.452180	21847.082837
709.786485	22247.340370
710.120742	23050.101270
710.454949	23059.724833
710.789107	23528.935268
711.123216	24242.739968
711.457275	24348.450443
711.791286	24896.794391
712.125247	24958.349400
712.459159	24660.122300
712.793023	25315.497506
713.126837	24208.777714
713.460602	24462.619975
713.794318	24081.284413
714.127985	23686.408311
714.461602	22802.091624
714.795171	22758.531014
715.128691	21729.422306
715.462162	21207.494004
715.795584	20788.818616
716.128957	20521.728202
716.462281	20117.223497
716.795556	19890.389218
717.128782	19397.893693
717.461960	18844.634620
717.795088	18761.493391
718.128167	18362.985138
718.461198	17905.792813
718.794180	17762.475330
719.127113	17394.100574
719.459997	17211.893110
719.792833	16860.983432
720.125619	16836.112899
720.458357	16511.661717
720.791046	16352.293200
721.123686	16186.603076
721.456278	15952.988445
721.788821	15920.561223
722.121315	15657.486089
722.453761	15734.126751
722.786158	15652.334030
723.118506	15661.884496
723.450805	15529.667633
723.783056	15691.332396
724.115259	15587.121663
724.447412	15520.054153
724.779518	15765.966678
725.111574	15788.021727
725.443582	15977.765716
725.775542	15966.355064
726.107453	16425.110147
726.439315	16314.020760
726.771129	16716.350207
727.102895	17090.355932
727.434612	17286.789533
727.766281	17413.466167
728.097901	17670.663316
728.429473	17712.020942
728.760996	17688.509000
729.092471	17777.087114
729.423897	17644.645921
729.755276	17519.350562
730.086606	17632.350546
730.417887	18154.674579
730.749120	18676.255041
731.080305	18848.672585
731.411442	19166.887859
731.742530	19240.390403
732.073570	19332.391461
732.404562	19629.406163
732.735506	19441.229972
733.066401	19158.701026
733.397249	18635.449421
733.728048	18006.084048
734.058798	17170.913570
734.389501	16490.304869
734.720156	16031.315373
735.050762	15512.588204
735.381320	15156.208874
735.711831	14915.781123
736.042293	14569.582404
736.372707	14585.404065
736.703073	14372.974883
737.033391	14559.011104
737.363661	14529.069171
737.693883	14626.161794
738.024056	14800.207630
738.354182	14977.063910
738.684260	15267.099135
739.014290	15493.003321
739.344272	15679.848647
739.674207	15955.204032
740.004093	16065.970785
740.333931	16047.497477
740.663722	16099.814571
740.993464	16085.187663
741.323159	15918.002837
741.652806	15636.678726
741.982405	15421.784420
742.311956	15087.142546
742.641460	14969.197190
742.970915	14664.194779
743.300323	14334.452906
743.629683	14117.564823
743.958996	13844.364532
744.288260	13570.851689
744.617477	13269.577212
744.946647	13196.208258
745.275768	12931.343515
745.604842	12746.025658
745.933869	12575.526273
746.262847	12522.982327
746.591778	12452.610340
746.920662	12358.204652
747.249498	12355.212727
747.578286	12474.564565
747.907027	12615.059002
748.235720	12841.497550
748.564365	12866.973021
748.892963	12762.311106
749.221514	12823.140189
749.550017	12678.575020
749.878473	12642.031696
750.206881	12420.551122
750.535242	12328.721463
750.863555	12240.531518
751.191821	12146.098104
751.520039	12164.195846
751.848210	12071.940210
752.176334	12103.149993
752.504411	12013.672033
752.832440	11860.804084
753.160421	11917.070923
753.488356	11790.772375
753.816243	11702.837008
754.144082	11560.552961
754.471875	11504.956596
754.799620	11457.922630
755.127318	11425.450038
755.454969	11389.181457
755.782572	11335.856131
756.110129	11345.520023
756.437638	11265.307704
756.765100	11260.969791
757.092515	11264.733012
757.419882	11277.547625
757.747203	11280.048037
758.074477	11356.199708
758.401703	11314.307719
758.728882	11476.300157
759.056014	11519.681806
759.383099	11631.497119
759.710138	11733.164589
760.037129	11805.200157
760.364073	11830.378200
760.690970	11814.392701
761.017820	11812.913122
761.344623	11999.148469
761.671379	12316.862149
761.998088	12951.253552
762.324751	14494.527185
762.651366	17350.275303
762.977935	21010.732728
763.304456	23223.847158
763.630931	23690.053066
763.957359	22504.154391
764.283740	20602.134606
764.610074	18727.805880
764.936362	16609.893641
765.262602	15100.993116
765.588796	13632.207572
765.914943	12609.014658
766.241044	11761.473189
766.567097	11126.794440
766.893104	10581.182798
767.219064	10225.761287
767.544978	9848.042752
767.870845	9531.344865
768.196665	9339.327315
768.522438	9147.322368
768.848165	8985.823963
769.173846	8816.602511
769.499479	8697.505251
769.825066	8542.706540
770.150607	8357.522274
770.476101	8300.282493
770.801548	8190.208899
771.126949	8041.603245
771.452303	7952.490768
771.777611	7791.877086
772.102872	7772.090558
772.428087	7648.073132
772.753256	7529.048969
773.078378	7439.112264
773.403453	7304.684855
773.728482	7201.928496
774.053465	7135.695296
774.378401	7051.233284
774.703291	6957.253573
775.028135	6864.526589
775.352932	6821.626370
775.677683	6740.970429
776.002388	6655.061606
776.327046	6652.651934
776.651658	6562.841258
776.976224	6489.648745
777.300743	6468.886753
777.625216	6408.244193
777.949643	6366.705085
778.274024	6372.683894
778.598359	6305.724768
778.922647	6307.748791
779.246889	6271.061794
779.571086	6274.590602
779.895236	6283.241222
780.219339	6281.872548
780.543397	6275.324090
780.867409	6326.058262
781.191374	6326.930382
781.515294	6295.889477
781.839167	6343.946796
782.162995	6314.866900
782.486776	6262.612820
782.810511	6229.235341
783.134201	6152.299771
783.457844	6140.619418
783.781441	6092.093271
784.104993	6046.992588
784.428498	6015.291292
784.751958	6000.349312
785.075372	5974.931814
785.398739	5936.107368
785.722061	5962.618796
786.045337	5960.584690
786.368568	6066.930351
786.691752	6094.205514
787.014891	6336.889181
787.337983	6616.481656
787.661030	7052.516257
787.984031	7481.321845
788.306987	7747.310766
788.629897	7830.401584
788.952760	7743.366063
789.275579	7562.597848
789.598351	7271.698065
789.921078	7002.061869
790.243759	6721.874538
790.566395	6522.388519
790.888984	6329.730742
791.211529	6188.790163
791.534027	6021.996027
791.856480	5888.798660
792.178888	5829.819680
792.501249	5762.333754
792.823566	5659.181664
793.145836	5654.954656
793.468062	5632.607221
793.790241	5595.900059
794.112375	5637.595443
794.434464	5735.497171
794.756507	5764.440956
795.078505	5886.867898
795.400457	6101.704231
795.722364	6342.477300
796.044226	6532.291866
796.366042	6689.076792
796.687812	6633.924048
797.009538	6666.741959
797.331218	6575.202167
797.652852	6502.773389
797.974442	6384.502879
798.295986	6311.960675
798.617484	6182.634914
798.938938	6075.802782
799.260346	6005.859293
799.581709	5870.073294
799.903026	5821.400953
800.224299	5749.826651
800.545526	5627.755111
800.866708	5564.460903
801.187845	5515.322256
801.508936	5436.042550
801.829983	5413.216206
802.150984	5308.312315
802.471940	5278.514054
802.792851	5267.075676
803.113717	5243.702367
803.434538	5215.978541
803.755314	5181.340773
804.076045	5175.286347
804.396731	5139.990708
804.717372	5154.867153
805.037967	5154.771372
805.358518	5185.106515
805.679024	5239.714814
805.999485	5251.707719
806.319901	5269.036685
806.640272	5288.266167
806.960598	5334.659905
807.280879	5329.041539
807.601115	5362.814750
807.921306	5326.031971
808.241453	5326.266384
808.561554	5331.733516
808.881611	5301.564730
809.201623	5294.653308
809.521590	5244.955093
809.841513	5229.216611
810.161390	5240.775977
810.481223	5159.590715
810.801011	5140.691429
811.120755	5115.649497
811.440453	5062.369542
811.760107	5035.217888
812.079716	5009.346686
812.399281	4954.624961
812.718801	4951.209579
813.038276	4917.847223
813.357707	4887.741452
813.677093	4906.459257
813.996434	4845.153785
814.315731	4865.479717
814.634983	4864.017782
814.954191	4870.614132
815.273354	4927.427936
815.592473	4968.841015
815.911547	5045.406059
816.230577	5095.971353
816.549562	5181.998643
816.868502	5232.059822
817.187399	5289.619716
817.506250	5373.570051
817.825058	5397.182816
818.143821	5549.332401
818.462539	5712.970775
818.781213	5945.035251
819.099843	6308.298277
819.418429	6936.264729
819.736970	7550.007566
820.055466	8258.703056
820.373919	9166.685440
820.692327	10613.625143
821.010691	13303.670535
821.329011	19499.082254
821.647286	29054.533917
821.965517	39379.086695
822.283704	44848.874729
822.601847	46347.251846
822.919945	41762.703030
823.237999	36630.069886
823.556010	31442.334409
823.873976	26739.691523
824.191897	22540.700236
824.509775	19476.984356
824.827609	16706.308229
825.145398	15154.562937
825.463144	14402.823555
825.780845	14697.151322
826.098502	15953.482478
826.416116	18395.646774
826.733685	20687.287257
827.051210	21213.344263
827.368692	19784.787128
827.686129	17232.329947
828.003522	14744.147479
828.320872	12542.892364
828.638177	10897.396734
828.955439	9655.359770
829.272656	8595.507586
829.589830	7761.241994
829.906960	7029.967176
830.224046	6501.334140
830.541088	6087.541109
830.858086	5825.668290
831.175041	5625.015243
831.491952	5570.938786
831.808819	5607.739209
832.125642	5845.273337
832.442421	6396.853706
832.759157	7498.701223
833.075849	9264.009956
833.392497	11110.483787
833.709101	12231.714540
834.025662	11970.776855
834.342179	10923.323388
834.658653	9625.117888
834.975083	8514.947427
835.291469	7612.399407
835.607811	6877.522684
835.924110	6359.894487
836.240366	5874.375918
836.556578	5425.211631
836.872746	5070.921860
837.188871	4796.685611
837.504952	4579.764761
837.820990	4409.091456
838.136984	4296.968633
838.452935	4250.791664
838.768842	4276.930047
839.084706	4557.273653
839.400526	5298.522394
839.716303	6197.034970
840.032037	6765.598986
840.347727	6622.175639
840.663373	6020.256828
840.978977	5446.356751
841.294537	5001.714379
841.610054	4671.977547
841.925527	4431.201957
842.240957	4226.952047
842.556344	4044.447155
842.871687	3890.243300
843.186987	3736.311667
843.502244	3619.417392
843.817458	3529.397507
844.132629	3463.900316
844.447756	3415.906011
844.762840	3371.012015
845.077881	3327.708504
845.392879	3295.858494
845.707833	3273.506018
846.022745	3243.952253
846.337613	3234.815162
846.652438	3212.969322
846.967221	3200.520192
847.281960	3180.804239
847.596656	3173.517252
847.911309	3161.083246
848.225919	3146.998262
848.540485	3134.869246
848.855009	3127.050416
849.169490	3117.487347
849.483928	3107.536109
849.798323	3107.828496
850.112675	3094.935745
850.426984	3099.765171
850.741251	3089.914756
851.055474	3087.618511
851.369654	3088.054570
851.683792	3083.590629
851.997887	3089.203953
852.311938	3087.043819
852.625947	3086.229673
852.939914	3081.569126
853.253837	3087.580702
853.567718	3083.373859
853.881555	3077.531162
854.195350	3083.451997
854.509103	3083.527614
854.822812	3078.481419
855.136479	3075.819690
855.450103	3077.556368
855.763685	3070.314750
856.077224	3073.102508
856.390720	3078.027715
856.704173	3092.768049
857.017584	3099.989502
857.330953	3104.299689
857.644278	3111.266563
857.957561	3115.370063
858.270802	3106.676593
858.584000	3111.427880
858.897155	3105.595265
859.210268	3095.210488
859.523339	3082.053077
859.836367	3080.666759
860.149352	3075.958322
860.462295	3070.786098
860.775195	3061.654048
861.088054	3057.152297
861.400869	3056.736402
861.713642	3053.867986
862.026373	3063.151270
862.339062	3068.905748
862.651708	3077.226172
862.964312	3094.648400
863.276873	3095.941456
863.589392	3129.674337
863.901869	3159.081907
864.214303	3177.335926
864.526696	3199.310315
864.839045	3214.295145
865.151353	3230.429358
865.463619	3229.867269
865.775842	3229.413565
866.088023	3234.830285
866.400162	3226.313256
866.712258	3229.408524
867.024313	3229.216960
867.336325	3226.272927
867.648296	3225.670509
867.960224	3226.749316
868.272110	3229.484142
868.583954	3226.865262
868.895755	3236.007395
869.207515	3233.017990
869.519233	3252.368459
869.830909	3258.329624
870.142542	3267.731376
870.454134	3274.662962
870.765684	3291.457566
871.077191	3307.616985
871.388657	3319.314983
871.700081	3336.308712
872.011463	3358.305787
872.322803	3375.856564
872.634101	3393.377094
872.945357	3416.183274
873.256571	3439.433076
873.567744	3455.862196
873.878874	3464.863176
874.189963	3479.016216
874.501010	3480.450424
874.812015	3473.659990
875.122979	3491.397290
875.433900	3487.379490
875.744780	3490.245386
876.055618	3500.073115
876.366415	3493.660768
876.677169	3503.990092
876.987882	3522.213863
877.298554	3541.332439
877.609183	3577.386771
877.919771	3625.189513
878.230317	3697.119216
878.540822	3795.943476
878.851285	3945.534675
879.161707	4170.672606
879.472087	4547.521541
879.782425	5168.306870
880.092722	6351.861408
880.402977	8284.128115
880.713191	10663.429222
881.023363	13048.925908
881.333494	14407.937806
881.643583	14862.455798
881.953631	14448.914825
882.263637	13602.905866
882.573602	12572.274729
882.883526	11610.815785
883.193408	10655.673407
883.503248	9734.687367
883.813048	8900.474708
884.122806	8134.821741
884.432522	7369.025102
884.742197	6715.522685
885.051831	6144.027238
885.361424	5648.958204
885.670975	5255.549078
885.980485	4928.673101
886.289954	4662.721989
886.599382	4451.192653
886.908768	4268.670116
887.218113	4104.172225
887.527417	3970.828664
887.836680	3848.525231
888.145901	3748.589397
888.455082	3672.160464
888.764221	3603.401646
889.073319	3543.109446
889.382376	3510.145341
889.691392	3481.441011
890.000366	3479.225424
890.309300	3475.247953
890.618193	3478.895228
890.927044	3471.099084
891.235855	3478.638129
891.544625	3490.782269
891.853353	3523.925335
892.162041	3581.210487
892.470687	3670.328004
892.779293	3792.023979
893.087858	3966.339517
893.396381	4241.707505
893.704864	4654.835103
894.013306	5225.261826
894.321707	5798.458662
894.630068	6154.578373
894.938387	6200.301638
895.246665	6017.262383
895.554903	5699.415113
895.863100	5363.674266
896.171256	5087.388789
896.479371	4850.416749
896.787446	4629.263851
897.095480	4427.194240
897.403473	4280.715953
897.711425	4132.052326
898.019336	4015.342053
898.327207	3889.945872
898.635038	3792.142446
898.942827	3681.317720
899.250576	3596.908640
899.558284	3511.249353
899.865952	3462.052733
900.173579	3394.637383
900.481165	3346.698530
900.788711	3304.365441
901.096216	3273.253960
901.403681	3249.931062
901.711105	3235.478073
902.018489	3228.710324
902.325832	3263.635438
902.633135	3323.388235
902.940397	3491.793020
903.247619	3897.273189
903.554800	4648.624402
903.861941	5616.798163
904.169041	6319.368651
904.476101	6535.172885
904.783121	6259.404126
905.090100	5857.896387
905.397039	5445.434220
905.703938	5082.680351
906.010796	4758.571967
906.317614	4505.455633
906.624391	4265.169035
906.931129	4074.154674
907.237826	3891.571644
907.544483	3718.329871
907.851099	3544.780588
908.157675	3388.661095
908.464211	3246.901328
908.770707	3143.119094
909.077163	3068.114286
909.383578	3004.772188
909.689954	2962.943214
909.996289	2931.950200
910.302584	2910.164854
910.608839	2898.832340
910.915054	2885.069990
911.221229	2883.093858
911.527363	2885.571585
911.833458	2891.711710
912.139513	2906.968763
912.445527	2916.678025
912.751502	2951.958540
913.057436	2997.646517
913.363331	3055.985270
913.669186	3140.911068
913.975000	3254.359715
914.280775	3443.334929
914.586510	3713.986917
914.892205	4089.247889
915.197859	4584.511007
915.503475	5171.525646
915.809050	5668.338920
916.114585	5962.482685
916.420081	6021.864957
916.725536	5959.402540
917.030952	5719.809100
917.336328	5513.300754
917.641665	5302.394000
917.946961	5068.663423
918.252218	4876.683681
918.557435	4645.587107
918.862612	4447.759627
919.167750	4276.947691
919.472848	4081.897887
919.777906	3917.251281
920.082925	3759.642127
920.387904	3600.573558
920.692843	3490.235304
920.997743	3393.460273
921.302603	3299.261273
921.607423	3235.561252
921.912204	3168.748320
922.216946	3120.610342
922.521647	3070.662590
922.826310	3029.700694
923.130932	2992.920436
923.435516	2952.293777
923.740059	2925.197575
924.044564	2893.539129
924.349028	2869.606251
924.653454	2840.150789
924.957840	2814.395534
925.262186	2796.423820
925.566493	2776.602003
925.870761	2747.312900
926.174989	2738.402660
926.479178	2724.413458
926.783328	2704.687423
927.087438	2698.978317
927.391509	2681.535924
927.695541	2668.073523
927.999533	2659.992553
928.303486	2652.871923
928.607400	2647.167858
928.911275	2642.277939
929.215110	2633.279479
929.518906	2632.624129
929.822663	2631.358799
930.126381	2629.594396
930.430060	2633.539098
930.733699	2634.748975
931.037299	2638.411374
931.340861	2637.211579
931.644383	2642.615696
931.947866	2640.752990
932.251309	2637.844244
932.554714	2637.012453
932.858080	2635.568163
933.161407	2629.987606
933.464694	2627.950979
933.767943	2623.444188
934.071153	2620.459825
934.374323	2617.533435
934.677455	2615.146449
934.980548	2610.501025
935.283602	2608.978597
935.586617	2604.436517
935.889593	2611.244596
936.192530	2609.916252
936.495428	2618.481172
936.798287	2625.281688
937.101108	2638.532361
937.403890	2660.642862
937.706632	2686.456090
938.009336	2721.852552
938.312002	2749.074783
938.614628	2775.072013
938.917216	2792.302677
939.219765	2803.085705
939.522275	2811.736325
939.824747	2812.200111
940.127179	2806.357414
940.429573	2800.396250
940.731929	2798.899027
941.034246	2788.884775
941.336524	2788.690690
941.638763	2779.941768
941.940964	2777.932868
942.243126	2762.378388
942.545250	2746.181161
942.847335	2736.943246
943.149381	2723.064950
943.451389	2708.669935
943.753359	2694.196782
944.055290	2685.954496
944.357182	2677.220697
944.659036	2671.801456
944.960851	2667.269459
945.262628	2666.147802
945.564367	2663.271824
945.866067	2663.896927
946.167729	2661.129333
946.469352	2661.139416
946.770937	2656.980464
947.072484	2654.457366
947.373992	2651.513332
947.675462	2650.926038
947.976893	2644.059987
948.278286	2641.733494
948.579641	2634.741414
948.880958	2633.027421
949.182236	2632.949283
949.483476	2629.208747
949.784678	2631.016001
950.085841	2628.608850
950.386967	2632.850981
950.688054	2640.382465
950.989103	2645.922693
951.290114	2654.568272
951.591087	2665.709222
951.892021	2681.276305
952.192917	2694.073274
952.493776	2700.273893
952.794596	2704.042156
953.095378	2707.699513
953.396122	2705.441076
953.696828	2702.837320
953.997496	2699.661393
954.298126	2686.057839
954.598718	2679.204391
954.899272	2671.554440
955.199788	2659.075063
955.500266	2648.428146
955.800706	2630.965589
956.101108	2613.800461
956.401472	2603.251846
956.701798	2589.010587
957.002087	2576.677404
957.302337	2562.070660
957.602550	2553.336861
957.902724	2539.561908
958.202861	2534.414890
958.502960	2527.105217
958.803022	2519.167921
959.103045	2512.463186
959.403031	2508.342043
959.702979	2499.262925
960.002889	2495.628253
960.302762	2490.128354
960.602596	2486.939824
960.902393	2483.988228
961.202153	2479.778865
961.501875	2480.451859
961.801559	2477.971611
962.101205	2473.487505
962.400814	2469.487349
962.700385	2469.111783
962.999918	2467.576752
963.299414	2467.511217
963.598873	2463.843778
963.898293	2461.368571
964.197677	2457.998560
964.497022	2461.083746
964.796331	2460.708180
965.095601	2458.870679
965.394835	2457.489403
965.694030	2459.233643
965.993189	2458.732048
966.292309	2456.168621
966.591393	2454.666357
966.890439	2455.843467
967.189447	2459.778087
967.488419	2457.522171
967.787353	2456.498817
968.086249	2456.801286
968.385108	2458.094342
968.683930	2457.885134
968.982714	2457.260031
969.281462	2459.863787
969.580172	2462.555763
969.878844	2463.632049
970.177480	2466.550877
970.476078	2469.734366
970.774639	2472.358287
971.073162	2474.856178
971.371649	2477.913638
971.670098	2473.502628
971.968510	2477.359111
972.266885	2475.188894
972.565223	2480.976139
972.863524	2479.925058
973.161788	2485.712303
973.460014	2483.761377
973.758204	2486.221460
974.056356	2487.464104
974.354471	2488.202633
974.652550	2487.806902
974.950591	2486.118116
975.248595	2487.622900
975.546563	2485.989567
975.844493	2486.221460
976.142386	2481.248361
976.440243	2479.662918
976.738062	2478.263998
977.035845	2474.515900
977.333590	2470.573718
977.631299	2471.927268
977.928971	2468.232102
978.226606	2469.368882
978.524204	2467.657411
978.821765	2464.103397
979.119290	2465.081381
979.416777	2459.473097
979.714228	2462.601133
980.011642	2465.192286
980.309020	2472.474233
980.606360	2472.809470
980.903664	2481.467652
981.200931	2495.731596
981.498162	2516.175996
981.795356	2542.450490
982.092513	2584.990266
982.389633	2625.047275
982.686717	2668.300375
982.983764	2698.670806
983.280775	2720.274671
983.577749	2717.214691
983.874686	2712.473485
984.171587	2694.012780
984.468451	2676.028464
984.765279	2660.055568
985.062070	2641.373052
985.358824	2623.376132
985.655543	2603.420725
985.952224	2577.166396
986.248869	2551.080945
986.545478	2522.840401
986.842050	2502.761485
987.138586	2485.283805
987.435086	2470.954325
987.731549	2463.039714
988.027975	2455.306584
988.324366	2449.809205
988.620719	2445.463731
988.917037	2443.515325
989.213318	2439.880653
989.509563	2437.390323
989.805772	2438.078440
990.101944	2430.476380
990.398080	2434.927719
990.694180	2432.001329
990.990244	2434.418563
991.286271	2434.060641
991.582262	2433.743048
991.878217	2432.671803
992.174136	2432.137441
992.470019	2434.804211
992.765865	2439.701692
993.061676	2439.658842
993.357450	2442.144131
993.653188	2444.021961
993.948890	2451.087138
994.244556	2455.558641
994.540186	2464.027780
994.835780	2480.688793
995.131337	2488.351347
995.426859	2510.136693
995.722345	2526.850639
996.017795	2545.805377
996.313208	2562.582337
996.608586	2569.085426
996.903928	2571.132134
997.199234	2573.491394
997.494504	2568.251115
997.789738	2564.031669
998.084936	2552.419371
998.380099	2538.465457
998.675225	2529.346010
998.970316	2517.131294
999.265371	2501.665034
999.560390	2488.041316
999.855373	2477.530510
1000.150320	2466.631536
1000.445232	2459.710032
1000.740108	2451.135029
1001.034948	2445.849379
1001.329752	2440.558688
1001.624521	2436.223296
1001.919254	2430.085691
1002.213951	2430.244487
1002.508613	2423.524629
1002.803239	2426.456060
1003.097829	2420.494896
1003.392384	2422.067736
1003.686903	2422.662592
1003.981386	2420.865421
1004.275834	2420.492375
1004.570246	2419.441295
1004.864623	2419.358116
1005.158964	2415.804102
1005.453270	2416.935841
1005.747540	2415.186561
1006.041775	2414.377456
1006.335974	2418.138156
1006.630138	2416.651016
1006.924266	2417.117323
1007.218359	2412.958371
1007.512416	2412.471899
1007.806438	2413.235634
1008.100425	2415.549524
1008.394376	2412.706313
1008.688292	2413.134811
1008.982172	2413.296128
1009.276017	2412.257650
1009.569827	2411.541807
1009.863602	2411.209090
1010.157341	2411.640109
1010.451045	2410.949471
1010.744714	2408.741446
1011.038347	2409.419481
1011.331945	2414.440470
1011.625508	2407.917217
1011.919036	2407.014850
1012.212528	2407.597104
1012.505986	2410.916703
1012.799408	2408.872516
1013.092795	2409.749676
1013.386147	2410.616755
1013.679464	2404.516959
1013.972745	2408.118863
1014.265992	2407.524007
1014.559204	2408.018040
1014.852380	2407.758421
1015.145521	2406.959398
1015.438628	2407.307237
1015.731699	2408.537279
1016.024736	2406.299007
1016.317737	2405.260529
1016.610703	2409.694224
1016.903635	2407.874367
1017.196531	2403.770868
1017.489393	2407.188770
1017.782219	2407.279511
1018.075011	2412.502146
1018.367768	2408.764131
1018.660490	2407.486198
1018.953177	2407.486198
1019.245829	2407.486198
