Dividing Wavelength (nm)	Counts (n)	Blue Motor Position (mm): 16.600000	Red Motor Position (mm): 0.000000	
326.493990	1977.579119
326.888308	1977.579119
327.282561	1977.579119
327.676750	1949.610797
328.070874	1953.404266
328.464933	1958.095059
328.858929	1969.220886
329.252859	1978.310086
329.646726	1994.804742
330.040528	2010.260919
330.434265	2032.454599
330.827938	2048.109902
331.221547	2067.039435
331.615091	2090.392580
332.008571	2107.275404
332.401986	2131.931688
332.795338	2149.129584
333.188625	2170.143634
333.581847	2189.441171
333.975006	2209.701568
334.368100	2226.891903
334.761129	2242.758935
335.154095	2257.869793
335.546996	2289.865997
335.939833	2346.029492
336.332606	2360.212778
336.725315	2369.811135
337.117960	2381.778834
337.510540	2387.561038
337.903056	2396.924981
338.295508	2402.382030
338.687896	2410.664646
339.080220	2417.190419
339.472480	2422.395411
339.864676	2425.823395
340.256807	2430.783891
340.648875	2432.036618
341.040879	2432.712132
341.432818	2432.606268
341.824694	2434.226999
342.216506	2435.502411
342.608253	2434.884869
342.999937	2433.450661
343.391557	2430.166349
343.783113	2431.938315
344.174605	2428.923705
344.566033	2425.694846
344.957397	2426.733324
345.348697	2421.893816
345.739934	2420.885585
346.131106	2419.698393
346.522215	2420.754515
346.913260	2413.825449
347.304241	2417.389545
347.695159	2411.274625
348.086012	2412.040881
348.476802	2412.166910
348.867528	2409.956364
349.258191	2407.133318
349.648789	2403.760786
350.039324	2403.609551
350.429796	2405.106774
350.820203	2403.589386
351.210548	2402.608882
351.600828	2399.911865
351.991045	2402.404715
352.381198	2402.102246
352.771288	2401.469581
353.161314	2404.645508
353.551276	2402.923954
353.941175	2397.716442
354.331010	2399.982441
354.720782	2405.852864
355.110490	2406.888822
355.500135	2401.270456
355.889717	2398.283572
356.279235	2402.676938
356.668689	2403.380178
357.058080	2401.913203
357.447408	2401.240209
357.836672	2399.647204
358.225873	2403.276835
358.615010	2400.269787
359.004084	2407.947464
359.393095	2406.006620
359.782043	2406.583832
360.170927	2408.242371
360.559748	2407.045097
360.948505	2407.955026
361.337199	2410.226065
361.725830	2408.741446
362.114398	2410.523493
362.502903	2409.497619
362.891344	2410.543658
363.279722	2409.671538
363.668037	2412.769327
364.056289	2413.540624
364.444478	2412.799574
364.832603	2411.806467
365.220665	2412.360994
365.608665	2414.536252
365.996601	2414.889133
366.384474	2413.797723
366.772284	2416.303176
367.160031	2415.829308
367.547715	2415.269740
367.935336	2414.725295
368.322893	2412.754204
368.710388	2415.955337
369.097820	2419.577406
369.485189	2419.068249
369.872495	2418.092786
370.259738	2415.869637
370.646918	2417.613876
371.034035	2415.642785
371.421090	2418.949782
371.808081	2417.717220
372.195010	2417.686973
372.581875	2418.153280
372.968678	2417.351736
373.355418	2418.796027
373.742096	2417.379463
374.128710	2420.305853
374.515262	2421.898857
374.901751	2418.826274
375.288177	2421.813157
375.674540	2415.476427
376.060841	2419.970616
376.447079	2419.965575
376.833254	2420.348702
377.219367	2419.133784
377.605417	2419.947931
377.991404	2416.777045
378.377329	2418.533887
378.763191	2416.958526
379.148991	2424.096800
379.534727	2421.377098
379.920402	2420.822571
380.306013	2423.391039
380.691563	2423.471697
381.077049	2422.581933
381.462474	2422.982705
381.847835	2422.723086
382.233134	2423.829619
382.618371	2423.877510
383.003545	2425.805751
383.388657	2423.963210
383.773706	2426.942532
384.158693	2425.873807
384.543618	2428.006215
384.928480	2427.292892
385.313280	2428.694332
385.698017	2424.321132
386.082692	2427.721390
386.467305	2427.549991
386.851856	2429.064857
387.236344	2428.676688
387.620770	2431.988727
388.005133	2430.365475
388.389435	2431.613161
388.773674	2427.996133
389.157851	2431.461926
389.541965	2427.396235
389.926018	2431.293047
390.310008	2428.280958
390.693936	2430.635177
391.077802	2431.280444
391.461606	2430.292378
391.845348	2429.727769
392.229027	2430.219282
392.612645	2433.513676
392.996200	2433.223809
393.379694	2431.905547
393.763125	2432.671803
394.146494	2434.463933
394.529801	2435.608275
394.913047	2433.591813
395.296230	2436.243460
395.679351	2434.093408
396.062410	2434.073244
396.445408	2434.942843
396.828343	2436.165322
397.211217	2430.642738
397.594028	2435.751948
397.976778	2430.630136
398.359466	2434.655497
398.742092	2433.269180
399.124656	2434.531989
399.507158	2435.701536
399.889598	2435.991403
400.271977	2438.910231
400.654294	2441.050201
401.036549	2437.060127
401.418742	2438.489294
401.800874	2438.338060
402.182944	2439.283276
402.564952	2436.813111
402.946898	2434.995775
403.328783	2437.828903
403.710606	2436.182967
404.092367	2440.404933
404.474067	2439.316044
404.855705	2439.605910
405.237282	2439.943667
405.618797	2439.220262
406.000250	2440.440221
406.381642	2439.681527
406.762972	2441.062803
407.144240	2439.124480
407.525447	2444.218566
407.906593	2440.510797
408.287677	2442.035746
408.668700	2441.730756
409.049661	2444.238730
409.430560	2443.134718
409.811399	2441.907197
410.192176	2442.928030
410.572891	2441.980293
410.953545	2442.733946
411.334138	2444.047167
411.714669	2441.554316
412.095139	2441.072886
412.475547	2445.776282
412.855894	2446.421550
413.236180	2442.781837
413.616405	2440.974583
413.996568	2444.904163
414.376670	2443.207814
414.756711	2444.314348
415.136691	2443.948864
415.516609	2442.796960
415.896466	2444.243772
416.276262	2446.096396
416.655997	2444.745366
417.035670	2441.453493
417.415283	2445.688062
417.794834	2437.317226
418.174324	2445.801488
418.553753	2446.724019
418.933121	2444.737805
419.312428	2445.897270
419.691674	2447.838114
420.070859	2446.676128
420.449983	2448.934565
420.829045	2446.098916
421.208047	2445.294852
421.586988	2447.994390
421.965867	2448.324586
422.344686	2446.305603
422.723444	2446.887857
423.102141	2447.442384
423.480777	2447.714606
423.859352	2448.097734
424.237866	2449.930193
424.616319	2447.888526
424.994712	2447.578495
425.373044	2449.458845
425.751314	2449.047991
426.129524	2448.047322
426.507673	2449.166458
426.885762	2447.633948
427.263789	2447.349122
427.641756	2451.019082
428.019662	2448.412806
428.397508	2452.901953
428.775292	2448.334668
429.153016	2452.284412
429.530679	2449.189143
429.908282	2450.038578
430.285824	2450.739298
430.663305	2450.517488
431.040726	2450.956068
431.418086	2450.540173
431.795385	2452.382714
432.172624	2452.218877
432.549802	2454.162242
432.926920	2454.091666
433.303977	2453.574947
433.680974	2454.101748
434.057910	2450.918259
434.434786	2455.919084
434.811601	2454.598302
435.188355	2452.957406
435.565050	2452.559155
435.941683	2456.859259
436.318257	2453.385904
436.694770	2452.629731
437.071222	2451.056891
437.447614	2449.819288
437.823946	2453.239711
438.200218	2453.781635
438.576429	2457.297839
438.952580	2455.457818
439.328670	2456.952520
439.704700	2456.723148
440.080670	2455.344392
440.456580	2455.462859
440.832429	2458.114506
441.208218	2456.357664
441.583947	2457.658282
441.959616	2458.968982
442.335224	2458.860597
442.710773	2457.239866
443.086261	2460.367902
443.461689	2460.221709
443.837057	2456.864300
444.212365	2460.539301
444.587612	2461.918057
444.962800	2460.430917
445.337927	2459.513427
445.712995	2457.943107
446.088002	2460.672892
446.462949	2462.107100
446.837837	2459.344548
447.212664	2459.866307
447.587431	2462.780094
447.962139	2466.324025
448.336786	2465.484673
448.711374	2469.184880
449.085901	2465.663634
449.460369	2462.936370
449.834776	2470.525827
450.209124	2469.971300
450.583412	2471.166054
450.957640	2470.235961
451.331808	2471.266877
451.705917	2467.332256
452.079965	2468.322843
452.453954	2467.206227
452.827883	2470.934161
453.201752	2467.294447
453.575562	2467.496094
453.949311	2469.835189
454.323001	2472.519603
454.696632	2471.292083
455.070202	2472.121352
455.443713	2473.789974
455.817164	2470.707309
456.190556	2470.021712
456.563888	2472.103708
456.937160	2466.785291
457.310373	2473.442135
457.683526	2470.465333
458.056619	2477.137300
458.429653	2474.462968
458.802628	2476.176961
459.175542	2474.291569
459.548398	2477.112095
459.921194	2482.165851
460.293930	2481.853300
460.666607	2483.345481
461.039224	2483.481592
461.411782	2487.259937
461.784280	2485.598877
462.156719	2486.186172
462.529099	2484.046202
462.901419	2486.609628
463.273680	2484.197436
463.645882	2484.129381
464.018024	2484.119298
464.390106	2485.286326
464.762130	2489.142808
465.134094	2494.937615
465.505999	2499.421721
465.877845	2506.854902
466.249631	2509.115860
466.621358	2506.978411
466.993026	2506.991013
467.364634	2505.047649
467.736184	2502.496825
468.107674	2497.987513
468.479105	2500.281238
468.850477	2497.949704
469.221790	2498.421052
469.593043	2494.219250
469.964238	2499.086484
470.335373	2494.990547
470.706449	2497.243943
471.077467	2503.222751
471.448425	2510.194667
471.819324	2515.346726
472.190164	2517.315297
472.560945	2508.825993
472.931667	2507.800119
473.302330	2504.737618
473.672934	2506.784326
474.043479	2503.454644
474.413965	2506.292814
474.784393	2503.618482
475.154761	2504.541013
475.525070	2504.752741
475.895321	2505.831548
476.265513	2506.965808
476.635645	2515.921418
477.005719	2510.212311
477.375734	2518.026099
477.745691	2520.660102
478.115588	2522.726975
478.485427	2531.085208
478.855207	2535.392874
479.224928	2542.321940
479.594591	2548.121788
479.964194	2548.126829
480.333739	2549.036757
480.703226	2551.552293
481.072653	2557.084959
481.442022	2557.992367
481.811333	2561.208623
482.180584	2559.398849
482.549777	2561.266596
482.918912	2560.396997
483.287988	2563.383881
483.657005	2563.419169
484.025964	2561.027142
484.394864	2565.039900
484.763706	2567.941084
485.132489	2569.340004
485.501213	2571.739593
485.869879	2571.669017
486.238487	2574.897876
486.607036	2577.468865
486.975527	2576.637074
487.343959	2579.664287
487.712333	2584.319793
488.080648	2586.374063
488.448905	2587.649475
488.817104	2589.920515
489.185244	2596.476535
489.553326	2605.679162
489.921350	2619.018055
490.289315	2632.127575
490.657222	2639.117135
491.025070	2642.598052
491.392861	2641.869605
491.760593	2645.078300
492.128267	2638.086219
492.495883	2636.853657
492.863440	2631.320991
493.230939	2628.291257
493.598380	2629.828809
493.965763	2627.905609
494.333088	2633.304685
494.700354	2626.458798
495.067563	2633.924747
495.434713	2631.147071
495.801805	2640.223668
496.168839	2639.737197
496.535815	2642.860192
496.902733	2645.894967
497.269593	2647.598877
497.636395	2651.256234
498.003139	2656.461225
498.369825	2653.678508
498.736453	2661.618325
499.103023	2659.876607
499.469535	2666.319201
499.835989	2666.878769
500.202385	2669.845488
500.568723	2671.448575
500.935003	2676.691375
501.301226	2676.630882
501.667390	2685.137829
502.033497	2692.255938
502.399546	2689.236287
502.765537	2687.844928
503.131470	2696.472863
503.497345	2702.169367
503.863163	2699.888245
504.228923	2704.478215
504.594625	2711.296376
504.960269	2711.687065
505.325856	2719.810885
505.691385	2718.948847
506.056856	2725.938407
506.422270	2731.508882
506.787625	2731.924777
507.152924	2737.157495
507.518164	2744.915831
507.883347	2743.902559
508.248472	2750.123343
508.613540	2758.189189
508.978550	2767.051537
509.343503	2771.994389
509.708398	2777.154010
510.073236	2789.449384
510.438016	2795.957514
510.802738	2799.110755
511.167403	2808.015954
511.532010	2818.068014
511.896561	2826.716114
512.261053	2844.319823
512.625488	2844.498784
512.989866	2849.509691
513.354186	2857.252903
513.718449	2864.353368
514.082655	2887.522512
514.446803	2891.386556
514.810894	2908.080337
515.174927	2919.929569
515.538904	2925.399221
515.902822	2945.762962
516.266684	2952.492902
516.630488	2968.100315
516.994235	2982.669249
517.357925	3000.709018
517.721558	3017.120495
518.085133	3037.138917
518.448651	3052.521998
518.812112	3067.569842
519.175516	3085.413006
519.538863	3104.312292
519.902152	3124.512195
520.265385	3149.876761
520.628560	3170.300995
520.991678	3189.051567
521.354739	3211.464537
521.717743	3239.755492
522.080690	3259.804161
522.443580	3297.610295
522.806413	3324.484686
523.169189	3346.270032
523.531908	3376.343035
523.894569	3400.560738
524.257174	3431.818413
524.619722	3466.632621
524.982213	3501.277951
525.344647	3532.127292
525.707025	3564.685584
526.069345	3611.351545
526.431608	3640.070999
526.793815	3682.787216
527.155964	3712.270404
527.518057	3751.891353
527.880093	3786.705561
528.242072	3845.278728
528.603995	3875.008933
528.965860	3919.025767
529.327669	3963.193837
529.689421	4006.661186
530.051117	4054.060635
530.412755	4106.793625
530.774337	4158.727592
531.135862	4199.361812
531.497331	4256.271398
531.858743	4302.191268
532.220098	4369.369685
532.581396	4413.925923
532.942638	4458.507367
533.303824	4530.333727
533.664953	4584.584104
534.026025	4633.596722
534.387040	4714.257704
534.747999	4775.689205
535.108902	4848.158312
535.469748	4885.762799
535.830537	4954.214107
536.191270	5032.137743
536.551947	5082.347635
536.912567	5164.430222
537.273131	5243.820834
537.633638	5284.976814
537.994089	5373.282706
538.354483	5422.938071
538.714821	5536.926121
539.075103	5637.991173
539.435328	5703.135484
539.795497	5772.864724
540.155609	5849.039079
540.515665	5966.772707
540.875665	6005.844170
541.235609	6115.751406
541.595496	6195.164702
541.955328	6341.393452
542.315102	6368.391351
542.674821	6440.164779
543.034483	6528.652153
543.394090	6616.171625
543.753640	6703.582712
544.113134	6889.394601
544.472571	6891.403501
544.831953	7106.418795
545.191278	7126.669110
545.550548	7190.384253
545.909761	7343.784044
546.268918	7470.369938
546.628019	7609.251206
546.987064	7659.143506
547.346053	7681.402720
547.704986	7883.973926
548.063863	7945.508770
548.422684	8081.645130
548.781449	8173.079058
549.140158	8332.830703
549.498811	8428.005167
549.857408	8465.155950
550.215949	8690.548459
550.574434	8799.792783
550.932864	8886.011638
551.291237	9109.044887
551.649555	9179.757152
552.007817	9334.702056
552.366022	9409.782481
552.724173	9556.744719
553.082267	9754.368032
553.440305	9937.596330
553.798288	9961.655237
554.156215	10147.257918
554.514086	10319.985493
554.871902	10412.019318
555.229661	10549.027798
555.587365	10659.499643
555.945014	10816.624847
556.302606	10945.817017
556.660143	11137.763991
557.017625	11300.608383
557.375050	11409.449416
557.732421	11631.497119
558.089735	11774.141608
558.446994	11911.926425
558.804197	12169.365549
559.161345	12312.645224
559.518437	12304.208853
559.875474	12533.893904
560.232455	12737.637178
560.589381	12950.310856
560.946251	13040.008107
561.303065	13381.294222
561.659825	13492.436541
562.016528	13581.450715
562.373177	13684.673381
562.729770	13974.075941
563.086307	14029.657183
563.442789	14324.920084
563.799216	14511.694834
564.155587	14632.559018
564.511904	14817.902080
564.868164	15014.338202
565.224370	15282.341064
565.580520	15390.796447
565.936615	15631.945083
566.292654	15735.775208
566.648638	15994.867831
567.004567	16181.682910
567.360441	16378.784463
567.716260	16527.934562
568.072023	16832.047209
568.427732	17020.727515
568.783385	17071.239876
569.138982	17399.776914
569.494525	17598.829394
569.850013	17706.722689
570.205445	17910.682733
570.560823	18092.673428
570.916145	18262.404036
571.271412	18467.006827
571.626625	18582.575279
571.981782	18818.682760
572.336884	18894.191683
572.691931	19229.224247
573.046923	19268.825031
573.401860	19415.139481
573.756743	19617.438464
574.111570	19867.325939
574.466342	20000.954325
574.821059	20266.360993
575.175722	20262.857391
575.530330	20487.345013
575.884882	20560.754295
576.239380	20749.532904
576.593823	20941.547933
576.948211	21119.293977
577.302544	21107.787543
577.656823	21326.641675
578.011047	21630.784569
578.365216	21719.450904
578.719330	21827.177841
579.073389	21967.425261
579.427394	22211.003733
579.781344	22400.949369
580.135239	22444.515020
580.489080	22686.326567
580.842866	22638.367550
581.196597	23065.154155
581.550273	23241.256783
581.903895	23371.636145
582.257463	23821.198683
582.610975	23687.318240
582.964434	24042.747312
583.317837	24060.776999
583.671186	24178.845863
584.024481	24508.711244
584.377721	24439.145842
584.730906	24791.920747
585.084037	25009.819581
585.437113	25056.430089
585.790135	25262.502376
586.143103	25238.572019
586.496016	25505.173440
586.848874	25714.998866
587.201679	25920.267089
587.554428	25805.724512
587.907124	26112.622396
588.259765	26157.712997
588.612352	26498.729410
588.964884	26315.012120
589.317362	26697.008073
589.669786	26831.785842
590.022155	26882.550261
590.374470	27328.886461
590.726731	27199.522892
591.078937	27083.087361
591.431090	27326.199526
591.783188	27278.732022
592.135232	27256.228311
592.487222	27602.101876
592.839157	27835.943359
593.191038	27792.264282
593.542866	27801.529922
593.894639	27568.437051
594.246358	27914.512262
594.598022	28071.032528
594.949633	27971.810017
595.301190	28108.876469
595.652692	28162.796651
596.004141	28551.273007
596.355535	28018.478499
596.706876	28152.053952
597.058162	28195.604480
597.409395	28669.205761
597.760573	28887.722136
598.111698	28721.737104
598.462768	28896.695390
598.813785	29068.981863
599.164748	28816.727566
599.515657	29261.672408
599.866511	29015.437248
600.217312	29604.740571
600.568060	28988.220058
600.918753	29681.537508
601.269392	29795.225610
601.619978	29666.512349
601.970510	29950.745206
602.320988	30217.717152
602.671412	30594.929050
603.021783	30528.630316
603.372100	30390.686702
603.722363	30611.224580
604.072572	30794.740224
604.422728	30942.698090
604.772830	30904.380279
605.122878	31092.274165
605.472872	31169.497081
605.822813	31524.202747
606.172701	31505.111898
606.522534	31802.144244
606.872314	32131.291261
607.222041	32050.801678
607.571714	32490.617146
607.921333	32144.519249
608.270899	32507.497449
608.620411	32866.909033
608.969870	32824.853207
609.319276	32939.368058
609.668627	33083.928186
610.017926	33594.544138
610.367171	33840.799462
610.716362	34010.605689
611.065500	34065.332455
611.414585	34317.410312
611.763616	34679.763409
612.112594	34713.471084
612.461518	34978.305581
612.810389	35329.595866
613.159207	35309.161549
613.507971	35470.110468
613.856682	35968.171427
614.205340	35953.980579
614.553945	36646.574623
614.902496	36262.723525
615.250994	36753.976406
615.599439	36889.948928
615.947830	37163.751638
616.296169	37310.512229
616.644454	37499.106835
616.992686	37722.344251
617.340864	38262.113196
617.688990	38105.212324
618.037063	38707.796567
618.385082	38735.729600
618.733048	39070.978934
619.080961	39151.733177
619.428821	39241.823638
619.776628	39417.490205
620.124382	39309.375099
620.472083	39516.589208
620.819731	39717.726205
621.167326	39490.977625
621.514868	39563.134181
621.862357	39207.493380
622.209793	39311.653701
622.557176	39088.252448
622.904506	38923.958723
623.251783	38678.477216
623.599007	38538.902789
623.946179	38400.623939
624.293297	38404.795494
624.640363	37918.588809
624.987376	37981.699014
625.334336	37804.850296
625.681243	37524.395784
626.028097	37563.507576
626.374899	37479.191757
626.721647	37509.040429
627.068343	37451.873744
627.414987	37290.576986
627.761577	37135.009499
628.108115	37472.340829
628.454600	37016.875100
628.801032	37238.227124
629.147412	37234.925168
629.493739	37292.175032
629.840014	37001.287852
630.186236	37368.672021
630.532405	37042.368215
630.878521	37284.608260
631.224585	37203.992648
631.570597	36971.376166
631.916556	37141.610890
632.262462	37144.088617
632.608316	37180.233690
632.954117	37128.831565
633.299866	37152.703949
633.645562	37113.743391
633.991206	36694.851233
634.336797	36326.267270
634.682336	36357.504779
635.027823	36160.186456
635.373257	36040.869906
635.718639	35854.732862
636.063968	35741.011993
636.409245	35238.245117
636.754470	35312.186241
637.099642	35125.824866
637.444762	34691.849575
637.789829	34858.111870
638.134845	34563.489196
638.479808	34529.854617
638.824719	34462.547652
639.169577	34121.763131
639.514383	34223.828852
639.859137	33952.024960
640.203839	34197.153587
640.548489	33884.962491
640.893086	33971.791325
641.237632	33740.546036
641.582125	33898.041764
641.926566	33829.434181
642.270955	33837.878114
642.615292	33864.671847
642.959576	33873.607292
643.303809	33897.038575
643.647990	34038.488311
643.992118	34042.591810
644.336195	34040.207344
644.680219	34163.627393
645.024192	34476.919981
645.368112	34984.067620
645.711981	35010.233729
646.055797	35877.032406
646.399562	35822.514848
646.743274	36735.614003
647.086935	37181.214194
647.430544	37091.448888
647.774101	37230.761175
648.117606	37477.671849
648.461059	37764.957125
648.804460	37420.313601
649.147810	36843.376228
649.491108	36621.462115
649.834354	36296.108567
650.177548	35482.481459
650.520690	35062.104681
650.863781	35104.319304
651.206820	34986.270604
651.549807	34562.816202
651.892742	34103.501551
652.235626	33925.929428
652.578458	33805.889472
652.921238	33237.779160
653.263967	33568.594799
653.606644	33266.571710
653.949269	33230.381267
654.291843	32844.221320
654.634365	33256.325565
654.976836	32883.476785
655.319255	32893.397776
655.661622	32889.649678
656.003938	32672.307892
656.346203	32562.446026
656.688416	32777.645322
657.030577	32600.683178
657.372687	32446.033181
657.714746	32717.012844
658.056753	32836.233612
658.398708	32316.604077
658.740612	32385.718296
659.082465	32650.593122
659.424266	32492.063957
659.766016	32611.597276
660.107715	32502.040400
660.449362	32633.949752
660.790958	32623.491879
661.132503	32653.988339
661.473996	32678.551361
661.815438	32793.008238
662.156829	32984.584688
662.498168	32782.625982
662.839456	32800.398570
663.180693	32964.253714
663.521879	33131.068015
663.863013	33098.431585
664.204097	33089.402879
664.545129	33550.199628
664.886110	33529.034344
665.227040	33596.338789
665.567918	33716.620720
665.908746	33794.572082
666.249522	33949.302737
666.590248	33957.504695
666.930922	34070.434103
667.271545	34028.332906
667.612118	34112.076554
667.952639	33916.552881
668.293109	33971.546829
668.633528	33869.251735
668.973896	33808.939370
669.314213	33835.420551
669.654480	33590.148252
669.994695	33619.767552
670.334859	33511.927188
670.674973	33436.279634
671.015035	33579.748352
671.355047	33539.406518
671.695008	33490.862727
672.034918	33380.761407
672.374777	33458.866524
672.714585	33312.093329
673.054342	33560.102975
673.394049	33322.152952
673.733705	33594.690332
674.073310	33263.894857
674.412864	33336.363965
674.752368	32932.416307
675.091820	33248.264760
675.431223	32829.118023
675.770574	32545.898439
676.109875	32436.051696
676.449125	32149.525115
676.788324	32090.029417
677.127473	31553.665771
677.466571	31481.272281
677.805619	31140.354170
678.144616	31135.055918
678.483562	31067.126369
678.822458	30754.370664
679.161303	30675.121205
679.500098	30595.228999
679.838842	30474.831122
680.177535	30642.971247
680.516179	30920.484245
680.854771	31158.456954
681.193314	32013.610566
681.531805	33128.602891
681.870247	33906.457971
682.208638	34647.328625
682.546978	34862.313672
682.885268	34943.282165
683.223508	34418.001496
683.561697	34097.444605
683.899836	33902.475459
684.237925	33406.685540
684.575963	33258.541152
684.913951	32803.803869
685.251889	32953.435398
685.589776	32944.189922
685.927614	32933.066616
686.265401	33083.275356
686.603137	33185.225131
686.940824	33682.615617
687.278460	34084.766103
687.616046	34205.874783
687.953582	34818.256508
688.291068	34681.348852
688.628504	34959.781861
688.965889	34898.786420
689.303224	34526.230028
689.640510	34183.416443
689.977745	33436.645117
690.314930	32641.556853
690.652065	32120.331793
690.989150	31378.389893
691.326185	30485.490642
691.663170	29783.620874
692.000105	29046.478153
692.336990	28365.158649
692.673825	27930.023893
693.010610	27399.704590
693.347345	26837.245412
693.684030	26193.714397
694.020665	25922.321359
694.357251	25253.110707
694.693786	25219.203906
695.030272	24968.177129
695.366707	24436.716006
695.703093	24154.610516
696.039429	24151.389219
696.375716	23878.814030
696.711952	23846.061654
697.048139	23696.147821
697.384276	23528.007696
697.720363	23643.452639
698.056400	23439.931176
698.392388	23228.358991
698.728326	23185.557074
699.064214	22990.187157
699.400053	22930.096603
699.735842	22584.679262
700.071581	22297.804840
700.407270	22002.085715
700.742910	21833.615394
701.078501	21563.480124
701.414042	21267.244280
701.749533	20982.449335
702.084974	20630.266765
702.420366	20840.175370
702.755709	20411.153013
703.091002	20115.300297
703.426246	20143.210645
703.761440	20031.410456
704.096584	19765.371123
704.431679	19733.284179
704.766725	19636.027719
705.101721	19576.579912
705.436668	19665.762965
705.771565	19350.421148
706.106413	19692.166008
706.441212	19666.723304
706.775961	19802.557195
707.110661	19867.915754
707.445311	20230.780529
707.779913	20073.642722
708.114465	20312.495112
708.448967	20590.184551
708.783421	21282.317330
709.117825	21551.661139
709.452180	21788.668467
709.786485	22175.851767
710.120742	22971.507161
710.454949	22996.072704
710.789107	23469.958809
711.123216	24172.259596
711.457275	24272.996973
711.791286	24822.228164
712.125247	24878.311000
712.459159	24573.301028
712.793023	25232.089095
713.126837	24123.766216
713.460602	24372.458938
713.794318	24003.562423
714.127985	23612.799903
714.461602	22730.431622
714.795171	22672.455833
715.128691	21670.526506
715.462162	21137.588324
715.795584	20720.503419
716.128957	20466.099070
716.462281	20051.300328
716.795556	19830.069292
717.128782	19331.080761
717.461960	18782.376370
717.795088	18702.063228
718.128167	18313.501172
718.461198	17845.276282
718.794180	17709.049182
719.127113	17341.629725
719.459997	17163.593815
719.792833	16808.540308
720.125619	16788.176567
720.458357	16465.482227
720.791046	16298.632638
721.123686	16139.806045
721.456278	15903.328038
721.788821	15865.784045
722.121315	15603.122286
722.453761	15681.136662
722.786158	15605.032883
723.118506	15603.119765
723.450805	15479.896321
723.783056	15643.562422
724.115259	15536.044693
724.447412	15470.991123
724.779518	15716.180243
725.111574	15736.796042
725.443582	15932.982626
725.775542	15908.923719
726.107453	16377.173815
726.439315	16264.377997
726.771129	16663.360119
727.102895	17019.174839
727.434612	17223.344091
727.766281	17348.674737
728.097901	17610.010673
728.429473	17644.852608
728.760996	17623.873846
729.092471	17709.326445
729.423897	17588.578208
729.755276	17454.362527
730.086606	17573.006083
730.417887	18091.171164
730.749120	18600.146221
731.080305	18783.989540
731.411442	19096.331870
731.742530	19172.765845
732.073570	19272.295866
732.404562	19559.906296
732.735506	19361.408342
733.066401	19086.388194
733.397249	18568.540707
733.728048	17935.976722
734.058798	17104.748426
734.389501	16427.567709
734.720156	15962.070084
735.050762	15452.437156
735.381320	15098.596047
735.711831	14858.163256
736.042293	14518.928890
736.372707	14532.431620
736.703073	14316.937417
737.033391	14505.161499
737.363661	14470.266632
737.693883	14578.422067
738.024056	14749.241565
738.354182	14930.977682
738.684260	15222.691611
739.014290	15434.979640
739.344272	15613.527227
739.674207	15891.067952
740.004093	16005.847464
740.333931	16003.087432
740.663722	16042.713422
740.993464	16024.784558
741.323159	15857.138466
741.652806	15573.666824
741.982405	15370.102511
742.311956	15029.698598
742.641460	14905.605554
742.970915	14607.186891
743.300323	14272.466878
743.629683	14056.483683
743.958996	13780.909008
744.288260	13512.535621
744.617477	13219.092576
744.946647	13141.501657
745.275768	12875.951316
745.604842	12684.092563
745.933869	12520.844878
746.262847	12474.123464
746.591778	12403.499419
746.920662	12300.722895
747.249498	12297.766258
747.578286	12416.992067
747.907027	12562.744428
748.235720	12774.387190
748.564365	12808.198209
748.892963	12707.969988
749.221514	12764.864450
749.550017	12619.868263
749.878473	12579.929721
750.206881	12362.469468
750.535242	12271.559820
750.863555	12188.340452
751.191821	12094.935433
751.520039	12119.571552
751.848210	12021.891635
752.176334	12051.596634
752.504411	11955.184566
752.832440	11796.085751
753.160421	11867.415557
753.488356	11748.703946
753.816243	11650.769450
754.144082	11509.155877
754.471875	11457.874739
754.799620	11398.575647
755.127318	11375.204857
755.454969	11333.012920
755.782572	11287.050200
756.110129	11294.256530
756.437638	11212.327697
756.765100	11213.414066
757.092515	11206.318642
757.419882	11224.179450
757.747203	11229.336550
758.074477	11307.461832
758.401703	11260.551375
758.728882	11424.527507
759.056014	11458.431787
759.383099	11577.408059
759.710138	11672.464056
760.037129	11758.866912
760.364073	11772.740168
760.690970	11760.810277
761.017820	11753.556057
761.344623	11941.596136
761.671379	12263.060435
761.998088	12888.370199
762.324751	14430.164253
762.651366	17267.315555
762.977935	20891.716127
763.304456	23106.413479
763.630931	23557.926944
763.957359	22388.767420
764.283740	20487.516412
764.610074	18626.604717
764.936362	16525.035898
765.262602	15019.349109
765.588796	13561.767530
765.914943	12533.248637
766.241044	11694.047756
766.567097	11066.295553
766.893104	10523.789261
767.219064	10168.100569
767.544978	9786.006313
767.870845	9481.946598
768.196665	9295.159246
768.522438	9100.968958
768.848165	8936.836551
769.173846	8768.951004
769.499479	8658.612749
769.825066	8493.580496
770.150607	8311.264647
770.476101	8255.237263
770.801548	8142.751476
771.126949	8005.468254
771.452303	7911.715396
771.777611	7751.661282
772.102872	7726.478198
772.428087	7610.990404
772.753256	7490.196796
773.078378	7402.516007
773.403453	7264.393433
773.728482	7163.479615
774.053465	7098.206755
774.378401	7016.882862
774.703291	6918.305619
775.028135	6823.552091
775.352932	6791.200486
775.677683	6708.157559
776.002388	6620.779239
776.327046	6614.374453
776.651658	6533.642895
776.976224	6453.455781
777.300743	6442.362722
777.625216	6372.484768
777.949643	6332.349622
778.274024	6341.096024
778.598359	6269.735971
778.922647	6271.243276
779.246889	6229.411781
779.571086	6241.109778
779.895236	6255.416573
780.219339	6245.155304
780.543397	6243.466518
780.867409	6295.423170
781.191374	6288.632736
781.515294	6256.066882
781.839167	6306.491023
782.162995	6279.682167
782.486776	6229.787347
782.810511	6190.317633
783.134201	6114.397856
783.457844	6107.113389
783.781441	6055.585235
784.104993	6015.697105
784.428498	5981.951621
784.751958	5963.339681
785.075372	5942.887720
785.398739	5906.412451
785.722061	5929.505977
786.045337	5924.976500
786.368568	6034.339292
786.691752	6058.410801
787.014891	6302.987421
787.337983	6582.088383
787.661030	7013.205340
787.984031	7431.104391
788.306987	7692.389915
788.629897	7782.722351
788.952760	7692.843619
789.275579	7513.111361
789.598351	7221.997329
789.921078	6958.113090
790.243759	6680.305184
790.566395	6483.354865
790.888984	6292.411081
791.211529	6154.094422
791.534027	5989.173074
791.856480	5857.001582
792.178888	5795.693589
792.501249	5730.221604
792.823566	5625.678155
793.145836	5621.728411
793.468062	5602.342654
793.790241	5558.126694
794.112375	5600.001038
794.434464	5700.574578
794.756507	5731.116408
795.078505	5853.124934
795.400457	6063.416667
795.722364	6298.856196
796.044226	6491.158571
796.366042	6644.785214
796.687812	6594.522389
797.009538	6620.333097
797.331218	6531.543254
797.652852	6462.862574
797.974442	6341.280026
798.295986	6268.100116
798.617484	6145.526981
798.938938	6038.858686
799.260346	5975.380477
799.581709	5836.453839
799.903026	5780.928050
800.224299	5707.896854
800.545526	5592.827476
800.866708	5529.102250
801.187845	5484.341845
801.508936	5407.418879
801.829983	5377.149271
802.150984	5275.721255
802.471940	5243.656996
802.792851	5231.659050
803.113717	5203.710893
803.434538	5176.188714
803.755314	5150.872039
804.076045	5139.925173
804.396731	5105.577272
804.717372	5121.973625
805.037967	5125.068893
805.358518	5153.821114
805.679024	5208.590730
805.999485	5220.949119
806.319901	5239.800513
806.640272	5250.205455
806.960598	5302.446932
807.280879	5295.298576
807.601115	5327.327547
807.921306	5294.260098
808.241453	5288.493018
808.561554	5298.570285
808.881611	5266.979894
809.201623	5259.952526
809.521590	5211.706163
809.841513	5196.428946
810.161390	5214.824117
810.481223	5124.879850
810.801011	5107.134988
811.120755	5087.300568
811.440453	5033.970202
811.760107	5008.524978
812.079716	4976.541377
812.399281	4923.669756
812.718801	4921.355866
813.038276	4889.589035
813.357707	4856.292214
813.677093	4871.115727
813.996434	4813.331501
814.315731	4831.144418
814.634983	4829.412782
814.954191	4837.531560
815.273354	4896.155138
815.592473	4935.524029
815.911547	5009.371892
816.230577	5061.225200
816.549562	5147.512110
816.868502	5198.992373
817.187399	5253.870374
817.506250	5332.580429
817.825058	5354.990879
818.143821	5507.654661
818.462539	5668.064177
818.781213	5896.562037
819.099843	6252.618733
819.418429	6877.192488
819.736970	7490.824420
820.055466	8186.271757
820.373919	9083.012368
820.692327	10512.141675
821.010691	13159.523782
821.329011	19289.947466
821.647286	28717.152175
821.965517	38907.118749
822.283704	44292.631293
822.601847	45754.949037
822.919945	41216.199103
823.237999	36163.359862
823.556010	31037.998582
823.873976	26404.860605
824.191897	22246.790884
824.509775	19232.856399
824.827609	16510.368661
825.145398	14979.781092
825.463144	14250.736985
825.780845	14529.830385
826.098502	15769.755106
826.416116	18195.346608
826.733685	20451.449477
827.051210	20962.955193
827.368692	19553.216684
827.686129	17027.039039
828.003522	14589.731896
828.320872	12396.968604
828.638177	10775.650348
828.955439	9548.154593
829.272656	8512.348712
829.589830	7678.199067
829.906960	6962.670293
830.224046	6431.778820
830.541088	6036.532194
830.858086	5782.077433
831.175041	5580.728707
831.491952	5525.618813
831.808819	5556.327002
832.125642	5795.502025
832.442421	6334.555127
832.759157	7424.697084
833.075849	9164.837857
833.392497	10985.327060
833.709101	12084.817837
834.025662	11838.938079
834.342179	10796.225818
834.658653	9508.705043
834.975083	8423.934435
835.291469	7530.553753
835.607811	6805.845038
835.924110	6295.589528
836.240366	5820.241488
836.556578	5374.933683
836.872746	5030.141446
837.188871	4757.669601
837.504952	4539.473339
837.820990	4376.659193
838.136984	4270.323614
838.452935	4217.956108
838.768842	4246.922578
839.084706	4520.891646
839.400526	5254.618985
839.716303	6140.319469
840.032037	6698.533996
840.347727	6553.212654
840.663373	5959.805832
840.978977	5395.743567
841.294537	4958.390703
841.610054	4635.419099
841.925527	4396.470928
842.240957	4197.156308
842.556344	4017.986138
842.871687	3861.428064
843.186987	3714.080178
843.502244	3597.679936
843.817458	3511.357738
844.132629	3439.370061
844.447756	3394.783576
844.762840	3348.609128
845.077881	3309.429280
845.392879	3279.041204
845.707833	3253.406937
846.022745	3227.298801
846.337613	3214.532079
846.652438	3193.339068
846.967221	3185.505115
847.281960	3165.872342
847.596656	3152.601504
847.911309	3143.734115
848.225919	3131.360602
848.540485	3118.765280
848.855009	3114.692027
849.169490	3102.003443
849.483928	3094.560179
849.798323	3089.713110
850.112675	3078.705751
850.426984	3083.613314
850.741251	3069.132599
851.055474	3069.137641
851.369654	3072.235430
851.683792	3067.274934
851.997887	3071.312898
852.311938	3068.003381
852.625947	3071.842220
852.939914	3063.700756
853.253837	3070.362641
853.567718	3068.114286
853.881555	3065.366857
854.195350	3068.139492
854.509103	3066.231415
854.822812	3064.436765
855.136479	3056.728840
855.450103	3061.391908
855.763685	3049.933365
856.077224	3058.667164
856.390720	3061.671692
856.704173	3074.009916
857.017584	3083.237748
857.330953	3086.237234
857.644278	3093.642689
857.957561	3101.267435
858.270802	3098.484718
858.584000	3097.579831
858.897155	3089.352668
859.210268	3077.601738
859.523339	3066.080181
859.836367	3064.315777
860.149352	3060.736558
860.462295	3054.276319
860.775195	3046.689382
861.088054	3039.614123
861.400869	3046.119732
861.713642	3038.305944
862.026373	3048.937737
862.339062	3052.322872
862.651708	3062.117834
862.964312	3076.901017
863.276873	3086.867379
863.589392	3114.823097
863.901869	3140.694299
864.214303	3160.929490
864.526696	3180.073272
864.839045	3198.458360
865.151353	3209.090154
865.463619	3210.211810
865.775842	3209.125442
866.088023	3216.803119
866.400162	3209.533775
866.712258	3208.580997
867.024313	3209.014536
867.336325	3208.318857
867.648296	3208.092005
867.960224	3204.520348
868.272110	3210.947819
868.583954	3207.766851
868.895755	3215.124415
869.207515	3212.674414
869.519233	3233.433886
869.830909	3235.750296
870.142542	3249.197574
870.454134	3255.370467
870.765684	3269.130296
871.077191	3284.601597
871.388657	3299.503248
871.700081	3313.003458
872.011463	3334.498938
872.322803	3355.102134
872.634101	3370.560832
872.945357	3390.604460
873.256571	3420.274171
873.567744	3432.012497
873.878874	3439.574228
874.189963	3452.409006
874.501010	3453.361784
874.812015	3453.697021
875.122979	3468.150009
875.433900	3464.782518
875.744780	3467.968527
876.055618	3474.048159
876.366415	3470.176552
876.677169	3479.406905
876.987882	3494.840398
877.298554	3515.002492
877.609183	3554.031106
877.919771	3597.599278
878.230317	3662.698218
878.540822	3765.943569
878.851285	3914.249274
879.161707	4130.877737
879.472087	4496.948686
879.782425	5103.560810
880.092722	6265.851762
880.402977	8153.683218
880.713191	10480.458023
881.023363	12826.926095
881.333494	14143.557013
881.643583	14587.448253
881.953631	14187.367160
882.263637	13357.991488
882.573602	12333.434942
882.883526	11399.964485
883.193408	10463.706269
883.503248	9566.295185
883.813048	8757.313501
884.122806	8009.763317
884.432522	7253.166783
884.742197	6609.476972
885.051831	6055.872580
885.361424	5572.070525
885.670975	5189.106670
885.980485	4866.525756
886.289954	4611.660141
886.599382	4397.814395
886.908768	4215.417887
887.218113	4061.932397
887.527417	3932.788117
887.836680	3812.319664
888.145901	3714.186043
888.455082	3639.992861
888.764221	3573.744538
889.073319	3510.818335
889.382376	3481.181391
889.691392	3456.000828
890.000366	3450.737863
890.309300	3446.369703
890.618193	3449.422122
890.927044	3444.953139
891.235855	3448.149231
891.544625	3462.095583
891.853353	3493.101200
892.162041	3550.330899
892.470687	3641.628715
892.779293	3756.730861
893.087858	3924.734874
893.396381	4198.280485
893.704864	4601.023307
894.013306	5153.359848
894.321707	5721.518052
894.630068	6066.426236
894.938387	6104.285301
895.246665	5925.069762
895.554903	5619.729594
895.863100	5286.927740
896.171256	5022.204149
896.479371	4783.513076
896.787446	4570.153801
897.095480	4379.126838
897.403473	4231.504209
897.711425	4090.183023
898.019336	3968.169456
898.327207	3849.097402
898.635038	3754.626179
898.942827	3647.287411
899.250576	3564.894792
899.558284	3484.886639
899.865952	3427.276333
900.173579	3366.318701
900.481165	3322.977381
900.788711	3280.863582
901.096216	3249.278232
901.403681	3223.086917
901.711105	3212.099722
902.018489	3205.614278
902.325832	3236.854308
902.633135	3296.218936
902.940397	3461.145325
903.247619	3858.136191
903.554800	4592.266822
903.861941	5535.643147
904.169041	6219.813424
904.476101	6432.101454
904.783121	6160.085833
905.090100	5764.650164
905.397039	5361.279718
905.703938	5007.345348
906.010796	4693.417574
906.317614	4443.436837
906.624391	4214.717167
906.931129	4022.931510
907.237826	3845.964325
907.544483	3680.921989
907.851099	3513.543078
908.157675	3355.810416
908.464211	3219.842935
908.770707	3120.043212
909.077163	3043.707540
909.383578	2984.960454
909.689954	2944.356480
909.996289	2910.605955
910.302584	2893.549211
910.608839	2881.188302
910.915054	2870.334697
911.221229	2864.872607
911.527363	2867.786394
911.833458	2874.760831
912.139513	2886.131153
912.445527	2900.155643
912.751502	2930.611774
913.057436	2977.633137
913.363331	3030.794624
913.669186	3112.466358
913.975000	3230.507496
914.280775	3413.105650
914.586510	3674.507121
914.892205	4037.442471
915.197859	4527.329199
915.503475	5098.318010
915.809050	5581.283234
916.114585	5860.230441
916.420081	5923.116314
916.725536	5857.735070
917.030952	5630.162262
917.336328	5429.733546
917.641665	5220.092123
917.946961	4996.557279
918.252218	4805.411848
918.557435	4579.207713
918.862612	4384.694792
919.167750	4220.811922
919.472848	4032.469373
919.777906	3872.095146
920.082925	3715.181671
920.387904	3564.594843
920.692843	3459.285140
920.997743	3364.455995
921.302603	3270.415790
921.607423	3209.932026
921.912204	3144.119763
922.216946	3097.423555
922.521647	3052.521998
922.826310	3007.199504
923.130932	2970.555357
923.435516	2933.386929
923.740059	2908.075296
924.044564	2875.988352
924.349028	2854.414734
924.653454	2824.495486
924.957840	2799.640077
925.262186	2782.371604
925.566493	2758.194230
925.870761	2732.494428
926.174989	2724.562172
926.479178	2707.981817
926.783328	2695.134437
927.087438	2683.012982
927.391509	2673.167609
927.695541	2657.966009
927.999533	2648.942344
928.303486	2641.486477
928.607400	2635.240488
928.911275	2629.697739
929.215110	2625.165742
929.518906	2618.942438
929.822663	2618.750874
930.126381	2619.204578
930.430060	2623.910495
930.733699	2623.723972
931.037299	2630.970631
931.340861	2628.732358
931.644383	2629.390229
931.947866	2632.062040
932.251309	2627.373767
932.554714	2626.645321
932.858080	2627.461987
933.161407	2621.180710
933.464694	2617.472941
933.767943	2614.342385
934.071153	2612.467075
934.374323	2608.232506
934.677455	2605.648915
934.980548	2601.631115
935.283602	2599.697833
935.586617	2595.566607
935.889593	2601.495004
936.192530	2600.680858
936.495428	2605.845520
936.798287	2615.675770
937.101108	2631.101701
937.403890	2650.248003
937.706632	2678.516273
938.009336	2706.320757
938.312002	2735.753534
938.614628	2761.360075
938.917216	2778.000924
939.219765	2787.866462
939.522275	2795.423151
939.824747	2797.812658
940.127179	2789.993829
940.429573	2783.510905
940.731929	2784.902263
941.034246	2773.582352
941.336524	2770.091353
941.638763	2765.503903
941.940964	2760.233377
942.243126	2745.261150
942.545250	2736.252608
942.847335	2723.120402
943.149381	2709.962991
943.451389	2696.634180
943.753359	2684.129598
944.055290	2672.567712
944.357182	2666.848522
944.659036	2661.658655
944.960851	2656.514157
945.262628	2651.906542
945.564367	2656.199085
945.866067	2652.909732
946.167729	2651.369660
946.469352	2649.499392
946.770937	2646.051242
947.072484	2641.821714
947.373992	2640.314409
947.675462	2635.371558
947.976893	2632.974489
948.278286	2630.181690
948.579641	2626.158849
948.880958	2623.575258
949.182236	2623.731534
949.483476	2617.684670
949.784678	2617.966974
950.085841	2619.741460
950.386967	2622.995525
950.688054	2629.324694
950.989103	2634.595220
951.290114	2644.370017
951.591087	2656.196564
951.892021	2666.578821
952.192917	2678.062569
952.493776	2689.364836
952.794596	2692.608819
953.095378	2696.296423
953.396122	2692.876000
953.696828	2688.805268
953.997496	2684.999197
954.298126	2676.144410
954.598718	2666.251146
954.899272	2659.501041
955.199788	2648.352529
955.500266	2635.951291
955.800706	2619.219701
956.101108	2604.436517
956.401472	2594.240784
956.701798	2579.324009
957.002087	2565.949828
957.302337	2559.721483
957.602550	2546.022147
957.902724	2533.835158
958.202861	2529.139323
958.502960	2519.425019
958.803022	2514.525018
959.103045	2505.098060
959.403031	2498.463902
959.702979	2495.471977
960.002889	2491.507109
960.302762	2483.814309
960.602596	2480.156952
960.902393	2478.982363
961.202153	2474.097485
961.501875	2470.674541
961.801559	2470.104891
962.101205	2464.945270
962.400814	2467.717904
962.700385	2462.187759
962.999918	2463.687502
963.299414	2460.541822
963.598873	2458.522840
963.898293	2458.573251
964.197677	2456.201388
964.497022	2455.941769
964.796331	2456.823971
965.095601	2456.579475
965.394835	2451.203084
965.694030	2452.677622
965.993189	2454.386573
966.292309	2449.776438
966.591393	2450.454473
966.890439	2447.525563
967.189447	2449.778958
967.488419	2451.828188
967.787353	2451.934052
968.086249	2448.483382
968.385108	2452.032354
968.683930	2454.595781
968.982714	2457.050823
969.281462	2456.350103
969.580172	2458.084259
969.878844	2457.786831
970.177480	2462.528037
970.476078	2462.948973
970.774639	2471.299644
971.073162	2469.333594
971.371649	2471.415591
971.670098	2470.135138
971.968510	2470.568677
972.266885	2472.113791
972.565223	2477.691827
972.863524	2478.735346
973.161788	2478.437918
973.460014	2480.509832
973.758204	2481.187867
974.056356	2481.984370
974.354471	2482.559061
974.652550	2481.281129
974.950591	2480.522435
975.248595	2481.749956
975.546563	2478.737867
975.844493	2478.652167
976.142386	2477.031436
976.440243	2471.692854
976.738062	2475.052783
977.035845	2470.856023
977.333590	2467.622123
977.631299	2466.364355
977.928971	2466.618933
978.226606	2463.415280
978.524204	2463.944601
978.821765	2459.223560
979.119290	2459.624332
979.416777	2461.625670
979.714228	2459.813375
980.011642	2460.874538
980.309020	2460.987964
980.606360	2468.958028
980.903664	2477.744759
981.200931	2490.917294
981.498162	2507.555623
981.795356	2535.859181
982.092513	2574.257650
982.389633	2614.937241
982.686717	2657.585402
982.983764	2686.670339
983.280775	2704.387475
983.577749	2706.761858
983.874686	2698.144006
984.171587	2681.457786
984.468451	2666.546053
984.765279	2650.308497
985.062070	2629.934673
985.358824	2616.152159
985.655543	2590.280957
985.952224	2571.769840
986.248869	2542.848741
986.545478	2520.143384
986.842050	2498.564725
987.138586	2479.768783
987.435086	2467.612040
987.731549	2456.277006
988.027975	2452.004628
988.324366	2449.421037
988.620719	2442.343257
988.917037	2443.381734
989.213318	2435.565425
989.509563	2434.226999
989.805772	2432.296237
990.101944	2430.834302
990.398080	2431.988727
990.694180	2431.456885
990.990244	2434.058120
991.286271	2430.299940
991.582262	2429.959662
991.878217	2432.404622
992.174136	2430.972934
992.470019	2433.601896
992.765865	2437.297062
993.061676	2436.918975
993.357450	2442.940633
993.653188	2442.509615
993.948890	2445.148659
994.244556	2456.481172
994.540186	2462.787656
994.835780	2473.641260
995.131337	2487.799341
995.426859	2503.343739
995.722345	2521.194464
996.017795	2537.268183
996.313208	2554.236707
996.608586	2565.349931
996.903928	2565.700291
997.199234	2566.685837
997.494504	2563.696432
997.789738	2553.606563
998.084936	2545.747404
998.380099	2532.267359
998.675225	2522.827798
998.970316	2511.444873
999.265371	2499.502379
999.560390	2482.160810
999.855373	2472.814511
1000.150320	2463.979889
1000.445232	2457.444033
1000.740108	2451.533280
1001.034948	2445.436004
1001.329752	2438.496856
1001.624521	2436.573656
1001.919254	2428.142326
1002.213951	2427.698705
1002.508613	2423.645617
1002.803239	2421.485482
1003.097829	2419.259813
1003.392384	2423.721234
1003.686903	2418.843918
1003.981386	2421.326686
1004.275834	2418.286870
1004.570246	2420.315935
1004.864623	2416.086407
1005.158964	2416.363670
1005.453270	2416.328382
1005.747540	2416.066242
1006.041775	2416.023392
1006.335974	2416.769483
1006.630138	2412.824780
1006.924266	2414.193453
1007.218359	2414.155645
1007.512416	2412.991138
1007.806438	2413.328896
1008.100425	2414.538773
1008.394376	2412.991138
1008.688292	2412.025757
1008.982172	2411.614903
1009.276017	2412.935686
1009.569827	2409.787485
1009.863602	2411.309913
1010.157341	2410.543658
1010.451045	2410.957033
1010.744714	2410.780592
1011.038347	2409.903432
1011.331945	2409.411919
1011.625508	2409.154820
1011.919036	2408.365880
1012.212528	2407.589542
1012.505986	2410.263874
1012.799408	2407.677762
1013.092795	2407.302196
1013.386147	2409.540468
1013.679464	2406.593914
1013.972745	2407.871847
1014.265992	2406.714902
1014.559204	2407.171126
1014.852380	2405.593245
1015.145521	2409.159861
1015.438628	2407.771023
1015.731699	2408.950653
1016.024736	2410.054666
1016.317737	2407.914696
1016.610703	2410.762948
1016.903635	2405.724315
1017.196531	2405.184912
1017.489393	2405.648698
1017.782219	2406.553585
1018.075011	2410.757907
1018.367768	2411.098185
1018.660490	2410.354615
1018.953177	2410.354615
1019.245829	2410.354615
