Dividing Wavelength (nm)	Counts (n)	Blue Motor Position (mm): 9.600000	Red Motor Position (mm): 0.000000	
326.493990	1974.803964
326.888308	1974.803964
327.282561	1974.803964
327.676750	1951.092897
328.070874	1950.331682
328.464933	1958.999946
328.858929	1969.115022
329.252859	1982.358133
329.646726	1993.814155
330.040528	2013.207474
330.434265	2029.805473
330.827938	2048.976981
331.221547	2070.081771
331.615091	2088.686150
332.008571	2107.981166
332.401986	2131.031842
332.795338	2150.614204
333.188625	2172.167657
333.581847	2189.897395
333.975006	2207.324664
334.368100	2225.276213
334.761129	2240.790364
335.154095	2256.743095
335.546996	2282.843669
335.939833	2322.149546
336.332606	2334.853254
336.725315	2346.526045
337.117960	2353.893692
337.510540	2359.738910
337.903056	2370.234592
338.295508	2378.018133
338.687896	2384.508619
339.080220	2389.264948
339.472480	2393.441544
339.864676	2401.424211
340.256807	2400.133675
340.648875	2403.428069
341.040879	2407.929820
341.432818	2408.000396
341.824694	2410.420150
342.216506	2409.384193
342.608253	2410.324368
342.999937	2407.372772
343.391557	2406.588873
343.783113	2404.070817
344.174605	2401.421690
344.566033	2402.175343
344.957397	2398.724673
345.348697	2395.629404
345.739934	2397.245094
346.131106	2394.258211
346.522215	2390.772253
346.913260	2391.440206
347.304241	2388.319731
347.695159	2388.917108
348.086012	2385.632796
348.476802	2380.269009
348.867528	2383.492827
349.258191	2379.449821
349.648789	2380.712630
350.039324	2381.826725
350.429796	2376.757845
350.820203	2377.929913
351.210548	2379.898484
351.600828	2373.776003
351.991045	2374.340612
352.381198	2374.799357
352.771288	2378.958309
353.161314	2375.137114
353.551276	2373.458410
353.941175	2375.507639
354.331010	2373.682741
354.720782	2373.944881
355.110490	2375.641229
355.500135	2376.790613
355.889717	2375.769779
356.279235	2375.487474
356.668689	2375.048894
357.058080	2377.221631
357.447408	2376.087372
357.836672	2372.495549
358.225873	2377.766076
358.615010	2376.286497
359.004084	2379.207846
359.393095	2378.184492
359.782043	2378.882691
360.170927	2380.510984
360.559748	2382.237579
360.948505	2382.749256
361.337199	2381.970398
361.725830	2379.843031
362.114398	2383.150028
362.502903	2382.900491
362.891344	2385.446274
363.279722	2382.885368
363.668037	2384.952241
364.056289	2383.182796
364.444478	2384.657333
364.832603	2384.997611
365.220665	2385.128681
365.608665	2384.163300
365.996601	2385.504247
366.384474	2383.742364
366.772284	2389.718652
367.160031	2389.685884
367.547715	2386.918291
367.935336	2384.531304
368.322893	2387.072046
368.710388	2389.660678
369.097820	2393.287788
369.485189	2390.132026
369.872495	2388.052550
370.259738	2390.570607
370.646918	2392.256873
371.034035	2390.482386
371.421090	2386.091541
371.808081	2390.779814
372.195010	2391.634290
372.581875	2389.532129
372.968678	2390.537839
373.355418	2391.296533
373.742096	2391.599002
374.128710	2392.017418
374.515262	2391.435164
374.901751	2391.614125
375.288177	2390.862993
375.674540	2391.843498
376.060841	2393.781822
376.447079	2392.844167
376.833254	2394.011194
377.219367	2390.928528
377.605417	2391.735113
377.991404	2391.755278
378.377329	2391.412479
378.763191	2389.890051
379.148991	2393.930536
379.534727	2393.323077
379.920402	2395.402553
380.306013	2395.168139
380.691563	2395.629404
381.077049	2395.614281
381.462474	2394.709394
381.847835	2398.313819
382.233134	2394.966493
382.618371	2395.770557
383.003545	2396.143602
383.388657	2397.597975
383.773706	2397.960938
384.158693	2396.877090
384.543618	2399.427914
384.928480	2398.303737
385.313280	2400.229457
385.698017	2397.557646
386.082692	2399.821124
386.467305	2401.522513
386.851856	2398.641494
387.236344	2400.668038
387.620770	2401.638460
388.005133	2399.538819
388.389435	2402.031670
388.773674	2398.018911
389.157851	2402.102246
389.541965	2399.110321
389.926018	2400.199210
390.310008	2401.240209
390.693936	2401.683830
391.077802	2403.327246
391.461606	2401.537637
391.845348	2403.143244
392.229027	2401.714077
392.612645	2400.675599
392.996200	2404.343039
393.379694	2400.693243
393.763125	2404.958060
394.146494	2404.438821
394.529801	2404.680796
394.913047	2402.918913
395.296230	2404.494273
395.679351	2403.995199
396.062410	2403.536454
396.445408	2403.380178
396.828343	2405.016033
397.211217	2401.494787
397.594028	2400.630229
397.976778	2403.649880
398.359466	2404.516959
398.742092	2400.965466
399.124656	2406.316651
399.507158	2403.206259
399.889598	2406.682134
400.271977	2403.569222
400.654294	2406.152813
401.036549	2407.171126
401.418742	2410.221024
401.800874	2405.555436
402.182944	2406.074675
402.564952	2409.348905
402.946898	2407.297155
403.328783	2409.674059
403.710606	2407.624830
404.092367	2409.353946
404.474067	2409.401837
404.855705	2406.752710
405.237282	2408.948133
405.618797	2410.165572
406.000250	2409.230438
406.381642	2407.927299
406.762972	2410.278998
407.144240	2410.031981
407.525447	2408.456620
407.906593	2409.651374
408.287677	2408.446538
408.668700	2410.195818
409.049661	2408.958215
409.430560	2408.159192
409.811399	2412.461817
410.192176	2411.856879
410.572891	2412.350912
410.953545	2411.718247
411.334138	2412.406364
411.714669	2409.858061
412.095139	2411.577095
412.475547	2411.561971
412.855894	2409.469892
413.236180	2413.134811
413.616405	2412.421488
413.996568	2410.026940
414.376670	2413.056673
414.756711	2411.745973
415.136691	2414.614390
415.516609	2412.867630
415.896466	2413.321334
416.276262	2411.191446
416.655997	2411.690521
417.035670	2407.937382
417.415283	2413.157496
417.794834	2409.459810
418.174324	2416.973650
418.553753	2412.958371
418.933121	2415.098341
419.312428	2412.572722
419.691674	2412.761766
420.070859	2414.705131
420.449983	2414.511046
420.829045	2418.249062
421.208047	2413.210428
421.586988	2415.534400
421.965867	2411.771179
422.344686	2414.730336
422.723444	2414.271591
423.102141	2414.047260
423.480777	2416.870306
423.859352	2417.190419
424.237866	2415.052970
424.616319	2414.919380
424.994712	2416.877868
425.373044	2415.000038
425.751314	2416.562796
426.129524	2417.230749
426.507673	2414.972312
426.885762	2415.547003
427.263789	2417.699576
427.641756	2415.978022
428.019662	2415.887281
428.397508	2414.379976
428.775292	2417.467683
429.153016	2413.283525
429.530679	2415.930131
429.908282	2417.853331
430.285824	2419.637900
430.663305	2414.639596
431.040726	2415.143711
431.418086	2416.419123
431.795385	2418.904412
432.172624	2418.604463
432.549802	2416.051119
432.926920	2420.968764
433.303977	2418.075142
433.680974	2416.686304
434.057910	2416.557755
434.434786	2417.944072
434.811601	2419.963054
435.188355	2416.726633
435.565050	2416.527508
435.941683	2422.337437
436.318257	2414.947106
436.694770	2414.488361
437.071222	2416.046077
437.447614	2417.019020
437.823946	2414.437949
438.200218	2417.916346
438.576429	2417.997004
438.952580	2418.014648
439.328670	2422.040009
439.704700	2422.408014
440.080670	2419.078332
440.456580	2416.963568
440.832429	2420.041192
441.208218	2419.826943
441.583947	2418.745615
441.959616	2421.538415
442.335224	2420.862900
442.710773	2418.851480
443.086261	2420.741912
443.461689	2420.084042
443.837057	2420.968764
444.212365	2420.404155
444.587612	2419.128743
444.962800	2423.391039
445.337927	2420.792324
445.712995	2420.131933
446.088002	2423.207037
446.462949	2421.740061
446.837837	2421.099834
447.212664	2421.102355
447.587431	2421.866090
447.962139	2421.568662
448.336786	2423.897675
448.711374	2423.408683
449.085901	2425.467994
449.460369	2422.347520
449.834776	2422.211409
450.209124	2424.684095
450.583412	2421.525812
450.957640	2424.684095
451.331808	2424.976482
451.705917	2423.491862
452.079965	2421.614032
452.453954	2425.863725
452.827883	2423.204516
453.201752	2427.020669
453.575562	2423.247366
453.949311	2425.838519
454.323001	2423.678384
454.696632	2424.124527
455.070202	2425.132757
455.443713	2423.330545
455.817164	2423.262489
456.190556	2420.963723
456.563888	2426.965217
456.937160	2424.316090
457.310373	2425.412541
457.683526	2426.657706
458.056619	2423.622932
458.429653	2426.370361
458.802628	2426.841708
459.175542	2428.366658
459.548398	2428.338931
459.921194	2428.525454
460.293930	2429.962183
460.666607	2429.574014
461.039224	2430.496545
461.411782	2429.561411
461.784280	2428.908582
462.156719	2432.354210
462.529099	2428.898499
462.901419	2430.042841
463.273680	2432.054262
463.645882	2432.825558
464.018024	2430.325146
464.390106	2430.940167
464.762130	2436.556012
465.134094	2432.729776
465.505999	2437.884356
465.877845	2438.890066
466.249631	2437.324788
466.621358	2440.694799
466.993026	2440.001641
467.364634	2441.072886
467.736184	2438.958122
468.107674	2435.129365
468.479105	2439.442073
468.850477	2437.992741
469.221790	2438.390992
469.593043	2436.669438
469.964238	2434.211875
470.335373	2436.064499
470.706449	2437.864191
471.077467	2439.101795
471.448425	2439.457196
471.819324	2442.343257
472.190164	2445.367949
472.560945	2437.806218
472.931667	2441.551795
473.302330	2439.706733
473.672934	2438.408636
474.043479	2437.387802
474.413965	2437.702874
474.784393	2431.587955
475.154761	2435.126845
475.525070	2433.881680
475.895321	2437.294541
476.265513	2429.778181
476.635645	2442.330654
477.005719	2438.262442
477.375734	2441.622372
477.745691	2439.661363
478.115588	2440.054573
478.485427	2443.122115
478.855207	2444.037084
479.224928	2448.806016
479.594591	2447.535645
479.964194	2445.667897
480.333739	2445.670418
480.703226	2443.837959
481.072653	2448.367435
481.442022	2443.835438
481.811333	2447.986828
482.180584	2445.050356
482.549777	2445.511622
482.918912	2443.301076
483.287988	2445.718309
483.657005	2445.907352
484.025964	2444.929368
484.394864	2445.811570
484.763706	2447.117229
485.132489	2441.980293
485.501213	2443.958946
485.869879	2442.295366
486.238487	2448.248968
486.607036	2444.810901
486.975527	2445.514142
487.343959	2446.567743
487.712333	2446.676128
488.080648	2441.720674
488.448905	2446.834925
488.817104	2441.776127
489.185244	2446.091354
489.553326	2448.120419
489.921350	2448.553958
490.289315	2448.720316
490.657222	2452.458332
491.025070	2452.352467
491.392861	2450.683846
491.760593	2451.147632
492.128267	2448.634617
492.495883	2450.411623
492.863440	2447.218052
493.230939	2444.354677
493.598380	2445.642692
493.965763	2442.229831
494.333088	2444.195881
494.700354	2442.318051
495.067563	2444.004317
495.434713	2438.912751
495.801805	2445.882147
496.168839	2446.988680
496.535815	2448.226283
496.902733	2445.514142
497.269593	2446.411468
497.636395	2446.149328
498.003139	2448.480861
498.369825	2448.410285
498.736453	2445.521704
499.103023	2448.183433
499.469535	2448.405244
499.835989	2448.775769
500.202385	2452.276850
500.568723	2453.932869
500.935003	2451.888681
501.301226	2451.276181
501.667390	2452.687704
502.033497	2453.683332
502.399546	2451.263578
502.765537	2452.508743
503.131470	2453.922787
503.497345	2457.295319
503.863163	2454.794907
504.228923	2455.571244
504.594625	2456.133333
504.960269	2455.268775
505.325856	2462.399487
505.691385	2458.353961
506.056856	2461.734055
506.422270	2459.460494
506.787625	2462.374281
507.152924	2462.724642
507.518164	2464.872173
507.883347	2462.243211
508.248472	2466.364355
508.613540	2467.798563
508.978550	2472.844758
509.343503	2472.970787
509.708398	2477.747280
510.073236	2476.718885
510.438016	2476.630664
510.802738	2477.522949
511.167403	2480.850110
511.532010	2480.446818
511.896561	2483.390852
512.261053	2487.537201
512.625488	2485.024186
512.989866	2486.352530
513.354186	2487.847232
513.718449	2487.892602
514.082655	2494.728407
514.446803	2498.552122
514.810894	2498.781494
515.174927	2504.629233
515.538904	2503.741990
515.902822	2506.678462
516.266684	2509.128463
516.630488	2511.863289
516.994235	2513.821777
517.357925	2517.968126
517.721558	2519.848476
518.085133	2520.594567
518.448651	2523.289064
518.812112	2524.193951
519.175516	2526.921215
519.538863	2532.358100
519.902152	2532.776515
520.265385	2537.653832
520.628560	2538.079809
520.991678	2541.686755
521.354739	2543.854451
521.717743	2548.015923
522.080690	2549.440049
522.443580	2553.714948
522.806413	2555.139074
523.169189	2556.681667
523.531908	2561.473284
523.894569	2561.357337
524.257174	2563.419169
524.619722	2566.315312
524.982213	2572.692372
525.344647	2571.747155
525.707025	2573.786302
526.069345	2577.483988
526.431608	2576.591704
526.793815	2582.648650
527.155964	2584.266861
527.518057	2588.098138
527.880093	2588.655185
528.242072	2592.015114
528.603995	2594.369333
528.965860	2594.044179
529.327669	2598.417380
529.689421	2599.254211
530.051117	2599.551639
530.412755	2605.359048
530.774337	2608.529934
531.135862	2609.213011
531.497331	2607.914913
531.858743	2605.028853
532.220098	2613.714761
532.581396	2612.177209
532.942638	2612.696448
533.303824	2618.823970
533.664953	2619.670884
534.026025	2621.236163
534.387040	2625.125413
534.747999	2626.794035
535.108902	2630.043058
535.469748	2631.590692
535.830537	2630.960548
536.191270	2632.994654
536.551947	2635.237967
536.912567	2636.957001
537.273131	2640.097640
537.633638	2638.328195
537.994089	2641.511683
538.354483	2639.593524
538.714821	2644.916983
539.075103	2647.460245
539.435328	2651.283960
539.795497	2649.522077
540.155609	2652.040133
540.515665	2651.997283
540.875665	2650.230359
541.235609	2655.697490
541.595496	2656.161276
541.955328	2662.152688
542.315102	2657.852583
542.674821	2661.441885
543.034483	2659.551452
543.394090	2662.160249
543.753640	2664.892555
544.113134	2668.441527
544.472571	2663.702842
544.831953	2671.738442
545.191278	2671.065448
545.550548	2667.289623
545.909761	2674.516118
546.268918	2672.154337
546.628019	2676.151972
546.987064	2674.352280
547.346053	2670.541168
547.704986	2675.257167
548.063863	2676.260357
548.422684	2676.698937
548.781449	2673.659121
549.140158	2677.051818
549.498811	2680.608352
549.857408	2676.404030
550.215949	2679.774041
550.574434	2676.532579
550.932864	2677.447548
551.291237	2680.605831
551.649555	2682.057684
552.007817	2679.637930
552.366022	2682.251768
552.724173	2684.782427
553.082267	2686.705627
553.440305	2686.660257
553.798288	2686.400638
554.156215	2684.444670
554.514086	2689.284178
554.871902	2686.670339
555.229661	2685.921728
555.587365	2682.839062
555.945014	2684.734536
556.302606	2682.219001
556.660143	2688.573375
557.017625	2686.551872
557.375050	2682.985256
557.732421	2686.367870
558.089735	2687.398786
558.446994	2686.796368
558.804197	2689.309383
559.161345	2692.853315
559.518437	2685.407530
559.875474	2686.423323
560.232455	2686.836697
560.589381	2687.492047
560.946251	2687.973478
561.303065	2690.511699
561.659825	2693.216278
562.016528	2688.999352
562.373177	2689.720237
562.729770	2690.899868
563.086307	2687.681091
563.442789	2692.568489
563.799216	2690.962882
564.155587	2692.276102
564.511904	2693.491021
564.868164	2692.734847
565.224370	2694.829447
565.580520	2694.272399
565.936615	2694.405990
566.292654	2693.498582
566.648638	2696.893799
567.004567	2695.530167
567.360441	2699.248018
567.716260	2702.610468
568.072023	2702.958307
568.427732	2700.654500
568.783385	2700.498224
569.138982	2702.275231
569.494525	2705.751107
569.850013	2705.806559
570.205445	2710.613300
570.560823	2708.896787
570.916145	2712.909545
571.271412	2715.936758
571.626625	2718.303580
571.981782	2721.434136
572.336884	2719.203426
572.691931	2723.606874
573.046923	2725.194837
573.401860	2728.791700
573.756743	2728.632904
574.111570	2734.251270
574.466342	2735.955180
574.821059	2743.325347
575.175722	2741.029101
575.530330	2745.367014
575.884882	2747.582601
576.239380	2749.626789
576.593823	2753.155597
576.948211	2755.603077
577.302544	2759.235228
577.656823	2766.081115
578.011047	2772.206117
578.365216	2773.718463
578.719330	2780.483692
579.073389	2783.120215
579.427394	2793.081535
579.781344	2797.744603
580.135239	2800.411373
580.489080	2807.655511
580.842866	2810.060142
581.196597	2824.679488
581.550273	2829.881958
581.903895	2838.595593
582.257463	2856.282481
582.610975	2857.510002
582.964434	2870.072557
583.317837	2875.832076
583.671186	2885.654764
584.024481	2894.970816
584.377721	2900.614388
584.730906	2911.392375
585.084037	2924.680857
585.437113	2927.100610
585.790135	2939.191818
586.143103	2941.795574
586.496016	2953.531380
586.848874	2960.054633
587.201679	2978.328816
587.554428	2983.909373
587.907124	3004.820079
588.259765	3010.380472
588.612352	3030.323277
588.964884	3037.305275
589.317362	3054.278840
589.669786	3068.159657
590.022155	3079.333374
590.374470	3099.041765
590.726731	3103.908999
591.078937	3110.855709
591.431090	3124.572689
591.783188	3133.369502
592.135232	3141.773106
592.487222	3162.126764
592.839157	3176.030267
593.191038	3189.003676
593.542866	3200.605892
593.894639	3203.552446
594.246358	3223.248234
594.598022	3240.345307
594.949633	3246.140114
595.301190	3262.770880
595.652692	3273.886625
596.004141	3297.469142
596.355535	3293.809265
596.706876	3306.639001
597.058162	3314.871205
597.409395	3343.351204
597.760573	3362.631097
598.111698	3373.981255
598.462768	3391.186713
598.813785	3407.956111
599.164748	3414.219745
599.515657	3443.334929
599.866511	3446.641926
600.217312	3483.137359
600.568060	3478.020588
600.918753	3518.438039
601.269392	3540.704815
601.619978	3550.290569
601.970510	3576.028180
602.320988	3601.299485
602.671412	3637.036224
603.021783	3652.789830
603.372100	3660.006242
603.722363	3688.995397
604.072572	3713.928944
604.422728	3736.064650
604.772830	3750.416815
605.122878	3777.460085
605.472872	3804.180721
605.822813	3832.625432
606.172701	3854.395655
606.522534	3889.960995
606.872314	3925.269237
607.222041	3945.370837
607.571714	3989.392713
607.921333	3992.785410
608.270899	4035.284857
608.620411	4078.036363
608.969870	4097.921194
609.319276	4128.457983
609.668627	4161.069208
610.017926	4213.295562
610.367171	4257.866923
610.716362	4294.019558
611.065500	4321.924865
611.414585	4367.489334
611.763616	4414.457765
612.112594	4446.441365
612.461518	4494.420547
612.810389	4548.020615
613.159207	4577.161005
613.507971	4623.224548
613.856682	4687.806770
614.205340	4723.072162
614.553945	4799.891785
614.902496	4811.345286
615.250994	4875.718300
615.599439	4920.292183
615.947830	4984.803828
616.296169	5035.679153
616.644454	5090.836938
616.992686	5152.878418
617.340864	5239.729937
617.688990	5275.464156
618.037063	5366.628382
618.385082	5423.172485
618.733048	5496.584287
619.080961	5542.932656
619.428821	5594.480975
619.776628	5647.760930
620.124382	5678.214540
620.472083	5729.783023
620.819731	5779.307319
621.167326	5782.967196
621.514868	5820.652342
621.862357	5814.381147
622.209793	5849.785170
622.557176	5858.904617
622.904506	5870.852152
623.251783	5873.007245
623.599007	5888.307147
623.946179	5901.406585
624.293297	5937.130722
624.640363	5923.489360
624.987376	5963.160720
625.334336	5985.462785
625.681243	5994.123487
626.028097	6033.600763
626.374899	6063.015895
626.721647	6105.588440
627.068343	6140.120343
627.414987	6167.319889
627.761577	6197.103026
628.108115	6274.595643
628.454600	6269.579695
628.801032	6332.367266
629.147412	6382.279730
629.493739	6436.310817
629.840014	6448.974196
630.186236	6540.322424
630.532405	6554.286420
630.878521	6625.364169
631.224585	6673.224883
631.570597	6694.657349
631.916556	6769.463031
632.262462	6819.859446
632.608316	6874.384566
632.954117	6903.565285
633.299866	6951.925074
633.645562	6985.688202
633.991206	6969.425439
634.336797	6958.415559
634.682336	6996.698082
635.027823	6998.858216
635.373257	7017.172728
635.718639	7022.133223
636.063968	7047.825464
636.409245	7009.124526
636.754470	7056.707977
637.099642	7065.212403
637.444762	7047.810340
637.789829	7103.900739
638.134845	7101.198680
638.479808	7139.841645
638.824719	7170.580081
639.169577	7163.560274
639.514383	7217.054478
639.859137	7218.012297
640.203839	7297.927188
640.548489	7297.551622
640.893086	7345.840835
641.237632	7361.309616
641.582125	7424.578617
641.926566	7463.365255
642.270955	7501.337746
642.615292	7552.724748
642.959576	7600.091429
643.303809	7651.879203
643.647990	7722.228505
643.992118	7770.361442
644.336195	7821.382960
644.680219	7889.889720
645.024192	7997.311667
645.368112	8140.498081
645.711981	8214.330820
646.055797	8431.113038
646.399562	8498.225919
646.743274	8727.918532
647.086935	8885.061380
647.430544	8940.798898
647.774101	9024.033389
648.117606	9130.008525
648.461059	9233.921829
648.804460	9210.485505
649.147810	9143.438159
649.491108	9135.715111
649.834354	9116.967060
650.177548	9000.501283
650.520690	8957.762380
650.863781	9003.412549
651.206820	9027.789048
651.549807	8991.240683
651.892742	8945.819887
652.235626	8960.446795
652.578458	8984.351946
652.921238	8917.770907
653.263967	9029.137557
653.606644	9025.238225
653.949269	9071.064834
654.291843	9040.885966
654.634365	9178.320423
654.976836	9151.463676
655.319255	9203.213641
655.661622	9257.748843
656.003938	9262.545501
656.346203	9281.318758
656.688416	9379.535558
657.030577	9390.676508
657.372687	9400.567252
657.714746	9509.194035
658.056753	9591.390048
658.398708	9526.477631
658.740612	9591.944575
659.082465	9708.304488
659.424266	9720.914935
659.766016	9808.353748
660.107715	9840.748203
660.449362	9922.009082
660.790958	9971.104880
661.132503	10031.661740
661.473996	10091.832953
661.815438	10179.523824
662.156829	10284.289083
662.498168	10283.704309
662.839456	10345.367703
663.180693	10429.945662
663.521879	10539.202589
663.863013	10589.520866
664.204097	10641.076746
664.545129	10815.472943
664.886110	10875.371933
665.227040	10955.410333
665.567918	11042.239167
665.908746	11126.897784
666.249522	11232.875440
666.590248	11296.368773
666.930922	11389.872095
667.271545	11432.195102
667.612118	11517.526713
667.952639	11518.736590
668.293109	11584.251425
668.633528	11616.784512
668.973896	11652.851447
669.314213	11718.169677
669.654480	11705.307173
669.994695	11761.818508
670.334859	11797.061214
670.674973	11826.020123
671.015035	11929.958633
671.355047	11977.020324
671.695008	12020.704443
672.034918	12048.574462
672.374777	12134.246351
672.714585	12153.402736
673.054342	12281.122889
673.394049	12277.843618
673.733705	12410.892271
674.073310	12375.135367
674.412864	12457.464971
674.752368	12379.811037
675.091820	12537.059749
675.431223	12450.982047
675.770574	12414.824371
676.109875	12432.027309
676.449125	12390.410063
676.788324	12417.828899
677.127473	12296.629478
677.466571	12327.277173
677.805619	12268.421702
678.144616	12311.458032
678.483562	12343.081190
678.822458	12283.325873
679.161303	12313.260245
679.500098	12337.994666
679.838842	12355.820186
680.177535	12463.491670
680.516179	12631.306641
680.854771	12784.552677
681.193314	13162.248526
681.531805	13627.705822
681.870247	13993.179393
682.208638	14319.142922
682.546978	14461.157267
682.885268	14552.777717
683.223508	14409.510646
683.561697	14348.353888
683.899836	14337.638915
684.237925	14203.249315
684.575963	14210.027147
684.913951	14098.234519
685.251889	14225.377460
685.589776	14268.378503
685.927614	14329.641125
686.265401	14446.174957
686.603137	14548.112129
686.940824	14804.336335
687.278460	15016.838614
687.616046	15128.628721
687.953582	15426.276088
688.291068	15436.186997
688.628504	15602.010711
688.965889	15644.676517
689.303224	15540.450661
689.640510	15456.278515
689.977745	15216.155755
690.314930	14936.671665
690.652065	14780.416060
690.989150	14519.362429
691.326185	14215.380852
691.663170	13962.456081
692.000105	13702.216596
692.336990	13481.219973
692.673825	13336.717819
693.010610	13167.559381
693.347345	12966.031694
693.684030	12717.727141
694.020665	12655.136175
694.357251	12397.719736
694.693786	12429.484047
695.030272	12372.299718
695.366707	12173.274964
695.703093	12087.512334
696.039429	12131.892132
696.375716	12055.937067
696.711952	12079.746437
697.048139	12053.093856
697.384276	12008.514933
697.720363	12098.935589
698.056400	12048.887013
698.392388	11991.085143
698.728326	12005.374294
699.064214	11958.471399
699.400053	11974.777011
699.735842	11849.063237
700.071581	11766.254723
700.407270	11672.204436
700.742910	11620.053700
701.078501	11540.937831
701.414042	11445.899478
701.749533	11342.457522
702.084974	11219.763399
702.420366	11345.537667
702.755709	11182.390805
703.091002	11071.583723
703.426246	11120.825714
703.761440	11102.218815
704.096584	11010.220278
704.431679	11020.663028
704.766725	11007.404793
705.101721	11013.592810
705.436668	11090.798081
705.771565	10967.325100
706.106413	11164.429174
706.441212	11183.888028
706.775961	11280.307657
707.110661	11359.166427
707.445311	11549.694316
707.779913	11514.103769
708.114465	11658.570636
708.448967	11830.416009
708.783421	12206.833925
709.117825	12379.344730
709.452180	12517.585772
709.786485	12748.863828
710.120742	13191.096528
710.454949	13213.842215
710.789107	13473.459117
711.123216	13857.025390
711.457275	13926.452161
711.791286	14226.509199
712.125247	14288.167552
712.459159	14166.912678
712.793023	14542.304720
713.126837	14019.476573
713.460602	14182.746943
713.794318	14039.386610
714.127985	13890.448240
714.461602	13466.260349
714.795171	13482.812978
715.128691	12987.088594
715.462162	12740.669432
715.795584	12548.107438
716.128957	12443.548866
716.462281	12262.763007
716.795556	12180.531705
717.128782	11945.881117
717.461960	11681.785149
717.795088	11668.065649
718.128167	11477.477266
718.461198	11260.624472
718.794180	11204.632376
719.127113	11031.756087
719.459997	10955.044849
719.792833	10782.748293
720.125619	10794.988214
720.458357	10638.072219
720.791046	10565.346013
721.123686	10496.067956
721.456278	10382.342046
721.788821	10378.861129
722.121315	10253.167520
722.453761	10320.285442
722.786158	10291.588674
723.118506	10314.926695
723.450805	10251.612324
723.783056	10370.702022
724.115259	10332.177524
724.447412	10313.394185
724.779518	10461.926742
725.111574	10492.387914
725.443582	10632.010231
725.775542	10627.158121
726.107453	10921.397668
726.439315	10865.297187
726.771129	11115.275403
727.102895	11349.406753
727.434612	11471.523663
727.766281	11550.619367
728.097901	11726.371634
728.429473	11773.806372
728.760996	11785.922785
729.092471	11861.277952
729.423897	11822.677838
729.755276	11770.025506
730.086606	11866.387162
730.417887	12203.721013
730.749120	12536.802650
731.080305	12665.286538
731.411442	12904.935430
731.742530	12984.371412
732.073570	13069.977766
732.404562	13276.193726
732.735506	13186.569572
733.066401	13031.551571
733.397249	12730.992937
733.728048	12379.659803
734.058798	11906.809654
734.389501	11510.401042
734.720156	11248.979406
735.050762	10942.394073
735.381320	10738.920501
735.711831	10604.409914
736.042293	10402.267206
736.372707	10422.726729
736.703073	10301.676022
737.033391	10427.977091
737.363661	10420.198591
737.693883	10493.093675
738.024056	10605.647517
738.354182	10721.578932
738.684260	10905.800338
739.014290	11060.694831
739.344272	11178.609940
739.674207	11362.738084
740.004093	11438.935124
740.333931	11456.780809
740.663722	11496.406799
740.993464	11502.115906
741.323159	11425.548340
741.652806	11270.948755
741.982405	11155.498770
742.311956	10959.546599
742.641460	10899.425799
742.970915	10727.235107
743.300323	10520.673828
743.629683	10407.610829
743.958996	10245.366334
744.288260	10086.532179
744.617477	9901.594930
744.946647	9867.342810
745.275768	9705.627636
745.604842	9601.084187
745.933869	9500.767746
746.262847	9486.682762
746.591778	9446.406464
746.920662	9388.128205
747.249498	9394.888392
747.578286	9487.950613
747.907027	9583.241023
748.235720	9737.770033
748.564365	9768.826061
748.892963	9710.943532
749.221514	9760.034289
749.550017	9670.740331
749.878473	9663.755812
750.206881	9522.217856
750.535242	9478.382503
750.863555	9423.554913
751.191821	9372.926605
751.520039	9394.656499
751.848210	9340.517027
752.176334	9366.627684
752.504411	9313.975352
752.832440	9208.683293
753.160421	9254.094006
753.488356	9175.043673
753.816243	9114.073438
754.144082	9012.887398
754.471875	8990.802103
754.799620	8952.519580
755.127318	8943.934495
755.454969	8923.918594
755.782572	8900.199965
756.110129	8910.793950
756.437638	8861.801496
756.765100	8858.491979
757.092515	8865.718473
757.419882	8885.769662
757.747203	8893.036486
758.074477	8947.856513
758.401703	8915.237727
758.728882	9037.248774
759.056014	9069.761695
759.383099	9160.036158
759.710138	9232.583403
760.037129	9303.305750
760.364073	9328.821550
760.690970	9321.161517
761.017820	9326.243000
761.344623	9477.422163
761.671379	9731.259382
761.998088	10194.972440
762.324751	11314.164046
762.651366	13362.765461
762.977935	15954.755369
763.304456	17581.447495
763.630931	17984.946490
763.957359	17182.614088
764.283740	15833.218191
764.610074	14494.731351
764.936362	12987.012977
765.262602	11871.919828
765.588796	10801.264451
765.914943	10075.799563
766.241044	9449.799160
766.567097	8991.180189
766.893104	8582.403106
767.219064	8325.069846
767.544978	8038.727267
767.870845	7807.386196
768.196665	7672.958788
768.522438	7530.165584
768.848165	7411.358191
769.173846	7291.038452
769.499479	7208.570216
769.825066	7090.665189
770.150607	6961.982176
770.476101	6922.905672
770.801548	6841.801068
771.126949	6740.123515
771.452303	6677.156983
771.777611	6558.790691
772.102872	6547.672426
772.428087	6462.552543
772.753256	6377.306632
773.078378	6316.094421
773.403453	6206.338420
773.728482	6132.304034
774.053465	6089.295430
774.378401	6024.055338
774.703291	5954.477333
775.028135	5882.663575
775.352932	5858.715574
775.677683	5797.019413
776.002388	5734.302418
776.327046	5732.374176
776.651658	5666.690462
776.976224	5611.010918
777.300743	5603.136636
777.625216	5547.701587
777.949643	5522.299213
778.274024	5530.395306
778.598359	5479.711546
778.922647	5475.812213
779.246889	5449.814983
779.571086	5455.014933
779.895236	5466.463393
780.219339	5462.712775
780.543397	5460.126663
780.867409	5506.238097
781.191374	5499.603939
781.515294	5481.402853
781.839167	5527.599987
782.162995	5505.832284
782.486776	5465.528259
782.810511	5433.927786
783.134201	5385.484818
783.457844	5378.336462
783.781441	5343.134085
784.104993	5312.398170
784.428498	5294.237413
784.751958	5279.713849
785.075372	5264.056025
785.398739	5236.002004
785.722061	5258.966980
786.045337	5262.639461
786.368568	5344.694322
786.691752	5365.017734
787.014891	5558.116611
787.337983	5773.031082
787.661030	6113.644203
787.984031	6444.132167
788.306987	6654.338200
788.629897	6736.622434
788.952760	6679.112951
789.275579	6553.074022
789.598351	6324.147665
789.921078	6124.046624
790.243759	5903.579323
790.566395	5739.378860
790.888984	5586.563842
791.211529	5479.900589
791.534027	5352.014078
791.856480	5241.073405
792.178888	5195.425757
792.501249	5140.273013
792.823566	5055.392585
793.145836	5057.038522
793.468062	5042.197365
793.790241	5010.236450
794.112375	5045.781625
794.434464	5125.467144
794.756507	5151.817255
795.078505	5239.611470
795.400457	5410.940125
795.722364	5598.138332
796.044226	5750.739100
796.366042	5880.528647
796.687812	5841.147153
797.009538	5870.363160
797.331218	5799.371111
797.652852	5747.772381
797.974442	5654.410212
798.295986	5602.496409
798.617484	5499.432539
798.938938	5415.232667
799.260346	5370.399166
799.581709	5252.652935
799.903026	5211.519640
800.224299	5158.504346
800.545526	5056.579777
800.866708	5008.247714
801.187845	4967.058967
801.508936	4904.301643
801.829983	4886.677769
802.150984	4800.980674
802.471940	4774.711221
802.792851	4762.315024
803.113717	4744.466819
803.434538	4724.932348
803.755314	4697.785734
804.076045	4689.374569
804.396731	4658.011030
804.717372	4669.119213
805.037967	4667.866486
805.358518	4692.701731
805.679024	4744.524792
805.999485	4745.863218
806.319901	4765.364922
806.640272	4775.636273
806.960598	4814.957273
807.280879	4811.690605
807.601115	4843.139844
807.921306	4813.961645
808.241453	4809.913599
808.561554	4823.476823
808.881611	4791.599087
809.201623	4790.621103
809.521590	4750.372531
809.841513	4742.896499
810.161390	4762.657822
810.481223	4687.983211
810.801011	4678.389895
811.120755	4660.952544
811.440453	4623.312768
811.760107	4599.238738
812.079716	4573.972475
812.399281	4534.207854
812.718801	4529.103685
813.038276	4506.095859
813.357707	4480.305316
813.677093	4495.411134
813.996434	4448.641829
814.315731	4466.510199
814.634983	4463.581288
814.954191	4473.557732
815.273354	4523.888612
815.592473	4556.832552
815.911547	4615.393116
816.230577	4659.382224
816.549562	4737.522629
816.868502	4782.083909
817.187399	4831.013348
817.506250	4903.772322
817.825058	4927.107823
818.143821	5057.860230
818.462539	5201.086973
818.781213	5389.472371
819.099843	5698.858065
819.418429	6221.209824
819.736970	6738.306179
820.055466	7330.727456
820.373919	8118.604349
820.692327	9337.278086
821.010691	11523.250943
821.329011	16352.648601
821.647286	23630.413695
821.965517	31543.248227
822.283704	35888.811062
822.601847	37399.468430
822.919945	34055.643357
823.237999	30186.577945
823.556010	26104.037311
823.873976	22361.635930
824.191897	18994.906375
824.509775	16506.978485
824.827609	14311.397189
825.145398	13072.916759
825.463144	12444.705811
825.780845	12708.950492
826.098502	13734.003592
826.416116	15679.762948
826.733685	17554.152168
827.051210	18037.462711
827.368692	16889.453348
827.686129	14836.413197
828.003522	12793.987196
828.320872	10947.551174
828.638177	9573.365403
828.955439	8537.675469
829.272656	7642.381669
829.589830	6938.805471
829.906960	6334.229972
830.224046	5876.939345
830.541088	5540.873345
830.858086	5317.724149
831.175041	5147.368437
831.491952	5109.595071
831.808819	5135.463752
832.125642	5352.596331
832.442421	5818.968597
832.759157	6754.253870
833.075849	8227.757933
833.392497	9776.559191
833.709101	10711.829341
834.025662	10516.444300
834.342179	9647.442638
834.658653	8557.164569
834.975083	7612.112061
835.291469	6846.028075
835.607811	6224.728549
835.924110	5780.338235
836.240366	5368.130646
836.556578	4980.833920
836.872746	4680.355945
837.188871	4449.145944
837.504952	4258.368518
837.820990	4115.812249
838.136984	4020.915048
838.452935	3981.420129
838.768842	4003.762522
839.084706	4239.471753
839.400526	4865.648596
839.716303	5631.301562
840.032037	6115.247290
840.347727	5999.888046
840.663373	5495.782744
840.978977	5001.285881
841.294537	4622.685145
841.610054	4337.696115
841.925527	4134.837564
842.240957	3963.214002
842.556344	3805.304898
842.871687	3665.049916
843.186987	3540.137686
843.502244	3435.339659
843.817458	3362.749564
844.132629	3300.405614
844.447756	3262.450767
844.762840	3221.549365
845.077881	3188.348326
845.392879	3159.293636
845.707833	3134.423103
846.022745	3110.747324
846.337613	3102.416818
846.652438	3080.737336
846.967221	3077.072417
847.281960	3056.759087
847.596656	3047.642161
847.911309	3038.310985
848.225919	3029.012577
848.540485	3016.669311
848.855009	3013.833662
849.169490	3005.049452
849.483928	2995.529233
849.798323	2991.952534
850.112675	2984.733602
850.426984	2985.361225
850.741251	2977.050883
851.055474	2975.858650
851.369654	2976.098105
851.683792	2974.963846
851.997887	2974.656335
852.311938	2976.115749
852.625947	2979.069865
852.939914	2970.749441
853.253837	2979.163127
853.567718	2972.428145
853.881555	2971.306488
854.195350	2975.117601
854.509103	2973.373362
854.822812	2968.241467
855.136479	2966.315746
855.450103	2971.266159
855.763685	2963.918678
856.077224	2967.513020
856.390720	2972.589462
856.704173	2982.888539
857.017584	2989.303408
857.330953	2993.290960
857.644278	2999.763802
857.957561	3001.087105
858.270802	3000.199862
858.584000	2998.296826
858.897155	2992.310456
859.210268	2986.361894
859.523339	2976.103146
859.836367	2973.685913
860.149352	2969.716004
860.462295	2966.817341
860.775195	2959.013635
861.088054	2953.165896
861.400869	2952.686987
861.713642	2949.347222
862.026373	2958.839715
862.339062	2962.040848
862.651708	2971.677013
862.964312	2986.210660
863.276873	2993.217864
863.589392	3019.358767
863.901869	3041.532282
864.214303	3062.654717
864.526696	3075.681058
864.839045	3092.084973
865.151353	3103.598968
865.463619	3104.035028
865.775842	3104.377827
866.088023	3106.817745
866.400162	3104.244236
866.712258	3104.536623
867.024313	3105.310440
867.336325	3104.730707
867.648296	3103.180552
867.960224	3103.102415
868.272110	3100.934718
868.583954	3105.333125
868.895755	3111.342181
869.207515	3107.697426
869.519233	3127.791466
869.830909	3129.984367
870.142542	3142.249495
870.454134	3147.492295
870.765684	3156.649551
871.077191	3173.910462
871.388657	3182.760207
871.700081	3201.006663
872.011463	3218.081052
872.322803	3235.178125
872.634101	3248.063314
872.945357	3264.799945
873.256571	3290.837504
873.567744	3301.328146
873.878874	3307.097746
874.189963	3321.170127
874.501010	3324.036023
874.812015	3321.515446
875.122979	3334.904751
875.433900	3333.422652
875.744780	3333.636901
876.055618	3341.536389
876.366415	3341.841378
876.677169	3345.697861
876.987882	3363.220912
877.298554	3380.617934
877.609183	3412.556164
877.919771	3456.424285
878.230317	3518.080117
878.540822	3605.589507
878.851285	3741.746031
879.161707	3937.020166
879.472087	4263.250876
879.782425	4810.664731
880.092722	5832.579712
880.402977	7442.603263
880.713191	9354.554120
881.023363	11225.585932
881.333494	12288.445165
881.643583	12738.899987
881.953631	12481.723003
882.263637	11841.075528
882.573602	11021.220076
882.883526	10243.622095
883.193408	9442.207183
883.503248	8663.336311
883.813048	7961.501831
884.122806	7303.729557
884.432522	6654.305433
884.742197	6102.097441
885.051831	5623.921313
885.361424	5199.378021
885.670975	4862.850755
885.980485	4584.153085
886.289954	4350.815718
886.599382	4170.155888
886.908768	4013.217207
887.218113	3865.135833
887.527417	3751.631733
887.836680	3648.832524
888.145901	3560.670305
888.455082	3494.182527
888.764221	3436.547015
889.073319	3383.383007
889.382376	3353.715816
889.691392	3332.732013
890.000366	3326.889316
890.309300	3322.695076
890.618193	3324.363698
890.927044	3319.740960
891.235855	3322.997545
891.544625	3340.097139
891.853353	3363.120089
892.162041	3417.201587
892.470687	3497.345851
892.779293	3598.466356
893.087858	3756.239348
893.396381	3998.799507
893.704864	4357.437273
894.013306	4848.259135
894.321707	5352.034242
894.630068	5661.588815
894.938387	5699.321851
895.246665	5554.305499
895.554903	5270.952324
895.863100	4976.586748
896.171256	4739.667640
896.479371	4525.819374
896.787446	4330.716638
897.095480	4160.507119
897.403473	4031.153632
897.711425	3901.696801
898.019336	3793.997590
898.327207	3686.111857
898.635038	3598.965430
898.942827	3503.395236
899.250576	3426.779780
899.558284	3355.659181
899.865952	3306.543219
900.173579	3250.510794
900.481165	3211.557798
900.788711	3172.206552
901.096216	3144.432314
901.403681	3123.448512
901.711105	3110.215483
902.018489	3107.720112
902.325832	3138.357724
902.633135	3189.018800
902.940397	3340.563446
903.247619	3693.144267
903.554800	4344.514276
903.861941	5180.937481
904.169041	5791.804339
904.476101	5980.524974
904.783121	5741.720476
905.090100	5397.533176
905.397039	5030.345612
905.703938	4719.916400
906.010796	4439.174542
906.317614	4213.981158
906.624391	4008.836444
906.931129	3835.511492
907.237826	3678.025846
907.544483	3530.178886
907.851099	3377.646174
908.157675	3239.742890
908.464211	3118.215794
908.770707	3028.828574
909.077163	2959.956331
909.383578	2907.818197
909.689954	2870.193545
909.996289	2842.588187
910.302584	2823.915753
910.608839	2812.384113
910.915054	2801.023873
911.221229	2799.337607
911.527363	2801.520427
911.833458	2810.264308
912.139513	2820.538180
912.445527	2832.344562
912.751502	2861.444623
913.057436	2898.880231
913.363331	2953.425516
913.669186	3027.101979
913.975000	3132.693988
914.280775	3295.976961
914.586510	3526.687887
914.892205	3857.823639
915.197859	4292.134167
915.503475	4810.939473
915.809050	5238.613322
916.114585	5497.287528
916.420081	5555.608637
916.725536	5497.403475
917.030952	5289.402947
917.336328	5111.828303
917.641665	4921.582718
917.946961	4723.215835
918.252218	4547.282086
918.557435	4343.871528
918.862612	4173.508255
919.167750	4027.108106
919.472848	3855.340871
919.777906	3707.105742
920.082925	3571.186152
920.387904	3432.844288
920.692843	3336.497755
920.997743	3248.534662
921.302603	3169.849812
921.607423	3110.316306
921.912204	3052.978222
922.216946	3011.703775
922.521647	2968.168370
922.826310	2931.219233
923.130932	2900.594223
923.435516	2862.062164
923.740059	2837.153823
924.044564	2811.796819
924.349028	2790.893675
924.653454	2764.140271
924.957840	2739.965418
925.262186	2723.427913
925.566493	2705.178936
925.870761	2683.680935
926.174989	2676.265398
926.479178	2660.983140
926.783328	2646.877992
927.087438	2636.455406
927.391509	2624.522995
927.695541	2611.421036
927.999533	2603.718153
928.303486	2599.970055
928.607400	2590.094435
928.911275	2587.099989
929.215110	2579.097158
929.518906	2578.146900
929.822663	2576.632033
930.126381	2577.904925
930.430060	2582.278126
930.733699	2585.348188
931.037299	2585.116295
931.340861	2584.521439
931.644383	2587.982191
931.947866	2589.106368
932.251309	2584.382807
932.554714	2582.583115
932.858080	2583.679566
933.161407	2581.116140
933.464694	2575.235634
933.767943	2574.728998
934.071153	2570.915365
934.374323	2567.119376
934.677455	2563.890517
934.980548	2560.858263
935.283602	2557.536143
935.586617	2558.846843
935.889593	2561.004456
936.192530	2560.296174
936.495428	2566.383367
936.798287	2571.666497
937.101108	2588.151070
937.403890	2608.066148
937.706632	2631.434417
938.009336	2662.762667
938.312002	2690.219312
938.614628	2709.360573
938.917216	2725.396483
939.219765	2734.931826
939.522275	2743.469020
939.824747	2740.487177
940.127179	2737.439800
940.429573	2729.752040
940.731929	2729.772205
941.034246	2723.014538
941.336524	2721.114023
941.638763	2715.478013
941.940964	2708.042311
942.243126	2696.122503
942.545250	2686.627490
942.847335	2669.984120
943.149381	2663.670075
943.451389	2649.358239
943.753359	2636.238636
944.055290	2629.735548
944.357182	2622.075515
944.659036	2616.346243
944.960851	2615.267436
945.262628	2609.976745
945.564367	2612.081427
945.866067	2609.883484
946.167729	2608.272835
946.469352	2609.712085
946.770937	2607.080603
947.072484	2599.879314
947.373992	2598.868563
947.675462	2597.935949
947.976893	2593.071236
948.278286	2588.362798
948.579641	2585.088569
948.880958	2583.109916
949.182236	2583.737540
949.483476	2579.087075
949.784678	2581.335430
950.085841	2581.801737
950.386967	2585.955647
950.688054	2587.646954
950.989103	2595.685074
951.290114	2605.686723
951.591087	2616.268105
951.892021	2626.884775
952.192917	2639.986734
952.493776	2648.269350
952.794596	2651.379742
953.095378	2652.977788
953.396122	2650.300935
953.696828	2650.184988
953.997496	2645.083341
954.298126	2634.259983
954.598718	2627.567852
954.899272	2617.578805
955.199788	2610.059924
955.500266	2597.399067
955.800706	2579.399627
956.101108	2567.915878
956.401472	2556.258210
956.701798	2543.872095
957.002087	2533.217616
957.302337	2522.235463
957.602550	2513.801612
957.902724	2505.392968
958.202861	2501.302071
958.502960	2488.842860
958.803022	2484.976295
959.103045	2476.769296
959.403031	2473.860550
959.702979	2469.187401
960.002889	2464.105918
960.302762	2456.947479
960.602596	2453.675770
960.902393	2454.381532
961.202153	2450.038578
961.501875	2446.965995
961.801559	2447.467589
962.101205	2440.369645
962.400814	2442.502053
962.700385	2437.942329
962.999918	2439.127000
963.299414	2438.766558
963.598873	2437.206321
963.898293	2433.324632
964.197677	2434.418563
964.497022	2434.340425
964.796331	2432.954108
965.095601	2433.314550
965.394835	2429.568973
965.694030	2431.134251
965.993189	2432.296237
966.292309	2428.359096
966.591393	2429.609302
966.890439	2428.167532
967.189447	2427.275248
967.488419	2428.117120
967.787353	2428.220464
968.086249	2430.567121
968.385108	2429.228695
968.683930	2429.543767
968.982714	2433.120466
969.281462	2435.136927
969.580172	2434.426124
969.878844	2437.402926
970.177480	2442.439038
970.476078	2443.709409
970.774639	2444.241251
971.073162	2448.037240
971.371649	2448.813578
971.670098	2448.306942
971.968510	2451.772735
972.266885	2448.090172
972.565223	2454.089145
972.863524	2452.672581
973.161788	2457.151646
973.460014	2454.250462
973.758204	2458.021245
974.056356	2455.505709
974.354471	2457.620473
974.652550	2459.362192
974.950591	2458.608539
975.248595	2459.505865
975.546563	2457.640638
975.844493	2457.880093
976.142386	2455.422530
976.440243	2452.670060
976.738062	2452.705348
977.035845	2447.649071
977.333590	2445.945161
977.631299	2443.681683
977.928971	2444.049687
978.226606	2444.674790
978.524204	2439.021136
978.821765	2439.578184
979.119290	2439.646239
979.416777	2435.706578
979.714228	2439.628595
980.011642	2437.488625
980.309020	2444.773093
980.606360	2447.855758
980.903664	2453.708538
981.200931	2467.080198
981.498162	2481.218114
981.795356	2510.076200
982.092513	2543.365459
982.389633	2583.074628
982.686717	2621.682305
982.983764	2648.839000
983.280775	2664.862308
983.577749	2664.582524
983.874686	2656.083138
984.171587	2640.707619
984.468451	2626.436113
984.765279	2611.055552
985.062070	2597.043665
985.358824	2577.486509
985.655543	2557.168138
985.952224	2541.021323
986.248869	2513.852024
986.545478	2490.103148
986.842050	2477.255767
987.138586	2459.720114
987.435086	2448.722837
987.731549	2436.288831
988.027975	2434.655497
988.324366	2428.583427
988.620719	2422.639907
988.917037	2423.590164
989.213318	2419.390883
989.509563	2417.230749
989.805772	2418.049936
990.101944	2415.453742
990.398080	2415.201684
990.694180	2414.543814
990.990244	2414.828639
991.286271	2414.223700
991.582262	2413.520459
991.878217	2414.344688
992.174136	2415.451221
992.470019	2417.505492
992.765865	2417.208063
993.061676	2418.949782
993.357450	2424.099321
993.653188	2425.616708
993.948890	2429.939498
994.244556	2431.497214
994.540186	2440.735128
994.835780	2451.467745
995.131337	2468.963069
995.426859	2479.914976
995.722345	2499.643532
996.017795	2513.806653
996.313208	2528.612522
996.608586	2537.676517
996.903928	2540.406302
997.199234	2538.203318
997.494504	2536.668286
997.789738	2528.420958
998.084936	2518.625997
998.380099	2506.628050
998.675225	2496.215547
998.970316	2487.564927
999.265371	2476.179481
999.560390	2463.803448
999.855373	2455.162911
1000.150320	2444.591611
1000.445232	2441.445931
1000.740108	2432.374375
1001.034948	2425.047058
1001.329752	2425.432706
1001.624521	2420.358785
1001.919254	2410.180695
1002.213951	2413.031467
1002.508613	2407.627351
1002.803239	2409.595921
1003.097829	2406.609037
1003.392384	2405.933523
1003.686903	2406.583832
1003.981386	2406.092319
1004.275834	2406.861095
1004.570246	2408.181877
1004.864623	2400.713408
1005.158964	2400.993192
1005.453270	2401.860271
1005.747540	2403.354973
1006.041775	2402.702143
1006.335974	2401.346073
1006.630138	2402.971845
1006.924266	2402.659293
1007.218359	2401.830024
1007.512416	2398.596123
1007.806438	2399.758109
1008.100425	2401.557801
1008.394376	2399.574107
1008.688292	2399.932029
1008.982172	2399.440517
1009.276017	2398.480177
1009.569827	2398.984292
1009.863602	2401.308264
1010.157341	2397.192162
1010.451045	2401.487225
1010.744714	2399.317008
1011.038347	2400.501680
1011.331945	2398.349107
1011.625508	2399.488408
1011.919036	2399.503531
1012.212528	2399.266597
1012.505986	2397.366082
1012.799408	2398.822975
1013.092795	2397.164436
1013.386147	2399.556463
1013.679464	2397.038407
1013.972745	2397.033366
1014.265992	2398.069323
1014.559204	2395.591596
1014.852380	2394.386760
1015.145521	2397.575290
1015.438628	2397.300547
1015.731699	2397.603016
1016.024736	2396.004970
1016.317737	2396.849364
1016.610703	2399.188459
1016.903635	2397.333314
1017.196531	2393.439023
1017.489393	2398.109652
1017.782219	2392.065309
1018.075011	2398.863305
1018.367768	2398.540671
1018.660490	2400.138717
1018.953177	2400.138717
1019.245829	2400.138717
