Dividing Wavelength (nm)	Counts (n)	Blue Motor Position (mm): 13.000000	Red Motor Position (mm): 0.000000	
326.493990	1974.246916
326.888308	1974.246916
327.282561	1974.246916
327.676750	1952.398555
328.070874	1954.755295
328.464933	1959.138578
328.858929	1970.307254
329.252859	1980.828142
329.646726	1992.395070
330.040528	2008.221772
330.434265	2030.433096
330.827938	2049.269368
331.221547	2065.665721
331.615091	2088.915522
332.008571	2107.232555
332.401986	2131.417490
332.795338	2149.064049
333.188625	2168.230516
333.581847	2189.655420
333.975006	2206.026567
334.368100	2224.179762
334.761129	2241.443193
335.154095	2257.153949
335.546996	2288.809875
335.939833	2338.031701
336.332606	2351.673063
336.725315	2363.497090
337.117960	2372.651825
337.510540	2381.650285
337.903056	2389.345606
338.295508	2394.013715
338.687896	2403.339849
339.080220	2409.575757
339.472480	2416.557755
339.864676	2418.070101
340.256807	2420.923394
340.648875	2422.415575
341.040879	2424.860535
341.432818	2427.580237
341.824694	2426.085535
342.216506	2426.239291
342.608253	2428.089394
342.999937	2424.525298
343.391557	2423.549835
343.783113	2424.306008
344.174605	2421.228384
344.566033	2418.201171
344.957397	2415.713361
345.348697	2417.215625
345.739934	2415.662950
346.131106	2412.950809
346.522215	2411.438463
346.913260	2409.245561
347.304241	2408.207083
347.695159	2404.968142
348.086012	2402.487894
348.476802	2403.047462
348.867528	2400.365568
349.258191	2398.016391
349.648789	2398.696947
350.039324	2398.553274
350.429796	2399.962276
350.820203	2396.481359
351.210548	2397.088818
351.600828	2395.019425
351.991045	2395.765516
352.381198	2395.024466
352.771288	2393.454147
353.161314	2395.576472
353.551276	2393.819630
353.941175	2391.160422
354.331010	2394.101935
354.720782	2398.500342
355.110490	2395.626884
355.500135	2392.425751
355.889717	2392.143447
356.279235	2395.775598
356.668689	2397.237533
357.058080	2397.101421
357.447408	2394.280896
357.836672	2393.000443
358.225873	2395.233674
358.615010	2393.925494
359.004084	2398.218037
359.393095	2399.082595
359.782043	2399.082595
360.170927	2397.887841
360.559748	2402.079561
360.948505	2399.440517
361.337199	2400.978069
361.725830	2400.045455
362.114398	2402.205590
362.502903	2403.677607
362.891344	2403.554098
363.279722	2402.530744
363.668037	2404.247257
364.056289	2404.965621
364.444478	2403.778430
364.832603	2404.204407
365.220665	2404.088461
365.608665	2405.631054
365.996601	2403.009654
366.384474	2404.335477
366.772284	2408.171795
367.160031	2407.234141
367.547715	2406.334295
367.935336	2405.731877
368.322893	2403.692730
368.710388	2405.061403
369.097820	2412.108936
369.485189	2408.769172
369.872495	2410.745304
370.259738	2410.747825
370.646918	2409.795047
371.034035	2411.141035
371.421090	2409.333781
371.808081	2408.872516
372.195010	2410.185736
372.581875	2405.860426
372.968678	2410.319327
373.355418	2411.796385
373.742096	2410.473082
374.128710	2410.420150
374.515262	2413.401992
374.901751	2411.995510
375.288177	2411.990469
375.674540	2411.491395
376.060841	2410.616755
376.447079	2414.894174
376.833254	2412.628175
377.219367	2409.174985
377.605417	2409.485016
377.991404	2410.210942
378.377329	2409.593401
378.763191	2412.071128
379.148991	2415.199164
379.534727	2417.074473
379.920402	2415.022723
380.306013	2416.436767
380.691563	2416.817374
381.077049	2415.136149
381.462474	2415.695717
381.847835	2415.577250
382.233134	2416.799730
382.618371	2417.283681
383.003545	2415.400810
383.388657	2415.705800
383.773706	2418.753177
384.158693	2416.381314
384.543618	2417.911304
384.928480	2418.564134
385.313280	2417.235790
385.698017	2417.475245
386.082692	2420.399114
386.467305	2416.751839
386.851856	2420.273085
387.236344	2418.750657
387.620770	2420.930956
388.005133	2423.196954
388.389435	2421.394742
388.773674	2419.937848
389.157851	2424.285843
389.541965	2421.162849
389.926018	2421.866090
390.310008	2421.291398
390.693936	2423.625452
391.077802	2418.760739
391.461606	2425.082346
391.845348	2422.627304
392.229027	2423.940524
392.612645	2422.942376
392.996200	2423.083528
393.379694	2424.464804
393.763125	2423.748961
394.146494	2423.224681
394.529801	2422.329876
394.913047	2423.917839
395.296230	2425.263827
395.679351	2426.776173
396.062410	2423.549835
396.445408	2426.408169
396.828343	2421.964392
397.211217	2422.728127
397.594028	2422.773497
397.976778	2423.368353
398.359466	2426.133426
398.742092	2420.666295
399.124656	2428.260793
399.507158	2427.441606
399.889598	2427.713828
400.271977	2426.786256
400.654294	2429.914292
401.036549	2427.822213
401.418742	2427.081163
401.800874	2427.582758
402.182944	2426.650145
402.564952	2430.042841
402.946898	2428.749785
403.328783	2429.788263
403.710606	2430.927564
404.092367	2428.737182
404.474067	2427.965886
404.855705	2429.528643
405.237282	2429.616864
405.618797	2431.348500
406.000250	2431.282965
406.381642	2427.766760
406.762972	2431.744231
407.144240	2430.259611
407.525447	2429.536205
407.906593	2430.635177
408.287677	2431.918150
408.668700	2431.376226
409.049661	2432.883531
409.430560	2431.587955
409.811399	2434.602565
410.192176	2433.216247
410.572891	2434.652976
410.953545	2431.890424
411.334138	2433.594334
411.714669	2433.538881
412.095139	2434.395877
412.475547	2433.624581
412.855894	2430.862029
413.236180	2435.792277
413.616405	2433.261618
413.996568	2432.971752
414.376670	2433.032245
414.756711	2435.971238
415.136691	2435.504931
415.516609	2436.903852
415.896466	2433.858995
416.276262	2434.917637
416.655997	2431.535023
417.035670	2433.450661
417.415283	2433.420414
417.794834	2428.064188
418.174324	2436.258584
418.553753	2435.346135
418.933121	2437.639860
419.312428	2437.952412
419.691674	2434.549633
420.070859	2436.288831
420.449983	2436.243460
420.829045	2436.964345
421.208047	2436.364448
421.586988	2435.572987
421.965867	2437.070210
422.344686	2437.657504
422.723444	2435.429314
423.102141	2439.290838
423.480777	2439.552978
423.859352	2436.213213
424.237866	2438.627926
424.616319	2439.941147
424.994712	2437.796136
425.373044	2438.154058
425.751314	2439.016095
426.129524	2438.267484
426.507673	2437.095415
426.885762	2438.764037
427.263789	2440.490633
427.641756	2438.738832
428.019662	2437.286979
428.397508	2439.036260
428.775292	2440.246137
429.153016	2438.194387
429.530679	2439.328647
429.908282	2442.000458
430.285824	2439.207659
430.663305	2440.742690
431.040726	2439.860488
431.418086	2441.156065
431.795385	2440.195725
432.172624	2439.996599
432.549802	2440.490633
432.926920	2442.721343
433.303977	2440.528441
433.680974	2440.699840
434.057910	2441.246806
434.434786	2439.754624
434.811601	2441.037598
435.188355	2439.525252
435.565050	2443.911055
435.941683	2442.101281
436.318257	2440.014243
436.694770	2437.934768
437.071222	2440.649429
437.447614	2440.649429
437.823946	2443.008689
438.200218	2440.044490
438.576429	2443.059100
438.952580	2444.079934
439.328670	2444.760490
439.704700	2444.180757
440.080670	2443.056580
440.456580	2441.566919
440.832429	2445.685542
441.208218	2440.931733
441.583947	2446.156889
441.959616	2442.376024
442.335224	2445.395675
442.710773	2445.304934
443.086261	2442.469285
443.461689	2444.987342
443.837057	2443.984152
444.212365	2443.941302
444.587612	2444.626899
444.962800	2446.832404
445.337927	2447.031530
445.712995	2445.201591
446.088002	2447.124791
446.462949	2447.702003
446.837837	2446.088834
447.212664	2447.331478
447.587431	2446.620676
447.962139	2451.303908
448.336786	2451.019082
448.711374	2452.211315
449.085901	2450.497323
449.460369	2451.550924
449.834776	2449.630244
450.209124	2450.673763
450.583412	2455.160390
450.957640	2451.734926
451.331808	2454.923456
451.705917	2450.504885
452.079965	2452.531428
452.453954	2451.926490
452.827883	2456.249279
453.201752	2452.869186
453.575562	2453.292643
453.949311	2453.509412
454.323001	2452.581840
454.696632	2455.788014
455.070202	2453.141408
455.443713	2457.496965
455.817164	2456.587037
456.190556	2451.092179
456.563888	2453.668209
456.937160	2451.316510
457.310373	2455.450257
457.683526	2457.711214
458.056619	2456.765998
458.429653	2454.033692
458.802628	2458.464867
459.175542	2459.042079
459.548398	2457.330607
459.921194	2463.821092
460.293930	2461.862604
460.666607	2464.647842
461.039224	2466.588686
461.411782	2465.577935
461.784280	2463.969807
462.156719	2464.965434
462.529099	2464.967955
462.901419	2465.159519
463.273680	2461.454271
463.645882	2463.143057
464.018024	2464.602471
464.390106	2466.775209
464.762130	2469.825107
465.134094	2472.859881
465.505999	2476.187043
465.877845	2481.255923
466.249631	2482.979998
466.621358	2480.832466
466.993026	2480.950933
467.364634	2480.517394
467.736184	2476.779378
468.107674	2473.671507
468.479105	2476.837352
468.850477	2475.687969
469.221790	2473.154789
469.593043	2471.682772
469.964238	2472.002885
470.335373	2470.442648
470.706449	2474.969604
471.077467	2474.737711
471.448425	2478.132928
471.819324	2481.709627
472.190164	2484.499906
472.560945	2478.092599
472.931667	2478.626961
473.302330	2475.897177
473.672934	2474.304172
474.043479	2474.916672
474.413965	2471.655046
474.784393	2471.639922
475.154761	2474.488174
475.525070	2471.937350
475.895321	2474.163020
476.265513	2471.763430
476.635645	2474.420118
477.005719	2476.605459
477.375734	2478.949595
477.745691	2476.721405
478.115588	2478.256437
478.485427	2484.331027
478.855207	2483.221973
479.224928	2485.982005
479.594591	2488.789928
479.964194	2487.244814
480.333739	2489.898981
480.703226	2488.812613
481.072653	2493.836122
481.442022	2490.453508
481.811333	2492.444764
482.180584	2490.476193
482.549777	2491.381081
482.918912	2492.595999
483.287988	2494.201606
483.657005	2488.288333
484.025964	2489.964516
484.394864	2492.873262
484.763706	2493.009373
485.132489	2489.657006
485.501213	2491.965854
485.869879	2493.019456
486.238487	2498.468943
486.607036	2496.926350
486.975527	2494.718324
487.343959	2493.568941
487.712333	2498.171515
488.080648	2498.784015
488.448905	2501.244098
488.817104	2499.194869
489.185244	2504.256188
489.553326	2507.898421
489.921350	2515.795389
490.289315	2524.057840
490.657222	2524.902233
491.025070	2527.624456
491.392861	2529.696370
491.760593	2526.623787
492.128267	2527.448016
492.495883	2525.776873
492.863440	2522.621111
493.230939	2523.480628
493.598380	2520.864269
493.965763	2522.588343
494.333088	2524.680422
494.700354	2525.179497
495.067563	2529.393901
495.434713	2525.759229
495.801805	2535.786084
496.168839	2535.324819
496.535815	2537.956301
496.902733	2540.665921
497.269593	2539.110725
497.636395	2545.036602
498.003139	2548.862837
498.369825	2546.528783
498.736453	2552.351316
499.103023	2553.422561
499.469535	2554.198899
499.835989	2559.522357
500.202385	2561.092677
500.568723	2561.498489
500.935003	2568.578790
501.301226	2566.496793
501.667390	2572.745304
502.033497	2580.070100
502.399546	2578.172106
502.765537	2577.799060
503.131470	2585.320462
503.497345	2585.713672
503.863163	2584.453383
504.228923	2589.643251
504.594625	2592.577203
504.960269	2593.396390
505.325856	2600.756475
505.691385	2599.649942
506.056856	2603.655138
506.422270	2609.596138
506.787625	2609.896087
507.152924	2616.749536
507.518164	2621.639455
507.883347	2622.738426
508.248472	2622.929990
508.613540	2627.262862
508.978550	2633.350055
509.343503	2635.616054
509.708398	2637.859367
510.073236	2643.341622
510.438016	2646.096613
510.802738	2647.127529
511.167403	2653.817140
511.532010	2658.013900
511.896561	2664.022956
512.261053	2670.584017
512.625488	2671.249450
512.989866	2670.077382
513.354186	2675.806653
513.718449	2675.365552
514.082655	2684.061542
514.446803	2685.460462
514.810894	2690.612522
515.174927	2694.312729
515.538904	2694.012780
515.902822	2700.977134
516.266684	2702.779347
516.630488	2706.431662
516.994235	2706.056097
517.357925	2714.139587
517.721558	2719.430278
518.085133	2725.393963
518.448651	2724.365567
518.812112	2728.698439
519.175516	2731.821434
519.538863	2737.427197
519.902152	2735.907289
520.265385	2746.032447
520.628560	2746.821387
520.991678	2747.615369
521.354739	2753.815988
521.717743	2755.224991
522.080690	2755.676174
522.443580	2765.214037
522.806413	2764.944335
523.169189	2768.523554
523.531908	2772.490942
523.894569	2774.630912
524.257174	2777.617796
524.619722	2781.716254
524.982213	2786.918725
525.344647	2786.308745
525.707025	2789.177162
526.069345	2794.750157
526.431608	2797.837864
526.793815	2802.596713
527.155964	2801.873308
527.518057	2800.668472
527.880093	2802.790798
528.242072	2809.505615
528.603995	2811.045687
528.965860	2811.701037
529.327669	2817.712613
529.689421	2818.050370
530.051117	2819.769404
530.412755	2822.673108
530.774337	2826.358192
531.135862	2827.555466
531.497331	2826.930363
531.858743	2828.866166
532.220098	2840.271777
532.581396	2835.880932
532.942638	2836.750531
533.303824	2844.864268
533.664953	2849.119002
534.026025	2846.721933
534.387040	2853.358612
534.747999	2856.655527
535.108902	2862.231043
535.469748	2859.965044
535.830537	2864.295395
536.191270	2869.928885
536.551947	2870.944677
536.912567	2875.839638
537.273131	2883.464383
537.633638	2882.176368
537.994089	2888.497975
538.354483	2889.584343
538.714821	2895.946280
539.075103	2908.919689
539.435328	2908.576891
539.795497	2912.070410
540.155609	2918.003848
540.515665	2930.001794
540.875665	2927.574479
541.235609	2932.938267
541.595496	2943.010492
541.955328	2955.134467
542.315102	2954.337965
542.674821	2956.621607
543.034483	2962.920529
543.394090	2969.040490
543.753640	2979.274032
544.113134	2997.707011
544.472571	2993.411948
544.831953	3015.260309
545.191278	3013.899197
545.550548	3022.479241
545.909761	3035.455171
546.268918	3045.996224
546.628019	3061.490210
546.987064	3064.280489
547.346053	3066.783422
547.704986	3090.602874
548.063863	3094.885334
548.422684	3107.563836
548.781449	3120.244858
549.140158	3133.624081
549.498811	3150.643016
549.857408	3150.615290
550.215949	3176.536903
550.574434	3192.043492
550.932864	3203.272662
551.291237	3227.500448
551.649555	3242.094588
552.007817	3263.146446
552.366022	3276.702109
552.724173	3295.263638
553.082267	3323.400838
553.440305	3347.684076
553.798288	3359.117413
554.156215	3385.845610
554.514086	3410.776637
554.871902	3427.858587
555.229661	3456.242803
555.587365	3476.707367
555.945014	3502.820544
556.302606	3528.280892
556.660143	3561.917991
557.017625	3588.633586
557.375050	3615.225672
557.732421	3653.956857
558.089735	3683.563554
558.446994	3713.906259
558.804197	3760.743619
559.161345	3791.832415
559.518437	3805.105773
559.875474	3845.886187
560.232455	3886.800192
560.589381	3930.794341
560.946251	3961.552941
561.303065	4021.986294
561.659825	4056.820667
562.016528	4087.664967
562.373177	4117.133031
562.729770	4181.122918
563.086307	4206.200138
563.442789	4270.227833
563.799216	4321.947550
564.155587	4361.041698
564.511904	4413.555398
564.868164	4470.220488
565.224370	4538.858318
565.580520	4577.627312
565.936615	4649.526768
566.292654	4688.479764
566.648638	4757.609107
567.004567	4820.719312
567.360441	4887.373448
567.716260	4940.313125
568.072023	5022.564591
568.427732	5092.349284
568.783385	5132.809585
569.138982	5221.589345
569.494525	5293.461076
569.850013	5347.219940
570.205445	5422.829686
570.560823	5492.137990
570.916145	5564.392848
571.271412	5641.131812
571.626625	5701.313107
571.981782	5787.665552
572.336884	5851.743658
572.691931	5954.210151
573.046923	6007.381722
573.401860	6073.952679
573.756743	6161.638509
574.111570	6254.236943
574.466342	6331.404406
574.821059	6423.392860
575.175722	6467.588656
575.530330	6559.476288
575.884882	6622.072295
576.239380	6703.471806
576.593823	6799.876312
576.948211	6882.682305
577.302544	6928.995385
577.656823	7033.493463
578.011047	7152.477297
578.365216	7214.420475
578.719330	7304.536141
579.073389	7385.325673
579.427394	7502.746749
579.781344	7599.705781
580.135239	7665.777664
580.489080	7787.314842
580.842866	7828.001995
581.196597	7996.071543
581.550273	8100.231864
581.903895	8203.126855
582.257463	8380.313331
582.610975	8407.840551
582.964434	8568.247546
583.317837	8633.923698
583.671186	8721.501144
584.024481	8875.936892
584.377721	8926.015714
584.730906	9082.412471
585.084037	9192.657464
585.437113	9266.623794
585.790135	9386.772134
586.143103	9441.950084
586.496016	9587.654553
586.848874	9711.130055
587.201679	9841.529582
587.554428	9879.315550
587.907124	10036.390342
588.259765	10121.422005
588.612352	10307.891765
588.964884	10319.466254
589.317362	10505.051292
589.669786	10621.007913
590.022155	10702.253669
590.374470	10914.589589
590.726731	10943.361975
591.078937	10972.772067
591.431090	11111.040834
591.783188	11165.528146
592.135232	11220.335570
592.487222	11401.895247
592.839157	11561.165461
593.191038	11615.224274
593.542866	11682.894203
593.894639	11669.996411
594.246358	11865.141997
594.598022	11992.330308
594.949633	12032.425126
595.301190	12146.140953
595.652692	12239.946744
596.004141	12453.890793
596.355535	12332.630878
596.706876	12436.052670
597.058162	12525.873429
597.409395	12788.898151
597.760573	12955.258749
598.111698	12969.058907
598.462768	13105.147376
598.813785	13257.281837
599.164748	13234.251326
599.515657	13481.887926
599.866511	13466.714053
600.217312	13787.424699
600.568060	13611.737967
600.918753	13971.129387
601.269392	14103.626033
601.619978	14136.043173
601.970510	14336.313092
602.320988	14524.743861
602.671412	14770.878197
603.021783	14831.377085
603.372100	14859.179048
603.722363	15042.460278
604.072572	15196.354103
604.422728	15348.034860
604.772830	15415.248564
605.122878	15589.806078
605.472872	15711.731425
605.822813	15959.478931
606.172701	16031.194385
606.522534	16272.499296
606.872314	16517.695978
607.222041	16573.670430
607.571714	16866.483331
607.921333	16799.536807
608.270899	17070.153508
608.620411	17348.679778
608.969870	17424.486129
609.319276	17572.060867
609.668627	17753.066016
610.017926	18109.195809
610.367171	18329.708481
610.716362	18517.577162
611.065500	18656.251742
611.414585	18888.553153
611.763616	19182.797741
612.112594	19289.874369
612.461518	19551.323731
612.810389	19849.220635
613.159207	19932.457647
613.507971	20129.113059
613.856682	20502.962507
614.205340	20601.839699
614.553945	21080.184705
614.902496	20975.134621
615.250994	21361.849094
615.599439	21559.714382
615.947830	21824.611893
616.296169	22000.941373
616.644454	22227.039643
616.992686	22469.647693
617.340864	22908.717069
617.688990	22921.496394
618.037063	23395.100195
618.385082	23545.676940
618.733048	23853.212530
619.080961	24006.209029
619.428821	24173.280429
619.776628	24375.294587
620.124382	24437.275574
620.472083	24658.549460
620.819731	24873.721030
621.167326	24828.259904
621.514868	24971.784075
621.862357	24857.201169
622.209793	25018.976837
622.557176	24971.116122
622.904506	24965.608662
623.251783	24903.219342
623.599007	24910.758387
623.946179	24920.918833
624.293297	25038.818818
624.640363	24812.987729
624.987376	24938.618324
625.334336	24930.227323
625.681243	24846.256824
626.028097	24966.858868
626.374899	25004.712892
626.721647	25128.745441
627.068343	25189.894637
627.414987	25171.943088
627.761577	25152.643031
628.108115	25493.203220
628.454600	25272.985456
628.801032	25504.641598
629.147412	25603.186074
629.493739	25724.181328
629.840014	25644.329451
630.186236	25988.325186
630.532405	25841.889749
630.878521	26093.806289
631.224585	26136.956046
631.570597	26054.139970
631.916556	26286.771576
632.262462	26356.445364
632.608316	26491.923853
632.954117	26511.801122
633.299866	26623.061908
633.645562	26682.817225
633.991206	26470.597251
634.336797	26281.821163
634.682336	26388.413841
635.027823	26331.353020
635.373257	26314.029095
635.718639	26252.572389
636.063968	26268.668793
636.409245	25974.262888
636.754470	26108.786078
637.099642	26040.783433
637.444762	25802.568749
637.789829	26001.343966
638.134845	25860.657965
638.479808	25906.562712
638.824719	25934.208400
639.169577	25760.873366
639.514383	25896.281279
639.859137	25765.642298
640.203839	26026.811875
640.548489	25866.762802
640.893086	25996.101166
641.237632	25901.604737
641.582125	26065.903503
641.926566	26107.167868
642.270955	26165.801528
642.615292	26257.028769
642.959576	26338.249319
643.303809	26409.811018
643.647990	26595.169204
643.992118	26653.883523
644.336195	26720.572947
644.680219	26870.857305
645.024192	27177.493049
645.368112	27647.290779
645.711981	27725.090907
646.055797	28478.546802
646.399562	28473.346851
646.743274	29283.785429
647.086935	29688.027994
647.430544	29671.021662
647.774101	29850.564876
648.117606	30103.207342
648.461059	30432.757652
648.804460	30203.533866
649.147810	29801.925303
649.491108	29707.862414
649.834354	29509.487969
650.177548	28928.510112
650.520690	28639.828437
650.863781	28740.936339
651.206820	28696.102837
651.549807	28428.349512
651.892742	28104.024359
652.235626	28013.875925
652.578458	27974.083577
652.921238	27560.988746
653.263967	27890.264312
653.606644	27691.736112
653.949269	27725.965547
654.291843	27450.111088
654.634365	27845.839144
654.976836	27573.949552
655.319255	27640.291137
655.661622	27697.117544
656.003938	27567.159118
656.346203	27525.897274
656.688416	27759.151462
657.030577	27650.842272
657.372687	27572.091887
657.714746	27852.067490
658.056753	27997.585437
658.398708	27601.887627
658.740612	27714.146562
659.082465	27979.575914
659.424266	27892.575681
659.766016	28038.305357
660.107715	28000.320263
660.449362	28148.464651
660.790958	28181.060751
661.132503	28244.463343
661.473996	28315.959508
661.815438	28461.936200
662.156829	28680.026597
662.498168	28536.600729
662.839456	28620.084758
663.180693	28784.628019
663.521879	28973.789755
663.863013	28975.942328
664.204097	29023.714823
664.545129	29464.505753
664.886110	29487.495935
665.227040	29580.853063
665.567918	29724.530989
665.908746	29814.424844
666.249522	29997.582567
666.590248	30039.159483
666.930922	30190.250425
667.271545	30194.290910
667.612118	30297.848813
667.952639	30157.886218
668.293109	30250.814848
668.633528	30206.392200
668.973896	30182.106441
669.314213	30264.599883
669.654480	30068.645192
669.994695	30138.407199
670.334859	30084.585320
670.674973	30035.837363
671.015035	30209.275740
671.355047	30218.322091
671.695008	30206.987056
672.034918	30143.720575
672.374777	30251.906258
672.714585	30147.168725
673.054342	30389.691074
673.394049	30195.452896
673.733705	30483.285137
674.073310	30208.736337
674.412864	30319.457719
674.752368	29992.896814
675.091820	30302.257302
675.431223	29944.947879
675.770574	29738.434491
676.109875	29645.442847
676.449125	29428.489229
676.788324	29391.658559
677.127473	28946.076012
677.466571	28905.156966
677.805619	28624.831004
678.144616	28656.111363
678.483562	28618.015364
678.822458	28340.777108
679.161303	28306.076326
679.500098	28267.675336
679.838842	28169.438371
680.177535	28337.979268
680.516179	28619.172309
680.854771	28874.940290
681.193314	29663.084365
681.531805	30717.240046
681.870247	31445.873299
682.208638	32141.363487
682.546978	32357.117309
682.885268	32465.199648
683.223508	32006.648732
683.561697	31720.056616
683.899836	31572.451631
684.237925	31127.864712
684.575963	31002.801246
684.913951	30613.354468
685.251889	30779.528543
685.589776	30778.590888
685.927614	30791.249225
686.265401	30936.452100
686.603137	31056.050954
686.940824	31531.232637
687.278460	31889.003325
687.616046	32024.345703
687.953582	32587.004007
688.291068	32476.280104
688.628504	32742.548809
688.965889	32707.348952
689.303224	32369.183311
689.640510	32087.259303
689.977745	31431.906782
690.314930	30712.519005
690.652065	30242.668343
690.989150	29586.279865
691.326185	28764.370142
691.663170	28115.840823
692.000105	27443.124048
692.336990	26844.388727
692.673825	26439.795801
693.010610	25974.353628
693.347345	25454.310718
693.684030	24859.948597
694.020665	24621.403718
694.357251	24013.639690
694.693786	23976.761129
695.030272	23765.904787
695.366707	23276.396146
695.703093	23004.365402
696.039429	23007.044775
696.375716	22765.636520
696.711952	22745.764292
697.048139	22608.869238
697.384276	22468.589050
697.720363	22582.735897
698.056400	22400.954410
698.392388	22208.198331
698.728326	22170.082167
699.064214	21996.515240
699.400053	21952.546296
699.735842	21634.038634
700.071581	21390.208105
700.407270	21132.053137
700.742910	20955.370777
701.078501	20709.790967
701.414042	20452.490475
701.749533	20186.867038
702.084974	19868.984479
702.420366	20072.568957
702.755709	19654.717797
703.091002	19386.868690
703.426246	19421.876983
703.761440	19320.121292
704.096584	19077.384693
704.431679	19044.254230
704.766725	18964.026788
705.101721	18916.700435
705.436668	19006.453138
705.771565	18703.714206
706.106413	19049.300425
706.441212	19035.071769
706.775961	19170.424229
707.110661	19249.356095
707.445311	19595.103632
707.779913	19442.954047
708.114465	19687.361788
708.448967	19959.972265
708.783421	20642.294958
709.117825	20899.101418
709.452180	21112.012030
709.786485	21503.122389
710.120742	22268.838370
710.454949	22288.493829
710.789107	22735.180389
711.123216	23416.265480
711.457275	23524.249516
711.791286	24047.266707
712.125247	24123.405774
712.459159	23821.707839
712.793023	24467.963598
713.126837	23410.994953
713.460602	23661.736904
713.794318	23303.197440
714.127985	22935.233538
714.461602	22089.537131
714.795171	22066.627607
715.128691	21104.024322
715.462162	20593.834347
715.795584	20203.396981
716.128957	19955.871286
716.462281	19567.594055
716.795556	19348.664305
717.128782	18877.810454
717.461960	18348.353189
717.795088	18277.784597
718.128167	17895.254281
718.461198	17457.893856
718.794180	17318.891600
719.127113	16976.211606
719.459997	16801.255841
719.792833	16472.771736
720.125619	16438.675892
720.458357	16147.778630
720.791046	15976.429810
721.123686	15831.605022
721.456278	15600.765546
721.788821	15559.239042
722.121315	15309.893490
722.453761	15389.049688
722.786158	15326.365460
723.118506	15330.133723
723.450805	15198.211768
723.783056	15355.266395
724.115259	15262.733496
724.447412	15207.921030
724.779518	15445.301403
725.111574	15465.531553
725.443582	15667.074363
725.775542	15651.431663
726.107453	16101.354644
726.439315	15988.619320
726.771129	16379.396964
727.102895	16739.491624
727.434612	16940.058971
727.766281	17050.787915
728.097901	17311.070250
728.429473	17340.450095
728.760996	17328.651274
729.092471	17409.337462
729.423897	17303.092624
729.755276	17181.026125
730.086606	17295.193136
730.417887	17807.502916
730.749120	18319.643818
731.080305	18493.220827
731.411442	18827.373710
731.742530	18890.685561
732.073570	18994.291355
732.404562	19275.983470
732.735506	19095.694164
733.066401	18823.832299
733.397249	18312.205595
733.728048	17694.001337
734.058798	16886.723563
734.389501	16225.626648
734.720156	15768.111689
735.050762	15265.218785
735.381320	14916.474282
735.711831	14693.872052
736.042293	14351.842366
736.372707	14369.582187
736.703073	14158.123427
737.033391	14343.010265
737.363661	14308.349811
737.693883	14416.346450
738.024056	14584.715948
738.354182	14769.277631
738.684260	15047.007399
739.014290	15267.683909
739.344272	15445.218224
739.674207	15721.637292
740.004093	15830.619477
740.333931	15826.826008
740.663722	15856.127715
740.993464	15855.038826
741.323159	15685.252764
741.652806	15418.041363
741.982405	15209.047728
742.311956	14881.695362
742.641460	14764.390232
742.970915	14468.141785
743.300323	14136.544768
743.629683	13928.947532
743.958996	13657.579700
744.288260	13397.859453
744.617477	13093.260335
744.946647	13031.670038
745.275768	12752.866504
745.604842	12584.827202
745.933869	12417.549115
746.262847	12371.765356
746.591778	12294.429014
746.920662	12195.143489
747.249498	12202.117926
747.578286	12317.895586
747.907027	12461.825569
748.235720	12671.968588
748.564365	12708.464021
748.892963	12601.810850
749.221514	12658.566680
749.550017	12518.956966
749.878473	12487.124600
750.206881	12271.002772
750.535242	12182.646469
750.863555	12094.718664
751.191821	12005.996877
751.520039	12026.862212
751.848210	11939.161259
752.176334	11966.363325
752.504411	11879.763864
752.832440	11723.750234
753.160421	11784.153340
753.488356	11660.158599
753.816243	11571.925804
754.144082	11435.171903
754.471875	11383.835313
754.799620	11326.202322
755.127318	11293.959102
755.454969	11257.889646
755.782572	11214.500435
756.110129	11221.802546
756.437638	11139.646862
756.765100	11131.366767
757.092515	11140.062757
757.419882	11157.772330
757.747203	11159.012454
758.074477	11229.233207
758.401703	11187.729387
758.728882	11352.065961
759.056014	11389.894780
759.383099	11502.199085
759.710138	11600.297418
760.037129	11694.183867
760.364073	11704.195599
760.690970	11690.287055
761.017820	11686.765809
761.344623	11867.972605
761.671379	12188.499249
761.998088	12807.779793
762.324751	14348.807592
762.651366	17170.918611
762.977935	20782.333171
763.304456	22954.100057
763.630931	23417.785388
763.957359	22239.453485
764.283740	20365.608709
764.610074	18520.349796
764.936362	16420.318530
765.262602	14928.830150
765.588796	13472.919714
765.914943	12464.714150
766.241044	11632.482665
766.567097	11010.028714
766.893104	10479.994237
767.219064	10117.782292
767.544978	9740.162060
767.870845	9435.159650
768.196665	9252.359849
768.522438	9059.765087
768.848165	8894.672340
769.173846	8732.299295
769.499479	8604.904296
769.825066	8456.273437
770.150607	8276.205942
770.476101	8212.677321
770.801548	8108.882484
771.126949	7962.769681
771.452303	7875.769448
771.777611	7717.452012
772.102872	7693.168773
772.428087	7580.120898
772.753256	7455.427958
773.078378	7366.096191
773.403453	7232.727425
773.728482	7134.180429
774.053465	7068.426139
774.378401	6981.650237
774.703291	6892.678913
775.028135	6797.365817
775.352932	6760.724191
775.677683	6673.628176
776.002388	6591.227995
776.327046	6592.165650
776.651658	6505.525859
776.976224	6430.238747
777.300743	6415.816006
777.625216	6347.412590
777.949643	6309.296425
778.274024	6313.387322
778.598359	6249.284009
778.922647	6246.881900
779.246889	6209.637855
779.571086	6217.088680
779.895236	6231.052677
780.219339	6221.119083
780.543397	6219.349638
780.867409	6271.265961
781.191374	6268.352174
781.515294	6240.209932
781.839167	6285.315657
782.162995	6257.727942
782.486776	6210.895623
782.810511	6166.498181
783.134201	6096.549651
783.457844	6085.365851
783.781441	6031.816194
784.104993	5990.070399
784.428498	5962.283559
784.751958	5942.928049
785.075372	5919.741262
785.398739	5884.415376
785.722061	5903.869189
786.045337	5905.888171
786.368568	6014.583010
786.691752	6033.870464
787.014891	6283.813393
787.337983	6557.016205
787.661030	6990.147102
787.984031	7401.094402
788.306987	7665.616347
788.629897	7752.281343
788.952760	7667.045514
789.275579	7484.971640
789.598351	7196.650408
789.921078	6932.425891
790.243759	6660.243912
790.566395	6457.017357
790.888984	6264.639364
791.211529	6132.256143
791.534027	5974.168079
791.856480	5835.430484
792.178888	5776.461587
792.501249	5708.474066
792.823566	5605.798365
793.145836	5604.336430
793.468062	5584.252473
793.790241	5544.951638
794.112375	5585.699285
794.434464	5681.294685
794.756507	5711.178645
795.078505	5832.599877
795.400457	6040.068563
795.722364	6280.156036
796.044226	6473.900181
796.366042	6626.884077
796.687812	6575.817188
797.009538	6604.902125
797.331218	6512.318814
797.652852	6442.408093
797.974442	6322.917623
798.295986	6255.373723
798.617484	6125.306913
798.938938	6018.522672
799.260346	5949.378205
799.581709	5815.611188
799.903026	5764.133446
800.224299	5696.060225
800.545526	5577.535136
800.866708	5508.267162
801.187845	5466.602025
801.508936	5392.018154
801.829983	5358.408781
802.150984	5257.958750
802.471940	5230.786930
802.792851	5215.807142
803.113717	5195.009862
803.434538	5168.977343
803.755314	5135.027693
804.076045	5127.077793
804.396731	5088.883491
804.717372	5103.613742
805.037967	5109.857211
805.358518	5135.486438
805.679024	5192.461558
805.999485	5200.686201
806.319901	5218.337801
806.640272	5241.854784
806.960598	5285.370024
807.280879	5276.081698
807.601115	5312.254497
807.921306	5277.031955
808.241453	5274.655051
808.561554	5282.859529
808.881611	5250.255867
809.201623	5248.894755
809.521590	5198.972208
809.841513	5180.302295
810.161390	5196.617990
810.481223	5109.476604
810.801011	5094.146455
811.120755	5071.120985
811.440453	5019.754148
811.760107	4990.407071
812.079716	4964.694666
812.399281	4916.261780
812.718801	4908.357251
813.038276	4875.524216
813.357707	4838.887630
813.677093	4864.617680
813.996434	4803.274399
814.315731	4820.575639
814.634983	4820.699147
814.954191	4823.920445
815.273354	4881.818097
815.592473	4924.360394
815.911547	4996.658102
816.230577	5046.179877
816.549562	5132.103823
816.868502	5185.897976
817.187399	5238.212550
817.506250	5317.187266
817.825058	5340.616029
818.143821	5496.054966
818.462539	5660.605790
818.781213	5880.846239
819.099843	6241.893678
819.418429	6862.656321
819.736970	7469.311296
820.055466	8164.972883
820.373919	9057.060508
820.692327	10481.252005
821.010691	13137.993014
821.329011	19234.167099
821.647286	28637.862387
821.965517	38784.573340
822.283704	44147.423378
822.601847	45603.386746
822.919945	41061.758314
823.237999	36060.089305
823.556010	30934.357501
823.873976	26316.627810
824.191897	22187.912728
824.509775	19176.713068
824.827609	16459.256402
825.145398	14944.578715
825.463144	14208.734091
825.780845	14503.964225
826.098502	15736.884262
826.416116	18151.796080
826.733685	20397.554501
827.051210	20915.167575
827.368692	19493.642849
827.686129	16977.393756
828.003522	14543.045770
828.320872	12371.425078
828.638177	10748.831410
828.955439	9526.538125
829.272656	8488.546904
829.589830	7656.529667
829.906960	6946.311749
830.224046	6420.985709
830.541088	6014.754409
830.858086	5765.968426
831.175041	5567.127674
831.491952	5509.149363
831.808819	5541.619435
832.125642	5780.552484
832.442421	6320.626419
832.759157	7409.034219
833.075849	9151.929983
833.392497	10967.294853
833.709101	12062.460320
834.025662	11814.937146
834.342179	10774.480801
834.658653	9487.769131
834.975083	8402.859891
835.291469	7513.980960
835.607811	6794.946063
835.924110	6280.350120
836.240366	5802.720958
836.556578	5359.263257
836.872746	5016.318602
837.188871	4744.766767
837.504952	4528.990259
837.820990	4363.398438
838.136984	4255.820215
838.452935	4206.744582
838.768842	4235.857246
839.084706	4512.535933
839.400526	5239.601388
839.716303	6130.315299
840.032037	6682.840884
840.347727	6534.792278
840.663373	5953.700995
840.978977	5381.988778
841.294537	4947.484167
841.610054	4623.829487
841.925527	4389.214187
842.240957	4184.765151
842.556344	4007.314015
842.871687	3852.946323
843.186987	3704.945608
843.502244	3584.706527
843.817458	3500.161336
844.132629	3434.021397
844.447756	3386.324520
844.762840	3340.823065
845.077881	3305.414001
845.392879	3269.284051
845.707833	3245.358735
846.022745	3218.328068
846.337613	3208.074361
846.652438	3181.963705
846.967221	3174.427180
847.281960	3158.149294
847.596656	3149.392810
847.911309	3134.440747
848.225919	3122.747791
848.540485	3111.586677
848.855009	3107.760441
849.169490	3095.991867
849.483928	3087.971391
849.798323	3082.882347
850.112675	3069.394739
850.426984	3072.142168
850.741251	3064.996333
851.055474	3060.386198
851.369654	3062.639593
851.683792	3061.359140
851.997887	3060.799572
852.311938	3062.319480
852.625947	3065.303843
852.939914	3057.923594
853.253837	3063.413410
853.567718	3060.396280
853.881555	3055.718089
854.195350	3061.197823
854.509103	3058.846125
854.822812	3054.268757
855.136479	3053.409241
855.450103	3053.913356
855.763685	3045.121584
856.077224	3047.995041
856.390720	3054.795558
856.704173	3066.453226
857.017584	3073.687282
857.330953	3077.715164
857.644278	3085.932245
857.957561	3091.401897
858.270802	3085.070207
858.584000	3083.520053
858.897155	3077.886563
859.210268	3069.949266
859.523339	3056.217163
859.836367	3056.136505
860.149352	3050.734908
860.462295	3048.942778
860.775195	3037.690923
861.088054	3033.410983
861.400869	3033.491642
861.713642	3029.821682
862.026373	3041.186963
862.339062	3042.837941
862.651708	3054.941751
862.964312	3068.736869
863.276873	3077.891604
863.589392	3106.195162
863.901869	3131.829430
864.214303	3154.287770
864.526696	3171.047086
864.839045	3187.995445
865.151353	3197.059440
865.463619	3199.028011
865.775842	3202.151005
866.088023	3205.490770
866.400162	3199.438865
866.712258	3199.890048
867.024313	3200.343752
867.336325	3200.316025
867.648296	3199.519523
867.960224	3196.946014
868.272110	3202.201417
868.583954	3200.759647
868.895755	3207.250132
869.207515	3206.012529
869.519233	3223.021382
869.830909	3231.677043
870.142542	3240.456213
870.454134	3248.131370
870.765684	3259.421034
871.077191	3278.340484
871.388657	3285.297276
871.700081	3303.647076
872.011463	3329.356961
872.322803	3345.609641
872.634101	3360.876775
872.945357	3382.858727
873.256571	3407.096594
873.567744	3425.804316
873.878874	3429.799431
874.189963	3447.156123
874.501010	3446.024384
874.812015	3441.121862
875.122979	3455.579892
875.433900	3457.495530
875.744780	3460.540387
876.055618	3463.469297
876.366415	3461.251190
876.677169	3466.713280
876.987882	3485.037874
877.298554	3505.769619
877.609183	3541.050134
877.919771	3588.933534
878.230317	3654.566837
878.540822	3752.357660
878.851285	3900.164290
879.161707	4117.977425
879.472087	4483.317406
879.782425	5094.600159
880.092722	6249.760398
880.402977	8137.785940
880.713191	10455.093457
881.023363	12776.368363
881.333494	14101.120580
881.643583	14538.748186
881.953631	14137.074089
882.263637	13310.287049
882.573602	12298.681228
882.883526	11368.169927
883.193408	10441.752044
883.503248	9544.807266
883.813048	8729.415755
884.122806	7983.791293
884.432522	7234.227168
884.742197	6592.016936
885.051831	6034.495568
885.361424	5552.863729
885.670975	5169.844422
885.980485	4855.904045
886.289954	4595.770424
886.599382	4384.719998
886.908768	4206.001012
887.218113	4050.889749
887.527417	3919.635747
887.836680	3800.966986
888.145901	3704.272614
888.455082	3626.820326
888.764221	3558.381621
889.073319	3503.115452
889.382376	3474.196873
889.691392	3449.464972
890.000366	3444.552368
890.309300	3435.024587
890.618193	3437.348559
890.927044	3432.809000
891.235855	3440.912654
891.544625	3452.766928
891.853353	3481.453614
892.162041	3542.481822
892.470687	3629.189668
892.779293	3744.896752
893.087858	3915.741456
893.396381	4186.466541
893.704864	4589.418571
894.013306	5140.567921
894.321707	5700.196491
894.630068	6050.798659
894.938387	6087.321819
895.246665	5910.394963
895.554903	5602.808961
895.863100	5269.876037
896.171256	5003.655223
896.479371	4773.859266
896.787446	4555.806677
897.095480	4361.341647
897.403473	4217.305799
897.711425	4077.464192
898.019336	3958.137560
898.327207	3838.453006
898.635038	3739.081781
898.942827	3637.011018
899.250576	3552.811146
899.558284	3471.698981
899.865952	3419.144952
900.173579	3358.767053
900.481165	3310.734939
900.788711	3272.966614
901.096216	3237.018146
901.403681	3209.511090
901.711105	3199.610264
902.018489	3195.257227
902.325832	3229.864749
902.633135	3287.006228
902.940397	3450.500929
903.247619	3844.406608
903.554800	4580.180656
903.861941	5524.852558
904.169041	6199.590835
904.476101	6411.331900
904.783121	6143.969264
905.090100	5746.880097
905.397039	5343.703735
905.703938	4995.627186
906.010796	4680.353424
906.317614	4431.945527
906.624391	4203.472873
906.931129	4012.269470
907.237826	3831.523940
907.544483	3667.147036
907.851099	3502.255935
908.157675	3345.821369
908.464211	3209.957232
908.770707	3109.716408
909.077163	3035.704708
909.383578	2974.792446
909.689954	2933.084460
909.996289	2902.378792
910.302584	2879.439021
910.608839	2871.705891
910.915054	2860.736341
911.221229	2853.053622
911.527363	2859.395394
911.833458	2865.800180
912.139513	2877.982128
912.445527	2892.677091
912.751502	2921.141967
913.057436	2969.068216
913.363331	3021.140815
913.669186	3108.022581
913.975000	3216.442677
914.280775	3399.055954
914.586510	3658.501457
914.892205	4028.262530
915.197859	4511.754554
915.503475	5080.293365
915.809050	5558.219955
916.114585	5842.677143
916.420081	5904.496813
916.725536	5838.243448
917.030952	5610.829437
917.336328	5413.692595
917.641665	5203.683167
917.946961	4981.890042
918.252218	4786.177326
918.557435	4565.417637
918.862612	4374.511662
919.167750	4204.307184
919.472848	4022.886140
919.777906	3860.709700
920.082925	3702.954352
920.387904	3554.648647
920.692843	3450.453038
920.997743	3351.938810
921.302603	3263.148967
921.607423	3196.139429
921.912204	3132.673823
922.216946	3085.745722
922.521647	3040.392981
922.826310	3002.412928
923.130932	2959.847946
923.435516	2924.179262
923.740059	2900.483318
924.044564	2869.250849
924.349028	2843.109946
924.653454	2816.154897
924.957840	2788.390742
925.262186	2769.882145
925.566493	2747.242323
925.870761	2726.331617
926.174989	2714.714278
926.479178	2699.797504
926.783328	2685.846111
927.087438	2670.339522
927.391509	2659.564055
927.695541	2652.761018
927.999533	2639.538072
928.303486	2630.683285
928.607400	2626.370578
928.911275	2621.117695
929.215110	2616.701645
929.518906	2611.310131
929.822663	2611.761314
930.126381	2610.344750
930.430060	2612.121756
930.733699	2618.493775
931.037299	2620.671553
931.340861	2618.113168
931.644383	2621.762963
931.947866	2619.514608
932.251309	2618.123250
932.554714	2615.000255
932.858080	2613.155193
933.161407	2613.533279
933.464694	2606.558843
933.767943	2602.402412
934.071153	2601.099273
934.374323	2599.153388
934.677455	2595.196082
934.980548	2590.336410
935.283602	2588.924887
935.586617	2584.760894
935.889593	2591.326997
936.192530	2591.967223
936.495428	2597.217585
936.798287	2606.362238
937.101108	2618.914711
937.403890	2641.168885
937.706632	2666.036897
938.009336	2699.671475
938.312002	2725.436812
938.614628	2751.529825
938.917216	2767.805190
939.219765	2775.389606
939.522275	2786.964095
939.824747	2786.006276
940.127179	2781.267591
940.429573	2777.282559
940.731929	2774.250305
941.034246	2766.323091
941.336524	2763.810076
941.638763	2755.257758
941.940964	2752.303642
942.243126	2732.219685
942.545250	2726.671895
942.847335	2709.032898
943.149381	2699.608461
943.451389	2685.914166
943.753359	2673.548216
944.055290	2666.379695
944.357182	2654.931235
944.659036	2652.859321
944.960851	2646.837662
945.262628	2645.325316
945.564367	2643.654174
945.866067	2643.772641
946.167729	2641.368010
946.469352	2639.777526
946.770937	2640.611837
947.072484	2630.985754
947.373992	2633.282000
947.675462	2630.426186
947.976893	2624.134826
948.278286	2620.903446
948.579641	2618.763477
948.880958	2612.267950
949.182236	2613.734926
949.483476	2611.415995
949.784678	2610.052363
950.085841	2611.105964
950.386967	2614.604525
950.688054	2619.612911
950.989103	2630.423665
951.290114	2636.951960
951.591087	2648.135759
951.892021	2660.526916
952.192917	2672.703823
952.493776	2679.569874
952.794596	2686.637572
953.095378	2688.129753
953.396122	2686.309897
953.696828	2682.274453
953.997496	2679.285049
954.298126	2665.936074
954.598718	2661.139416
954.899272	2650.928559
955.199788	2641.168885
955.500266	2625.861421
955.800706	2614.493619
956.101108	2594.523088
956.401472	2585.822057
956.701798	2568.828327
957.002087	2559.708880
957.302337	2549.873589
957.602550	2537.842875
957.902724	2527.342152
958.202861	2522.124557
958.502960	2511.782630
958.803022	2505.070334
959.103045	2499.094046
959.403031	2491.406286
959.702979	2485.334217
960.002889	2480.081334
960.302762	2475.451034
960.602596	2469.441979
960.902393	2471.014819
961.202153	2466.240846
961.501875	2465.174642
961.801559	2462.094497
962.101205	2459.750361
962.400814	2459.939404
962.700385	2454.925977
962.999918	2453.022941
963.299414	2450.966150
963.598873	2452.511264
963.898293	2448.165789
964.197677	2448.722837
964.497022	2447.397013
964.796331	2445.582198
965.095601	2447.628906
965.394835	2446.708896
965.694030	2445.209153
965.993189	2446.108998
966.292309	2445.569595
966.591393	2441.947526
966.890439	2443.568257
967.189447	2440.667073
967.488419	2442.925510
967.787353	2446.184616
968.086249	2444.458021
968.385108	2446.413988
968.683930	2445.572116
968.982714	2446.676128
969.281462	2446.986159
969.580172	2450.734257
969.878844	2452.712910
970.177480	2454.578137
970.476078	2456.914712
970.774639	2461.323201
971.073162	2460.851853
971.371649	2462.918726
971.670098	2460.904785
971.968510	2466.613892
972.266885	2462.931329
972.565223	2469.749489
972.863524	2468.032977
973.161788	2472.156640
973.460014	2473.295941
973.758204	2475.002372
974.056356	2471.954994
974.354471	2475.292238
974.652550	2475.453555
974.950591	2478.967239
975.248595	2475.319964
975.546563	2475.009933
975.844493	2469.971300
976.142386	2468.345528
976.440243	2469.290744
976.738062	2466.263532
977.035845	2463.687502
977.333590	2461.000567
977.631299	2457.917901
977.928971	2457.885134
978.226606	2454.598302
978.524204	2456.831533
978.821765	2452.579319
979.119290	2453.582509
979.416777	2455.220884
979.714228	2452.087807
980.011642	2453.083435
980.309020	2459.440330
980.606360	2461.479477
980.903664	2469.091619
981.200931	2483.486634
981.498162	2503.068996
981.795356	2530.182842
982.092513	2565.417987
982.389633	2608.028339
982.686717	2650.152221
982.983764	2682.304700
983.280775	2701.062834
983.577749	2696.755168
983.874686	2690.219312
984.171587	2673.517969
984.468451	2657.353509
984.765279	2645.259781
985.062070	2622.688015
985.358824	2606.384923
985.655543	2586.341296
985.952224	2561.806000
986.248869	2536.474202
986.545478	2509.042763
986.842050	2491.282778
987.138586	2473.946250
987.435086	2459.702470
987.731549	2450.595625
988.027975	2445.630089
988.324366	2440.999789
988.620719	2437.551640
988.917037	2432.656679
989.213318	2432.139961
989.509563	2429.415218
989.805772	2426.599733
990.101944	2425.926739
990.398080	2425.021852
990.694180	2425.324321
990.990244	2423.741399
991.286271	2424.968920
991.582262	2426.130906
991.878217	2425.609146
992.174136	2427.181986
992.470019	2430.073088
992.765865	2428.464960
993.061676	2433.725404
993.357450	2432.218099
993.653188	2435.081474
993.948890	2441.851744
994.244556	2447.691921
994.540186	2455.435133
994.835780	2469.227730
995.131337	2480.870275
995.426859	2493.543736
995.722345	2517.146418
996.017795	2531.415404
996.313208	2546.264122
996.608586	2554.990360
996.903928	2563.020918
997.199234	2557.503375
997.494504	2552.994063
997.789738	2549.334185
998.084936	2536.804397
998.380099	2528.211751
998.675225	2517.678260
998.970316	2505.922289
999.265371	2491.129023
999.560390	2477.369193
999.855373	2466.361834
1000.150320	2457.464197
1000.445232	2450.217539
1000.740108	2445.446087
1001.034948	2436.089705
1001.329752	2434.083326
1001.624521	2430.393201
1001.919254	2420.840215
1002.213951	2423.325504
1002.508613	2418.949782
1002.803239	2417.913825
1003.097829	2413.139852
1003.392384	2418.904412
1003.686903	2414.931983
1003.981386	2416.346026
1004.275834	2415.161355
1004.570246	2412.761766
1004.864623	2411.491395
1005.158964	2413.036509
1005.453270	2409.106929
1005.747540	2411.677918
1006.041775	2412.156827
1006.335974	2410.152969
1006.630138	2407.765982
1006.924266	2411.451066
1007.218359	2410.997362
1007.512416	2409.091806
1007.806438	2405.610889
1008.100425	2408.381003
1008.394376	2408.406209
1008.688292	2405.633574
1008.982172	2406.611558
1009.276017	2408.897721
1009.569827	2408.338153
1009.863602	2409.106929
1010.157341	2407.138359
1010.451045	2407.781106
1010.744714	2405.510066
1011.038347	2407.032494
1011.331945	2405.724315
1011.625508	2408.837228
1011.919036	2403.405384
1012.212528	2404.857237
1012.505986	2402.989489
1012.799408	2403.685168
1013.092795	2405.744480
1013.386147	2402.281207
1013.679464	2404.753893
1013.972745	2404.469068
1014.265992	2404.597617
1014.559204	2404.569891
1014.852380	2401.908162
1015.145521	2406.644326
1015.438628	2401.177194
1015.731699	2405.076527
1016.024736	2404.753893
1016.317737	2404.010323
1016.610703	2405.068965
1016.903635	2400.811711
1017.196531	2398.860784
1017.489393	2402.891187
1017.782219	2401.368758
1018.075011	2410.306724
1018.367768	2405.903276
1018.660490	2407.544172
1018.953177	2407.544172
1019.245829	2407.544172
