Dividing Wavelength (nm)	Counts (n)	Blue Motor Position (mm): 26.600000	Red Motor Position (mm): 0.000000	
326.493990	1971.776751
326.888308	1971.776751
327.282561	1971.776751
327.676750	1945.577874
328.070874	1947.624583
328.464933	1954.394852
328.858929	1962.674947
329.252859	1977.652216
329.646726	1991.268372
330.040528	2005.570126
330.434265	2026.642149
330.827938	2046.101002
331.221547	2064.511296
331.615091	2085.777404
332.008571	2106.519231
332.401986	2127.946656
332.795338	2146.692186
333.188625	2166.478715
333.581847	2183.661488
333.975006	2202.522965
334.368100	2222.619525
334.761129	2238.441186
335.154095	2253.657909
335.546996	2289.087138
335.939833	2360.510206
336.332606	2379.011241
336.725315	2388.594474
337.117960	2396.549415
337.510540	2405.615930
337.903056	2416.449370
338.295508	2419.705955
338.687896	2432.639035
339.080220	2435.719180
339.472480	2440.856116
339.864676	2446.905501
340.256807	2447.709565
340.648875	2448.690069
341.040879	2452.559155
341.432818	2452.922118
341.824694	2452.849021
342.216506	2450.701490
342.608253	2453.343054
342.999937	2452.160904
343.391557	2451.989504
343.783113	2451.273661
344.174605	2449.037909
344.566033	2444.805860
344.957397	2446.401385
345.348697	2443.366611
345.739934	2441.355190
346.131106	2439.477361
346.522215	2438.025508
346.913260	2436.422421
347.304241	2434.345466
347.695159	2432.782708
348.086012	2431.880342
348.476802	2429.962183
348.867528	2427.302974
349.258191	2426.861873
349.648789	2427.308015
350.039324	2423.786769
350.429796	2426.882038
350.820203	2422.816347
351.210548	2423.859866
351.600828	2420.366346
351.991045	2422.201326
352.381198	2419.332910
352.771288	2420.053795
353.161314	2417.616397
353.551276	2417.664288
353.941175	2418.493558
354.331010	2423.310380
354.720782	2421.591347
355.110490	2425.110072
355.500135	2420.467169
355.889717	2421.104875
356.279235	2422.370205
356.668689	2422.052612
357.058080	2422.256779
357.447408	2421.160328
357.836672	2420.457087
358.225873	2422.871800
358.615010	2418.410379
359.004084	2423.605288
359.393095	2425.788107
359.782043	2425.846081
360.170927	2422.115627
360.559748	2425.843560
360.948505	2427.245001
361.337199	2429.609302
361.725830	2427.267686
362.114398	2431.519899
362.502903	2431.345979
362.891344	2432.772626
363.279722	2429.810948
363.668037	2431.078798
364.056289	2430.930084
364.444478	2437.965014
364.832603	2431.199786
365.220665	2434.355548
365.608665	2435.625919
365.996601	2434.151382
366.384474	2438.827052
366.772284	2433.138110
367.160031	2436.356886
367.547715	2436.291351
367.935336	2438.025508
368.322893	2437.186156
368.710388	2438.131372
369.097820	2440.407453
369.485189	2437.193718
369.872495	2439.628595
370.259738	2435.711619
370.646918	2440.528441
371.034035	2438.010385
371.421090	2438.960642
371.808081	2441.067845
372.195010	2439.096753
372.581875	2443.585901
372.968678	2443.777465
373.355418	2440.462906
373.742096	2440.596497
374.128710	2442.630602
374.515262	2443.106991
374.901751	2444.092537
375.288177	2441.453493
375.674540	2444.473144
376.060841	2446.784513
376.447079	2443.137238
376.833254	2445.017589
377.219367	2441.324943
377.605417	2443.112033
377.991404	2442.628082
378.377329	2443.835438
378.763191	2441.997937
379.148991	2447.477672
379.534727	2449.047991
379.920402	2448.178392
380.306013	2446.507250
380.691563	2448.405244
381.077049	2449.720985
381.462474	2446.908021
381.847835	2450.419185
382.233134	2453.781635
382.618371	2449.942796
383.003545	2451.823146
383.388657	2451.500512
383.773706	2453.658126
384.158693	2452.077725
384.543618	2452.486058
384.928480	2457.149125
385.313280	2452.843980
385.698017	2452.995215
386.082692	2455.077211
386.467305	2452.501182
386.851856	2453.579988
387.236344	2455.228446
387.620770	2457.108796
388.005133	2453.514453
388.389435	2453.685853
388.773674	2456.566872
389.157851	2460.917388
389.541965	2457.597788
389.926018	2461.260186
390.310008	2460.251956
390.693936	2457.292798
391.077802	2458.212809
391.461606	2459.757923
391.845348	2458.653910
392.229027	2460.763633
392.612645	2461.224898
392.996200	2462.691874
393.379694	2461.804631
393.763125	2461.348407
394.146494	2461.519806
394.529801	2466.197997
394.913047	2460.940073
395.296230	2462.825465
395.679351	2462.608695
396.062410	2463.697584
396.445408	2464.161370
396.828343	2463.037193
397.211217	2460.730865
397.594028	2463.170784
397.976778	2463.934518
398.359466	2463.369909
398.742092	2458.127109
399.124656	2464.960393
399.507158	2468.080867
399.889598	2469.061372
400.271977	2469.812504
400.654294	2468.728656
401.036549	2468.647997
401.418742	2467.231433
401.800874	2470.132617
402.182944	2471.675210
402.564952	2470.349387
402.946898	2470.747638
403.328783	2471.224027
403.710606	2471.607155
404.092367	2472.877525
404.474067	2474.788123
404.855705	2473.048925
405.237282	2473.386682
405.618797	2473.479943
406.000250	2475.844244
406.381642	2475.740901
406.762972	2477.225521
407.144240	2476.766776
407.525447	2475.274594
407.906593	2477.679224
408.287677	2476.411374
408.668700	2475.748462
409.049661	2480.008238
409.430560	2477.943885
409.811399	2480.681232
410.192176	2478.732826
410.572891	2479.922538
410.953545	2480.628299
411.334138	2478.221148
411.714669	2479.272229
412.095139	2479.806591
412.475547	2482.866572
412.855894	2480.030923
413.236180	2478.992445
413.616405	2483.988228
413.996568	2484.731799
414.376670	2483.668115
414.756711	2485.424957
415.136691	2484.220122
415.516609	2484.840183
415.896466	2488.477376
416.276262	2487.355719
416.655997	2484.192395
417.035670	2481.281129
417.415283	2490.839157
417.794834	2484.739360
418.174324	2491.431492
418.553753	2489.049547
418.933121	2488.169866
419.312428	2490.776142
419.691674	2489.490648
420.070859	2490.440905
420.449983	2495.315701
420.829045	2493.725217
421.208047	2492.832933
421.586988	2492.288488
421.965867	2495.928201
422.344686	2496.165136
422.723444	2497.274189
423.102141	2490.758498
423.480777	2498.796618
423.859352	2496.865856
424.237866	2499.174704
424.616319	2497.851402
424.994712	2502.179232
425.373044	2500.974396
425.751314	2502.645539
426.129524	2499.971207
426.507673	2504.230982
426.885762	2503.825169
427.263789	2505.909686
427.641756	2506.416322
428.019662	2507.386744
428.397508	2505.526558
428.775292	2508.369769
429.153016	2510.983607
429.530679	2507.391785
429.908282	2512.911849
430.285824	2513.075686
430.663305	2513.337826
431.040726	2513.075686
431.418086	2514.666170
431.795385	2514.956037
432.172624	2514.582991
432.549802	2518.522653
432.926920	2519.384690
433.303977	2521.534742
433.680974	2520.501306
434.057910	2523.102541
434.434786	2525.189579
434.811601	2526.681760
435.188355	2528.667975
435.565050	2528.511699
435.941683	2528.907430
436.318257	2532.451361
436.694770	2529.434230
437.071222	2536.217103
437.447614	2534.881197
437.823946	2536.199459
438.200218	2538.649460
438.576429	2545.848227
438.952580	2545.109698
439.328670	2547.337888
439.704700	2547.968033
440.080670	2551.242262
440.456580	2559.308108
440.832429	2562.358006
441.208218	2561.372461
441.583947	2567.893193
441.959616	2571.263204
442.335224	2575.790161
442.710773	2586.994125
443.086261	2592.993098
443.461689	2594.555856
443.837057	2601.184973
444.212365	2613.745008
444.587612	2622.072994
444.962800	2630.741258
445.337927	2641.403298
445.712995	2645.355563
446.088002	2671.428411
446.462949	2686.942562
446.837837	2700.004191
447.212664	2719.468086
447.587431	2771.875922
447.962139	2833.322546
448.336786	2887.177192
448.711374	2891.416803
449.085901	2863.463605
449.460369	2890.736247
449.834776	2927.922318
450.209124	3016.074455
450.583412	3045.219886
450.957640	3097.269800
451.331808	3110.596090
451.705917	3124.378604
452.079965	3176.526820
452.453954	3232.602095
452.827883	3286.618059
453.201752	3335.671006
453.575562	3399.555028
453.949311	3505.933457
454.323001	3585.480344
454.696632	3654.536590
455.070202	3801.224084
455.443713	3899.511461
455.817164	4018.913710
456.190556	4145.512207
456.563888	4211.319429
456.937160	4330.023479
457.310373	4325.073066
457.683526	4454.681131
458.056619	4566.682967
458.429653	4675.997867
458.802628	4841.370399
459.175542	4980.952387
459.548398	5238.978805
459.921194	5540.341503
460.293930	5783.418380
460.666607	6177.893709
461.039224	6561.555764
461.411782	6775.033506
461.784280	6780.029289
462.156719	6867.911724
462.529099	6966.990562
462.901419	6954.639735
463.273680	6976.256203
463.645882	7161.420304
464.018024	7346.788572
464.390106	7680.397010
464.762130	8376.973566
465.134094	9399.503568
465.505999	10714.791018
465.877845	11936.595312
466.249631	12468.631127
466.621358	12340.099348
466.993026	12131.635033
467.364634	11935.090527
467.736184	11774.234870
468.107674	11756.631160
468.479105	11832.233345
468.850477	11925.111563
469.221790	11826.776296
469.593043	11622.970007
469.964238	11633.858900
470.335373	11862.303827
470.706449	12625.080816
471.077467	13718.103793
471.448425	15473.146216
471.819324	16737.933907
472.190164	16432.540808
472.560945	15512.419325
472.931667	14752.518315
473.302330	14639.664524
473.672934	14636.856602
474.043479	15093.065901
474.413965	15087.031640
474.784393	15208.606627
475.154761	15819.546582
475.525070	16109.894358
475.895321	16204.184100
476.265513	16725.714151
476.635645	17421.000171
477.005719	17652.426942
477.375734	18153.303385
477.745691	18771.104350
478.115588	19676.803092
478.485427	20940.496853
478.855207	22921.929933
479.224928	24616.009683
479.594591	25846.590625
479.964194	25656.148436
480.333739	26098.827279
480.703226	26481.239127
481.072653	27220.105923
481.442022	27881.734680
481.811333	28405.999557
482.180584	27995.712648
482.549777	28040.228557
482.918912	28070.755264
483.287988	28233.264420
483.657005	28050.222644
484.025964	27989.852307
484.394864	28332.469287
484.763706	28382.575835
485.132489	28148.678900
485.501213	28362.751498
485.869879	28769.983467
486.238487	28802.057808
486.607036	29249.999616
486.975527	29180.199800
487.343959	29606.434398
487.712333	29947.823857
488.080648	30179.122078
488.448905	30752.271024
488.817104	30922.041962
489.185244	31864.039531
489.553326	33371.699933
489.921350	35698.898194
490.289315	38312.996083
490.657222	39158.301801
491.025070	39712.700174
491.392861	39227.085824
491.760593	38459.882703
492.128267	37371.366518
492.495883	36425.547753
492.863440	35584.804280
493.230939	34774.080877
493.598380	34183.197152
493.965763	34150.117101
494.333088	33740.477980
494.700354	33583.819083
495.067563	33577.656273
495.434713	33687.399672
495.801805	33950.303406
496.168839	33842.664689
496.535815	33758.805095
496.902733	33980.013447
497.269593	33826.704396
497.636395	33968.549863
498.003139	34475.841174
498.369825	34214.003643
498.736453	34627.562261
499.103023	34413.139303
499.469535	34462.847600
499.835989	34724.604472
500.202385	34576.089560
500.568723	34765.382366
500.935003	35084.038742
501.301226	35057.290379
501.667390	35728.915745
502.033497	36097.166992
502.399546	35736.422023
502.765537	35282.178773
503.131470	35741.289257
503.497345	36186.879366
503.863163	35133.482379
504.228923	35798.599614
504.594625	36270.126460
504.960269	35770.356550
505.325856	36480.642524
505.691385	36005.067632
506.056856	36249.329180
506.422270	36743.974757
506.787625	36451.340817
507.152924	36720.606488
507.518164	36912.792917
507.883347	36279.288757
508.248472	36597.229289
508.613540	37109.254244
508.978550	37476.703948
509.343503	37314.325862
509.708398	37572.851354
510.073236	38147.568099
510.438016	38220.085097
510.802738	37766.882845
511.167403	38422.411806
511.532010	38686.469965
511.896561	39047.489678
512.261053	39883.766689
512.625488	39520.400320
512.989866	39450.164444
513.354186	39357.089620
513.718449	39395.089838
514.082655	40084.041649
514.446803	39826.605046
514.810894	40358.368638
515.174927	40337.982212
515.538904	40285.261825
515.902822	40945.045520
516.266684	40457.845727
516.630488	40905.049006
516.994235	40791.756635
517.357925	41367.796682
517.721558	41559.103429
518.085133	41880.638304
518.448651	42034.925338
518.812112	41838.312776
519.175516	41956.243008
519.538863	42314.243069
519.902152	42303.878457
520.265385	42763.533385
520.628560	42824.120493
520.991678	42647.720438
521.354739	42892.050041
521.717743	43206.668452
522.080690	43126.529230
522.443580	43682.563458
522.806413	43748.700876
523.169189	43712.684352
523.531908	43891.483997
523.894569	43771.675934
524.257174	43949.449704
524.619722	44248.266619
524.982213	44248.034726
525.344647	44177.095609
525.707025	44239.124487
526.069345	44633.945135
526.431608	44571.671762
526.793815	44890.668415
527.155964	44445.526969
527.518057	44612.686589
527.880093	44407.287297
528.242072	44943.429132
528.603995	44655.428012
528.965860	44657.535215
529.327669	44765.907419
529.689421	44671.796639
530.051117	44634.204755
530.412755	44795.007480
530.774337	44849.066293
531.135862	44679.877608
531.497331	44872.626126
531.858743	44793.623683
532.220098	45135.938194
532.581396	44844.662845
532.942638	44526.031675
533.303824	44809.352083
533.664953	44789.666377
534.026025	44526.596285
534.387040	44992.469476
534.747999	44940.147340
535.108902	45125.485362
535.469748	44644.171116
535.830537	44770.477225
536.191270	44977.666128
536.551947	44625.475997
536.912567	44918.641778
537.273131	45049.300924
537.633638	44551.116457
537.994089	44899.354323
538.354483	44512.675138
538.714821	45076.276138
539.075103	45422.217759
539.435328	45197.921701
539.795497	45090.892964
540.155609	45073.468216
540.515665	45542.998764
540.875665	45000.361402
541.235609	45317.094578
541.595496	45290.716741
541.955328	45963.602394
542.315102	45338.758937
542.674821	45140.777702
543.034483	45199.817175
543.394090	45159.417368
543.753640	45113.759638
544.113134	46107.746627
544.472571	45151.878323
544.831953	46365.982253
545.191278	45604.001767
545.550548	45324.184961
545.909761	45778.057686
546.268918	45979.124107
546.628019	46290.085161
546.987064	45884.098357
547.346053	45162.742009
547.704986	46000.990112
548.063863	45584.913438
548.422684	45793.760880
548.781449	45654.395661
549.140158	46022.651950
549.498811	45888.325364
549.857408	45322.929714
550.215949	46141.683674
550.574434	46091.078052
550.932864	45871.808024
551.291237	46580.102742
551.649555	46177.445620
552.007817	46430.859383
552.366022	46089.961436
552.724173	46251.548061
553.082267	46650.991447
553.440305	46947.731407
553.798288	46278.997143
554.156215	46579.006291
554.514086	46791.627037
554.871902	46528.766152
555.229661	46559.091213
555.587365	46395.941830
555.945014	46469.484703
556.302606	46418.039728
556.660143	46622.738301
557.017625	46712.536374
557.375050	46517.491611
557.732421	46862.828294
558.089735	46837.758636
558.446994	46756.487674
558.804197	47217.667551
559.161345	47161.536824
559.518437	46430.531707
559.875474	46738.868841
560.232455	46891.209990
560.589381	47061.341371
560.946251	46746.448216
561.303065	47425.761341
561.659825	47233.171620
562.016528	46925.270546
562.373177	46644.374933
562.729770	47120.905124
563.086307	46647.472722
563.442789	47095.275898
563.799216	47133.455076
564.155587	46946.692929
564.511904	46958.010320
564.868164	47058.719971
565.224370	47292.339643
565.580520	47039.006538
565.936615	47246.571007
566.292654	46969.458780
566.648638	47197.709623
567.004567	47156.374682
567.360441	47180.375616
567.716260	47056.398519
568.072023	47348.336780
568.427732	47333.117536
568.783385	46887.910555
569.138982	47279.038558
569.494525	47240.836694
569.850013	46986.772623
570.205445	46974.003380
570.560823	46926.815660
570.916145	46813.803073
571.271412	46816.631160
571.626625	46609.971579
571.981782	46657.640729
572.336884	46357.119905
572.691931	46656.665266
573.046923	46273.955990
573.401860	46123.855634
573.756743	46101.606501
574.111570	46223.136118
574.466342	46075.906699
574.821059	46189.199070
575.175722	45722.786475
575.530330	45738.048568
575.884882	45458.645137
576.239380	45432.048009
576.593823	45405.776036
576.948211	45321.558520
577.302544	44850.069483
577.656823	44894.444240
578.011047	45119.753570
578.365216	44830.353530
578.719330	44647.536086
579.073389	44495.751985
579.427394	44569.796452
579.781344	44561.539042
580.135239	44220.527670
580.489080	44309.138552
580.842866	43789.965241
581.196597	44233.554012
581.550273	44181.708265
581.903895	44065.028238
582.257463	44475.068131
582.610975	43878.331626
582.964434	44149.568388
583.317837	43803.941840
583.671186	43639.322961
584.024481	43864.990213
584.377721	43412.854165
584.730906	43704.230337
585.084037	43727.097011
585.437113	43439.584884
585.790135	43483.387469
586.143103	43092.816513
586.496016	43200.835837
586.848874	43231.289448
587.201679	43251.048250
587.554428	42732.026174
587.907124	42932.883387
588.259765	42687.301057
588.612352	42945.327475
588.964884	42351.247659
589.317362	42627.417190
589.669786	42572.456011
590.022155	42347.348327
590.374470	42752.140378
590.726731	42299.147334
591.078937	41822.317195
591.431090	41905.465986
591.783188	41557.981772
592.135232	41255.835175
592.487222	41510.839422
592.839157	41589.063006
593.191038	41275.528443
593.542866	41041.515561
593.894639	40450.402464
594.246358	40726.372869
594.598022	40689.758969
594.949633	40305.063478
595.301190	40270.186255
595.652692	40102.983785
596.004141	40422.673597
596.355535	39466.870828
596.706876	39409.005943
597.058162	39261.806772
597.409395	39703.192558
597.760573	39788.186412
598.111698	39348.958239
598.462768	39372.462619
598.813785	39419.942727
599.164748	38870.111638
599.515657	39270.664079
599.866511	38755.042261
600.217312	39361.682112
600.568060	38340.442645
600.918753	39066.570445
601.269392	39044.031446
601.619978	38696.501862
601.970510	38894.258765
602.320988	39080.542003
602.671412	39379.515193
603.021783	39126.590423
603.372100	38780.013616
603.722363	38894.110051
604.072572	38968.106628
604.422728	38975.063420
604.772830	38795.434506
605.122878	38892.186851
605.472872	38826.503137
605.822813	39111.272877
606.172701	38940.019839
606.522534	39171.854943
606.872314	39422.370042
607.222041	39194.802275
607.571714	39584.790978
607.921333	39026.639465
608.270899	39320.029578
608.620411	39656.791258
608.969870	39463.561310
609.319276	39457.038057
609.668627	39521.637923
610.017926	39984.579684
610.367171	40143.244960
610.716362	40239.669630
611.065500	40174.709322
611.414585	40375.621987
611.763616	40673.440754
612.112594	40598.486358
612.461518	40804.616618
612.810389	41089.073806
613.159207	40978.307053
613.507971	41034.175641
613.856682	41516.898889
614.205340	41398.940930
614.553945	42085.984664
614.902496	41538.585933
615.250994	42009.880885
615.599439	42072.396234
615.947830	42296.979638
616.296169	42341.404806
616.644454	42465.752428
616.992686	42639.208449
617.340864	43165.141948
617.688990	42893.791760
618.037063	43482.860669
618.385082	43454.136174
618.733048	43745.098971
619.080961	43774.047797
619.428821	43775.418991
619.776628	43877.222573
620.124382	43695.887227
620.472083	43826.138040
620.819731	43939.553919
621.167326	43618.976864
621.514868	43605.111170
621.862357	43186.158518
622.209793	43194.821741
622.557176	42853.961603
622.904506	42611.010755
623.251783	42279.756536
623.599007	42060.491549
623.946179	41830.327588
624.293297	41784.208592
624.640363	41204.168390
624.987376	41189.138189
625.334336	40956.123456
625.681243	40601.170772
626.028097	40585.996899
626.374899	40417.367782
626.721647	40398.042519
627.068343	40293.060490
627.414987	40063.894678
627.761577	39854.533038
628.108115	40167.747488
628.454600	39628.417123
628.801032	39824.523049
629.147412	39787.203387
629.493739	39796.164038
629.840014	39446.678486
630.186236	39790.954006
630.532405	39408.703474
630.878521	39633.964913
631.224585	39508.306592
631.570597	39205.492042
631.916556	39381.249350
632.262462	39336.201599
632.608316	39344.426242
632.954117	39226.826205
633.299866	39246.481664
633.645562	39144.380654
633.991206	38663.620936
634.336797	38224.831343
634.682336	38242.354394
635.027823	37983.009714
635.373257	37801.749986
635.718639	37564.919099
636.063968	37442.265305
636.409245	36873.015692
636.754470	36915.036230
637.099642	36678.152411
637.444762	36209.998097
637.789829	36357.441765
638.134845	36007.668867
638.479808	35954.903110
638.824719	35866.614862
639.169577	35484.689485
639.514383	35551.328497
639.859137	35254.533085
640.203839	35494.759190
640.548489	35132.292666
640.893086	35195.912028
641.237632	34946.243843
641.582125	35070.588943
641.926566	34984.644832
642.270955	34969.896936
642.615292	34975.449767
642.959576	34955.433866
643.303809	34974.512113
643.647990	35107.245693
643.992118	35085.909010
644.336195	35084.925985
644.680219	35172.992422
645.024192	35462.813398
645.368112	35984.958469
645.711981	35984.870249
646.055797	36867.936730
646.399562	36802.379045
646.743274	37729.230467
647.086935	38161.176693
647.430544	38065.677075
647.774101	38193.931591
648.117606	38422.782331
648.461059	38711.073317
648.804460	38329.135337
649.147810	37719.566575
649.491108	37463.700291
649.834354	37113.574513
650.177548	36294.853319
650.520690	35848.933015
650.863781	35857.462647
651.206820	35712.017797
651.549807	35273.628976
651.892742	34807.470959
652.235626	34621.379286
652.578458	34482.371989
652.921238	33902.157867
653.263967	34212.088005
653.606644	33900.007814
653.949269	33842.079916
654.291843	33466.017400
654.634365	33848.719115
654.976836	33467.973368
655.319255	33457.581029
655.661622	33455.677994
656.003938	33223.641244
656.346203	33085.506067
656.688416	33317.257992
657.030577	33122.891264
657.372687	32954.100830
657.714746	33223.953796
658.056753	33343.033411
658.398708	32804.192038
658.740612	32864.549773
659.082465	33127.445946
659.424266	32945.256126
659.766016	33075.186825
660.107715	32957.276757
660.449362	33077.866198
660.790958	33064.328180
661.132503	33102.514920
661.473996	33115.790799
661.815438	33234.164653
662.156829	33427.447532
662.498168	33203.063254
662.839456	33224.765421
663.180693	33379.740573
663.521879	33543.532702
663.863013	33494.467152
664.204097	33480.198166
664.545129	33955.465548
664.886110	33914.228909
665.227040	33993.274202
665.567918	34101.601036
665.908746	34165.442208
666.249522	34330.655943
666.590248	34331.011345
666.930922	34445.853871
667.271545	34402.232766
667.612118	34482.369468
667.952639	34284.874705
668.293109	34323.210159
668.633528	34225.303390
668.973896	34156.468955
669.314213	34179.728838
669.654480	33922.851803
669.994695	33959.294304
670.334859	33846.783312
670.674973	33746.444186
671.015035	33905.172477
671.355047	33850.753221
671.695008	33801.856549
672.034918	33699.327042
672.374777	33786.155875
672.714585	33612.299082
673.054342	33843.839278
673.394049	33610.620378
673.733705	33886.633633
674.073310	33554.905546
674.412864	33635.281702
674.752368	33215.540110
675.091820	33525.329096
675.431223	33100.780763
675.770574	32825.737930
676.109875	32692.570810
676.449125	32422.501075
676.788324	32343.231451
677.127473	31809.481644
677.466571	31736.604203
677.805619	31386.201161
678.144616	31389.044372
678.483562	31314.831025
678.822458	30987.254328
679.161303	30918.198082
679.500098	30836.576760
679.838842	30706.182275
680.177535	30871.511956
680.516179	31149.090490
680.854771	31384.184699
681.193314	32261.257248
681.531805	33364.382698
681.870247	34149.365969
682.208638	34888.575563
682.546978	35117.222137
682.885268	35202.596598
683.223508	34673.232594
683.561697	34325.085468
683.899836	34145.023015
684.237925	33641.825120
684.575963	33490.945906
684.913951	33032.778118
685.251889	33193.318704
685.589776	33171.608975
685.927614	33161.072963
686.265401	33304.145950
686.603137	33410.652928
686.940824	33921.904066
687.278460	34304.746933
687.616046	34459.850634
687.953582	35067.559210
688.291068	34927.475627
688.628504	35201.711875
688.965889	35146.735572
689.303224	34735.185854
689.640510	34390.519645
689.977745	33659.280115
690.314930	32852.062835
690.652065	32332.387929
690.989150	31575.246951
691.326185	30690.216940
691.663170	29987.366668
692.000105	29219.198166
692.336990	28540.079125
692.673825	28104.094935
693.010610	27583.389113
693.347345	27003.346390
693.684030	26353.173655
694.020665	26076.535296
694.357251	25407.395220
694.693786	25372.064293
695.030272	25129.095801
695.366707	24579.373098
695.703093	24298.169975
696.039429	24288.909375
696.375716	24026.199725
696.711952	23998.760724
697.048139	23829.614889
697.384276	23650.782477
697.720363	23781.295430
698.056400	23588.294855
698.392388	23372.472976
698.728326	23321.000275
699.064214	23117.020067
699.400053	23068.597263
699.735842	22700.935831
700.071581	22426.613883
700.407270	22150.018374
700.742910	21951.701902
701.078501	21677.236281
701.414042	21397.361502
701.749533	21108.170671
702.084974	20754.319479
702.420366	20950.193512
702.755709	20518.436329
703.091002	20223.458253
703.426246	20249.142932
703.761440	20142.517487
704.096584	19870.680827
704.431679	19829.726493
704.766725	19742.224666
705.101721	19677.796199
705.436668	19777.555592
705.771565	19450.956879
706.106413	19786.939700
706.441212	19774.069634
706.775961	19904.673328
707.110661	19978.891715
707.445311	20339.845892
707.779913	20178.942344
708.114465	20420.869837
708.448967	20706.821728
708.783421	21399.619939
709.117825	21669.208244
709.452180	21902.520406
709.786485	22294.248306
710.120742	23103.774435
710.454949	23124.707826
710.789107	23580.831426
711.123216	24296.904645
711.457275	24412.163066
711.791286	24954.434944
712.125247	25016.887278
712.459159	24728.654266
712.793023	25356.091397
713.126837	24266.002372
713.460602	24512.451781
713.794318	24121.711946
714.127985	23732.267688
714.461602	22842.138550
714.795171	22804.029948
715.128691	21793.336575
715.462162	21249.340622
715.795584	20817.641413
716.128957	20564.426776
716.462281	20158.034158
716.795556	19924.442213
717.128782	19431.964332
717.461960	18877.674343
717.795088	18800.499318
718.128167	18405.782013
718.461198	17948.665306
718.794180	17801.468655
719.127113	17435.596832
719.459997	17247.345024
719.792833	16904.291984
720.125619	16860.867485
720.458357	16552.674024
720.791046	16388.516411
721.123686	16229.518419
721.456278	15988.934392
721.788821	15940.942608
722.121315	15682.656570
722.453761	15759.687921
722.786158	15689.315934
723.118506	15691.113106
723.450805	15554.880964
723.783056	15712.608586
724.115259	15619.911849
724.447412	15552.249482
724.779518	15793.226718
725.111574	15823.277036
725.443582	16016.098650
725.775542	16004.388050
726.107453	16467.357537
726.439315	16352.177253
726.771129	16751.078716
727.102895	17116.867360
727.434612	17325.112384
727.766281	17452.036035
728.097901	17706.750415
728.429473	17737.960199
728.760996	17719.683496
729.092471	17804.705076
729.423897	17688.524124
729.755276	17544.279068
730.086606	17667.835228
730.417887	18184.613991
730.749120	18709.062870
731.080305	18872.020689
731.411442	19212.951403
731.742530	19283.688873
732.073570	19376.299911
732.404562	19662.219033
732.735506	19468.202666
733.066401	19187.561631
733.397249	18668.504267
733.728048	18031.360394
734.058798	17200.946244
734.389501	16526.689397
734.720156	16054.827314
735.050762	15535.843047
735.381320	15177.182594
735.711831	14954.378718
736.042293	14600.525006
736.372707	14601.651704
736.703073	14394.024221
737.033391	14580.738477
737.363661	14552.447522
737.693883	14663.723431
738.024056	14831.911447
738.354182	15011.265618
738.684260	15301.961234
739.014290	15519.252609
739.344272	15709.104984
739.674207	15987.611090
740.004093	16104.830519
740.333931	16084.444093
740.663722	16127.747605
740.993464	16116.455420
741.323159	15936.909685
741.652806	15660.520863
741.982405	15454.355315
742.311956	15111.458551
742.641460	15001.495862
742.970915	14682.068190
743.300323	14350.957644
743.629683	14140.277742
743.958996	13862.870608
744.288260	13601.048200
744.617477	13296.423876
744.946647	13228.822003
745.275768	12948.160804
745.604842	12764.168771
745.933869	12595.370776
746.262847	12544.744988
746.591778	12473.768063
746.920662	12366.421732
747.249498	12377.789534
747.578286	12500.851662
747.907027	12635.155562
748.235720	12857.588913
748.564365	12883.661761
748.892963	12790.418059
749.221514	12840.882530
749.550017	12700.912373
749.878473	12670.995645
750.206881	12436.564347
750.535242	12350.763909
750.863555	12262.639498
751.191821	12165.357832
751.520039	12188.751306
751.848210	12098.940630
752.176334	12126.992131
752.504411	12038.923173
752.832440	11874.468132
753.160421	11936.267637
753.488356	11814.057464
753.816243	11723.420039
754.144082	11579.535426
754.471875	11528.823939
754.799620	11465.557458
755.127318	11438.015114
755.454969	11405.703838
755.782572	11356.494615
756.110129	11365.130112
756.437638	11282.858481
756.765100	11277.577872
757.092515	11276.695670
757.419882	11297.142590
757.747203	11307.570217
758.074477	11376.303829
758.401703	11333.005359
758.728882	11489.364307
759.056014	11540.282481
759.383099	11644.861218
759.710138	11752.608320
760.037129	11833.705362
760.364073	11852.052641
760.690970	11833.659991
761.017820	11831.855258
761.344623	12016.361489
761.671379	12337.780417
761.998088	12970.367087
762.324751	14531.171332
762.651366	17387.116056
762.977935	21060.083104
763.304456	23271.881792
763.630931	23728.002872
763.957359	22538.517416
764.283740	20635.517127
764.610074	18756.290920
764.936362	16639.873383
765.262602	15112.008037
765.588796	13646.912618
765.914943	12615.386677
766.241044	11771.759663
766.567097	11143.606688
766.893104	10598.335323
767.219064	10231.498120
767.544978	9852.915028
767.870845	9546.090240
768.196665	9362.204071
768.522438	9160.136981
768.848165	8996.412907
769.173846	8832.406528
769.499479	8709.107467
769.825066	8554.762460
770.150607	8367.750775
770.476101	8306.445303
770.801548	8198.315074
771.126949	8055.032879
771.452303	7967.384857
771.777611	7802.551730
772.102872	7780.400900
772.428087	7659.430851
772.753256	7536.547685
773.078378	7450.989222
773.403453	7309.335320
773.728482	7208.764300
774.053465	7144.277860
774.378401	7060.279634
774.703291	6965.936961
775.028135	6871.369956
775.352932	6831.285221
775.677683	6749.442088
776.002388	6663.099726
776.327046	6660.611916
776.651658	6573.495737
776.976224	6502.246589
777.300743	6482.639021
777.625216	6413.522281
777.949643	6375.746395
778.274024	6384.258383
778.598359	6312.832795
778.922647	6309.571168
779.246889	6272.319562
779.571086	6279.074708
779.895236	6292.128776
780.219339	6282.474966
780.543397	6286.906141
780.867409	6334.726526
781.191374	6327.462223
781.515294	6296.630526
781.839167	6352.851995
782.162995	6325.140772
782.486776	6271.961640
782.810511	6233.298511
783.134201	6161.187325
783.457844	6146.467156
783.781441	6097.794816
784.104993	6057.934412
784.428498	6026.966604
784.751958	6009.264593
785.075372	5980.711497
785.398739	5942.156753
785.722061	5967.760773
786.045337	5965.000741
786.368568	6077.458801
786.691752	6097.318427
787.014891	6343.914029
787.337983	6626.937009
787.661030	7065.593011
787.984031	7489.450705
788.306987	7755.789987
788.629897	7838.817790
788.952760	7750.942917
789.275579	7570.817449
789.598351	7274.427850
789.921078	7013.487644
790.243759	6731.664459
790.566395	6523.389188
790.888984	6333.698131
791.211529	6192.805442
791.534027	6029.966091
791.856480	5893.242437
792.178888	5833.555175
792.501249	5767.989928
792.823566	5663.973280
793.145836	5660.114277
793.468062	5642.969313
793.790241	5602.445998
794.112375	5645.154653
794.434464	5737.702676
794.756507	5772.005207
795.078505	5891.984669
795.400457	6106.886537
795.722364	6351.800914
796.044226	6538.419388
796.366042	6697.966866
796.687812	6644.606253
797.009538	6672.682959
797.331218	6583.235246
797.652852	6507.002917
797.974442	6386.753754
798.295986	6319.903013
798.617484	6190.839392
798.938938	6081.562300
799.260346	6018.474781
799.581709	5878.824737
799.903026	5827.077293
800.224299	5752.712712
800.545526	5637.224918
800.866708	5568.776131
801.187845	5522.425242
801.508936	5445.963541
801.829983	5418.595117
802.150984	5311.334487
802.471940	5284.364313
802.792851	5271.053147
803.113717	5247.576493
803.434538	5223.704109
803.755314	5187.841341
804.076045	5175.795504
804.396731	5143.791738
804.717372	5150.446062
805.037967	5160.165406
805.358518	5191.962484
805.679024	5247.662193
805.999485	5256.683338
806.319901	5276.598416
806.640272	5292.286487
806.960598	5339.285164
807.280879	5326.863761
807.601115	5370.953692
807.921306	5328.018185
808.241453	5327.836704
808.561554	5335.920194
808.881611	5301.771418
809.201623	5296.591632
809.521590	5252.015229
809.841513	5231.132249
810.161390	5251.851392
810.481223	5160.301517
810.801011	5146.244260
811.120755	5126.102330
811.440453	5067.856838
811.760107	5037.413310
812.079716	5012.068909
812.399281	4962.766424
812.718801	4955.436587
813.038276	4922.187657
813.357707	4889.581473
813.677093	4908.959669
813.996434	4848.871636
814.315731	4870.450295
814.634983	4865.635993
814.954191	4871.433320
815.273354	4930.329120
815.592473	4973.690605
815.911547	5045.244743
816.230577	5100.745326
816.549562	5186.823028
816.868502	5242.106841
817.187399	5288.679541
817.506250	5368.118043
817.825058	5399.751284
818.143821	5554.340787
818.462539	5723.746242
818.781213	5947.384429
819.099843	6310.014790
819.418429	6937.714061
819.736970	7558.229688
820.055466	8272.909028
820.373919	9177.881843
820.692327	10627.939499
821.010691	13307.670691
821.329011	19503.699951
821.647286	29030.719506
821.965517	39336.070529
822.283704	44774.187515
822.601847	46265.403672
822.919945	41675.009638
823.237999	36582.151198
823.556010	31390.501265
823.873976	26717.540693
824.191897	22520.497812
824.509775	19455.572055
824.827609	16702.691201
825.145398	15154.845242
825.463144	14409.185491
825.780845	14694.860118
826.098502	15950.931654
826.416116	18411.138239
826.733685	20687.761125
827.051210	21217.031867
827.368692	19773.996538
827.686129	17222.270325
828.003522	14754.499488
828.320872	12535.537321
828.638177	10893.124356
828.955439	9649.817022
829.272656	8598.746527
829.589830	7754.194461
829.906960	7028.432145
830.224046	6496.217369
830.541088	6087.682261
830.858086	5832.587274
831.175041	5628.922138
831.491952	5572.841822
831.808819	5602.509012
832.125642	5851.209296
832.442421	6397.617441
832.759157	7499.785071
833.075849	9268.829299
833.392497	11109.465474
833.709101	12220.994526
834.025662	11969.130918
834.342179	10918.153685
834.658653	9616.938616
834.975083	8510.541458
835.291469	7610.279601
835.607811	6876.176696
835.924110	6356.723601
836.240366	5873.042533
836.556578	5420.828348
836.872746	5073.785235
837.188871	4796.093275
837.504952	4581.125873
837.820990	4407.175818
838.136984	4294.901760
838.452935	4248.077003
838.768842	4279.647228
839.084706	4560.447059
839.400526	5296.364780
839.716303	6198.504467
840.032037	6764.568070
840.347727	6614.384536
840.663373	6019.442682
840.978977	5439.962047
841.294537	5003.108258
841.610054	4673.575593
841.925527	4430.060136
842.240957	4225.732088
842.556344	4043.078481
842.871687	3888.317579
843.186987	3739.583376
843.502244	3620.962505
843.817458	3533.153167
844.132629	3463.673464
844.447756	3417.713264
844.762840	3371.077550
845.077881	3330.085408
845.392879	3294.661220
845.707833	3270.587189
846.022745	3246.792943
846.337613	3234.721900
846.652438	3208.359186
846.967221	3201.422559
847.281960	3183.695341
847.596656	3171.399967
847.911309	3158.436640
848.225919	3146.897439
848.540485	3139.020636
848.855009	3134.314719
849.169490	3118.089765
849.483928	3112.151286
849.798323	3105.340687
850.112675	3094.824840
850.426984	3099.855912
850.741251	3089.965168
851.055474	3085.586926
851.369654	3087.147163
851.683792	3084.719847
851.997887	3085.450814
852.311938	3089.458532
852.625947	3086.915270
852.939914	3082.647933
853.253837	3087.424426
853.567718	3086.083479
853.881555	3080.664239
854.195350	3086.416195
854.509103	3083.273036
854.822812	3078.955288
855.136479	3075.126531
855.450103	3079.666090
855.763685	3070.672672
856.077224	3074.093095
856.390720	3083.391503
856.704173	3094.000611
857.017584	3101.181735
857.330953	3104.347580
857.644278	3113.144393
857.957561	3114.291256
858.270802	3109.933178
858.584000	3114.008951
858.897155	3107.644494
859.210268	3092.589088
859.523339	3081.639702
859.836367	3079.635843
860.149352	3073.377251
860.462295	3073.389854
860.775195	3060.718914
861.088054	3058.553738
861.400869	3061.233111
861.713642	3056.925445
862.026373	3066.052454
862.339062	3067.615212
862.651708	3078.083168
862.964312	3094.305601
863.276873	3101.020418
863.589392	3134.536529
863.901869	3160.780776
864.214303	3182.424970
864.526696	3195.973071
864.839045	3217.468551
865.151353	3226.126733
865.463619	3228.241497
865.775842	3231.488000
866.088023	3235.384812
866.400162	3228.097824
866.712258	3229.196796
867.024313	3230.099162
867.336325	3225.151270
867.648296	3229.940366
867.960224	3222.176989
868.272110	3232.334914
868.583954	3231.150243
868.895755	3234.563104
869.207515	3233.365830
869.519233	3251.887029
869.830909	3257.021444
870.142542	3271.318157
870.454134	3276.848303
870.765684	3287.470014
871.077191	3306.699495
871.388657	3321.031495
871.700081	3337.440451
872.011463	3356.057432
872.322803	3379.518962
872.634101	3394.314749
872.945357	3416.473141
873.256571	3443.619754
873.567744	3457.185499
873.878874	3462.831591
874.189963	3479.391782
874.501010	3477.410608
874.812015	3474.209476
875.122979	3492.098010
875.433900	3491.886282
875.744780	3494.845439
876.055618	3499.238804
876.366415	3499.793331
876.677169	3504.907582
876.987882	3522.181096
877.298554	3543.232954
877.609183	3580.792071
877.919771	3628.151191
878.230317	3694.719627
878.540822	3795.643527
878.851285	3950.540541
879.161707	4169.195548
879.472087	4545.361407
879.782425	5168.944576
880.092722	6346.487538
880.402977	8273.342567
880.713191	10636.033072
881.023363	13005.808919
881.333494	14353.067367
881.643583	14800.132013
881.953631	14390.303849
882.263637	13556.300398
882.573602	12515.755833
882.883526	11567.610576
883.193408	10622.384148
883.503248	9708.375065
883.813048	8882.654229
884.122806	8116.681149
884.432522	7351.716300
884.742197	6703.136570
885.051831	6139.313759
885.361424	5642.399662
885.670975	5251.064972
885.980485	4925.149334
886.289954	4658.709230
886.599382	4447.525213
886.908768	4265.453860
887.218113	4102.312039
887.527417	3972.300681
887.836680	3844.809901
888.145901	3748.508739
888.455082	3671.976462
888.764221	3599.925770
889.073319	3542.023077
889.382376	3507.949918
889.691392	3484.989983
890.000366	3477.493787
890.309300	3473.927171
890.618193	3479.583346
890.927044	3470.650421
891.235855	3478.088643
891.544625	3490.540293
891.853353	3521.397196
892.162041	3581.954057
892.470687	3670.728776
892.779293	3791.318217
893.087858	3961.368939
893.396381	4240.104418
893.704864	4653.509280
894.013306	5221.586825
894.321707	5789.054390
894.630068	6150.121993
894.938387	6191.035997
895.246665	6011.578482
895.554903	5693.020409
895.863100	5357.561867
896.171256	5085.977266
896.479371	4844.541284
896.787446	4623.663129
897.095480	4427.201802
897.403473	4277.673617
897.711425	4133.204230
898.019336	4009.529603
898.327207	3886.999317
898.635038	3785.490643
898.942827	3678.900486
899.250576	3594.839246
899.558284	3512.618027
899.865952	3456.847742
900.173579	3391.423647
900.481165	3345.160978
900.788711	3304.345276
901.096216	3273.715225
901.403681	3246.170361
901.711105	3237.217272
902.018489	3233.101169
902.325832	3263.290119
902.633135	3321.626352
902.940397	3492.183710
903.247619	3894.918970
903.554800	4644.180625
903.861941	5605.281647
904.169041	6311.348175
904.476101	6519.910792
904.783121	6248.351396
905.090100	5844.527247
905.397039	5433.476603
905.703938	5075.146347
906.010796	4753.278756
906.317614	4497.823326
906.624391	4258.943210
906.931129	4063.906008
907.237826	3882.852968
907.544483	3716.532700
907.851099	3546.373593
908.157675	3387.738564
908.464211	3245.106677
908.770707	3144.482726
909.077163	3065.848288
909.383578	3005.898886
909.689954	2960.137812
909.996289	2933.525561
910.302584	2910.371541
910.608839	2898.292937
910.915054	2883.456821
911.221229	2881.208466
911.527363	2885.939589
911.833458	2892.417472
912.139513	2906.043711
912.445527	2917.822367
912.751502	2952.094651
913.057436	2994.258862
913.363331	3051.314641
913.669186	3140.956439
913.975000	3256.121598
914.280775	3443.735701
914.586510	3709.344014
914.892205	4083.856375
915.197859	4581.544288
915.503475	5158.769007
915.809050	5657.467671
916.114585	5945.743533
916.420081	6013.350448
916.725536	5944.712618
917.030952	5710.072112
917.336328	5506.099465
917.641665	5295.671622
917.946961	5069.061674
918.252218	4865.305797
918.557435	4641.241632
918.862612	4440.427269
919.167750	4269.426289
919.472848	4081.731528
919.777906	3911.769027
920.082925	3753.408740
920.387904	3600.205554
920.692843	3491.109944
920.997743	3391.529511
921.302603	3299.720018
921.607423	3235.057137
921.912204	3168.748320
922.216946	3118.046915
922.521647	3070.103022
922.826310	3028.334541
923.130932	2992.736433
923.435516	2954.085907
923.740059	2926.079777
924.044564	2894.131464
924.349028	2867.919985
924.653454	2840.052486
924.957840	2814.554330
925.262186	2791.949796
925.566493	2771.971704
925.870761	2745.336767
926.174989	2737.268401
926.479178	2722.825495
926.783328	2704.684903
927.087438	2696.397246
927.391509	2685.140349
927.695541	2670.823472
927.999533	2659.599343
928.303486	2654.805206
928.607400	2647.228352
928.911275	2642.270377
929.215110	2635.709315
929.518906	2630.002729
929.822663	2632.341824
930.126381	2630.514406
930.430060	2634.360807
930.733699	2635.444655
931.037299	2640.574029
931.340861	2641.473875
931.644383	2644.586787
931.947866	2641.942702
932.251309	2637.798873
932.554714	2637.796353
932.858080	2632.661938
933.161407	2634.053296
933.464694	2627.494755
933.767943	2621.745319
934.071153	2621.846142
934.374323	2618.093003
934.677455	2614.163424
934.980548	2611.214349
935.283602	2610.977414
935.586617	2606.873915
935.889593	2612.174688
936.192530	2611.201746
936.495428	2617.959412
936.798287	2627.391411
937.101108	2641.052938
937.403890	2662.009015
937.706632	2690.254600
938.009336	2720.867007
938.312002	2752.865731
938.614628	2773.030346
938.917216	2796.867442
939.219765	2802.967238
939.522275	2810.912097
939.824747	2811.849751
940.127179	2803.862043
940.429573	2797.802576
940.731929	2799.133441
941.034246	2787.727830
941.336524	2787.919394
941.638763	2779.440173
941.940964	2777.940430
942.243126	2759.462080
942.545250	2747.199474
942.847335	2734.510889
943.149381	2722.863303
943.451389	2707.727239
943.753359	2695.129396
944.055290	2687.287881
944.357182	2676.867816
944.659036	2676.668690
944.960851	2667.808862
945.262628	2663.917092
945.564367	2668.887669
945.866067	2661.439364
946.167729	2661.056237
946.469352	2663.876762
946.770937	2659.559014
947.072484	2654.381749
947.373992	2652.481234
947.675462	2650.938641
947.976893	2643.971766
948.278286	2641.552012
948.579641	2637.473719
948.880958	2636.427680
949.182236	2633.466002
949.483476	2629.914509
949.784678	2629.470887
950.085841	2630.216978
950.386967	2635.631177
950.688054	2640.011940
950.989103	2648.418064
951.290114	2653.930566
951.591087	2667.950015
951.892021	2681.223373
952.192917	2693.884231
952.493776	2699.933615
952.794596	2707.954091
953.095378	2706.933257
953.396122	2706.061138
953.696828	2701.372865
953.997496	2699.086701
954.298126	2687.111440
954.598718	2681.525842
954.899272	2669.774912
955.199788	2658.865855
955.500266	2648.972591
955.800706	2630.741258
956.101108	2611.940275
956.401472	2601.477360
956.701798	2587.218456
957.002087	2575.147413
957.302337	2563.260373
957.602550	2554.244269
957.902724	2542.657177
958.202861	2532.348017
958.502960	2528.236956
958.803022	2518.527694
959.103045	2512.463186
959.403031	2502.970693
959.702979	2502.698471
960.002889	2497.415342
960.302762	2488.316059
960.602596	2487.267499
960.902393	2484.527632
961.202153	2482.400265
961.501875	2479.791468
961.801559	2474.596559
962.101205	2472.930458
962.400814	2471.163533
962.700385	2470.414922
962.999918	2470.137658
963.299414	2466.276134
963.598873	2467.843933
963.898293	2461.020732
964.197677	2462.820423
964.497022	2460.809003
964.796331	2458.414455
965.095601	2458.207768
965.394835	2456.985288
965.694030	2457.847325
965.993189	2457.219702
966.292309	2456.085442
966.591393	2457.451595
966.890439	2456.372788
967.189447	2456.019907
967.488419	2456.375308
967.787353	2456.455967
968.086249	2455.883796
968.385108	2457.300360
968.683930	2461.713890
968.982714	2459.460494
969.281462	2461.330763
969.580172	2460.723303
969.878844	2464.541977
970.177480	2467.226392
970.476078	2467.556588
970.774639	2474.457927
971.073162	2475.874491
971.371649	2475.584625
971.670098	2477.681745
971.968510	2478.460603
972.266885	2476.812146
972.565223	2483.574854
972.863524	2482.307004
973.161788	2484.812457
973.460014	2484.860348
973.758204	2488.036275
974.056356	2486.082828
974.354471	2485.629124
974.652550	2487.794300
974.950591	2487.741368
975.248595	2486.488641
975.546563	2483.279946
975.844493	2482.382621
976.142386	2481.147538
976.440243	2478.079996
976.738062	2475.435911
977.035845	2476.454224
977.333590	2473.442135
977.631299	2469.482308
977.928971	2468.917699
978.226606	2469.976341
978.524204	2465.456947
978.821765	2462.691874
979.119290	2464.055506
979.416777	2461.681123
979.714228	2466.843264
980.011642	2466.147585
980.309020	2467.662452
980.606360	2474.682258
980.903664	2483.305152
981.200931	2493.430310
981.498162	2514.719102
981.795356	2543.788916
982.092513	2583.306521
982.389633	2626.163890
982.686717	2668.295334
982.983764	2700.120138
983.280775	2718.442212
983.577749	2717.827191
983.874686	2709.534493
984.171587	2691.421627
984.468451	2676.187260
984.765279	2661.157060
985.062070	2639.651497
985.358824	2623.754219
985.655543	2601.177411
985.952224	2577.128587
986.248869	2549.127498
986.545478	2520.607170
986.842050	2504.669562
987.138586	2481.669298
987.435086	2470.682103
987.731549	2460.226750
988.027975	2455.762808
988.324366	2449.295008
988.620719	2448.027158
988.917037	2442.302927
989.213318	2440.785540
989.509563	2436.818152
989.805772	2438.058276
990.101944	2435.429314
990.398080	2434.869746
990.694180	2432.276072
990.990244	2435.850250
991.286271	2432.263469
991.582262	2436.805549
991.878217	2435.204983
992.174136	2435.517534
992.470019	2434.642894
992.765865	2440.596497
993.061676	2440.147834
993.357450	2443.021292
993.653188	2446.797116
993.948890	2452.181068
994.244556	2458.999229
994.540186	2463.405197
994.835780	2480.088896
995.131337	2490.818992
995.426859	2504.198214
995.722345	2530.250897
996.017795	2548.179761
996.313208	2558.985474
996.608586	2571.535427
996.903928	2574.746642
997.199234	2571.084243
997.494504	2569.856723
997.789738	2559.232491
998.084936	2550.236552
998.380099	2539.072917
998.675225	2528.055475
998.970316	2516.912004
999.265371	2503.288286
999.560390	2487.963178
999.855373	2475.231744
1000.150320	2469.504993
1000.445232	2457.990998
1000.740108	2451.964299
1001.034948	2446.061108
1001.329752	2441.203956
1001.624521	2437.327308
1001.919254	2429.669796
1002.213951	2428.850608
1002.508613	2423.915319
1002.803239	2426.907243
1003.097829	2420.588157
1003.392384	2422.753333
1003.686903	2423.201995
1003.981386	2421.644279
1004.275834	2419.348033
1004.570246	2419.746284
1004.864623	2418.395255
1005.158964	2418.112951
1005.453270	2418.198650
1005.747540	2415.325193
1006.041775	2416.719072
1006.335974	2415.277302
1006.630138	2413.762435
1006.924266	2415.204205
1007.218359	2414.861406
1007.512416	2410.783113
1007.806438	2413.840573
1008.100425	2415.612538
1008.394376	2411.549368
1008.688292	2412.628175
1008.982172	2411.428381
1009.276017	2412.237486
1009.569827	2415.398289
1009.863602	2413.666653
1010.157341	2411.929975
1010.451045	2411.403175
1010.744714	2410.924265
1011.038347	2409.734553
1011.331945	2406.266239
1011.625508	2410.296642
1011.919036	2410.659605
1012.212528	2408.587690
1012.505986	2411.388051
1012.799408	2409.936199
1013.092795	2407.120715
1013.386147	2406.644326
1013.679464	2409.225396
1013.972745	2406.329253
1014.265992	2407.818914
1014.559204	2410.447876
1014.852380	2405.194994
1015.145521	2410.097516
1015.438628	2408.517114
1015.731699	2408.096178
1016.024736	2407.314799
1016.317737	2409.469892
1016.610703	2410.851168
1016.903635	2408.711199
1017.196531	2407.065262
1017.489393	2408.136507
1017.782219	2404.645508
1018.075011	2410.132804
1018.367768	2409.764800
1018.660490	2410.636919
1018.953177	2410.636919
1019.245829	2410.636919
