Dividing Wavelength (nm)	Counts (n)	Blue Motor Position (mm): 14.600000	Red Motor Position (mm): 0.000000	
326.493990	1975.010651
326.888308	1975.010651
327.282561	1975.010651
327.676750	1950.185489
328.070874	1952.650613
328.464933	1957.923660
328.858929	1969.392285
329.252859	1978.420992
329.646726	1995.732314
330.040528	2009.814777
330.434265	2028.870339
330.827938	2049.085366
331.221547	2067.677141
331.615091	2087.756057
332.008571	2108.828080
332.401986	2129.612757
332.795338	2150.462969
333.188625	2171.598007
333.581847	2189.128619
333.975006	2207.107895
334.368100	2225.132540
334.761129	2242.532083
335.154095	2256.601943
335.546996	2289.167797
335.939833	2342.785509
336.332606	2357.871162
336.725315	2369.990096
337.117960	2378.328164
337.510540	2384.047353
337.903056	2395.309291
338.295508	2397.850033
338.687896	2405.862947
339.080220	2416.298135
339.472480	2423.053281
339.864676	2421.815678
340.256807	2424.981523
340.648875	2425.016811
341.040879	2430.516710
341.432818	2431.151895
341.824694	2432.223140
342.216506	2431.313212
342.608253	2429.637028
342.999937	2431.235074
343.391557	2430.161308
343.783113	2426.393046
344.174605	2425.150401
344.566033	2424.749630
344.957397	2421.712334
345.348697	2420.507499
345.739934	2420.018507
346.131106	2416.449370
346.522215	2416.610687
346.913260	2414.654719
347.304241	2412.396282
347.695159	2411.917373
348.086012	2407.581980
348.476802	2406.573749
348.867528	2406.377144
349.258191	2402.429921
349.648789	2400.441186
350.039324	2401.933367
350.429796	2403.453275
350.820203	2399.488408
351.210548	2402.213151
351.600828	2400.199210
351.991045	2399.208624
352.381198	2396.511606
352.771288	2398.575959
353.161314	2397.923129
353.551276	2395.548746
353.941175	2396.473798
354.331010	2397.741648
354.720782	2403.884294
355.110490	2400.839437
355.500135	2398.318860
355.889717	2398.873387
356.279235	2399.498490
356.668689	2402.387071
357.058080	2400.753737
357.447408	2397.547563
357.836672	2396.519168
358.225873	2398.805331
358.615010	2398.432286
359.004084	2401.761968
359.393095	2399.175856
359.782043	2402.066958
360.170927	2402.152658
360.559748	2404.839592
360.948505	2406.172978
361.337199	2404.393450
361.725830	2405.936043
362.114398	2405.280693
362.502903	2407.156003
362.891344	2407.322361
363.279722	2407.400499
363.668037	2410.130283
364.056289	2407.738256
364.444478	2408.628020
364.832603	2409.202711
365.220665	2408.829666
365.608665	2409.454769
365.996601	2410.664646
366.384474	2411.067938
366.772284	2413.182702
367.160031	2412.784451
367.547715	2408.199522
367.935336	2410.263874
368.322893	2410.992321
368.710388	2413.197826
369.097820	2413.152455
369.485189	2412.204718
369.872495	2414.276632
370.259738	2411.892167
370.646918	2414.112795
371.034035	2413.114647
371.421090	2414.082548
371.808081	2412.844945
372.195010	2415.221849
372.581875	2414.594225
372.968678	2417.266037
373.355418	2413.633885
373.742096	2417.901222
374.128710	2416.411561
374.515262	2417.127405
374.901751	2416.754360
375.288177	2416.782086
375.674540	2414.730336
376.060841	2417.581109
376.447079	2415.826787
376.833254	2416.081366
377.219367	2415.829308
377.605417	2415.146232
377.991404	2416.182189
378.377329	2415.902405
378.763191	2417.208063
379.148991	2416.640934
379.534727	2418.964906
379.920402	2420.573034
380.306013	2419.907601
380.691563	2418.528846
381.077049	2418.778383
381.462474	2418.019689
381.847835	2421.724937
382.233134	2420.580595
382.618371	2421.041861
383.003545	2421.367015
383.388657	2422.735689
383.773706	2422.841553
384.158693	2423.784249
384.543618	2422.773497
384.928480	2424.253076
385.313280	2422.309711
385.698017	2424.439599
386.082692	2424.779877
386.467305	2422.728127
386.851856	2420.769639
387.236344	2423.534712
387.620770	2425.087387
388.005133	2423.517068
388.389435	2426.456060
388.773674	2425.631832
389.157851	2430.398243
389.541965	2426.700556
389.926018	2423.985895
390.310008	2425.006728
390.693936	2427.519744
391.077802	2427.343303
391.461606	2425.838519
391.845348	2428.255752
392.229027	2427.270207
392.612645	2428.044024
392.996200	2427.872624
393.379694	2428.480083
393.763125	2432.021494
394.146494	2431.688778
394.529801	2432.878490
394.913047	2427.164342
395.296230	2431.363623
395.679351	2431.131730
396.062410	2431.333377
396.445408	2431.000660
396.828343	2431.300609
397.211217	2424.396749
397.594028	2431.933274
397.976778	2426.844229
398.359466	2428.704415
398.742092	2425.820875
399.124656	2430.816658
399.507158	2433.148192
399.889598	2433.274221
400.271977	2429.755495
400.654294	2433.312029
401.036549	2432.439910
401.418742	2430.622574
401.800874	2433.949735
402.182944	2432.331525
402.564952	2432.749941
402.946898	2433.942174
403.328783	2434.501742
403.710606	2434.496701
404.092367	2435.772113
404.474067	2434.721032
404.855705	2438.103646
405.237282	2436.331681
405.618797	2434.973090
406.000250	2435.935950
406.381642	2435.557863
406.762972	2437.738162
407.144240	2436.992072
407.525447	2434.897472
407.906593	2435.126845
408.287677	2437.854109
408.668700	2436.039294
409.049661	2438.796805
409.430560	2436.316557
409.811399	2439.817638
410.192176	2436.059458
410.572891	2436.528286
410.953545	2438.532144
411.334138	2439.215221
411.714669	2437.597010
412.095139	2440.006682
412.475547	2439.031218
412.855894	2438.922834
413.236180	2439.164809
413.616405	2439.353852
413.996568	2438.159099
414.376670	2441.143462
414.756711	2439.225303
415.136691	2438.509459
415.516609	2440.692279
415.896466	2440.205807
416.276262	2441.894594
416.655997	2438.199428
417.035670	2438.166661
417.415283	2440.160437
417.794834	2437.352514
418.174324	2439.926023
418.553753	2440.573812
418.933121	2440.024326
419.312428	2442.010540
419.691674	2441.738318
420.070859	2440.881322
420.449983	2440.969542
420.829045	2440.223451
421.208047	2439.379058
421.586988	2444.067331
421.965867	2443.033895
422.344686	2443.994234
422.723444	2443.283432
423.102141	2443.963987
423.480777	2443.202773
423.859352	2441.816456
424.237866	2443.036415
424.616319	2444.866354
424.994712	2445.466251
425.373044	2444.952054
425.751314	2442.363421
426.129524	2444.052208
426.507673	2443.638833
426.885762	2446.925665
427.263789	2444.334512
427.641756	2445.002465
428.019662	2442.852413
428.397508	2443.008689
428.775292	2445.229317
429.153016	2446.479523
429.530679	2447.172682
429.908282	2446.434153
430.285824	2446.499688
430.663305	2445.546910
431.040726	2445.899791
431.418086	2446.368618
431.795385	2445.438525
432.172624	2446.386262
432.549802	2446.683690
432.926920	2448.080090
433.303977	2447.051694
433.680974	2448.619493
434.057910	2446.025819
434.434786	2445.355346
434.811601	2450.325924
435.188355	2449.461366
435.565050	2445.599842
435.941683	2449.942796
436.318257	2447.969184
436.694770	2447.187805
437.071222	2445.090685
437.447614	2442.713781
437.823946	2445.867023
438.200218	2451.608897
438.576429	2446.633278
438.952580	2449.383228
439.328670	2449.975563
439.704700	2448.609411
440.080670	2452.886830
440.456580	2448.869030
440.832429	2447.427260
441.208218	2447.838114
441.583947	2450.893053
441.959616	2450.187292
442.335224	2451.505554
442.710773	2447.432301
443.086261	2448.813577
443.461689	2450.779627
443.837057	2453.239711
444.212365	2451.482868
444.587612	2455.767849
444.962800	2451.497992
445.337927	2452.231480
445.712995	2452.176027
446.088002	2452.213836
446.462949	2453.988322
446.837837	2457.151646
447.212664	2453.108641
447.587431	2455.924125
447.962139	2462.301185
448.336786	2461.696246
448.711374	2458.734568
449.085901	2458.563169
449.460369	2457.408745
449.834776	2458.598457
450.209124	2462.359158
450.583412	2458.966461
450.957640	2462.233129
451.331808	2460.151133
451.705917	2458.863118
452.079965	2461.570217
452.453954	2460.403190
452.827883	2460.105762
453.201752	2459.470577
453.575562	2462.097018
453.949311	2460.357820
454.323001	2462.790177
454.696632	2461.431586
455.070202	2463.889148
455.443713	2465.847636
455.817164	2464.221864
456.190556	2462.167594
456.563888	2464.461319
456.937160	2460.761112
457.310373	2467.163378
457.683526	2466.044241
458.056619	2465.280507
458.429653	2467.705302
458.802628	2467.211268
459.175542	2469.167236
459.548398	2467.044910
459.921194	2470.959366
460.293930	2474.594038
460.666607	2471.092957
461.039224	2471.529017
461.411782	2475.602269
461.784280	2470.603965
462.156719	2475.090592
462.529099	2476.449183
462.901419	2473.124542
463.273680	2474.049594
463.645882	2469.149592
464.018024	2474.992289
464.390106	2473.253091
464.762130	2479.269708
465.134094	2480.446818
465.505999	2488.177427
465.877845	2492.200268
466.249631	2494.753612
466.621358	2492.631287
466.993026	2492.893427
467.364634	2494.166318
467.736184	2489.493168
468.107674	2485.840852
468.479105	2486.173569
468.850477	2483.479072
469.221790	2485.833291
469.593043	2481.815491
469.964238	2479.546972
470.335373	2480.981180
470.706449	2484.174751
471.077467	2486.937303
471.448425	2491.612974
471.819324	2494.746051
472.190164	2492.202789
472.560945	2489.755308
472.931667	2487.469145
473.302330	2485.530822
473.672934	2484.026037
474.043479	2485.213229
474.413965	2484.789772
474.784393	2480.703917
475.154761	2486.692808
475.525070	2485.094762
475.895321	2484.857827
476.265513	2484.774648
476.635645	2487.832108
477.005719	2490.511482
477.375734	2492.056595
477.745691	2492.172542
478.115588	2494.468787
478.485427	2499.078923
478.855207	2502.091012
479.224928	2509.713237
479.594591	2509.047804
479.964194	2510.247599
480.333739	2510.971004
480.703226	2510.129132
481.072653	2514.993845
481.442022	2516.118023
481.811333	2517.620286
482.180584	2518.275636
482.549777	2517.204391
482.918912	2518.444515
483.287988	2519.732530
483.657005	2515.528208
484.025964	2519.614063
484.394864	2521.980884
484.763706	2522.144722
485.132489	2521.930473
485.501213	2519.914011
485.869879	2524.932480
486.238487	2528.052954
486.607036	2529.222502
486.975527	2528.337779
487.343959	2530.497914
487.712333	2532.335414
488.080648	2534.697195
488.448905	2533.726773
488.817104	2537.472350
489.185244	2544.817311
489.553326	2548.741850
489.921350	2558.370453
490.289315	2570.151630
490.657222	2573.289748
491.025070	2576.193453
491.392861	2579.956674
491.760593	2578.169585
492.128267	2577.945254
492.495883	2573.408215
492.863440	2573.708164
493.230939	2571.631209
493.598380	2573.317475
493.965763	2570.333112
494.333088	2571.510221
494.700354	2570.839747
495.067563	2574.106415
495.434713	2577.678073
495.801805	2583.941706
496.168839	2584.309711
496.535815	2587.480596
496.902733	2589.595360
497.269593	2593.771956
497.636395	2594.608788
498.003139	2597.825044
498.369825	2598.208172
498.736453	2605.648915
499.103023	2605.996754
499.469535	2606.831065
499.835989	2611.000100
500.202385	2614.859103
500.568723	2616.454628
500.935003	2618.249279
501.301226	2619.930504
501.667390	2628.361833
502.033497	2632.886269
502.399546	2631.310908
502.765537	2631.741927
503.131470	2637.579583
503.497345	2639.979172
503.863163	2640.606796
504.228923	2642.759369
504.594625	2651.306645
504.960269	2653.328148
505.325856	2660.458860
505.691385	2657.182110
506.056856	2659.876607
506.422270	2664.234684
506.787625	2667.299706
507.152924	2673.575942
507.518164	2673.119718
507.883347	2676.214986
508.248472	2678.022240
508.613540	2681.031809
508.978550	2689.470700
509.343503	2690.604960
509.708398	2693.276772
510.073236	2700.341949
510.438016	2701.198945
510.802738	2701.869418
511.167403	2709.791592
511.532010	2712.455841
511.896561	2715.883826
512.261053	2727.120558
512.625488	2721.512274
512.989866	2724.121071
513.354186	2729.099211
513.718449	2725.603171
514.082655	2741.329050
514.446803	2738.783267
514.810894	2745.714854
515.174927	2748.258116
515.538904	2749.326841
515.902822	2759.636000
516.266684	2757.758170
516.630488	2764.425096
516.994235	2764.586413
517.357925	2772.311982
517.721558	2774.414143
518.085133	2779.583846
518.448651	2785.194650
518.812112	2785.794547
519.175516	2788.083231
519.538863	2794.316618
519.902152	2797.048923
520.265385	2802.904224
520.628560	2807.405974
520.991678	2808.371355
521.354739	2813.808239
521.717743	2820.770073
522.080690	2822.680670
522.443580	2830.567555
522.806413	2835.333966
523.169189	2837.758761
523.531908	2845.224710
523.894569	2848.078003
524.257174	2852.292408
524.619722	2858.011597
524.982213	2865.578369
525.344647	2868.209851
525.707025	2872.709081
526.069345	2882.607387
526.431608	2885.165772
526.793815	2894.723800
527.155964	2897.241856
527.518057	2903.268556
527.880093	2908.486150
528.242072	2916.897315
528.603995	2922.772780
528.965860	2927.493820
529.327669	2937.046807
529.689421	2942.198866
530.051117	2951.371246
530.412755	2959.875672
530.774337	2969.763895
531.135862	2976.226655
531.497331	2982.691934
531.858743	2989.615959
532.220098	3008.374093
532.581396	3008.724453
532.942638	3018.529497
533.303824	3034.388967
533.664953	3043.079916
534.026025	3051.400341
534.387040	3069.591344
534.747999	3081.440577
535.108902	3095.132350
535.469748	3106.802622
535.830537	3117.686473
536.191270	3134.508803
536.551947	3145.064979
536.912567	3165.700942
537.273131	3182.157789
537.633638	3192.303111
537.994089	3213.904456
538.354483	3223.578430
538.714821	3254.044643
539.075103	3274.922582
539.435328	3296.430665
539.795497	3310.979435
540.155609	3331.108762
540.515665	3363.881303
540.875665	3374.374465
541.235609	3403.250194
541.595496	3425.206940
541.955328	3465.160604
542.315102	3473.012202
542.674821	3497.514730
543.034483	3524.124460
543.394090	3548.611865
543.753640	3577.243098
544.113134	3632.292498
544.472571	3640.348262
544.831953	3703.914692
545.191278	3715.375755
545.550548	3737.634970
545.909761	3789.016930
546.268918	3830.659382
546.628019	3874.724107
546.987064	3902.236205
547.346053	3915.975869
547.704986	3980.772340
548.063863	4007.417359
548.422684	4057.967529
548.781449	4093.157304
549.140158	4150.243330
549.498811	4190.242365
549.857408	4217.197415
550.215949	4292.842449
550.574434	4339.115200
550.932864	4384.793095
551.291237	4462.159683
551.649555	4502.650231
552.007817	4562.501330
552.366022	4603.957258
552.724173	4671.609543
553.082267	4746.064865
553.440305	4822.980269
553.798288	4851.009085
554.156215	4926.177730
554.514086	5002.951982
554.871902	5052.506525
555.229661	5122.301300
555.587365	5181.265156
555.945014	5254.543368
556.302606	5321.363862
556.660143	5403.065842
557.017625	5486.267566
557.375050	5544.916350
557.732421	5640.811699
558.089735	5722.238937
558.446994	5791.602693
558.804197	5907.816413
559.161345	5982.382640
559.518437	6007.885837
559.875474	6111.221929
560.232455	6209.163987
560.589381	6315.950748
560.946251	6371.297577
561.303065	6523.217789
561.659825	6599.525735
562.016528	6661.806670
562.373177	6725.511731
562.729770	6870.908690
563.086307	6920.236381
563.442789	7061.660911
563.799216	7172.213414
564.155587	7254.217864
564.511904	7361.057558
564.868164	7474.516287
565.224370	7620.714790
565.580520	7694.141716
565.936615	7829.400915
566.292654	7913.565499
566.648638	8061.596461
567.004567	8176.630551
567.360441	8294.096997
567.716260	8392.139878
568.072023	8559.904437
568.427732	8679.939351
568.783385	8743.455369
569.138982	8929.824306
569.494525	9056.291732
569.850013	9150.951999
570.205445	9276.995968
570.560823	9402.450123
570.916145	9520.531590
571.271412	9660.625255
571.626625	9759.507488
571.981782	9902.610722
572.336884	9991.619855
572.691931	10191.690648
573.046923	10258.329661
573.401860	10378.278876
573.756743	10513.883394
574.111570	10677.582262
574.466342	10794.284973
574.821059	10961.883174
575.175722	11023.717967
575.530330	11172.608446
575.884882	11273.552511
576.239380	11405.653427
576.593823	11564.202756
576.948211	11686.518793
577.302544	11742.591547
577.656823	11902.996021
578.011047	12109.484203
578.365216	12218.226933
578.719330	12327.151144
579.073389	12460.010754
579.427394	12648.600319
579.781344	12811.638796
580.135239	12892.642577
580.489080	13087.193307
580.842866	13120.429634
581.196597	13422.835850
581.550273	13572.316144
581.903895	13714.206981
582.257463	14002.127442
582.610975	14017.540769
582.964434	14265.401701
583.317837	14338.352238
583.671186	14466.750427
584.024481	14712.368045
584.377721	14747.182254
584.730906	15004.293703
585.084037	15192.764801
585.437113	15280.677483
585.790135	15454.158710
586.143103	15515.554923
586.496016	15726.058384
586.848874	15920.528455
587.201679	16103.058554
587.554428	16103.600478
587.907124	16355.746390
588.259765	16465.177238
588.612352	16738.052375
588.964884	16697.133329
589.317362	16985.802401
589.669786	17145.554046
590.022155	17247.750837
590.374470	17592.996779
590.726731	17594.317561
591.078937	17580.842557
591.431090	17808.770766
591.783188	17843.000201
592.135232	17897.535403
592.487222	18173.339451
592.839157	18400.685407
593.191038	18436.432229
593.542866	18512.556173
593.894639	18433.331919
594.246358	18730.442403
594.598022	18896.293844
594.949633	18898.310306
595.301190	19048.171207
595.652692	19156.208175
596.004141	19464.381471
596.355535	19195.607313
596.706876	19343.461835
597.058162	19430.845195
597.409395	19821.726182
597.760573	20031.430621
598.111698	20004.152937
598.462768	20167.564460
598.813785	20361.389263
599.164748	20259.280692
599.515657	20614.656833
599.866511	20530.913185
600.217312	21002.644197
600.568060	20656.437916
600.918753	21195.307015
601.269392	21342.402843
601.619978	21313.892597
601.970510	21597.069332
602.320988	21862.349971
602.671412	22174.546108
603.021783	22206.529709
603.372100	22189.165454
603.722363	22409.839443
604.072572	22614.971555
604.422728	22774.047685
604.772830	22834.216377
605.122878	23039.285474
605.472872	23171.887985
605.822813	23485.704853
606.172701	23558.678076
606.522534	23842.605943
606.872314	24159.175281
607.222041	24188.804662
607.571714	24561.388782
607.921333	24390.176073
608.270899	24719.802000
608.620411	25084.957979
608.969870	25114.564675
609.319276	25267.414981
609.668627	25455.450019
610.017926	25911.402220
610.367171	26156.679560
610.716362	26371.031942
611.065500	26486.683573
611.414585	26747.175116
611.763616	27108.136855
612.112594	27198.907871
612.461518	27494.470721
612.810389	27831.151742
613.159207	27896.190189
613.507971	28085.684641
613.856682	28567.233301
614.205340	28623.926117
614.553945	29259.424053
614.902496	29011.525313
615.250994	29484.897220
615.599439	29686.513127
615.947830	29979.154629
616.296169	30146.820885
616.644454	30376.773118
616.992686	30643.810599
617.340864	31144.876085
617.688990	31083.631107
618.037063	31639.632568
618.385082	31761.787287
618.733048	32099.441251
619.080961	32234.282034
619.428821	32384.334499
619.776628	32600.647890
620.124382	32597.275358
620.472083	32819.370952
620.819731	33033.869528
621.167326	32934.561318
621.514868	33049.484502
621.862357	32840.611854
622.209793	32981.171826
622.557176	32861.930894
622.904506	32786.895839
623.251783	32640.500732
623.599007	32596.801490
623.946179	32541.444579
624.293297	32630.078146
624.640363	32272.463733
624.987376	32383.800137
625.334336	32294.223874
625.681243	32127.371764
626.028097	32196.604450
626.374899	32190.517257
626.721647	32269.600358
627.068343	32298.158495
627.414987	32201.237271
627.761577	32111.257716
628.108115	32477.724395
628.454600	32118.597636
628.801032	32378.053221
629.147412	32425.291353
629.493739	32525.832126
629.840014	32329.338031
630.186236	32698.569783
630.532405	32474.435042
630.878521	32729.187231
631.224585	32699.958621
631.570597	32538.593807
631.916556	32754.692949
632.262462	32786.101858
632.608316	32895.104207
632.954117	32867.403066
633.299866	32952.694348
633.645562	32956.197950
633.991206	32629.352220
634.336797	32344.302696
634.682336	32425.487958
635.027823	32292.530046
635.373257	32207.508466
635.718639	32093.437237
636.063968	32047.719013
636.409245	31635.788688
636.754470	31750.200195
637.099642	31605.599738
637.444762	31270.794026
637.789829	31455.577520
638.134845	31220.382487
638.479808	31246.462897
638.824719	31212.281353
639.169577	30948.409717
639.514383	31070.045198
639.859137	30863.809073
640.203839	31134.675310
640.548489	30865.386954
640.893086	30987.844143
641.237632	30836.385196
641.582125	30979.294346
641.926566	30965.600052
642.270955	30996.761944
642.615292	31056.035831
642.959576	31093.597468
643.303809	31142.267288
643.647990	31316.986119
643.992118	31338.022854
644.336195	31378.304193
644.680219	31508.189522
645.024192	31821.517398
645.368112	32326.038596
645.711981	32360.878010
646.055797	33198.551421
646.399562	33173.237267
646.743274	34055.209818
647.086935	34489.480016
647.430544	34423.818987
647.774101	34566.677725
648.117606	34842.950600
648.461059	35154.720760
648.804460	34839.600753
649.147810	34355.465982
649.491108	34179.625495
649.834354	33876.208527
650.177548	33183.556509
650.520690	32806.102636
650.863781	32862.069526
651.206820	32773.927471
651.549807	32408.821904
651.892742	32015.869003
652.235626	31871.296272
652.578458	31774.879164
652.921238	31264.487542
653.263967	31606.413884
653.606644	31345.035099
653.949269	31322.985092
654.291843	31007.915497
654.634365	31405.717988
654.976836	31052.300336
655.319255	31097.821955
655.661622	31118.079832
656.003938	30939.063418
656.346203	30850.490345
656.688416	31079.580540
657.030577	30919.004667
657.372687	30805.349332
657.714746	31087.860635
658.056753	31225.577397
658.398708	30741.117471
658.740612	30818.514306
659.082465	31107.606835
659.424266	30968.460906
659.766016	31100.216503
660.107715	31012.137463
660.449362	31158.381336
660.790958	31157.778918
661.132503	31197.115042
661.473996	31253.777611
661.815438	31384.406510
662.156829	31584.711717
662.498168	31396.492677
662.839456	31449.709617
663.180693	31610.928238
663.521879	31795.552936
663.863013	31764.040683
664.204097	31782.478703
664.545129	32241.037180
664.886110	32244.119846
665.227040	32322.262772
665.567918	32433.014401
665.908746	32523.772814
666.249522	32710.018243
666.590248	32713.113512
666.930922	32835.522809
667.271545	32827.804803
667.612118	32925.015893
667.952639	32741.195259
668.293109	32809.465085
668.633528	32739.166195
668.973896	32673.137162
669.314213	32743.390682
669.654480	32526.605943
669.994695	32556.275654
670.334859	32468.257108
670.674973	32403.863929
671.015035	32577.234251
671.355047	32536.438713
671.695008	32504.508045
672.034918	32432.679164
672.374777	32517.680580
672.714585	32385.146125
673.054342	32630.037817
673.394049	32388.833729
673.733705	32685.661908
674.073310	32368.046531
674.412864	32475.531493
674.752368	32091.526640
675.091820	32399.861253
675.431223	31999.800325
675.770574	31759.506165
676.109875	31643.703299
676.449125	31395.789436
676.788324	31343.540397
677.127473	30825.748362
677.466571	30772.143252
677.805619	30462.379472
678.144616	30469.963888
678.483562	30413.878531
678.822458	30093.787947
679.161303	30045.208868
679.500098	29963.559819
679.838842	29887.589631
680.177535	30029.288904
680.516179	30314.774487
680.854771	30562.504349
681.193314	31414.235018
681.531805	32493.707373
681.870247	33272.099335
682.208638	33998.595140
682.546978	34227.745829
682.885268	34327.754759
683.223508	33807.369051
683.561697	33488.868951
683.899836	33317.308403
684.237925	32831.396625
684.575963	32702.138920
684.913951	32269.736469
685.251889	32413.653850
685.589776	32426.329831
685.927614	32409.981369
686.265401	32568.729824
686.603137	32666.245904
686.940824	33166.368695
687.278460	33555.018972
687.616046	33683.780123
687.953582	34283.695075
688.291068	34162.215870
688.628504	34441.778098
688.965889	34378.471288
689.303224	34021.139180
689.640510	33684.180895
689.977745	32977.264932
690.314930	32196.601930
690.652065	31702.208410
690.989150	30975.636989
691.326185	30109.387797
691.663170	29412.138247
692.000105	28686.446507
692.336990	28043.243167
692.673825	27602.290919
693.010610	27112.562988
693.347345	26546.761524
693.684030	25913.532107
694.020665	25649.110985
694.357251	25001.584856
694.693786	24958.770336
695.030272	24724.835592
695.366707	24196.888153
695.703093	23921.721811
696.039429	23916.962962
696.375716	23652.526716
696.711952	23624.873467
697.048139	23483.784174
697.384276	23318.888031
697.720363	23440.490744
698.056400	23241.647472
698.392388	23037.344630
698.728326	23000.471110
699.064214	22795.885964
699.400053	22747.765630
699.735842	22395.545252
700.071581	22133.077577
700.407270	21854.828570
700.742910	21659.428405
701.078501	21403.955331
701.414042	21130.102210
701.749533	20841.866678
702.084974	20504.134576
702.420366	20712.215762
702.755709	20279.551172
703.091002	19985.984619
703.426246	20011.911273
703.761440	19909.439739
704.096584	19657.440020
704.431679	19614.169276
704.766725	19516.771663
705.101721	19476.152566
705.436668	19559.142561
705.771565	19242.759745
706.106413	19581.568134
706.441212	19568.824097
706.775961	19700.955260
707.110661	19775.400499
707.445311	20135.595983
707.779913	19978.498505
708.114465	20221.527491
708.448967	20494.679892
708.783421	21186.275788
709.117825	21468.265331
709.452180	21681.685100
709.786485	22077.244277
710.120742	22876.967882
710.454949	22883.133213
710.789107	23357.462941
711.123216	24061.069386
711.457275	24167.999821
711.791286	24698.029257
712.125247	24773.417192
712.459159	24470.645492
712.793023	25131.147551
713.126837	24032.329768
713.460602	24280.283961
713.794318	23905.350664
714.127985	23521.827241
714.461602	22642.584475
714.795171	22596.049584
715.128691	21595.962799
715.462162	21060.130995
715.795584	20648.155300
716.128957	20393.975282
716.462281	19991.683643
716.795556	19759.483056
717.128782	19270.259240
717.461960	18734.694617
717.795088	18650.030958
718.128167	18263.119880
718.461198	17805.990570
718.794180	17665.092841
719.127113	17303.248900
719.459997	17116.181763
719.792833	16771.424813
720.125619	16741.750061
720.458357	16424.545537
720.791046	16254.230155
721.123686	16102.771208
721.456278	15873.368461
721.788821	15830.145608
722.121315	15577.566156
722.453761	15654.267312
722.786158	15588.230717
723.118506	15591.222642
723.450805	15461.233970
723.783056	15607.240908
724.115259	15520.318813
724.447412	15451.743998
724.779518	15690.891295
725.111574	15721.418002
725.443582	15912.439924
725.775542	15898.324693
726.107453	16357.326792
726.439315	16243.555512
726.771129	16637.806510
727.102895	17011.179569
727.434612	17205.876493
727.766281	17333.165627
728.097901	17594.446111
728.429473	17622.182539
728.760996	17609.776259
729.092471	17695.203653
729.423897	17573.792503
729.755276	17439.143284
730.086606	17555.102425
730.417887	18084.726048
730.749120	18603.982539
731.080305	18774.930586
731.411442	19097.735832
731.742530	19170.542696
732.073570	19263.299927
732.404562	19554.865142
732.735506	19370.885712
733.066401	19093.193752
733.397249	18566.168844
733.728048	17932.692410
734.058798	17100.864217
734.389501	16433.954851
734.720156	15971.025693
735.050762	15454.572085
735.381320	15111.947543
735.711831	14875.156985
736.042293	14524.549776
736.372707	14529.860632
736.703073	14329.454602
737.033391	14513.381100
737.363661	14480.490092
737.693883	14591.980250
738.024056	14757.720786
738.354182	14950.479385
738.684260	15231.886675
739.014290	15457.009483
739.344272	15630.352078
739.674207	15907.746610
740.004093	16022.805905
740.333931	16010.379461
740.663722	16046.935388
740.993464	16043.333484
741.323159	15878.147475
741.652806	15594.660709
741.982405	15389.495830
742.311956	15052.252720
742.641460	14930.516416
742.970915	14627.767401
743.300323	14296.616526
743.629683	14082.029730
743.958996	13810.641733
744.288260	13539.588973
744.617477	13238.722829
744.946647	13166.261284
745.275768	12893.048390
745.604842	12722.538923
745.933869	12550.549877
746.262847	12498.154644
746.591778	12427.238212
746.920662	12323.798777
747.249498	12325.568222
747.578286	12449.300822
747.907027	12590.808531
748.235720	12809.682828
748.564365	12842.362108
748.892963	12749.246956
749.221514	12797.387454
749.550017	12650.858756
749.878473	12615.721914
750.206881	12395.355435
750.535242	12306.432002
750.863555	12219.479660
751.191821	12125.134465
751.520039	12143.718679
751.848210	12053.098897
752.176334	12080.374060
752.504411	11988.430976
752.832440	11832.434991
753.160421	11906.812175
753.488356	11778.010694
753.816243	11684.804800
754.144082	11544.670806
754.471875	11488.988741
754.799620	11437.478231
755.127318	11407.934549
755.454969	11364.663805
755.782572	11322.393730
756.110129	11336.209012
756.437638	11255.459810
756.765100	11241.077398
757.092515	11241.783159
757.419882	11267.850966
757.747203	11268.007242
758.074477	11345.124292
758.401703	11295.768876
758.728882	11458.638474
759.056014	11498.420740
759.383099	11610.190682
759.710138	11720.218906
760.037129	11798.737398
760.364073	11807.526650
760.690970	11803.990280
761.017820	11804.789303
761.344623	11992.103457
761.671379	12307.878813
761.998088	12943.664095
762.324751	14496.054654
762.651366	17343.958738
762.977935	20990.971405
763.304456	23196.360267
763.630931	23673.860879
763.957359	22492.037978
764.283740	20587.729509
764.610074	18710.091265
764.936362	16594.918893
765.262602	15083.185240
765.588796	13617.714255
765.914943	12589.026483
766.241044	11745.515416
766.567097	11109.800710
766.893104	10573.109390
767.219064	10210.534482
767.544978	9831.419548
767.870845	9518.608390
768.196665	9334.520575
768.522438	9139.853898
768.848165	8978.370617
769.173846	8809.635636
769.499479	8690.374539
769.825066	8531.822689
770.150607	8349.292591
770.476101	8285.832025
770.801548	8181.633896
771.126949	8040.209366
771.452303	7948.931714
771.777611	7783.901981
772.102872	7768.103005
772.428087	7648.310066
772.753256	7522.944132
773.078378	7438.882891
773.403453	7294.133720
773.728482	7194.124790
774.053465	7126.714480
774.378401	7042.159207
774.703291	6950.858870
775.028135	6853.567121
775.352932	6817.674106
775.677683	6739.931952
776.002388	6649.304608
776.327046	6644.079452
776.651658	6565.729839
776.976224	6486.545915
777.300743	6471.566127
777.625216	6404.740591
777.949643	6364.391196
778.274024	6367.088213
778.598359	6299.405682
778.922647	6301.180168
779.246889	6263.416884
779.571086	6264.301607
779.895236	6279.697291
780.219339	6273.310149
780.543397	6270.287977
780.867409	6328.422563
781.191374	6320.049207
781.515294	6283.861284
781.839167	6337.632751
782.162995	6308.129398
782.486776	6261.382779
782.810511	6222.855760
783.134201	6149.496890
783.457844	6135.636237
783.781441	6083.361992
784.104993	6046.370005
784.428498	6014.782135
784.751958	5998.282439
785.075372	5970.422502
785.398739	5932.082007
785.722061	5957.615451
786.045337	5957.393640
786.368568	6066.096040
786.691752	6088.647642
787.014891	6339.268606
787.337983	6614.651717
787.661030	7052.107924
787.984031	7475.378324
788.306987	7740.774910
788.629897	7822.204668
788.952760	7741.962102
789.275579	7559.137096
789.598351	7262.608865
789.921078	6999.904255
790.243759	6721.922429
790.566395	6517.803590
790.888984	6322.504248
791.211529	6186.246901
791.534027	6024.619947
791.856480	5882.482094
792.178888	5824.405481
792.501249	5755.913844
792.823566	5657.676879
793.145836	5650.919212
793.468062	5631.901460
793.790241	5590.495942
794.112375	5634.359022
794.434464	5731.179423
794.756507	5762.527838
795.078505	5886.756992
795.400457	6097.603252
795.722364	6331.482543
796.044226	6532.964860
796.366042	6685.230391
796.687812	6632.497401
797.009538	6662.761968
797.331218	6568.865437
797.652852	6503.083420
797.974442	6381.198403
798.295986	6307.151414
798.617484	6172.895405
798.938938	6074.025775
799.260346	6003.512636
799.581709	5868.702100
799.903026	5816.311908
800.224299	5741.002111
800.545526	5627.082117
800.866708	5559.790274
801.187845	5513.036093
801.508936	5439.316780
801.829983	5408.041461
802.150984	5304.123116
802.471940	5277.031955
802.792851	5260.343215
803.113717	5235.200461
803.434538	5210.864290
803.755314	5181.507131
804.076045	5167.885933
804.396731	5132.665912
804.717372	5147.686030
805.037967	5152.255836
805.358518	5180.161143
805.679024	5235.941510
805.999485	5245.466770
806.319901	5266.932003
806.640272	5284.122338
806.960598	5333.641592
807.280879	5320.194314
807.601115	5358.567577
807.921306	5318.142565
808.241453	5317.464530
808.561554	5325.421991
808.881611	5295.112053
809.201623	5292.906549
809.521590	5243.445268
809.841513	5224.608996
810.161390	5243.238580
810.481223	5153.911855
810.801011	5136.943331
811.120755	5117.744097
811.440453	5059.428029
811.760107	5032.684708
812.079716	5004.456767
812.399281	4953.838541
812.718801	4950.861740
813.038276	4916.506276
813.357707	4880.535123
813.677093	4903.658896
813.996434	4840.732693
814.315731	4860.733471
814.634983	4857.406309
814.954191	4864.342937
815.273354	4926.797792
815.592473	4962.663081
815.911547	5038.056057
816.230577	5094.380869
816.549562	5175.906409
816.868502	5231.848093
817.187399	5286.902534
817.506250	5367.823136
817.825058	5389.048914
818.143821	5547.300816
818.462539	5712.370878
818.781213	5942.328152
819.099843	6304.000693
819.418429	6934.311282
819.736970	7548.916156
820.055466	8260.694312
820.373919	9178.695989
820.692327	10614.283014
821.010691	13315.532370
821.329011	19521.495224
821.647286	29057.387210
821.965517	39356.638437
822.283704	44801.399663
822.601847	46289.167671
822.919945	41704.981818
823.237999	36620.474049
823.556010	31408.362073
823.873976	26728.701808
824.191897	22529.566847
824.509775	19472.646443
824.827609	16705.408383
825.145398	15152.072607
825.463144	14413.435184
825.780845	14705.305389
826.098502	15950.147755
826.416116	18407.616993
826.733685	20682.117553
827.051210	21215.665715
827.368692	19789.450195
827.686129	17227.651757
828.003522	14754.063429
828.320872	12538.398175
828.638177	10895.377752
828.955439	9651.074789
829.272656	8591.300743
829.589830	7757.824092
829.906960	7026.095570
830.224046	6493.545557
830.541088	6083.961890
830.858086	5827.447817
831.175041	5620.750427
831.491952	5569.035751
831.808819	5598.576912
832.125642	5841.273182
832.442421	6390.544702
832.759157	7500.526120
833.075849	9261.043237
833.392497	11107.275092
833.709101	12210.602188
834.025662	11966.769138
834.342179	10917.321895
834.658653	9607.582235
834.975083	8510.831324
835.291469	7611.928059
835.607811	6873.729216
835.924110	6350.961562
836.240366	5867.056163
836.556578	5415.635960
836.872746	5064.469183
837.188871	4791.954488
837.504952	4569.289243
837.820990	4406.772526
838.136984	4291.201553
838.452935	4244.568359
838.768842	4271.236063
839.084706	4551.136048
839.400526	5287.391526
839.716303	6193.962387
840.032037	6759.126145
840.347727	6613.499813
840.663373	6008.813409
840.978977	5433.368218
841.294537	4993.754397
841.610054	4668.542001
841.925527	4429.656843
842.240957	4221.079103
842.556344	4040.656207
842.871687	3879.603944
843.186987	3731.101634
843.502244	3614.396402
843.817458	3526.503885
844.132629	3452.867751
844.447756	3404.056779
844.762840	3358.136908
845.077881	3322.614418
845.392879	3290.078811
845.707833	3262.342382
846.022745	3238.343969
846.337613	3226.041033
846.652438	3202.524051
846.967221	3196.767053
847.281960	3172.859381
847.596656	3164.551559
847.911309	3151.850372
848.225919	3138.660193
848.540485	3126.281640
848.855009	3121.686628
849.169490	3108.443517
849.483928	3106.142230
849.798323	3097.620160
850.112675	3087.467276
850.426984	3090.015579
850.741251	3080.061821
851.055474	3076.835482
851.369654	3078.252047
851.683792	3076.714495
851.997887	3077.745411
852.311938	3079.981163
852.625947	3081.609455
852.939914	3073.745255
853.253837	3077.755493
853.567718	3074.690472
853.881555	3069.813155
854.195350	3073.931778
854.509103	3071.496901
854.822812	3069.372054
855.136479	3063.922567
855.450103	3070.599575
855.763685	3062.866445
856.077224	3065.444995
856.390720	3072.336253
856.704173	3083.371338
857.017584	3091.003645
857.330953	3093.317535
857.644278	3105.043259
857.957561	3106.464864
858.270802	3099.833226
858.584000	3103.601489
858.897155	3097.458843
859.210268	3087.898295
859.523339	3076.772468
859.836367	3071.849781
860.149352	3068.220151
860.462295	3065.220664
860.775195	3054.384704
861.088054	3049.653581
861.400869	3051.407903
861.713642	3045.439176
862.026373	3057.361505
862.339062	3059.597257
862.651708	3068.078998
862.964312	3084.596339
863.276873	3092.473142
863.589392	3122.412554
863.901869	3148.498005
864.214303	3169.161695
864.526696	3189.336392
864.839045	3207.454299
865.151353	3223.064232
865.463619	3219.391752
865.775842	3220.896536
866.088023	3225.368039
866.400162	3222.502143
866.712258	3219.800085
867.024313	3219.565671
867.336325	3215.749518
867.648296	3221.814026
867.960224	3215.585680
868.272110	3221.025085
868.583954	3219.459807
868.895755	3226.479614
869.207515	3223.684294
869.519233	3243.357397
869.830909	3250.835949
870.142542	3256.330806
870.454134	3267.030655
870.765684	3277.425515
871.077191	3300.370326
871.388657	3309.585556
871.700081	3330.922239
872.011463	3345.024867
872.322803	3366.502703
872.634101	3380.761607
872.945357	3404.593662
873.256571	3433.267745
873.567744	3449.331381
873.878874	3455.781538
874.189963	3467.686223
874.501010	3468.417190
874.812015	3467.746716
875.122979	3483.424705
875.433900	3481.385558
875.744780	3482.786999
876.055618	3492.070284
876.366415	3490.875530
876.677169	3493.224708
876.987882	3513.653984
877.298554	3533.042262
877.609183	3571.130699
877.919771	3617.325313
878.230317	3682.303265
878.540822	3787.973412
878.851285	3938.119138
879.161707	4160.658354
879.472087	4533.602915
879.782425	5155.121732
880.092722	6339.548390
880.402977	8264.195393
880.713191	10626.041505
881.023363	13003.225328
881.333494	14348.943703
881.643583	14801.072188
881.953631	14392.363161
882.263637	13549.883009
882.573602	12521.512831
882.883526	11564.860627
883.193408	10613.718404
883.503248	9702.106390
883.813048	8874.197694
884.122806	8104.806711
884.432522	7343.252203
884.742197	6686.107552
885.051831	6121.788188
885.361424	5625.310151
885.670975	5237.602570
885.980485	4909.241973
886.289954	4642.975789
886.599382	4432.956279
886.908768	4251.938526
887.218113	4090.692179
887.527417	3958.250986
887.836680	3837.187676
888.145901	3734.864856
888.455082	3659.764266
888.764221	3592.096858
889.073319	3532.863301
889.382376	3497.325687
889.691392	3475.068992
890.000366	3469.987509
890.309300	3461.951910
890.618193	3466.083136
890.927044	3460.873103
891.235855	3464.409473
891.544625	3478.444045
891.853353	3509.046369
892.162041	3568.317736
892.470687	3660.528001
892.779293	3780.565436
893.087858	3950.051549
893.396381	4230.120413
893.704864	4643.479904
894.013306	5203.489082
894.321707	5772.337923
894.630068	6128.717253
894.938387	6171.458676
895.246665	5996.714640
895.554903	5677.629766
895.863100	5339.920349
896.171256	5069.114606
896.479371	4834.771528
896.787446	4608.610243
897.095480	4412.506838
897.403473	4262.348509
897.711425	4121.551603
898.019336	3997.864372
898.327207	3877.645456
898.635038	3775.793984
898.942827	3669.682737
899.250576	3582.967329
899.558284	3500.670492
899.865952	3446.024384
900.173579	3382.435270
900.481165	3333.921726
900.788711	3291.399593
901.096216	3261.150149
901.403681	3234.815162
901.711105	3220.780589
902.018489	3218.222204
902.325832	3251.413161
902.633135	3313.247954
902.940397	3479.316164
903.247619	3882.704254
903.554800	4633.314418
903.861941	5593.944092
904.169041	6294.263705
904.476101	6506.861765
904.783121	6231.090485
905.090100	5829.219783
905.397039	5417.864150
905.703938	5059.193615
906.010796	4736.433740
906.317614	4483.544257
906.624391	4245.198504
906.931129	4051.272877
907.237826	3875.288717
907.544483	3703.067778
907.851099	3533.173332
908.157675	3371.536295
908.464211	3232.839029
908.770707	3133.155253
909.077163	3050.495454
909.383578	2991.458501
909.689954	2949.541307
909.996289	2918.991914
910.302584	2899.409552
910.608839	2888.374467
910.915054	2872.562888
911.221229	2868.928216
911.527363	2876.789895
911.833458	2881.364742
912.139513	2890.806823
912.445527	2905.811818
912.751502	2941.528393
913.057436	2985.020948
913.363331	3040.113197
913.669186	3125.875827
913.975000	3242.757500
914.280775	3431.125254
914.586510	3694.470090
914.892205	4068.584199
915.197859	4566.771187
915.503475	5147.464219
915.809050	5639.795907
916.114585	5931.300628
916.420081	5996.180278
916.725536	5928.497746
917.030952	5694.096695
917.336328	5488.165561
917.641665	5278.410711
917.946961	5051.137851
918.252218	4853.254919
918.557435	4621.734887
918.862612	4424.277932
919.167750	4254.834669
919.472848	4064.533632
919.777906	3899.720669
920.082925	3742.688727
920.387904	3590.750870
920.692843	3476.074703
920.997743	3382.221021
921.302603	3285.786268
921.607423	3221.322513
921.912204	3156.987308
922.216946	3107.576439
922.521647	3062.097669
922.826310	3018.869775
923.130932	2981.940803
923.435516	2944.038887
923.740059	2910.961356
924.044564	2881.541183
924.349028	2857.709128
924.653454	2830.708708
924.957840	2804.653504
925.262186	2783.523508
925.566493	2764.662031
925.870761	2737.326374
926.174989	2727.851525
926.479178	2714.958774
926.783328	2696.432534
927.087438	2686.909794
927.391509	2673.568381
927.695541	2657.761843
927.999533	2653.255051
928.303486	2642.066210
928.607400	2635.661424
928.911275	2631.003398
929.215110	2624.782614
929.518906	2618.410596
929.822663	2621.732716
930.126381	2622.246914
930.430060	2624.815382
930.733699	2625.392594
931.037299	2630.161525
931.340861	2629.438120
931.644383	2633.261835
931.947866	2631.215127
932.251309	2627.588016
932.554714	2627.129271
932.858080	2624.023921
933.161407	2622.365381
933.464694	2616.207612
933.767943	2613.865996
934.071153	2610.342229
934.374323	2606.533637
934.677455	2605.898452
934.980548	2601.537854
935.283602	2597.459560
935.586617	2599.082812
935.889593	2601.036259
936.192530	2599.521392
936.495428	2607.178905
936.798287	2616.242900
937.101108	2630.844602
937.403890	2651.909063
937.706632	2676.348577
938.009336	2710.623382
938.312002	2741.097157
938.614628	2763.968872
938.917216	2783.473096
939.219765	2793.714200
939.522275	2804.124183
939.824747	2804.509831
940.127179	2795.256793
940.429573	2790.046761
940.731929	2788.025258
941.034246	2780.428239
941.336524	2781.247427
941.638763	2770.187135
941.940964	2764.548605
942.243126	2746.440780
942.545250	2738.074985
942.847335	2724.088304
943.149381	2708.516180
943.451389	2697.045034
943.753359	2683.867458
944.055290	2676.192301
944.357182	2668.459171
944.659036	2661.076401
944.960851	2660.070691
945.262628	2655.735299
945.564367	2654.606080
945.866067	2653.555000
946.167729	2652.385452
946.469352	2652.009886
946.770937	2649.464103
947.072484	2645.912611
947.373992	2644.291880
947.675462	2638.512197
947.976893	2633.541619
948.278286	2631.227729
948.579641	2626.562142
948.880958	2626.741102
949.182236	2625.120372
949.483476	2621.873868
949.784678	2621.894033
950.085841	2623.648355
950.386967	2623.555093
950.688054	2629.657410
950.989103	2638.073616
951.290114	2646.036119
951.591087	2656.763694
951.892021	2670.425221
952.192917	2683.398631
952.493776	2692.432378
952.794596	2696.843388
953.095378	2698.297761
953.396122	2698.300281
953.696828	2693.301977
953.997496	2689.677388
954.298126	2678.458300
954.598718	2671.831703
954.899272	2659.342244
955.199788	2650.263126
955.500266	2638.227372
955.800706	2621.720113
956.101108	2604.975921
956.401472	2593.736668
956.701798	2583.087231
957.002087	2566.877401
957.302337	2558.299877
957.602550	2546.163299
957.902724	2535.375230
958.202861	2525.925587
958.502960	2517.660616
958.803022	2510.119049
959.103045	2501.155878
959.403031	2496.830568
959.702979	2489.999804
960.002889	2489.553662
960.302762	2480.527476
960.602596	2477.817856
960.902393	2476.174440
961.202153	2472.116311
961.501875	2469.003399
961.801559	2466.626495
962.101205	2465.910651
962.400814	2464.065588
962.700385	2459.939404
962.999918	2458.744651
963.299414	2457.938066
963.598873	2457.237346
963.898293	2453.577468
964.197677	2456.798765
964.497022	2453.786676
964.796331	2451.175358
965.095601	2450.031016
965.394835	2448.347271
965.694030	2451.440019
965.993189	2450.525049
966.292309	2450.666202
966.591393	2449.292487
966.890439	2449.274843
967.189447	2448.778289
967.488419	2448.543876
967.787353	2451.626541
968.086249	2448.339709
968.385108	2448.664863
968.683930	2452.521346
968.982714	2451.772735
969.281462	2452.493620
969.580172	2455.553600
969.878844	2456.193827
970.177480	2459.140381
970.476078	2462.074333
970.774639	2466.092132
971.073162	2468.201855
971.371649	2467.571711
971.670098	2468.620271
971.968510	2471.092957
972.266885	2470.883749
972.565223	2473.139665
972.863524	2476.975983
973.161788	2479.778865
973.460014	2478.770634
973.758204	2480.240131
974.056356	2478.082517
974.354471	2481.651654
974.652550	2483.751294
974.950591	2479.652836
975.248595	2478.440439
975.546563	2478.009420
975.844493	2474.830973
976.142386	2473.812659
976.440243	2473.467340
976.738062	2472.018009
977.035845	2469.230251
977.333590	2467.818728
977.631299	2464.466360
977.928971	2463.024590
978.226606	2460.745989
978.524204	2462.666668
978.821765	2459.740278
979.119290	2457.605350
979.416777	2455.435133
979.714228	2458.699280
980.011642	2461.519806
980.309020	2463.916874
980.606360	2466.870991
980.903664	2476.928093
981.200931	2489.309166
981.498162	2506.076044
981.795356	2536.880015
982.092513	2574.512228
982.389633	2616.255502
982.686717	2659.682522
982.983764	2692.051771
983.280775	2709.645398
983.577749	2707.996941
983.874686	2700.014274
984.171587	2684.096830
984.468451	2667.022442
984.765279	2651.127684
985.062070	2635.016157
985.358824	2615.574947
985.655543	2594.137440
985.952224	2569.599624
986.248869	2542.977290
986.545478	2516.738084
986.842050	2497.758140
987.138586	2478.609317
987.435086	2468.141361
987.731549	2452.324741
988.027975	2452.027313
988.324366	2444.367280
988.620719	2443.147321
988.917037	2439.676486
989.213318	2434.842020
989.509563	2432.860846
989.805772	2432.313881
990.101944	2428.838005
990.398080	2429.263983
990.694180	2426.902202
990.990244	2432.613830
991.286271	2428.921184
991.582262	2427.829775
991.878217	2426.012439
992.174136	2430.693150
992.470019	2432.334046
992.765865	2433.117945
993.061676	2438.897628
993.357450	2436.873605
993.653188	2438.489294
993.948890	2446.310645
994.244556	2454.424382
994.540186	2458.595937
994.835780	2473.497587
995.131337	2484.036119
995.426859	2501.107987
995.722345	2524.193951
996.017795	2540.365972
996.313208	2555.877603
996.608586	2562.731052
996.903928	2566.706001
997.199234	2563.257852
997.494504	2564.198027
997.789738	2554.387942
998.084936	2546.518701
998.380099	2533.958666
998.675225	2523.543642
998.970316	2511.732219
999.265371	2497.087667
999.560390	2483.552169
999.855373	2474.659573
1000.150320	2461.955866
1000.445232	2454.827674
1000.740108	2448.354833
1001.034948	2441.040118
1001.329752	2437.055086
1001.624521	2432.926381
1001.919254	2425.011770
1002.213951	2426.919846
1002.508613	2421.170410
1002.803239	2422.730648
1003.097829	2415.955337
1003.392384	2419.804258
1003.686903	2418.327200
1003.981386	2420.313414
1004.275834	2417.079514
1004.570246	2414.211098
1004.864623	2414.453073
1005.158964	2415.315110
1005.453270	2414.437949
1005.747540	2414.037178
1006.041775	2411.355284
1006.335974	2417.051788
1006.630138	2411.158679
1006.924266	2411.511560
1007.218359	2412.338309
1007.512416	2410.624317
1007.806438	2411.262023
1008.100425	2412.149266
1008.394376	2410.783113
1008.688292	2408.121384
1008.982172	2411.723288
1009.276017	2410.662125
1009.569827	2411.209090
1009.863602	2410.034502
1010.157341	2408.272618
1010.451045	2409.986611
1010.744714	2408.650705
1011.038347	2409.684141
1011.331945	2409.548030
1011.625508	2409.626168
1011.919036	2409.399316
1012.212528	2408.176836
1012.505986	2406.004099
1012.799408	2407.219017
1013.092795	2404.917730
1013.386147	2405.089130
1013.679464	2407.382855
1013.972745	2406.021743
1014.265992	2408.040725
1014.559204	2406.407391
1014.852380	2404.214489
1015.145521	2406.661970
1015.438628	2406.755231
1015.731699	2407.352608
1016.024736	2404.607699
1016.317737	2410.387382
1016.610703	2408.270098
1016.903635	2404.874881
1017.196531	2404.678276
1017.489393	2406.777916
1017.782219	2403.112997
1018.075011	2408.559964
1018.367768	2407.869326
1018.660490	2409.429563
1018.953177	2409.429563
1019.245829	2409.429563
