Dividing Wavelength (nm)	Counts (n)	Blue Motor Position (mm): 19.400000	Red Motor Position (mm): 0.000000	
326.493990	1973.400002
326.888308	1973.400002
327.282561	1973.400002
327.676750	1950.152721
328.070874	1948.766404
328.464933	1957.545573
328.858929	1965.593776
329.252859	1978.604994
329.646726	1995.066882
330.040528	2009.658501
330.434265	2028.877900
330.827938	2047.492361
331.221547	2067.599003
331.615091	2084.880078
332.008571	2109.942175
332.401986	2129.879938
332.795338	2147.549183
333.188625	2168.802687
333.581847	2187.311283
333.975006	2206.550847
334.368100	2220.749257
334.761129	2239.774572
335.154095	2255.258476
335.546996	2288.368774
335.939833	2350.158197
336.332606	2365.846268
336.725315	2378.860006
337.117960	2385.398383
337.510540	2390.091697
337.903056	2403.067627
338.295508	2411.617424
338.687896	2415.771335
339.080220	2426.496389
339.472480	2427.398756
339.864676	2432.480239
340.256807	2435.346135
340.648875	2439.908379
341.040879	2439.573142
341.432818	2438.035591
341.824694	2440.397371
342.216506	2438.423759
342.608253	2438.159099
342.999937	2439.749583
343.391557	2437.977617
343.783113	2433.899324
344.174605	2436.926537
344.566033	2433.312029
344.957397	2432.145002
345.348697	2430.529313
345.739934	2428.482604
346.131106	2424.863056
346.522215	2426.388005
346.913260	2424.275761
347.304241	2422.617222
347.695159	2420.996491
348.086012	2419.746284
348.476802	2415.446180
348.867528	2416.272929
349.258191	2413.863258
349.648789	2412.126580
350.039324	2411.897208
350.429796	2409.787485
350.820203	2410.069790
351.210548	2410.006775
351.600828	2408.786816
351.991045	2407.904614
352.381198	2408.058369
352.771288	2409.227917
353.161314	2405.807494
353.551276	2406.198183
353.941175	2403.244067
354.331010	2409.096847
354.720782	2409.719429
355.110490	2411.715726
355.500135	2407.939902
355.889717	2409.386713
356.279235	2409.235479
356.668689	2410.485685
357.058080	2406.493091
357.447408	2407.765982
357.836672	2405.336146
358.225873	2407.798750
358.615010	2407.332443
359.004084	2411.408216
359.393095	2411.410737
359.782043	2411.098185
360.170927	2412.169430
360.559748	2413.797723
360.948505	2416.035995
361.337199	2415.904925
361.725830	2415.695717
362.114398	2420.641089
362.502903	2418.422982
362.891344	2418.828794
363.279722	2417.381983
363.668037	2419.494227
364.056289	2419.363157
364.444478	2416.729154
364.832603	2418.433064
365.220665	2420.983888
365.608665	2420.515060
365.996601	2420.194947
366.384474	2419.418609
366.772284	2421.820719
367.160031	2421.482962
367.547715	2424.379105
367.935336	2420.578075
368.322893	2422.642427
368.710388	2424.366502
369.097820	2424.676533
369.485189	2423.204516
369.872495	2422.355082
370.259738	2421.389701
370.646918	2423.834660
371.034035	2423.547314
371.421090	2424.132088
371.808081	2422.740730
372.195010	2423.174269
372.581875	2425.137798
372.968678	2425.362130
373.355418	2425.140319
373.742096	2427.363468
374.128710	2424.709300
374.515262	2426.874476
374.901751	2426.093097
375.288177	2428.701894
375.674540	2426.445978
376.060841	2427.925557
376.447079	2427.519744
376.833254	2428.333890
377.219367	2424.343817
377.605417	2427.693663
377.991404	2422.791141
378.377329	2427.638211
378.763191	2425.309198
379.148991	2430.405804
379.534727	2429.566452
379.920402	2429.226174
380.306013	2429.906730
380.691563	2433.364962
381.077049	2430.670465
381.462474	2429.044693
381.847835	2431.303130
382.233134	2432.646597
382.618371	2432.485280
383.003545	2431.872780
383.388657	2433.213727
383.773706	2433.596855
384.158693	2436.929057
384.543618	2433.191042
384.928480	2435.762030
385.313280	2433.856474
385.698017	2436.230857
386.082692	2438.242278
386.467305	2436.644232
386.851856	2436.054417
387.236344	2438.895107
387.620770	2436.719849
388.005133	2439.406784
388.389435	2438.824531
388.773674	2437.483584
389.157851	2441.156065
389.541965	2438.378389
389.926018	2439.313523
390.310008	2437.055086
390.693936	2437.750765
391.077802	2439.321085
391.461606	2440.352001
391.845348	2441.413164
392.229027	2442.320571
392.612645	2443.437187
392.996200	2439.825200
393.379694	2443.369131
393.763125	2442.234872
394.146494	2443.013730
394.529801	2442.111363
394.913047	2442.953236
395.296230	2444.702517
395.679351	2440.354521
396.062410	2443.870726
396.445408	2444.586570
396.828343	2440.533482
397.211217	2439.371496
397.594028	2442.474327
397.976778	2440.868719
398.359466	2443.931220
398.742092	2441.216559
399.124656	2447.356684
399.507158	2443.621189
399.889598	2447.838114
400.271977	2442.663370
400.654294	2444.314348
401.036549	2445.483895
401.418742	2446.063628
401.800874	2448.226283
402.182944	2445.662856
402.564952	2447.371807
402.946898	2444.861313
403.328783	2446.862651
403.710606	2448.206118
404.092367	2447.946499
404.474067	2446.335850
404.855705	2447.520522
405.237282	2448.959771
405.618797	2447.573454
406.000250	2448.952209
406.381642	2446.126642
406.762972	2450.275512
407.144240	2450.119236
407.525447	2452.728033
407.906593	2450.678804
408.287677	2450.114195
408.668700	2452.304577
409.049661	2450.431788
409.430560	2450.535132
409.811399	2454.137036
410.192176	2453.237190
410.572891	2451.172837
410.953545	2449.968002
411.334138	2453.007818
411.714669	2452.274330
412.095139	2452.019751
412.475547	2452.768363
412.855894	2453.774073
413.236180	2451.129988
413.616405	2453.776593
413.996568	2450.265430
414.376670	2452.622169
414.756711	2452.526387
415.136691	2454.744495
415.516609	2452.725513
415.896466	2455.452777
416.276262	2456.740792
416.655997	2454.991512
417.035670	2451.654268
417.415283	2455.193158
417.794834	2451.127467
418.174324	2456.108127
418.553753	2454.303394
418.933121	2454.399176
419.312428	2457.486883
419.691674	2459.284054
420.070859	2457.852366
420.449983	2457.688529
420.829045	2456.395473
421.208047	2456.224074
421.586988	2456.960082
421.965867	2460.032665
422.344686	2458.510237
422.723444	2461.504682
423.102141	2458.853035
423.480777	2459.526029
423.859352	2459.591564
424.237866	2458.623663
424.616319	2463.082563
424.994712	2460.453602
425.373044	2459.314301
425.751314	2461.429065
426.129524	2461.613067
426.507673	2461.628191
426.885762	2462.439816
427.263789	2460.269600
427.641756	2463.659776
428.019662	2464.287399
428.397508	2464.559622
428.775292	2463.964765
429.153016	2466.006433
429.530679	2463.798407
429.908282	2466.291258
430.285824	2464.788994
430.663305	2465.313274
431.040726	2464.894858
431.418086	2465.467029
431.795385	2466.402163
432.172624	2465.333439
432.549802	2467.183542
432.926920	2464.874694
433.303977	2466.581124
433.680974	2469.222689
434.057910	2469.741928
434.434786	2466.555918
434.811601	2468.063223
435.188355	2469.068934
435.565050	2473.762248
435.941683	2471.259315
436.318257	2468.398460
436.694770	2464.892338
437.071222	2468.958028
437.447614	2466.041721
437.823946	2469.348718
438.200218	2470.132617
438.576429	2470.606486
438.952580	2468.973152
439.328670	2475.766107
439.704700	2470.445169
440.080670	2473.230406
440.456580	2469.857874
440.832429	2474.951960
441.208218	2470.745117
441.583947	2475.451034
441.959616	2470.283852
442.335224	2473.807618
442.710773	2473.154789
443.086261	2475.483802
443.461689	2476.701241
443.837057	2474.498256
444.212365	2476.970942
444.587612	2478.649647
444.962800	2475.874491
445.337927	2475.486323
445.712995	2474.750314
446.088002	2481.069400
446.462949	2477.223000
446.837837	2477.608648
447.212664	2481.525625
447.587431	2483.325317
447.962139	2486.009731
448.336786	2486.052581
448.711374	2487.970740
449.085901	2487.461583
449.460369	2482.652323
449.834776	2483.814309
450.209124	2485.616521
450.583412	2487.842191
450.957640	2487.640544
451.331808	2486.506285
451.705917	2487.814464
452.079965	2488.547952
452.453954	2487.859835
452.827883	2487.156594
453.201752	2489.755308
453.575562	2490.292191
453.949311	2490.161121
454.323001	2490.140957
454.696632	2490.377891
455.070202	2494.367964
455.443713	2492.958962
455.817164	2492.606081
456.190556	2495.514827
456.563888	2496.177738
456.937160	2493.543736
457.310373	2498.325270
457.683526	2497.722852
458.056619	2497.521206
458.429653	2498.945332
458.802628	2501.866681
459.175542	2502.585045
459.548398	2505.834069
459.921194	2509.806498
460.293930	2511.250788
460.666607	2516.506191
461.039224	2520.090452
461.411782	2520.045081
461.784280	2522.666481
462.156719	2521.731347
462.529099	2522.812675
462.901419	2521.091121
463.273680	2520.251769
463.645882	2520.823940
464.018024	2523.168076
464.390106	2525.338293
464.762130	2534.185518
465.134094	2542.037115
465.505999	2553.972047
465.877845	2568.046948
466.249631	2570.736404
466.621358	2570.176836
466.993026	2569.425704
467.364634	2566.605178
467.736184	2562.678119
468.107674	2559.010680
468.479105	2560.306257
468.850477	2560.765002
469.221790	2556.006152
469.593043	2554.183775
469.964238	2554.861810
470.335373	2555.877603
470.706449	2564.560990
471.077467	2570.043245
471.448425	2586.366501
471.819324	2595.067533
472.190164	2591.591657
472.560945	2584.655030
472.931667	2577.877198
473.302330	2575.515418
473.672934	2575.565829
474.043479	2575.328895
474.413965	2577.481468
474.784393	2576.354770
475.154761	2580.629668
475.525070	2579.671849
475.895321	2581.194277
476.265513	2587.306677
476.635645	2593.343458
477.005719	2597.930908
477.375734	2598.372009
477.745691	2605.190170
478.115588	2612.951026
478.485427	2622.219188
478.855207	2633.445837
479.224928	2650.384114
479.594591	2658.034065
479.964194	2656.922491
480.333739	2660.058088
480.703226	2664.771567
481.072653	2673.470078
481.442022	2676.746828
481.811333	2681.646830
482.180584	2679.244720
482.549777	2681.903928
482.918912	2683.368384
483.287988	2689.770649
483.657005	2687.290401
484.025964	2687.585309
484.394864	2696.097297
484.763706	2694.224508
485.132489	2695.409180
485.501213	2703.379244
485.869879	2710.300748
486.238487	2714.310986
486.607036	2719.634444
486.975527	2725.887996
487.343959	2731.178687
487.712333	2738.700088
488.080648	2746.405492
488.448905	2758.479055
488.817104	2766.350817
489.185244	2785.577778
489.553326	2809.432518
489.921350	2845.103722
490.289315	2883.582850
490.657222	2908.120666
491.025070	2924.688418
491.392861	2932.650921
491.760593	2932.229984
492.128267	2935.491611
492.495883	2934.435489
492.863440	2934.422886
493.230939	2943.539813
493.598380	2950.060546
493.965763	2964.198462
494.333088	2976.637509
494.700354	2992.063439
495.067563	3015.008251
495.434713	3034.472146
495.801805	3064.366188
496.168839	3083.129363
496.535815	3108.549381
496.902733	3139.640698
497.269593	3161.683143
497.636395	3192.056095
498.003139	3231.666961
498.369825	3258.455653
498.736453	3299.745223
499.103023	3329.082218
499.469535	3365.088659
499.835989	3413.145979
500.202385	3444.433900
500.568723	3489.844614
500.935003	3545.937533
501.301226	3592.253134
501.667390	3657.974657
502.033497	3722.098134
502.399546	3757.290429
502.765537	3793.054895
503.131470	3860.989484
503.497345	3936.710135
503.863163	3953.532466
504.228923	4037.949107
504.594625	4126.459166
504.960269	4168.061288
505.325856	4266.169704
505.691385	4316.855985
506.056856	4401.118872
506.422270	4503.426568
506.787625	4562.264395
507.152924	4661.484385
507.518164	4751.355556
507.883347	4798.215601
508.248472	4902.617897
508.613540	5024.560888
508.978550	5146.017408
509.343503	5227.714347
509.708398	5345.006874
510.073236	5491.391899
510.438016	5599.764104
510.802738	5672.727244
511.167403	5835.954764
511.532010	5972.587678
511.896561	6116.646211
512.261053	6315.093752
512.625488	6399.719602
512.989866	6511.066087
513.354186	6630.007071
513.718449	6755.052893
514.082655	6964.606096
514.446803	7066.649132
514.810894	7270.054649
515.174927	7403.549444
515.538904	7534.765637
515.902822	7764.566635
516.266684	7851.360181
516.630488	8060.986482
516.994235	8187.138836
517.357925	8430.097246
517.721558	8615.246223
518.085133	8821.837749
518.448651	9012.516873
518.812112	9142.873550
519.175516	9335.722890
519.538863	9548.101660
519.902152	9722.964164
520.265385	9981.759358
520.628560	10166.192492
520.991678	10309.522578
521.354739	10538.151508
521.717743	10788.570826
522.080690	10955.140631
522.443580	11260.755542
522.806413	11473.346041
523.169189	11648.609316
523.531908	11884.560522
523.894569	12044.788555
524.257174	12286.189248
524.619722	12574.507960
524.982213	12786.596864
525.344647	12978.800937
525.707025	13211.114950
526.069345	13521.123227
526.431608	13718.643196
526.793815	14014.785779
527.155964	14113.783958
527.518057	14366.489439
527.880093	14531.917423
528.242072	14902.061623
528.603995	15037.051120
528.965860	15267.028559
529.327669	15524.384504
529.689421	15711.136569
530.051117	15935.634273
530.412755	16211.902107
530.774337	16465.275540
531.135862	16636.248793
531.497331	16929.699400
531.858743	17134.758415
532.220098	17490.802508
532.581396	17635.478582
532.942638	17750.474863
533.303824	18101.223224
533.664953	18343.443105
534.026025	18474.971850
534.387040	18895.880470
534.747999	19117.618142
535.108902	19433.852244
535.469748	19482.706066
535.830537	19770.402195
536.191270	20100.055848
536.551947	20193.967503
536.912567	20560.749254
537.273131	20863.891479
537.633638	20890.332331
537.994089	21284.716919
538.354483	21345.228410
538.714821	21852.577694
539.075103	22260.097010
539.435328	22406.948342
539.795497	22593.092947
540.155609	22835.748888
540.515665	23317.567249
540.875665	23281.197845
541.235609	23705.665519
541.595496	23932.635909
541.955328	24539.179978
542.315102	24433.328350
542.674821	24574.909156
543.034483	24852.205385
543.394090	25067.394599
543.753640	25288.791993
544.113134	26075.640492
544.472571	25781.363136
544.831953	26722.420530
545.191278	26516.368408
545.550548	26611.439528
545.909761	27105.550743
546.268918	27457.206512
546.628019	27882.203507
546.987064	27867.616929
547.346053	27656.967274
547.704986	28441.030535
548.063863	28392.194357
548.422684	28749.367668
548.781449	28889.252126
549.140158	29382.420645
549.498811	29497.795013
549.857408	29367.168634
550.215949	30125.832041
550.574434	30313.501596
550.932864	30380.906864
551.291237	31092.435482
551.649555	31026.169515
552.007817	31412.994894
552.366022	31399.960990
552.724173	31734.411301
553.082267	32211.697665
553.440305	32635.507469
553.798288	32371.242622
554.156215	32801.676503
554.514086	33155.663805
554.871902	33172.642411
555.229661	33390.203488
555.587365	33466.733244
555.945014	33761.081176
556.302606	33897.855242
556.660143	34234.548866
557.017625	34504.356461
557.375050	34540.289806
557.732421	35015.466447
558.089735	35174.376219
558.446994	35300.979756
558.804197	35844.053178
559.161345	35971.110419
559.518437	35587.380309
559.875474	35998.574626
560.232455	36318.166135
560.589381	36621.371375
560.946251	36550.591054
561.303065	37265.867770
561.659825	37291.353324
562.016528	37191.165432
562.373177	37116.659699
562.729770	37684.109620
563.086307	37456.516647
563.442789	37992.146805
563.799216	38180.398613
564.155587	38173.464506
564.511904	38342.464148
564.868164	38574.079961
565.224370	38935.069426
565.580520	38852.986839
565.936615	39186.254999
566.292654	39071.256197
566.648638	39426.750805
567.004567	39532.909943
567.360441	39688.946257
567.716260	39711.533147
568.072023	40099.195358
568.427732	40206.705525
568.783385	39950.493922
569.138982	40411.331001
569.494525	40501.000525
569.850013	40425.294997
570.205445	40519.559533
570.560823	40594.350091
570.916145	40592.999062
571.271412	40735.003325
571.626625	40634.132357
571.981782	40807.248100
572.336884	40618.802208
572.691931	41018.646366
573.046923	40755.901428
573.401860	40718.140665
573.756743	40800.898767
574.111570	41015.931705
574.466342	40970.561320
574.821059	41168.668584
575.175722	40837.351351
575.530330	40957.134207
575.884882	40791.658332
576.239380	40852.157219
576.593823	40912.376323
576.948211	40909.323904
577.302544	40556.997662
577.656823	40676.752792
578.011047	40974.508544
578.365216	40794.123456
578.719330	40679.676661
579.073389	40643.884469
579.427394	40786.541561
579.781344	40823.989772
580.135239	40594.624834
580.489080	40735.855280
580.842866	40331.113640
581.196597	40817.237147
581.550273	40827.427839
581.903895	40763.836204
582.257463	41232.842473
582.610975	40731.562737
582.964434	41053.616851
583.317837	40779.141147
583.671186	40693.814577
584.024481	40970.793213
584.377721	40591.842117
584.730906	40895.367470
585.084037	40991.905566
585.437113	40788.439555
585.790135	40871.762267
586.143103	40577.195045
586.496016	40735.013407
586.848874	40802.927832
587.201679	40889.665925
587.554428	40425.350450
587.907124	40664.182675
588.259765	40480.956897
588.612352	40772.017997
588.964884	40243.823541
589.317362	40567.258930
589.669786	40560.922200
590.022155	40386.682279
590.374470	40814.247742
590.726731	40424.558988
591.078937	40003.443681
591.431090	40149.301906
591.783188	39854.230569
592.135232	39608.532292
592.487222	39875.670596
592.839157	39985.353501
593.191038	39718.537831
593.542866	39527.004231
593.894639	38989.740740
594.246358	39283.448445
594.598022	39291.179054
594.949633	38953.187333
595.301190	38952.552148
595.652692	38838.276752
596.004141	39180.934061
596.355535	38266.322560
596.706876	38251.103316
597.058162	38118.526011
597.409395	38579.710930
597.760573	38687.153042
598.111698	38301.434196
598.462768	38332.999381
598.813785	38393.896520
599.164748	37922.057123
599.515657	38307.649939
599.866511	37842.462344
600.217312	38451.494223
600.568060	37473.217990
600.918753	38212.220897
601.269392	38203.290493
601.619978	37874.934937
601.970510	38097.574976
602.320988	38289.685787
602.671412	38594.942776
603.021783	38373.565546
603.372100	38054.924294
603.722363	38182.765435
604.072572	38277.211452
604.422728	38291.934142
604.772830	38128.454564
605.122878	38235.347190
605.472872	38183.065383
605.822813	38482.136877
606.172701	38316.093872
606.522534	38566.377078
606.872314	38821.829987
607.222041	38618.144687
607.571714	38998.771967
607.921333	38477.302410
608.270899	38768.605485
608.620411	39109.770613
608.969870	38928.200854
609.319276	38934.724107
609.668627	39006.895786
610.017926	39487.655505
610.367171	39652.218931
610.716362	39745.966749
611.065500	39699.736847
611.414585	39917.164333
611.763616	40202.110513
612.112594	40136.688939
612.461518	40361.632786
612.810389	40650.309419
613.159207	40528.447087
613.507971	40614.156785
613.856682	41084.680441
614.205340	40960.037912
614.553945	41652.216061
614.902496	41131.918573
615.250994	41599.324275
615.599439	41682.246215
615.947830	41898.060531
616.296169	41949.591206
616.644454	42094.695778
616.992686	42266.266408
617.340864	42805.017040
617.688990	42513.494675
618.037063	43116.678815
618.385082	43087.994650
618.733048	43389.911874
619.080961	43383.754105
619.428821	43406.915686
619.776628	43513.949465
620.124382	43341.839431
620.472083	43487.942152
620.819731	43606.741983
621.167326	43297.893173
621.514868	43293.076350
621.862357	42861.732542
622.209793	42894.643715
622.557176	42551.182341
622.904506	42316.627535
623.251783	41975.510298
623.599007	41766.622527
623.946179	41542.765049
624.293297	41500.121929
624.640363	40916.252970
624.987376	40921.941912
625.334336	40692.743332
625.681243	40351.588287
626.028097	40313.560342
626.374899	40166.439309
626.721647	40146.801494
627.068343	40048.098222
627.414987	39816.852933
627.761577	39602.308988
628.108115	39919.475702
628.454600	39392.876772
628.801032	39584.579249
629.147412	39556.734436
629.493739	39563.663502
629.840014	39230.927184
630.186236	39565.932021
630.532405	39186.018065
630.878521	39406.155171
631.224585	39284.643198
631.570597	38983.419133
631.916556	39160.996298
632.262462	39123.636306
632.608316	39146.364348
632.954117	39027.783807
633.299866	39016.363073
633.645562	38940.160992
633.991206	38459.388670
634.336797	38029.799183
634.682336	38027.071919
635.027823	37773.892570
635.373257	37618.887171
635.718639	37381.045533
636.063968	37249.962930
636.409245	36676.813985
636.754470	36724.669658
637.099642	36494.089802
637.444762	36032.352877
637.789829	36170.291449
638.134845	35834.812743
638.479808	35792.371269
638.824719	35683.714239
639.169577	35314.835368
639.514383	35378.129575
639.859137	35077.817958
640.203839	35322.775185
640.548489	34955.098629
640.893086	35052.430707
641.237632	34793.882529
641.582125	34899.620731
641.926566	34839.767112
642.270955	34802.391997
642.615292	34825.672045
642.959576	34798.704393
643.303809	34809.310981
643.647990	34944.474397
643.992118	34921.370789
644.336195	34920.281900
644.680219	35018.281931
645.024192	35310.021066
645.368112	35814.774156
645.711981	35836.115881
646.055797	36716.974337
646.399562	36640.734447
646.743274	37563.222751
647.086935	38011.293107
647.430544	37906.427025
647.774101	38020.548666
648.117606	38247.125846
648.461059	38557.970954
648.804460	38162.386570
649.147810	37559.797287
649.491108	37316.322159
649.834354	36965.112532
650.177548	36140.848590
650.520690	35693.413419
650.863781	35706.923711
651.206820	35556.263787
651.549807	35134.331813
651.892742	34661.234648
652.235626	34467.654340
652.578458	34338.840257
652.921238	33745.307406
653.263967	34065.962599
653.606644	33759.944396
653.949269	33708.983372
654.291843	33327.756194
654.634365	33725.714961
654.976836	33312.252126
655.319255	33313.484688
655.661622	33318.067097
656.003938	33082.718309
656.346203	32958.015286
656.688416	33177.146682
657.030577	32992.272447
657.372687	32813.530776
657.714746	33074.849068
658.056753	33197.444888
658.398708	32666.694567
658.740612	32713.053018
659.082465	32999.279651
659.424266	32815.650581
659.766016	32941.891156
660.107715	32822.138546
660.449362	32949.082362
660.790958	32931.884465
661.132503	32955.131746
661.473996	32970.983654
661.815438	33092.699793
662.156829	33269.235960
662.498168	33053.235121
662.839456	33074.556681
663.180693	33228.019486
663.521879	33398.012235
663.863013	33349.307127
664.204097	33359.800289
664.545129	33806.469205
664.886110	33779.899803
665.227040	33843.965307
665.567918	33962.704645
665.908746	34026.429871
666.249522	34179.025598
666.590248	34183.577759
666.930922	34304.487314
667.271545	34250.184005
667.612118	34332.667364
667.952639	34120.840600
668.293109	34179.537275
668.633528	34066.159204
668.973896	34005.685522
669.314213	34041.674320
669.654480	33773.633649
669.994695	33815.858354
670.334859	33698.843091
670.674973	33597.999849
671.015035	33754.167234
671.355047	33711.146027
671.695008	33665.974768
672.034918	33552.999989
672.374777	33627.790548
672.714585	33481.965091
673.054342	33717.540730
673.394049	33467.602843
673.733705	33747.979217
674.073310	33416.966973
674.412864	33493.287522
674.752368	33095.555607
675.091820	33385.512694
675.431223	32957.543938
675.770574	32686.095448
676.109875	32561.692374
676.449125	32278.785340
676.788324	32212.179095
677.127473	31678.134380
677.466571	31604.236106
677.805619	31256.507396
678.144616	31253.248290
678.483562	31183.203978
678.822458	30856.693484
679.161303	30789.280655
679.500098	30691.699040
679.838842	30593.184811
680.177535	30744.069066
680.516179	31018.660716
680.854771	31252.819792
681.193314	32117.531432
681.531805	33229.733478
681.870247	34021.028274
682.208638	34753.414667
682.546978	34975.361547
682.885268	35041.882093
683.223508	34530.817477
683.561697	34187.502298
683.899836	33999.011035
684.237925	33499.346989
684.575963	33350.096068
684.913951	32897.266862
685.251889	33053.822415
685.589776	33032.153015
685.927614	33023.958620
686.265401	33171.523275
686.603137	33271.842237
686.940824	33777.608599
687.278460	34171.045451
687.616046	34287.027278
687.953582	34900.455042
688.291068	34763.358343
688.628504	35045.370571
688.965889	34973.864324
689.303224	34587.084316
689.640510	34255.033595
689.977745	33509.514996
690.314930	32725.456777
690.652065	32192.047247
690.989150	31440.161672
691.326185	30559.270449
691.663170	29850.174187
692.000105	29109.704304
692.336990	28432.415203
692.673825	27979.192787
693.010610	27465.065671
693.347345	26888.897074
693.684030	26241.519659
694.020665	25967.086805
694.357251	25309.674973
694.693786	25261.315184
695.030272	25012.236814
695.366707	24481.526822
695.703093	24201.483164
696.039429	24190.392626
696.375716	23921.207613
696.711952	23882.642787
697.048139	23744.721858
697.384276	23562.958015
697.720363	23684.459905
698.056400	23476.537515
698.392388	23271.695270
698.728326	23228.908476
699.064214	23024.991283
699.400053	22969.384835
699.735842	22606.038631
700.071581	22335.525274
700.407270	22047.065410
700.742910	21866.471114
701.078501	21590.518353
701.414042	21305.534364
701.749533	21020.689007
702.084974	20672.342756
702.420366	20873.804908
702.755709	20438.891963
703.091002	20147.213322
703.426246	20169.258287
703.761440	20063.414221
704.096584	19793.861204
704.431679	19762.071688
704.766725	19659.975720
705.101721	19612.377145
705.436668	19701.983655
705.771565	19371.515856
706.106413	19717.376818
706.441212	19705.240240
706.775961	19829.471915
707.110661	19907.556868
707.445311	20268.989954
707.779913	20100.965776
708.114465	20349.897953
708.448967	20634.632405
708.783421	21319.510963
709.117825	21600.146957
709.452180	21823.477634
709.786485	22215.039177
710.120742	23007.521164
710.454949	23022.957177
710.789107	23496.515608
711.123216	24201.785634
711.457275	24324.573018
711.791286	24855.996333
712.125247	24931.036428
712.459159	24610.850063
712.793023	25270.197698
713.126837	24169.418905
713.460602	24420.395270
713.794318	24042.089442
714.127985	23656.191635
714.461602	22757.333740
714.795171	22711.126524
715.128691	21708.168801
715.462162	21168.969507
715.795584	20751.700600
716.128957	20492.822226
716.462281	20086.394321
716.795556	19853.399752
717.128782	19370.958808
717.461960	18814.543973
717.795088	18748.396473
718.128167	18340.176437
718.461198	17884.607364
718.794180	17741.262155
719.127113	17386.009522
719.459997	17190.836210
719.792833	16845.822162
720.125619	16816.255794
720.458357	16502.081004
720.791046	16325.635578
721.123686	16172.205541
721.456278	15936.481187
721.788821	15892.711368
722.121315	15632.731503
722.453761	15708.754623
722.786158	15639.426155
723.118506	15641.666948
723.450805	15506.115362
723.783056	15666.129147
724.115259	15554.911211
724.447412	15503.867008
724.779518	15743.253760
725.111574	15765.591112
725.443582	15962.362471
725.775542	15949.918382
726.107453	16407.541726
726.439315	16301.112886
726.771129	16700.422682
727.102895	17059.073052
727.434612	17263.665760
727.766281	17390.959936
728.097901	17646.312022
728.429473	17691.942026
728.760996	17656.568249
729.092471	17748.244153
729.423897	17626.863250
729.755276	17484.609451
730.086606	17609.569572
730.417887	18134.792268
730.749120	18648.765629
731.080305	18820.129572
731.411442	19145.452873
731.742530	19215.109017
732.073570	19313.814809
732.404562	19613.733216
732.735506	19412.276105
733.066401	19138.027254
733.397249	18613.205330
733.728048	17974.556672
734.058798	17146.932801
734.389501	16467.012218
734.720156	16020.474372
735.050762	15497.999105
735.381320	15144.402492
735.711831	14899.125151
736.042293	14562.547473
736.372707	14564.044696
736.703073	14358.968037
737.033391	14547.025761
737.363661	14516.927552
737.693883	14626.053409
738.024056	14788.817143
738.354182	14967.959586
738.684260	15258.196457
739.014290	15480.516383
739.344272	15668.763150
739.674207	15943.730366
740.004093	16055.976697
740.333931	16047.104267
740.663722	16073.134265
740.993464	16071.437916
741.323159	15896.824950
741.652806	15630.906605
741.982405	15403.694240
742.311956	15067.265276
742.641460	14953.511639
742.970915	14643.271470
743.300323	14321.968488
743.629683	14105.939923
743.958996	13831.093694
744.288260	13570.463520
744.617477	13261.347528
744.946647	13186.166280
745.275768	12918.453284
745.604842	12728.187535
745.933869	12570.664081
746.262847	12525.606247
746.591778	12441.091303
746.920662	12347.930780
747.249498	12341.498268
747.578286	12454.783077
747.907027	12604.722116
748.235720	12821.252277
748.564365	12853.709746
748.892963	12761.990992
749.221514	12808.374649
749.550017	12669.793330
749.878473	12621.602420
750.206881	12405.977146
750.535242	12313.580358
750.863555	12232.816032
751.191821	12141.339254
751.520039	12165.206597
751.848210	12068.943244
752.176334	12098.343253
752.504411	12004.093841
752.832440	11847.555932
753.160421	11905.821588
753.488356	11788.708022
753.816243	11697.626975
754.144082	11554.783360
754.471875	11496.794968
754.799620	11445.788573
755.127318	11416.035683
755.454969	11381.844057
755.782572	11329.181643
756.110129	11342.641524
756.437638	11256.344532
756.765100	11253.932340
757.092515	11252.341856
757.419882	11268.075297
757.747203	11278.250866
758.074477	11349.671413
758.401703	11301.825822
758.728882	11457.673093
759.056014	11511.716783
759.383099	11621.276180
759.710138	11725.822149
760.037129	11803.836525
760.364073	11823.567601
760.690970	11810.942031
761.017820	11816.988895
761.344623	11992.267294
761.671379	12310.563227
761.998088	12948.352368
762.324751	14496.977185
762.651366	17345.776074
762.977935	21005.535299
763.304456	23213.117062
763.630931	23677.558566
763.957359	22495.407989
764.283740	20589.738409
764.610074	18715.767605
764.936362	16597.152125
765.262602	15080.062245
765.588796	13623.526705
765.914943	12591.957914
766.241044	11745.583472
766.567097	11118.448810
766.893104	10575.453526
767.219064	10212.631602
767.544978	9832.347120
767.870845	9519.699800
768.196665	9337.547788
768.522438	9138.883476
768.848165	8976.961615
769.173846	8809.554978
769.499479	8691.213891
769.825066	8533.415694
770.150607	8348.410389
770.476101	8293.429044
770.801548	8174.339346
771.126949	8037.439252
771.452303	7951.631252
771.777611	7785.300901
772.102872	7767.646780
772.428087	7652.665623
772.753256	7522.016559
773.078378	7434.328209
773.403453	7298.232178
773.728482	7195.599327
774.053465	7130.381920
774.378401	7047.500309
774.703291	6950.130423
775.028135	6861.983327
775.352932	6816.895247
775.677683	6739.238793
776.002388	6654.023128
776.327046	6650.953066
776.651658	6565.351753
776.976224	6487.264280
777.300743	6470.628472
777.625216	6402.288070
777.949643	6363.095619
778.274024	6367.988059
778.598359	6301.238141
778.922647	6301.883409
779.246889	6263.149703
779.571086	6271.099603
779.895236	6281.388598
780.219339	6272.735457
780.543397	6274.618328
780.867409	6321.987530
781.191374	6321.364948
781.515294	6286.565863
781.839167	6336.669891
782.162995	6309.188041
782.486776	6263.943685
782.810511	6220.642694
783.134201	6148.410521
783.457844	6134.330578
783.781441	6084.468526
784.104993	6044.179624
784.428498	6012.969841
784.751958	5995.164485
785.075372	5973.827802
785.398739	5936.384631
785.722061	5959.228620
786.045337	5956.841634
786.368568	6066.138890
786.691752	6089.640749
787.014891	6335.210477
787.337983	6614.495441
787.661030	7051.066926
787.984031	7476.240362
788.306987	7736.873057
788.629897	7824.697518
788.952760	7734.246616
789.275579	7558.869914
789.598351	7262.439986
789.921078	6998.336457
790.243759	6722.076185
790.566395	6517.344845
790.888984	6325.914589
791.211529	6184.487538
791.534027	6021.315471
791.856480	5888.949894
792.178888	5825.277601
792.501249	5765.214773
792.823566	5656.207383
793.145836	5649.825282
793.468062	5632.556810
793.790241	5592.204894
794.112375	5632.703003
794.434464	5730.985338
794.756507	5766.971615
795.078505	5885.169029
795.400457	6098.596359
795.722364	6335.943965
796.044226	6530.245157
796.366042	6689.510331
796.687812	6630.788450
797.009538	6667.241034
797.331218	6570.067752
797.652852	6503.141394
797.974442	6377.586416
798.295986	6307.940355
798.617484	6179.915212
798.938938	6072.384880
799.260346	6004.435167
799.581709	5868.462645
799.903026	5819.238298
800.224299	5739.792234
800.545526	5630.989011
800.866708	5565.040636
801.187845	5518.004150
801.508936	5436.586995
801.829983	5408.240587
802.150984	5300.576664
802.471940	5280.457419
802.792851	5262.442856
803.113717	5240.788580
803.434538	5217.508531
803.755314	5181.658366
804.076045	5169.156304
804.396731	5137.346623
804.717372	5149.715094
805.037967	5151.882790
805.358518	5176.738199
805.679024	5240.594495
805.999485	5251.173357
806.319901	5264.766828
806.640272	5286.612668
806.960598	5331.690666
807.280879	5324.751517
807.601115	5358.338205
807.921306	5319.508718
808.241453	5320.395961
808.561554	5327.985418
808.881611	5293.297238
809.201623	5292.513339
809.521590	5239.573662
809.841513	5224.785437
810.161390	5243.808231
810.481223	5153.627030
810.801011	5139.289988
811.120755	5119.919354
811.440453	5066.341971
811.760107	5030.383421
812.079716	5007.622611
812.399281	4954.350218
812.718801	4953.591524
813.038276	4920.614817
813.357707	4881.853385
813.677093	4901.506323
813.996434	4841.201520
814.315731	4861.986197
814.634983	4858.830435
814.954191	4868.718658
815.273354	4925.338378
815.592473	4967.815140
815.911547	5041.826840
816.230577	5097.120736
816.549562	5180.844219
816.868502	5232.095110
817.187399	5287.814983
817.506250	5367.477817
817.825058	5393.250716
818.143821	5546.587492
818.462539	5716.681064
818.781213	5944.137926
819.099843	6302.909283
819.418429	6932.062928
819.736970	7548.860703
820.055466	8263.477029
820.373919	9168.341459
820.692327	10618.999013
821.010691	13304.330926
821.329011	19502.570732
821.647286	29051.239523
821.965517	39363.968275
822.283704	44803.648018
822.601847	46289.074410
822.919945	41708.298898
823.237999	36606.454600
823.556010	31402.526938
823.873976	26711.869395
824.191897	22513.775433
824.509775	19450.495613
824.827609	16694.703493
825.145398	15143.752183
825.463144	14399.660231
825.780845	14688.097410
826.098502	15942.132320
826.416116	18396.375220
826.733685	20667.992240
827.051210	21203.791277
827.368692	19776.378483
827.686129	17209.763222
828.003522	14736.983999
828.320872	12533.039429
828.638177	10888.768799
828.955439	9645.927771
829.272656	8596.417514
829.589830	7754.254955
829.906960	7024.139603
830.224046	6494.977245
830.541088	6080.750675
830.858086	5823.944215
831.175041	5622.789574
831.491952	5569.446605
831.808819	5601.720072
832.125642	5847.418348
832.442421	6390.078395
832.759157	7495.948753
833.075849	9255.944110
833.392497	11100.724113
833.709101	12213.856253
834.025662	11961.362500
834.342179	10907.194217
834.658653	9610.135579
834.975083	8506.816045
835.291469	7603.680731
835.607811	6873.736778
835.924110	6352.796542
836.240366	5872.989601
836.556578	5417.571763
836.872746	5072.847580
837.188871	4795.488337
837.504952	4573.775870
837.820990	4408.350407
838.136984	4296.033499
838.452935	4245.851333
838.768842	4273.502062
839.084706	4553.523035
839.400526	5290.572494
839.716303	6194.897521
840.032037	6761.850888
840.347727	6610.883454
840.663373	6015.445047
840.978977	5435.878713
841.294537	4999.660109
841.610054	4666.762473
841.925527	4431.038120
842.240957	4227.970360
842.556344	4045.389850
842.871687	3887.596694
843.186987	3734.902664
843.502244	3614.832462
843.817458	3529.261396
844.132629	3459.537197
844.447756	3412.147831
844.762840	3367.150491
845.077881	3330.561797
845.392879	3293.852114
845.707833	3270.440996
846.022745	3242.654156
846.337613	3229.637897
846.652438	3206.425904
846.967221	3198.183617
847.281960	3178.898683
847.596656	3168.261849
847.911309	3157.453615
848.225919	3145.478354
848.540485	3136.638691
848.855009	3129.263482
849.169490	3113.991307
849.483928	3109.640791
849.798323	3103.152826
850.112675	3091.883327
850.426984	3095.765015
850.741251	3086.537183
851.055474	3082.143817
851.369654	3086.365784
851.683792	3082.446287
851.997887	3083.661205
852.311938	3086.118767
852.625947	3083.915783
852.939914	3080.815473
853.253837	3085.120619
853.567718	3080.883529
853.881555	3075.721388
854.195350	3081.642223
854.509103	3079.522418
854.822812	3075.111408
855.136479	3070.932291
855.450103	3076.117118
855.763685	3066.992630
856.077224	3073.203331
856.390720	3076.845565
856.704173	3092.649582
857.017584	3097.262238
857.330953	3102.963783
857.644278	3108.330091
857.957561	3112.428549
858.270802	3113.439301
858.584000	3107.813373
858.897155	3102.401694
859.210268	3091.497678
859.523339	3078.055442
859.836367	3077.707602
860.149352	3071.872467
860.462295	3068.472208
860.775195	3056.655744
861.088054	3053.936041
861.400869	3056.476783
861.713642	3055.166083
862.026373	3062.498441
862.339062	3064.751837
862.651708	3074.476223
862.964312	3090.854931
863.276873	3098.371292
863.589392	3128.930766
863.901869	3154.983449
864.214303	3175.624454
864.526696	3197.006508
864.839045	3213.339846
865.151353	3227.215622
865.463619	3225.453739
865.775842	3225.904922
866.088023	3231.382136
866.400162	3224.720251
866.712258	3226.235118
867.024313	3224.886609
867.336325	3222.265209
867.648296	3227.155128
867.960224	3226.802248
868.272110	3227.011456
868.583954	3227.757546
868.895755	3232.415572
869.207515	3230.787280
869.519233	3250.694796
869.830909	3255.330137
870.142542	3269.339504
870.454134	3274.204217
870.765684	3285.143521
871.077191	3305.673620
871.388657	3317.134683
871.700081	3332.197651
872.011463	3354.040971
872.322803	3372.047972
872.634101	3390.828791
872.945357	3412.767893
873.256571	3440.584979
873.567744	3452.340950
873.878874	3459.111220
874.189963	3477.266935
874.501010	3475.409270
874.812015	3473.143272
875.122979	3490.310921
875.433900	3486.338492
875.744780	3491.309069
876.055618	3499.392560
876.366415	3497.668485
876.677169	3506.311543
876.987882	3519.489119
877.298554	3539.144578
877.609183	3576.370979
877.919771	3624.854276
878.230317	3692.347764
878.540822	3793.347282
878.851285	3947.694809
879.161707	4168.096576
879.472087	4541.431827
879.782425	5162.794368
880.092722	6346.588361
880.402977	8280.407744
880.713191	10650.143262
881.023363	13026.908668
881.333494	14369.703174
881.643583	14821.670343
881.953631	14417.021965
882.263637	13571.703644
882.573602	12538.526725
882.883526	11583.807804
883.193408	10632.153904
883.503248	9717.590294
883.813048	8882.802943
884.122806	8121.286243
884.432522	7354.214192
884.742197	6699.436363
885.051831	6135.202698
885.361424	5642.417307
885.670975	5247.518520
885.980485	4922.480043
886.289954	4654.792254
886.599382	4436.573307
886.908768	4260.231224
887.218113	4094.886419
887.527417	3967.849342
887.836680	3840.991227
888.145901	3743.611258
888.455082	3668.687109
888.764221	3599.550204
889.073319	3537.906975
889.382376	3507.675175
889.691392	3481.864468
890.000366	3476.014209
890.309300	3470.680668
890.618193	3474.564877
890.927044	3466.756130
891.235855	3474.481698
891.544625	3489.448884
891.853353	3515.645240
892.162041	3579.438521
892.470687	3668.956810
892.779293	3789.311838
893.087858	3958.316521
893.396381	4235.824478
893.704864	4650.804701
894.013306	5216.026432
894.321707	5786.511127
894.630068	6142.063708
894.938387	6185.432755
895.246665	6002.885012
895.554903	5691.351787
895.863100	5351.779664
896.171256	5079.766564
896.479371	4841.463660
896.787446	4620.577942
897.095480	4422.500926
897.403473	4275.326960
897.711425	4126.968322
898.019336	4006.976258
898.327207	3887.896642
898.635038	3786.118267
898.942827	3676.649611
899.250576	3593.039554
899.558284	3507.536544
899.865952	3453.850776
900.173579	3393.513205
900.481165	3347.568129
900.788711	3300.264462
901.096216	3268.394287
901.403681	3243.896800
901.711105	3231.382136
902.018489	3226.194789
902.325832	3258.483379
902.633135	3321.190292
902.940397	3486.923266
903.247619	3895.425606
903.554800	4644.079802
903.861941	5612.185507
904.169041	6305.692000
904.476101	6517.143198
904.783121	6247.635552
905.090100	5838.934086
905.397039	5427.868319
905.703938	5069.142332
906.010796	4750.899331
906.317614	4499.086135
906.624391	4256.846090
906.931129	4068.501020
907.237826	3881.897669
907.544483	3714.183522
907.851099	3542.108777
908.157675	3379.377810
908.464211	3245.131883
908.770707	3143.431645
909.077163	3060.618091
909.383578	3001.286230
909.689954	2959.726958
909.996289	2927.743358
910.302584	2909.607807
910.608839	2891.578120
910.915054	2882.738457
911.221229	2878.390461
911.527363	2883.482027
911.833458	2890.716082
912.139513	2902.446848
912.445527	2916.204156
912.751502	2948.391924
913.057436	2994.531084
913.363331	3048.305072
913.669186	3135.302785
913.975000	3252.905342
914.280775	3437.651028
914.586510	3707.859395
914.892205	4080.433431
915.197859	4580.117642
915.503475	5164.397455
915.809050	5656.938350
916.114585	5944.725220
916.420081	6009.201578
916.725536	5947.150015
917.030952	5708.915167
917.336328	5501.872458
917.641665	5288.908914
917.946961	5066.830963
918.252218	4864.133729
918.557435	4637.087721
918.862612	4439.683698
919.167750	4267.125002
919.472848	4073.590065
919.777906	3908.086464
920.082925	3750.913369
920.387904	3598.899895
920.692843	3484.833707
920.997743	3389.381980
921.302603	3295.535860
921.607423	3228.856518
921.912204	3162.774553
922.216946	3114.291256
922.521647	3068.842733
922.826310	3027.023841
923.130932	2987.833911
923.435516	2950.267233
923.740059	2923.123140
924.044564	2891.724313
924.349028	2865.283461
924.653454	2836.745489
924.957840	2811.585091
925.262186	2793.575568
925.566493	2771.603699
925.870761	2746.521438
926.174989	2735.433421
926.479178	2721.464383
926.783328	2704.430324
927.087438	2696.372040
927.391509	2678.634740
927.695541	2669.255673
927.999533	2660.068171
928.303486	2651.462921
928.607400	2644.874133
928.911275	2637.632515
929.215110	2632.523306
929.518906	2630.123717
929.822663	2628.744961
930.126381	2627.013325
930.430060	2631.313429
930.733699	2633.433234
931.037299	2636.347021
931.340861	2636.848616
931.644383	2640.173257
931.947866	2636.662093
932.251309	2634.451547
932.554714	2636.102525
932.858080	2634.852319
933.161407	2628.215640
933.464694	2624.023921
933.767943	2622.335134
934.071153	2621.258848
934.374323	2613.513115
934.677455	2613.447580
934.980548	2609.356683
935.283602	2607.146137
935.586617	2605.003647
935.889593	2609.008844
936.192530	2609.810387
936.495428	2614.075203
936.798287	2623.658437
937.101108	2636.911630
937.403890	2659.591782
937.706632	2686.519105
938.009336	2721.603015
938.312002	2747.141500
938.614628	2771.543206
938.917216	2789.988787
939.219765	2800.086219
939.522275	2810.675162
939.824747	2810.629792
940.127179	2803.758699
940.429573	2797.306022
940.731929	2797.053965
941.034246	2787.248920
941.336524	2786.724640
941.638763	2777.459000
941.940964	2771.505397
942.243126	2759.648603
942.545250	2747.746439
942.847335	2732.474263
943.149381	2718.848024
943.451389	2705.819162
943.753359	2692.117306
944.055290	2685.175637
944.357182	2674.213648
944.659036	2668.393636
944.960851	2667.753410
945.262628	2662.319046
945.564367	2665.452123
945.866067	2663.627225
946.167729	2660.612615
946.469352	2659.070022
946.770937	2659.438026
947.072484	2651.601553
947.373992	2651.616676
947.675462	2645.572333
947.976893	2638.418935
948.278286	2637.158647
948.579641	2634.396095
948.880958	2631.724283
949.182236	2634.007926
949.483476	2629.599437
949.784678	2627.719086
950.085841	2628.497945
950.386967	2634.806949
950.688054	2638.108904
950.989103	2647.334216
951.290114	2655.518529
951.591087	2666.115035
951.892021	2677.344205
952.192917	2689.967254
952.493776	2700.614171
952.794596	2703.845551
953.095378	2703.596013
953.396122	2704.831096
953.696828	2700.689788
953.997496	2697.216433
954.298126	2685.939372
954.598718	2681.445183
954.899272	2667.879438
955.199788	2656.582213
955.500266	2644.186015
955.800706	2628.629015
956.101108	2610.881633
956.401472	2602.543564
956.701798	2585.411203
957.002087	2571.235478
957.302337	2565.977555
957.602550	2550.423074
957.902724	2543.441076
958.202861	2532.879859
958.502960	2526.026410
958.803022	2518.905781
959.103045	2511.177692
959.403031	2507.535458
959.702979	2497.722852
960.002889	2496.034066
960.302762	2490.183807
960.602596	2487.207005
960.902393	2483.935296
961.202153	2481.172744
961.501875	2476.408854
961.801559	2475.133442
962.101205	2469.706640
962.400814	2471.728142
962.700385	2470.036835
962.999918	2467.420476
963.299414	2464.201700
963.598873	2465.368727
963.898293	2464.083233
964.197677	2458.971502
964.497022	2460.367902
964.796331	2462.228088
965.095601	2457.262551
965.394835	2455.339351
965.694030	2456.760957
965.993189	2458.238015
966.292309	2455.001594
966.591393	2456.589557
966.890439	2454.189968
967.189447	2453.655606
967.488419	2455.556121
967.787353	2460.050309
968.086249	2454.114351
968.385108	2459.342027
968.683930	2456.385391
968.982714	2459.339507
969.281462	2458.308591
969.580172	2462.757409
969.878844	2464.852008
970.177480	2465.542647
970.476078	2470.775364
970.774639	2472.028091
971.073162	2479.289873
971.371649	2473.870633
971.670098	2476.557568
971.968510	2476.509677
972.266885	2477.139821
972.565223	2485.462766
972.863524	2482.707775
973.161788	2483.080821
973.460014	2482.899339
973.758204	2485.087200
974.056356	2484.789772
974.354471	2487.872438
974.652550	2487.622900
974.950591	2487.426295
975.248595	2484.431850
975.546563	2486.370174
975.844493	2482.259113
976.142386	2485.172900
976.440243	2478.269039
976.738062	2478.785758
977.035845	2474.765438
977.333590	2473.666466
977.631299	2471.980200
977.928971	2470.916517
978.226606	2467.405353
978.524204	2465.731690
978.821765	2463.790846
979.119290	2463.407718
979.416777	2464.289920
979.714228	2463.362347
980.011642	2466.729838
980.309020	2471.949953
980.606360	2472.897690
980.903664	2482.659884
981.200931	2497.836278
981.498162	2511.724657
981.795356	2544.913093
982.092513	2580.029771
982.389633	2626.123561
982.686717	2666.074705
982.983764	2700.717515
983.280775	2716.098075
983.577749	2719.896584
983.874686	2708.390151
984.171587	2693.342307
984.468451	2676.320851
984.765279	2659.032213
985.062070	2639.984214
985.358824	2621.634414
985.655543	2600.252360
985.952224	2576.367373
986.248869	2551.141439
986.545478	2522.326203
986.842050	2506.257526
987.138586	2486.259268
987.435086	2473.729480
987.731549	2460.355299
988.027975	2458.273303
988.324366	2449.894905
988.620719	2445.471293
988.917037	2441.032557
989.213318	2439.709254
989.509563	2434.768923
989.805772	2437.085333
990.101944	2433.543923
990.398080	2435.245312
990.694180	2434.201793
990.990244	2435.527617
991.286271	2433.611978
991.582262	2433.523758
991.878217	2432.432348
992.174136	2432.694488
992.470019	2436.256063
992.765865	2437.743204
993.061676	2438.275045
993.357450	2442.219748
993.653188	2447.865841
993.948890	2452.904474
994.244556	2452.402879
994.540186	2466.634056
994.835780	2476.834831
995.131337	2491.844867
995.426859	2507.303565
995.722345	2529.613191
996.017795	2545.767569
996.313208	2558.778787
996.608586	2570.247412
996.903928	2571.409398
997.199234	2573.055335
997.494504	2568.878739
997.789738	2560.205433
998.084936	2551.093548
998.380099	2539.430838
998.675225	2527.770650
998.970316	2513.463855
999.265371	2501.171001
999.560390	2490.456029
999.855373	2479.693165
1000.150320	2469.368882
1000.445232	2459.110134
1000.740108	2452.975050
1001.034948	2445.025150
1001.329752	2442.055911
1001.624521	2435.961156
1001.919254	2431.255239
1002.213951	2429.289189
1002.508613	2424.560586
1002.803239	2427.733993
1003.097829	2420.235276
1003.392384	2420.159659
1003.686903	2421.392221
1003.981386	2420.179824
1004.275834	2420.688980
1004.570246	2420.300811
1004.864623	2417.397107
1005.158964	2422.692839
1005.453270	2415.516756
1005.747540	2416.777045
1006.041775	2418.901891
1006.335974	2416.320820
1006.630138	2412.698751
1006.924266	2413.618762
1007.218359	2414.601787
1007.512416	2415.741088
1007.806438	2412.847465
1008.100425	2413.840573
1008.394376	2413.822929
1008.688292	2411.584656
1008.982172	2412.789492
1009.276017	2413.142373
1009.569827	2415.317631
1009.863602	2412.338309
1010.157341	2411.138514
1010.451045	2409.041394
1010.744714	2409.984090
1011.038347	2410.389903
1011.331945	2411.365366
1011.625508	2410.838566
1011.919036	2408.174316
1012.212528	2411.773700
1012.505986	2406.636764
1012.799408	2411.085582
1013.092795	2407.886970
1013.386147	2408.582649
1013.679464	2410.286559
1013.972745	2408.378483
1014.265992	2410.342012
1014.559204	2406.203225
1014.852380	2408.252454
1015.145521	2408.091137
1015.438628	2409.618606
1015.731699	2408.935530
1016.024736	2409.618606
1016.317737	2408.040725
1016.610703	2411.458627
1016.903635	2407.130797
1017.196531	2404.988307
1017.489393	2407.430746
1017.782219	2406.641805
1018.075011	2407.642474
1018.367768	2410.954512
1018.660490	2413.699420
1018.953177	2413.699420
1019.245829	2413.699420
