Dividing Wavelength (nm)	Counts (n)	Blue Motor Position (mm): 8.000000	Red Motor Position (mm): 0.000000	
326.493990	1978.884778
326.888308	1978.884778
327.282561	1978.884778
327.676750	1951.589450
328.070874	1955.861828
328.464933	1958.773094
328.858929	1969.472943
329.252859	1982.365694
329.646726	1997.809269
330.040528	2011.191012
330.434265	2030.934691
330.827938	2049.982691
331.221547	2070.021278
331.615091	2090.185893
332.008571	2109.370004
332.401986	2133.106277
332.795338	2147.788637
333.188625	2171.996258
333.581847	2189.665502
333.975006	2208.587473
334.368100	2227.448950
334.761129	2242.947978
335.154095	2257.400966
335.546996	2280.421395
335.939833	2307.820066
336.332606	2322.522591
336.725315	2334.162616
337.117960	2341.696620
337.510540	2347.859431
337.903056	2357.372088
338.295508	2363.754189
338.687896	2370.247195
339.080220	2376.473020
339.472480	2381.483927
339.864676	2384.904350
340.256807	2387.845863
340.648875	2390.366440
341.040879	2393.907850
341.432818	2393.491955
341.824694	2393.065978
342.216506	2393.471791
342.608253	2396.632594
342.999937	2390.096738
343.391557	2392.710576
343.783113	2389.012890
344.174605	2389.058260
344.566033	2386.414175
344.957397	2387.944165
345.348697	2385.673126
345.739934	2382.444267
346.131106	2380.382435
346.522215	2380.790768
346.913260	2377.148534
347.304241	2374.181815
347.695159	2374.438914
348.086012	2374.257433
348.476802	2368.170239
348.867528	2370.501773
349.258191	2368.288707
349.648789	2365.722759
350.039324	2364.850640
350.429796	2364.802749
350.820203	2363.108921
351.210548	2365.621936
351.600828	2362.259487
351.991045	2361.468025
352.381198	2361.904085
352.771288	2363.857532
353.161314	2364.835516
353.551276	2361.730165
353.941175	2360.981554
354.331010	2360.754702
354.720782	2361.876359
355.110490	2364.026411
355.500135	2364.112111
355.889717	2361.286544
356.279235	2363.580269
356.668689	2363.955835
357.058080	2363.915506
357.447408	2363.328211
357.836672	2359.728827
358.225873	2362.846781
358.615010	2361.498272
359.004084	2364.530526
359.393095	2364.102028
359.782043	2366.448685
360.170927	2366.562111
360.559748	2366.516741
360.948505	2369.485981
361.337199	2369.856505
361.725830	2369.029756
362.114398	2369.289376
362.502903	2370.882380
362.891344	2371.850282
363.279722	2369.105373
363.668037	2371.257946
364.056289	2373.274408
364.444478	2371.651156
364.832603	2371.814994
365.220665	2373.677700
365.608665	2373.090406
365.996601	2371.671321
366.384474	2369.853985
366.772284	2371.696527
367.160031	2370.683255
367.547715	2373.589480
367.935336	2372.185518
368.322893	2374.227186
368.710388	2373.375231
369.097820	2376.430170
369.485189	2375.227855
369.872495	2374.673328
370.259738	2374.804398
370.646918	2375.563092
371.034035	2377.007382
371.421090	2377.365304
371.808081	2373.639891
372.195010	2377.713144
372.581875	2376.916641
372.968678	2376.465458
373.355418	2376.861189
373.742096	2378.814636
374.128710	2379.250696
374.515262	2380.359749
374.901751	2378.756663
375.288177	2379.659029
375.674540	2379.414533
376.060841	2379.570809
376.447079	2378.633154
376.833254	2379.117105
377.219367	2376.538555
377.605417	2378.507125
377.991404	2375.696682
378.377329	2379.527959
378.763191	2375.263143
379.148991	2382.396376
379.534727	2379.938813
379.920402	2381.098278
380.306013	2379.064173
380.691563	2380.432846
381.077049	2381.163813
381.462474	2382.779503
381.847835	2381.778834
382.233134	2382.719009
382.618371	2383.636499
383.003545	2382.373690
383.388657	2383.132384
383.773706	2384.848897
384.158693	2383.777652
384.543618	2385.269833
384.928480	2382.471993
385.313280	2384.133053
385.698017	2383.076931
386.082692	2385.852087
386.467305	2386.182282
386.851856	2384.430481
387.236344	2383.404606
387.620770	2387.041799
388.005133	2387.407283
388.389435	2386.998949
388.773674	2384.415358
389.157851	2388.357540
389.541965	2388.271840
389.926018	2385.816798
390.310008	2386.557848
390.693936	2386.998949
391.077802	2384.788403
391.461606	2390.016080
391.845348	2386.754453
392.229027	2389.746378
392.612645	2385.713455
392.996200	2387.918960
393.379694	2388.455843
393.763125	2388.365102
394.146494	2387.132540
394.529801	2389.695966
394.913047	2388.602036
395.296230	2389.292674
395.679351	2387.371994
396.062410	2390.240411
396.445408	2390.084135
396.828343	2390.726882
397.211217	2385.020296
397.594028	2388.934752
397.976778	2387.654299
398.359466	2390.459701
398.742092	2389.637993
399.124656	2391.949362
399.507158	2391.800648
399.889598	2391.750237
400.271977	2390.437016
400.654294	2393.401214
401.036549	2392.271996
401.418742	2390.273178
401.800874	2393.388612
402.182944	2391.876265
402.564952	2395.808365
402.946898	2391.251162
403.328783	2391.846018
403.710606	2393.910371
404.092367	2395.495814
404.474067	2394.104455
404.855705	2394.139743
405.237282	2394.782491
405.618797	2394.812738
406.000250	2393.489435
406.381642	2395.946997
406.762972	2395.253838
407.144240	2394.873231
407.525447	2393.822151
407.906593	2393.968344
408.287677	2394.401883
408.668700	2394.411966
409.049661	2398.245763
409.430560	2395.271482
409.811399	2399.138048
410.192176	2397.348438
410.572891	2396.304919
410.953545	2397.683675
411.334138	2397.613098
411.714669	2395.289127
412.095139	2396.995557
412.475547	2397.829868
412.855894	2397.411452
413.236180	2393.335679
413.616405	2396.441030
413.996568	2398.346586
414.376670	2397.940773
414.756711	2396.589744
415.136691	2399.354817
415.516609	2397.847512
415.896466	2398.790208
416.276262	2400.113511
416.655997	2395.286606
417.035670	2393.267624
417.415283	2400.766340
417.794834	2393.668396
418.174324	2397.882800
418.553753	2400.970507
418.933121	2399.937070
419.312428	2399.107801
419.691674	2401.204921
420.070859	2398.452451
420.449983	2399.153171
420.829045	2398.026473
421.208047	2402.785322
421.586988	2398.969169
421.965867	2403.579304
422.344686	2403.039901
422.723444	2400.796587
423.102141	2398.875908
423.480777	2402.039232
423.859352	2400.211813
424.237866	2399.248953
424.616319	2401.552760
424.994712	2402.659293
425.373044	2403.221382
425.751314	2400.973028
426.129524	2403.153327
426.507673	2402.107287
426.885762	2402.364386
427.263789	2403.266753
427.641756	2399.453120
428.019662	2402.470250
428.397508	2400.695764
428.775292	2402.008985
429.153016	2402.445044
429.530679	2402.445044
429.908282	2401.058727
430.285824	2401.850188
430.663305	2402.994530
431.040726	2402.737431
431.418086	2402.961763
431.795385	2406.402350
432.172624	2403.828841
432.549802	2402.936557
432.926920	2402.429921
433.303977	2405.908317
433.680974	2401.751886
434.057910	2403.874212
434.434786	2403.758265
434.811601	2405.447052
435.188355	2403.329767
435.565050	2404.552247
435.941683	2402.036711
436.318257	2400.264745
436.694770	2399.095198
437.071222	2406.747669
437.447614	2400.199210
437.823946	2400.184087
438.200218	2403.922103
438.576429	2403.012174
438.952580	2402.815569
439.328670	2403.954870
439.704700	2403.226423
440.080670	2404.176681
440.456580	2405.837741
440.832429	2403.022257
441.208218	2406.062072
441.583947	2405.510066
441.959616	2403.531413
442.335224	2403.675086
442.710773	2404.769016
443.086261	2403.233985
443.461689	2404.398492
443.837057	2404.975704
444.212365	2402.505538
444.587612	2403.097874
444.962800	2405.263049
445.337927	2407.506363
445.712995	2405.315982
446.088002	2407.347567
446.462949	2406.205745
446.837837	2407.397978
447.212664	2404.756413
447.587431	2404.950498
447.962139	2403.826321
448.336786	2408.335633
448.711374	2408.328071
449.085901	2407.506363
449.460369	2405.562998
449.834776	2409.182547
450.209124	2407.569377
450.583412	2406.941754
450.957640	2408.895201
451.331808	2409.515263
451.705917	2408.181878
452.079965	2406.344377
452.453954	2409.381672
452.827883	2407.846641
453.201752	2410.992321
453.575562	2407.922258
453.949311	2409.873185
454.323001	2408.388565
454.696632	2406.596435
455.070202	2412.504667
455.443713	2407.725653
455.817164	2406.863616
456.190556	2407.208935
456.563888	2406.858575
456.937160	2403.637277
457.310373	2408.567526
457.683526	2406.465365
458.056619	2414.468196
458.429653	2408.766651
458.802628	2412.088772
459.175542	2410.548699
459.548398	2409.222876
459.921194	2408.930489
460.293930	2413.502815
460.666607	2411.942578
461.039224	2412.260171
461.411782	2412.262692
461.784280	2411.851838
462.156719	2412.625655
462.529099	2412.154307
462.901419	2412.287897
463.273680	2411.506518
463.645882	2412.466858
464.018024	2411.738412
464.390106	2410.692372
464.762130	2417.505492
465.134094	2415.630182
465.505999	2415.184040
465.877845	2419.390883
466.249631	2419.368198
466.621358	2418.385173
466.993026	2420.406676
467.364634	2419.035482
467.736184	2417.724782
468.107674	2418.914494
468.479105	2414.863927
468.850477	2416.656057
469.221790	2418.692683
469.593043	2415.494071
469.964238	2416.885430
470.335373	2413.712023
470.706449	2416.973650
471.077467	2415.869637
471.448425	2419.058167
471.819324	2421.094793
472.190164	2419.138825
472.560945	2415.567168
472.931667	2418.198650
473.302330	2416.774524
473.672934	2417.117323
474.043479	2417.258475
474.413965	2417.190419
474.784393	2413.795202
475.154761	2418.274268
475.525070	2413.502815
475.895321	2416.214956
476.265513	2414.102713
476.635645	2419.539597
477.005719	2418.720410
477.375734	2418.301994
477.745691	2420.081521
478.115588	2421.137643
478.485427	2420.383990
478.855207	2421.203178
479.224928	2421.712334
479.594591	2422.745771
479.964194	2420.658733
480.333739	2421.440112
480.703226	2420.986408
481.072653	2423.718714
481.442022	2421.321645
481.811333	2425.951945
482.180584	2423.174269
482.549777	2423.769125
482.918912	2424.205185
483.287988	2423.219639
483.657005	2421.258631
484.025964	2421.034299
484.394864	2424.500092
484.763706	2423.254927
485.132489	2422.380287
485.501213	2424.245514
485.869879	2422.241656
486.238487	2425.251224
486.607036	2422.037489
486.975527	2421.954310
487.343959	2419.758887
487.712333	2421.828281
488.080648	2422.995308
488.448905	2423.776687
488.817104	2420.343661
489.185244	2423.343148
489.553326	2424.439599
489.921350	2424.467325
490.289315	2424.759712
490.657222	2429.576534
491.025070	2427.277768
491.392861	2427.144178
491.760593	2427.774322
492.128267	2426.398087
492.495883	2422.617222
492.863440	2425.742737
493.230939	2420.389032
493.598380	2424.807603
493.965763	2419.239648
494.333088	2424.520257
494.700354	2421.336768
495.067563	2420.605801
495.434713	2419.771490
495.801805	2425.231060
496.168839	2424.590833
496.535815	2423.756522
496.902733	2423.748961
497.269593	2424.633683
497.636395	2423.658220
498.003139	2422.713003
498.369825	2422.561769
498.736453	2420.867941
499.103023	2424.177459
499.469535	2423.393559
499.835989	2423.764084
500.202385	2421.863569
500.568723	2423.050761
500.935003	2426.156112
501.301226	2420.983888
501.667390	2424.036306
502.033497	2423.403642
502.399546	2422.362643
502.765537	2424.490010
503.131470	2423.811975
503.497345	2423.857345
503.863163	2425.397418
504.228923	2423.426327
504.594625	2423.380956
504.960269	2424.003539
505.325856	2425.614187
505.691385	2423.985895
506.056856	2427.610484
506.422270	2425.243663
506.787625	2426.375402
507.152924	2424.772315
507.518164	2427.749116
507.883347	2424.232911
508.248472	2424.492531
508.613540	2426.483787
508.978550	2429.188366
509.343503	2429.480753
509.708398	2431.431679
510.073236	2431.061154
510.438016	2430.156267
510.802738	2429.478232
511.167403	2432.381937
511.532010	2430.252049
511.896561	2432.714653
512.261053	2434.446289
512.625488	2431.592996
512.989866	2431.532502
513.354186	2435.134407
513.718449	2432.114755
514.082655	2435.938471
514.446803	2438.590118
514.810894	2434.705908
515.174927	2440.911569
515.538904	2438.537185
515.902822	2441.960129
516.266684	2445.798968
516.630488	2445.766200
516.994235	2444.944492
517.357925	2441.448452
517.721558	2447.926334
518.085133	2447.008844
518.448651	2451.508074
518.812112	2450.809874
519.175516	2453.489248
519.538863	2452.440688
519.902152	2455.253652
520.265385	2456.148456
520.628560	2460.083077
520.991678	2457.968313
521.354739	2459.455453
521.717743	2462.026442
522.080690	2459.200875
522.443580	2464.491566
522.806413	2466.661783
523.169189	2468.146403
523.531908	2469.537761
523.894569	2469.928450
524.257174	2475.536734
524.619722	2474.062197
524.982213	2473.951291
525.344647	2478.468165
525.707025	2479.998155
526.069345	2480.587970
526.431608	2481.969246
526.793815	2483.504278
527.155964	2484.096613
527.518057	2485.319093
527.880093	2487.721203
528.242072	2489.929228
528.603995	2492.013745
528.965860	2491.033241
529.327669	2495.824858
529.689421	2497.254025
530.051117	2498.005157
530.412755	2496.434837
530.774337	2500.097236
531.135862	2502.022956
531.497331	2499.651093
531.858743	2500.447596
532.220098	2504.460354
532.581396	2502.542195
532.942638	2506.396157
533.303824	2508.515963
533.664953	2511.283556
534.026025	2513.360511
534.387040	2514.015861
534.747999	2513.703310
535.108902	2517.128774
535.469748	2520.140863
535.830537	2520.801254
536.191270	2519.482993
536.551947	2521.640607
536.912567	2524.025072
537.273131	2524.924918
537.633638	2524.743437
537.994089	2526.863242
538.354483	2526.873324
538.714821	2532.156453
539.075103	2533.366330
539.435328	2533.129396
539.795497	2533.600744
540.155609	2536.499407
540.515665	2536.191897
540.875665	2536.627957
541.235609	2538.873791
541.595496	2542.999975
541.955328	2540.915458
542.315102	2542.652136
542.674821	2542.042156
543.034483	2543.214224
543.394090	2544.693803
543.753640	2543.322609
544.113134	2549.417364
544.472571	2546.606921
544.831953	2552.031202
545.191278	2550.549103
545.550548	2550.922149
545.909761	2554.312325
546.268918	2552.847869
546.628019	2555.837274
546.987064	2557.079918
547.346053	2553.571275
547.704986	2558.186451
548.063863	2555.968344
548.422684	2558.075546
548.781449	2553.609084
549.140158	2559.862635
549.498811	2559.698797
549.857408	2557.611760
550.215949	2557.581513
550.574434	2558.970351
550.932864	2557.442881
551.291237	2561.637121
551.649555	2564.223233
552.007817	2563.041082
552.366022	2562.990671
552.724173	2563.363716
553.082267	2565.788511
553.440305	2565.498645
553.798288	2563.903120
554.156215	2564.545867
554.514086	2565.407904
554.871902	2565.614592
555.229661	2567.139541
555.587365	2563.245249
555.945014	2566.751372
556.302606	2566.862277
556.660143	2564.868501
557.017625	2570.965776
557.375050	2564.147616
557.732421	2567.777247
558.089735	2564.926474
558.446994	2565.077709
558.804197	2565.793553
559.161345	2564.744992
559.518437	2563.341031
559.875474	2563.217523
560.232455	2564.719787
560.589381	2563.419169
560.946251	2566.995868
561.303065	2568.460323
561.659825	2565.488563
562.016528	2562.930177
562.373177	2561.924467
562.729770	2562.294992
563.086307	2559.603016
563.442789	2562.610064
563.799216	2559.235011
564.155587	2560.013870
564.511904	2561.889179
564.868164	2557.160577
565.224370	2559.996226
565.580520	2560.644014
565.936615	2559.736606
566.292654	2555.852397
566.648638	2557.425237
567.004567	2554.085473
567.360441	2559.502192
567.716260	2555.451625
568.072023	2552.684032
568.427732	2550.407951
568.783385	2553.694783
569.138982	2548.489792
569.494525	2547.000131
569.850013	2547.539534
570.205445	2548.492313
570.560823	2547.983156
570.916145	2545.112219
571.271412	2547.053063
571.626625	2547.431150
571.981782	2546.294369
572.336884	2542.294214
572.691931	2545.936447
573.046923	2543.143648
573.401860	2541.023843
573.756743	2541.059131
574.111570	2539.219110
574.466342	2542.760521
574.821059	2538.568801
575.175722	2538.049562
575.530330	2535.037473
575.884882	2535.332380
576.239380	2533.275590
576.593823	2533.182328
576.948211	2534.697195
577.302544	2533.431865
577.656823	2533.673841
578.011047	2533.978831
578.365216	2530.235774
578.719330	2530.293747
579.073389	2528.715866
579.427394	2531.523789
579.781344	2529.512368
580.135239	2528.047913
580.489080	2528.176463
580.842866	2526.490197
581.196597	2526.701925
581.550273	2531.337266
581.903895	2529.361134
582.257463	2531.483459
582.610975	2528.486493
582.964434	2531.254087
583.317837	2531.037317
583.671186	2531.410363
584.024481	2533.487318
584.377721	2529.918181
584.730906	2531.092770
585.084037	2533.310878
585.437113	2532.022863
585.790135	2531.065044
586.143103	2528.819210
586.496016	2533.000847
586.848874	2527.952131
587.201679	2532.108563
587.554428	2530.628984
587.907124	2531.725435
588.259765	2530.593696
588.612352	2540.970911
588.964884	2537.147196
589.317362	2541.593493
589.669786	2539.917310
590.022155	2539.982845
590.374470	2543.592311
590.726731	2542.624409
591.078937	2544.061138
591.431090	2542.803370
591.783188	2542.758000
592.135232	2545.318906
592.487222	2548.494833
592.839157	2550.208825
593.191038	2549.198074
593.542866	2551.118754
593.894639	2550.133208
594.246358	2553.767880
594.598022	2558.317521
594.949633	2555.323076
595.301190	2559.451781
595.652692	2561.906823
596.004141	2561.039744
596.355535	2560.868345
596.706876	2559.330793
597.058162	2562.998233
597.409395	2565.034859
597.760573	2568.979562
598.111698	2569.110632
598.462768	2570.620457
598.813785	2571.235478
599.164748	2572.246229
599.515657	2577.544482
599.866511	2581.032961
600.217312	2582.250399
600.568060	2581.050605
600.918753	2588.992943
601.269392	2589.935638
601.619978	2591.178283
601.970510	2597.331011
602.320988	2601.048862
602.671412	2605.835437
603.021783	2604.580190
603.372100	2608.908021
603.722363	2612.245265
604.072572	2616.217694
604.422728	2619.020575
604.772830	2618.418158
605.122878	2621.256327
605.472872	2626.511730
605.822813	2628.923922
606.172701	2638.449182
606.522534	2643.326499
606.872314	2646.010913
607.222041	2652.077942
607.571714	2658.303767
607.921333	2657.855104
608.270899	2667.009839
608.620411	2670.384892
608.969870	2673.598627
609.319276	2678.803619
609.668627	2686.511543
610.017926	2695.900692
610.367171	2701.526620
610.716362	2707.291179
611.065500	2714.157231
611.414585	2724.973026
611.763616	2732.423852
612.112594	2737.996847
612.461518	2746.019844
612.810389	2755.789600
613.159207	2761.851587
613.507971	2770.492125
613.856682	2783.263888
614.205340	2790.079528
614.553945	2804.764409
614.902496	2809.230872
615.250994	2818.685556
615.599439	2832.253821
615.947830	2844.581963
616.296169	2855.422964
616.644454	2871.204297
616.992686	2885.311966
617.340864	2904.148237
617.688990	2914.785072
618.037063	2936.530089
618.385082	2946.362859
618.733048	2968.556539
619.080961	2982.699496
619.428821	2993.485045
619.776628	3009.483147
620.124382	3013.137983
620.472083	3025.146012
620.819731	3035.687064
621.167326	3040.498846
621.514868	3047.085113
621.862357	3047.339691
622.209793	3054.699776
622.557176	3056.743964
622.904506	3059.740930
623.251783	3057.893347
623.599007	3064.252762
623.946179	3067.469019
624.293297	3077.329516
624.640363	3079.744228
624.987376	3090.441557
625.334336	3095.928853
625.681243	3104.634925
626.028097	3114.717233
626.374899	3127.131074
626.721647	3137.107518
627.068343	3150.451452
627.414987	3161.758760
627.761577	3170.427024
628.108115	3189.666588
628.454600	3192.845035
628.801032	3211.651060
629.147412	3224.241342
629.493739	3244.221955
629.840014	3256.419027
630.186236	3277.390227
630.532405	3291.248358
630.878521	3310.200576
631.224585	3330.713031
631.570597	3338.201665
631.916556	3362.784852
632.262462	3381.792523
632.608316	3401.206006
632.954117	3415.419539
633.299866	3431.591561
633.645562	3445.852985
633.991206	3440.252263
634.336797	3438.981893
634.682336	3449.588480
635.027823	3454.289356
635.373257	3460.971406
635.718639	3463.796972
636.063968	3470.433651
636.409245	3469.294351
636.754470	3483.611227
637.099642	3486.766990
637.444762	3486.232628
637.789829	3505.346162
638.134845	3512.008047
638.479808	3525.886344
638.824719	3535.772046
639.169577	3537.055020
639.514383	3555.505643
639.859137	3561.955799
640.203839	3586.503698
640.548489	3585.888677
640.893086	3606.277624
641.237632	3612.916824
641.582125	3627.992394
641.926566	3644.008140
642.270955	3665.775842
642.615292	3684.738142
642.959576	3699.995195
643.303809	3717.419943
643.647990	3739.348962
643.992118	3758.487703
644.336195	3778.014612
644.680219	3798.877427
645.024192	3833.686595
645.368112	3873.604971
645.711981	3904.514806
646.055797	3972.167091
646.399562	4009.176722
646.743274	4079.147937
647.086935	4133.612563
647.430544	4157.737005
647.774101	4191.628682
648.117606	4223.897108
648.461059	4255.958847
648.804460	4256.193260
649.147810	4240.578286
649.491108	4237.808172
649.834354	4237.566197
650.177548	4206.185014
650.520690	4195.691852
650.863781	4211.921847
651.206820	4226.926842
651.549807	4222.147828
651.892742	4217.948547
652.235626	4221.989031
652.578458	4234.544025
652.921238	4224.209660
653.263967	4260.904218
653.606644	4266.212553
653.949269	4285.051345
654.291843	4283.758289
654.634365	4329.511802
654.976836	4331.311494
655.319255	4351.314792
655.661622	4373.863873
656.003938	4375.474522
656.346203	4388.180750
656.688416	4417.986572
657.030577	4430.975105
657.372687	4438.020118
657.714746	4473.204851
658.056753	4504.752392
658.398708	4487.075586
658.740612	4513.760934
659.082465	4554.188467
659.424266	4567.393769
659.766016	4594.429477
660.107715	4616.865133
660.449362	4647.107015
660.790958	4674.714894
661.132503	4694.927400
661.473996	4724.458479
661.815438	4754.339919
662.156829	4790.046411
662.498168	4796.221825
662.839456	4822.287111
663.180693	4858.527966
663.521879	4895.335951
663.863013	4915.114918
664.204097	4939.521664
664.545129	5001.850490
664.886110	5029.904511
665.227040	5062.838369
665.567918	5100.931848
665.908746	5135.287312
666.249522	5182.694323
666.590248	5209.394794
666.930922	5246.472481
667.271545	5271.584988
667.612118	5302.522550
667.952639	5314.235671
668.293109	5340.890772
668.633528	5359.129666
668.973896	5372.120720
669.314213	5399.978136
669.654480	5401.064504
669.994695	5423.820273
670.334859	5443.742913
670.674973	5459.340243
671.015035	5500.760883
671.355047	5528.532600
671.695008	5546.728645
672.034918	5568.075411
672.374777	5607.716524
672.714585	5624.586745
673.054342	5678.494324
673.394049	5689.998237
673.733705	5740.349282
674.073310	5740.828191
674.412864	5769.799702
674.752368	5757.995841
675.091820	5809.765970
675.431223	5795.350791
675.770574	5785.974245
676.109875	5788.207476
676.449125	5785.613802
676.788324	5798.456142
677.127473	5768.070587
677.466571	5781.596003
677.805619	5772.128716
678.144616	5791.711078
678.483562	5806.464014
678.822458	5799.718951
679.161303	5820.485984
679.500098	5832.171378
679.838842	5847.952711
680.177535	5891.120111
680.516179	5956.065296
680.854771	6025.166912
681.193314	6171.468759
681.531805	6357.993972
681.870247	6512.525502
682.208638	6638.919831
682.546978	6704.553134
682.885268	6746.034268
683.223508	6707.154369
683.561697	6693.334046
683.899836	6703.466765
684.237925	6668.423184
684.575963	6682.359454
684.913951	6661.557133
685.251889	6717.249280
685.589776	6758.329643
685.927614	6799.150386
686.265401	6857.577359
686.603137	6913.539208
686.940824	7040.639299
687.278460	7147.872203
687.616046	7210.168262
687.953582	7347.398552
688.291068	7374.036009
688.628504	7452.655323
688.965889	7484.291084
689.303224	7452.312525
689.640510	7421.022083
689.977745	7330.901376
690.314930	7228.770119
690.652065	7164.792836
690.989150	7068.597538
691.326185	6951.645290
691.663170	6853.786411
692.000105	6757.238233
692.336990	6671.117681
692.673825	6623.841740
693.010610	6563.864612
693.347345	6492.088664
693.684030	6405.222021
694.020665	6387.124279
694.357251	6297.739580
694.693786	6323.835113
695.030272	6300.164375
695.366707	6239.027782
695.703093	6215.911571
696.039429	6235.965281
696.375716	6221.721501
696.711952	6244.021045
697.048139	6243.388380
697.384276	6235.960240
697.720363	6286.568383
698.056400	6277.524553
698.392388	6262.244816
698.728326	6282.232991
699.064214	6269.085662
699.400053	6280.776098
699.735842	6240.124233
700.071581	6206.010745
700.407270	6172.822308
700.742910	6164.305279
701.078501	6128.137521
701.414042	6096.592501
701.749533	6064.429939
702.084974	6017.542167
702.420366	6075.850673
702.755709	6011.644017
703.091002	5978.342155
703.426246	6000.692110
703.761440	6003.313510
704.096584	5967.239013
704.431679	5978.145550
704.766725	5979.536908
705.101721	5995.262788
705.436668	6029.449373
705.771565	5994.123487
706.106413	6076.299336
706.441212	6100.275063
706.775961	6153.555018
707.110661	6188.580955
707.445311	6287.241377
707.779913	6286.991840
708.114465	6360.605289
708.448967	6446.640141
708.783421	6617.152129
709.117825	6708.833073
709.452180	6787.805269
709.786485	6900.762403
710.120742	7104.251099
710.454949	7141.076728
710.789107	7266.732528
711.123216	7450.454860
711.457275	7504.370000
711.791286	7655.236611
712.125247	7696.644649
712.459159	7655.980182
712.793023	7829.794125
713.126837	7608.389169
713.460602	7679.582864
713.794318	7620.881148
714.127985	7554.138792
714.461602	7365.221551
714.795171	7379.840897
715.128691	7161.662279
715.462162	7053.713532
715.795584	6976.636810
716.128957	6935.972342
716.462281	6861.761517
716.795556	6825.661814
717.128782	6722.625670
717.461960	6608.771211
717.795088	6599.971877
718.128167	6531.477719
718.461198	6444.265758
718.794180	6420.980668
719.127113	6349.693712
719.459997	6318.501572
719.792833	6254.708291
720.125619	6258.811790
720.458357	6199.409354
720.791046	6173.008831
721.123686	6149.958155
721.456278	6105.848059
721.788821	6107.020127
722.121315	6059.580349
722.453761	6092.448672
722.786158	6088.241829
723.118506	6114.680161
723.450805	6091.324495
723.783056	6149.254914
724.115259	6136.745291
724.447412	6137.433408
724.779518	6224.942798
725.111574	6247.615387
725.443582	6320.303785
725.775542	6331.691751
726.107453	6473.900181
726.439315	6465.027750
726.771129	6592.450475
727.102895	6712.951696
727.434612	6783.069105
727.766281	6831.933009
728.097901	6918.613129
728.429473	6947.440967
728.760996	6965.637012
729.092471	7007.163517
729.423897	6993.663307
729.755276	6978.428940
730.086606	7038.070831
730.417887	7200.174174
730.749120	7381.509519
731.080305	7454.631456
731.411442	7574.701658
731.742530	7620.724872
732.073570	7668.830083
732.404562	7776.357894
732.735506	7746.103409
733.066401	7674.856782
733.397249	7540.217645
733.728048	7376.319651
734.058798	7147.947820
734.389501	6958.052596
734.720156	6835.461817
735.050762	6687.733324
735.381320	6594.043480
735.711831	6531.384458
736.042293	6438.458349
736.372707	6456.525844
736.703073	6403.802937
737.033391	6478.878320
737.363661	6481.950903
737.693883	6523.182501
738.024056	6595.205466
738.354182	6663.729870
738.684260	6765.848523
739.014290	6847.553024
739.344272	6917.370485
739.674207	7020.109200
740.004093	7068.927734
740.333931	7080.252686
740.663722	7114.235104
740.993464	7137.341233
741.323159	7095.487053
741.652806	7020.933429
741.982405	6971.998948
742.311956	6874.992025
742.641460	6852.458067
742.970915	6772.659122
743.300323	6672.748494
743.629683	6617.542818
743.958996	6542.525408
744.288260	6460.999868
744.617477	6373.669439
744.946647	6362.455393
745.275768	6284.793897
745.604842	6240.555252
745.933869	6193.032294
746.262847	6187.514751
746.591778	6178.024779
746.920662	6150.676520
747.249498	6165.469786
747.578286	6216.556839
747.907027	6272.659840
748.235720	6364.849941
748.564365	6388.447582
748.892963	6362.344487
749.221514	6394.721298
749.550017	6356.123703
749.878473	6354.263518
750.206881	6292.834537
750.535242	6271.192864
750.863555	6254.809114
751.191821	6231.531586
751.520039	6249.120172
751.848210	6225.267953
752.176334	6248.585810
752.504411	6222.938939
752.832440	6167.622358
753.160421	6203.527977
753.488356	6165.870557
753.816243	6138.557586
754.144082	6093.136790
754.471875	6082.973823
754.799620	6063.905659
755.127318	6068.891360
755.454969	6061.899280
755.782572	6051.358227
756.110129	6065.659981
756.437638	6044.149377
756.765100	6046.879162
757.092515	6055.398712
757.419882	6073.637607
757.747203	6079.134985
758.074477	6112.255366
758.401703	6101.321103
758.728882	6172.159397
759.056014	6194.988262
759.383099	6250.783753
759.710138	6299.998017
760.037129	6348.713207
760.364073	6360.801894
760.690970	6361.127049
761.017820	6378.019955
761.344623	6470.946065
761.671379	6622.720083
761.998088	6890.211268
762.324751	7539.804271
762.651366	8693.830250
762.977935	10148.135079
763.304456	11074.285782
763.630931	11329.005203
763.957359	10915.128993
764.283740	10171.402525
764.610074	9421.102392
764.936362	8577.435049
765.262602	7946.146476
765.588796	7329.441962
765.914943	6917.935094
766.241044	6556.723818
766.567097	6287.843795
766.893104	6057.601696
767.219064	5911.302370
767.544978	5751.558287
767.870845	5625.045490
768.196665	5548.543460
768.522438	5470.231656
768.848165	5410.274692
769.173846	5339.333055
769.499479	5294.645747
769.825066	5233.612497
770.150607	5158.771527
770.476101	5135.173886
770.801548	5092.359366
771.126949	5038.040934
771.452303	5006.115306
771.777611	4935.559317
772.102872	4936.585192
772.428087	4892.379314
772.753256	4840.485676
773.078378	4806.576355
773.403453	4747.199124
773.728482	4701.748081
774.053465	4679.824103
774.378401	4646.096263
774.703291	4602.575982
775.028135	4559.955547
775.352932	4550.042118
775.677683	4520.090102
776.002388	4481.653825
776.327046	4485.394361
776.651658	4443.623360
776.976224	4414.145213
777.300743	4411.294441
777.625216	4381.907034
777.949643	4364.721741
778.274024	4374.294892
778.598359	4344.002598
778.922647	4347.112990
779.246889	4329.874765
779.571086	4334.936083
779.895236	4343.606868
780.219339	4341.298019
780.543397	4345.772043
780.867409	4371.739027
781.191374	4374.549470
781.515294	4364.179817
781.839167	4396.317173
782.162995	4383.883167
782.486776	4364.978840
782.810511	4351.133311
783.134201	4317.186181
783.457844	4313.039832
783.781441	4296.270433
784.104993	4280.879791
784.428498	4270.139612
784.751958	4265.095938
785.075372	4258.983539
785.398739	4240.727000
785.722061	4259.240638
786.045337	4260.979836
786.368568	4324.107685
786.691752	4333.262420
787.014891	4459.765135
787.337983	4594.719344
787.661030	4807.997960
787.984031	5017.014281
788.306987	5154.857071
788.629897	5218.151278
788.952760	5194.195715
789.275579	5120.342811
789.598351	4979.886183
789.921078	4853.592676
790.243759	4712.785687
790.566395	4612.035707
790.888984	4514.817055
791.211529	4448.157878
791.534027	4365.850959
791.856480	4296.817398
792.178888	4266.260444
792.501249	4233.860949
792.823566	4184.654246
793.145836	4180.119728
793.468062	4174.745858
793.790241	4150.848268
794.112375	4179.582845
794.434464	4234.254159
794.756507	4250.075820
795.078505	4314.864729
795.400457	4419.307355
795.722364	4541.262948
796.044226	4639.525119
796.366042	4727.828491
796.687812	4707.142116
797.009538	4732.501640
797.331218	4689.578736
797.652852	4663.437833
797.974442	4605.492290
798.295986	4570.000046
798.617484	4505.243904
798.938938	4453.259526
799.260346	4423.211728
799.581709	4350.432590
799.903026	4324.642047
800.224299	4281.923309
800.545526	4219.397878
800.866708	4187.026109
801.187845	4158.465452
801.508936	4122.148979
801.829983	4105.437554
802.150984	4044.661404
802.471940	4034.483314
802.792851	4024.232128
803.113717	4013.504552
803.434538	4002.613139
803.755314	3985.112774
804.076045	3978.556753
804.396731	3957.308290
804.717372	3965.802634
805.037967	3963.720638
805.358518	3981.853668
805.679024	4012.801311
805.999485	4015.949512
806.319901	4031.098179
806.640272	4042.060168
806.960598	4064.568920
807.280879	4064.072367
807.601115	4089.999021
807.921306	4073.022935
808.241453	4069.854570
808.561554	4081.716405
808.881611	4063.908529
809.201623	4065.105803
809.521590	4040.015980
809.841513	4036.358623
810.161390	4047.136610
810.481223	4000.503417
810.801011	3993.188702
811.120755	3985.921879
811.440453	3958.384576
811.760107	3945.824541
812.079716	3928.717386
812.399281	3902.886513
812.718801	3904.837440
813.038276	3888.093247
813.357707	3872.143037
813.677093	3888.836818
813.996434	3855.592929
814.315731	3867.900906
814.634983	3871.467522
814.954191	3873.985578
815.273354	3911.043100
815.592473	3935.628808
815.911547	3983.534893
816.230577	4012.501363
816.549562	4069.733582
816.868502	4103.494190
817.187399	4139.344355
817.506250	4192.964588
817.825058	4211.004357
818.143821	4306.662772
818.462539	4413.847785
818.781213	4552.744176
819.099843	4766.418523
819.418429	5134.904184
819.736970	5497.889946
820.055466	5919.627836
820.373919	6476.836653
820.692327	7344.094075
821.010691	8828.880241
821.329011	11905.680436
821.647286	16353.621544
821.965517	21246.767113
822.283704	24001.498071
822.601847	25187.230387
822.919945	23310.920488
823.237999	20992.695480
823.556010	18462.384089
823.873976	16033.041968
824.191897	13828.709229
824.509775	12187.730473
824.827609	10749.930381
825.145398	9929.643910
825.463144	9533.956183
825.780845	9706.479591
826.098502	10371.526250
826.416116	11667.795947
826.733685	12923.698605
827.051210	13283.717648
827.368692	12543.325903
827.686129	11183.635970
828.003522	9794.828332
828.320872	8522.564610
828.638177	7552.381949
828.955439	6811.765873
829.272656	6180.769687
829.589830	5689.415984
829.906960	5263.420840
830.224046	4943.400832
830.541088	4693.669632
830.858086	4542.583731
831.175041	4423.171399
831.491952	4393.980598
831.808819	4425.233231
832.125642	4582.676027
832.442421	4925.640847
832.759157	5587.481332
833.075849	6615.682633
833.392497	7700.831327
833.709101	8367.609623
834.025662	8250.334741
834.342179	7653.840212
834.658653	6879.534104
834.975083	6215.019287
835.291469	5666.733312
835.607811	5216.404518
835.924110	4895.716558
836.240366	4591.873612
836.556578	4314.297599
836.872746	4093.210236
837.188871	3926.254782
837.504952	3789.059780
837.820990	3679.218079
838.136984	3610.340794
838.452935	3580.219900
838.768842	3601.700256
839.084706	3773.396915
839.400526	4216.582394
839.716303	4766.320221
840.032037	5127.135766
840.347727	5049.960742
840.663373	4690.463458
840.978977	4337.996064
841.294537	4059.316038
841.610054	3846.009695
841.925527	3698.356820
842.240957	3568.975606
842.556344	3454.347329
842.871687	3349.955116
843.186987	3255.693100
843.502244	3179.065041
843.817458	3124.678553
844.132629	3078.854465
844.447756	3052.035526
844.762840	3017.435567
845.077881	2992.252483
845.392879	2968.881693
845.707833	2954.368212
846.022745	2937.374482
846.337613	2932.502207
846.652438	2917.272881
846.967221	2910.835328
847.281960	2896.868811
847.596656	2891.542832
847.911309	2882.962788
848.225919	2878.697972
848.540485	2870.140613
848.855009	2867.047865
849.169490	2859.173583
849.483928	2853.383818
849.798323	2849.519773
850.112675	2845.166737
850.426984	2844.551716
850.741251	2840.995182
851.055474	2838.174657
851.369654	2837.370592
851.683792	2838.877897
851.997887	2836.047290
852.311938	2838.522496
852.625947	2839.281190
852.939914	2834.681137
853.253837	2840.788495
853.567718	2835.827999
853.881555	2834.880262
854.195350	2838.464523
854.509103	2836.087619
854.822812	2836.006960
855.136479	2831.190138
855.450103	2836.382526
855.763685	2831.429593
856.077224	2832.750375
856.390720	2836.889162
856.704173	2845.912828
857.017584	2849.267716
857.330953	2851.463138
857.644278	2857.139477
857.957561	2865.477546
858.270802	2859.239118
858.584000	2860.764067
858.897155	2856.307687
859.210268	2848.864423
859.523339	2842.348732
859.836367	2840.024760
860.149352	2836.271621
860.462295	2835.170129
860.775195	2825.629745
861.088054	2822.784014
861.400869	2824.051864
861.713642	2824.137564
862.026373	2831.485045
862.339062	2834.426559
862.651708	2838.482167
862.964312	2853.966071
863.276873	2856.511854
863.589392	2874.445758
863.901869	2895.606002
864.214303	2903.800397
864.526696	2917.230031
864.839045	2934.821138
865.151353	2939.635439
865.463619	2941.155347
865.775842	2942.581994
866.088023	2947.240020
866.400162	2943.489402
866.712258	2941.059565
867.024313	2946.816563
867.336325	2943.630554
867.648296	2946.995524
867.960224	2942.014864
868.272110	2947.711368
868.583954	2947.134156
868.895755	2954.504323
869.207515	2952.508026
869.519233	2961.861887
869.830909	2970.255408
870.142542	2976.599700
870.454134	2980.360401
870.765684	2989.792400
871.077191	3002.135665
871.388657	3010.471213
871.700081	3020.780372
872.011463	3036.602034
872.322803	3045.769372
872.634101	3056.625497
872.945357	3068.643608
873.256571	3089.168665
873.567744	3095.969182
873.878874	3102.996550
874.189963	3112.801595
874.501010	3114.906276
874.812015	3115.062552
875.122979	3127.620066
875.433900	3124.716362
875.744780	3129.354223
876.055618	3133.992085
876.366415	3136.739514
876.677169	3141.342087
876.987882	3151.709220
877.298554	3170.767302
877.609183	3195.186651
877.919771	3229.037999
878.230317	3277.924589
878.540822	3350.673480
878.851285	3455.635344
879.161707	3608.790639
879.472087	3867.122047
879.782425	4286.190646
880.092722	5031.989028
880.402977	6135.616073
880.713191	7355.741661
881.023363	8523.492182
881.333494	9203.586686
881.643583	9563.212519
881.953631	9509.372996
882.263637	9162.040017
882.573602	8658.958068
882.883526	8138.559757
883.193408	7581.013183
883.503248	7037.400358
883.813048	6532.632144
884.122806	6063.101595
884.432522	5598.503815
884.742197	5198.934400
885.051831	4858.434704
885.361424	4549.220410
885.670975	4299.920229
885.980485	4091.012293
886.289954	3917.715067
886.599382	3776.580404
886.908768	3658.430881
887.218113	3547.807801
887.527417	3461.767908
887.836680	3378.213303
888.145901	3313.989003
888.455082	3256.096393
888.764221	3215.668859
889.073319	3176.776357
889.382376	3151.999086
889.691392	3134.218937
890.000366	3129.623925
890.309300	3126.407669
890.618193	3127.488996
890.927044	3124.723923
891.235855	3128.953452
891.544625	3142.030205
891.853353	3155.079231
892.162041	3201.326777
892.470687	3261.434975
892.779293	3343.189887
893.087858	3457.107361
893.396381	3644.534941
893.704864	3911.002771
894.013306	4286.394813
894.321707	4661.794416
894.630068	4908.032097
894.938387	4943.794042
895.246665	4839.182538
895.554903	4632.152432
895.863100	4412.267383
896.171256	4224.111357
896.479371	4063.270823
896.787446	3914.574429
897.095480	3782.768420
897.403473	3679.523069
897.711425	3578.694951
898.019336	3494.174965
898.327207	3412.349477
898.635038	3344.666945
898.942827	3271.318157
899.250576	3211.235165
899.558284	3154.300373
899.865952	3118.883747
900.173579	3074.279618
900.481165	3043.442879
900.788711	3016.331554
901.096216	2992.423882
901.403681	2972.697847
901.711105	2965.057978
902.018489	2962.227370
902.325832	2985.948520
902.633135	3027.689274
902.940397	3144.727222
903.247619	3414.365938
903.554800	3900.799476
903.861941	4510.960573
904.169041	4966.151559
904.476101	5120.887256
904.783121	4965.730623
905.090100	4710.315522
905.397039	4438.647741
905.703938	4200.740568
906.010796	3983.139162
906.317614	3815.273780
906.624391	3654.402999
906.931129	3520.572968
907.237826	3397.684760
907.544483	3283.681587
907.851099	3168.922240
908.157675	3062.821075
908.464211	2964.969758
908.770707	2895.275806
909.077163	2844.322344
909.383578	2804.560243
909.689954	2772.427928
909.996289	2753.211050
910.302584	2737.086919
910.608839	2728.121227
910.915054	2718.737119
911.221229	2718.525391
911.527363	2719.886502
911.833458	2725.310784
912.139513	2735.279665
912.445527	2745.946747
912.751502	2769.004985
913.057436	2800.008081
913.363331	2837.405881
913.669186	2898.169428
913.975000	2980.995586
914.280775	3108.410750
914.586510	3292.216260
914.892205	3545.902245
915.197859	3870.008108
915.503475	4260.760546
915.809050	4587.389506
916.114585	4784.589362
916.420081	4838.625490
916.725536	4803.153411
917.030952	4649.877129
917.336328	4517.130945
917.641665	4368.737020
917.946961	4218.891242
918.252218	4082.550716
918.557435	3926.111109
918.862612	3790.274698
919.167750	3676.263963
919.472848	3548.213614
919.777906	3431.493258
920.082925	3323.489058
920.387904	3221.619942
920.692843	3141.485760
920.997743	3076.714495
921.302603	3010.350225
921.607423	2967.495376
921.912204	2918.243303
922.216946	2886.214332
922.521647	2852.335258
922.826310	2822.733602
923.130932	2798.387350
923.435516	2768.589089
923.740059	2750.284660
924.044564	2728.272462
924.349028	2711.979452
924.653454	2688.812830
924.957840	2674.127949
925.262186	2657.406441
925.566493	2642.192239
925.870761	2624.515433
926.174989	2618.241717
926.479178	2605.774944
926.783328	2594.076946
927.087438	2588.458580
927.391509	2576.190932
927.695541	2565.634756
927.999533	2558.798952
928.303486	2555.093703
928.607400	2549.213198
928.911275	2545.754966
929.215110	2541.427135
929.518906	2537.434542
929.822663	2539.829090
930.126381	2537.956301
930.430060	2543.672969
930.733699	2542.488298
931.037299	2547.302600
931.340861	2544.875285
931.644383	2547.544576
931.947866	2544.958464
932.251309	2544.209852
932.554714	2543.839328
932.858080	2542.889070
933.161407	2537.701723
933.464694	2535.246681
933.767943	2532.085877
934.071153	2533.217616
934.374323	2530.402132
934.677455	2529.497245
934.980548	2527.689991
935.283602	2525.353416
935.586617	2522.021214
935.889593	2527.095135
936.192530	2526.664116
936.495428	2531.231402
936.798287	2536.721218
937.101108	2549.878630
937.403890	2567.628532
937.706632	2585.809454
938.009336	2611.194184
938.312002	2631.245373
938.614628	2649.126346
938.917216	2664.133861
939.219765	2669.028822
939.522275	2677.455110
939.824747	2676.570388
940.127179	2670.881446
940.429573	2667.420693
940.731929	2667.806342
941.034246	2657.338386
941.336524	2660.058088
941.638763	2654.588436
941.940964	2647.732467
942.243126	2638.368524
942.545250	2630.751340
942.847335	2618.541666
943.149381	2609.598659
943.451389	2601.414346
943.753359	2590.316245
944.055290	2586.868096
944.357182	2576.783268
944.659036	2570.817062
944.960851	2572.528534
945.262628	2566.088460
945.564367	2570.365879
945.866067	2565.407904
946.167729	2565.899417
946.469352	2565.856567
946.770937	2564.679458
947.072484	2559.774415
947.373992	2558.514126
947.675462	2556.931204
947.976893	2552.187478
948.278286	2549.472817
948.579641	2548.946016
948.880958	2545.356715
949.182236	2543.350336
949.483476	2541.686755
949.784678	2540.776827
950.085841	2545.880995
950.386967	2549.432488
950.688054	2550.778476
950.989103	2557.372305
951.290114	2562.650393
951.591087	2575.210428
951.892021	2580.080182
952.192917	2590.485124
952.493776	2597.925867
952.794596	2600.950559
953.095378	2602.488111
953.396122	2600.869901
953.696828	2600.690940
953.997496	2595.919488
954.298126	2585.194433
954.598718	2581.973136
954.899272	2572.014336
955.199788	2564.767678
955.500266	2554.468600
955.800706	2539.569470
956.101108	2528.577234
956.401472	2522.127078
956.701798	2511.336488
957.002087	2501.135713
957.302337	2494.735968
957.602550	2486.672643
957.902724	2479.990593
958.202861	2475.491364
958.502960	2467.440641
958.803022	2462.586010
959.103045	2456.448405
959.403031	2450.393979
959.702979	2449.592436
960.002889	2447.071859
960.302762	2442.416353
960.602596	2439.621033
960.902393	2439.366455
961.202153	2437.055086
961.501875	2434.262287
961.801559	2433.284303
962.101205	2430.693150
962.400814	2431.081319
962.700385	2427.986050
962.999918	2428.119641
963.299414	2423.718714
963.598873	2425.387336
963.898293	2424.706780
964.197677	2424.863056
964.497022	2422.564289
964.796331	2421.132602
965.095601	2418.140677
965.394835	2421.772828
965.694030	2418.712848
965.993189	2423.370874
966.292309	2417.271078
966.591393	2418.468352
966.890439	2419.579926
967.189447	2419.290060
967.488419	2419.141346
967.787353	2422.281985
968.086249	2419.219484
968.385108	2421.782911
968.683930	2421.508168
968.982714	2424.064033
969.281462	2421.407345
969.580172	2424.550504
969.878844	2426.355237
970.177480	2427.222316
970.476078	2431.288006
970.774639	2430.567121
971.073162	2435.865374
971.371649	2433.611978
971.670098	2432.379416
971.968510	2436.404777
972.266885	2432.427307
972.565223	2437.425611
972.863524	2441.440890
973.161788	2441.730756
973.460014	2440.815787
973.758204	2442.653287
974.056356	2441.826538
974.354471	2443.724533
974.652550	2442.655808
974.950591	2444.672270
975.248595	2443.651436
975.546563	2443.396858
975.844493	2440.636826
976.142386	2441.559357
976.440243	2435.832606
976.738062	2437.178594
977.035845	2434.849581
977.333590	2431.497214
977.631299	2431.245156
977.928971	2430.315063
978.226606	2428.598551
978.524204	2430.405804
978.821765	2426.438416
979.119290	2427.280289
979.416777	2430.466298
979.714228	2427.993612
980.011642	2430.080650
980.309020	2434.889911
980.606360	2434.327822
980.903664	2440.059614
981.200931	2449.458845
981.498162	2463.563994
981.795356	2483.718527
982.092513	2510.600480
982.389633	2540.764224
982.686717	2572.460478
982.983764	2595.808582
983.280775	2607.057917
983.577749	2609.291148
983.874686	2602.999788
984.171587	2590.265834
984.468451	2576.964749
984.765279	2566.774057
985.062070	2551.446429
985.358824	2536.648122
985.655543	2524.350227
985.952224	2508.029491
986.248869	2486.339927
986.545478	2467.183542
986.842050	2455.856069
987.138586	2440.818307
987.435086	2431.214909
987.731549	2426.977820
988.027975	2423.416244
988.324366	2418.012128
988.620719	2415.597415
988.917037	2413.366704
989.213318	2410.011816
989.509563	2408.781775
989.805772	2406.750190
990.101944	2404.897566
990.398080	2406.694737
990.694180	2405.850344
990.990244	2406.261198
991.286271	2406.626682
991.582262	2405.358831
991.878217	2407.708009
992.174136	2409.850499
992.470019	2408.696075
992.765865	2410.843607
993.061676	2409.535427
993.357450	2413.817887
993.653188	2415.453742
993.948890	2420.661254
994.244556	2423.340627
994.540186	2429.095104
994.835780	2437.836465
995.131337	2449.751232
995.426859	2460.781277
995.722345	2475.438432
996.017795	2488.021152
996.313208	2497.289313
996.608586	2506.938081
996.903928	2504.919099
997.199234	2507.840448
997.494504	2505.254336
997.789738	2498.615136
998.084936	2491.739003
998.380099	2481.714668
998.675225	2475.335088
998.970316	2467.231433
999.265371	2458.807665
999.560390	2447.049174
999.855373	2438.945519
1000.150320	2431.310691
1000.445232	2430.254570
1000.740108	2420.842735
1001.034948	2419.027920
1001.329752	2415.967940
1001.624521	2410.856210
1001.919254	2405.595766
1002.213951	2407.483678
1002.508613	2403.095353
1002.803239	2399.528737
1003.097829	2401.346073
1003.392384	2403.198697
1003.686903	2401.550240
1003.981386	2403.183573
1004.275834	2400.534447
1004.570246	2402.382030
1004.864623	2398.744838
1005.158964	2400.849519
1005.453270	2398.008829
1005.747540	2399.750548
1006.041775	2397.527399
1006.335974	2397.658469
1006.630138	2399.400188
1006.924266	2397.726524
1007.218359	2396.947666
1007.512416	2396.335166
1007.806438	2395.415155
1008.100425	2397.174518
1008.394376	2395.296688
1008.688292	2395.954559
1008.982172	2394.948849
1009.276017	2394.787532
1009.569827	2394.419528
1009.863602	2395.886503
1010.157341	2396.393139
1010.451045	2393.633108
1010.744714	2394.913561
1011.038347	2394.235525
1011.331945	2395.508417
1011.625508	2392.211502
1011.919036	2394.152346
1012.212528	2396.385578
1012.505986	2392.879455
1012.799408	2395.095042
1013.092795	2395.271482
1013.386147	2393.728889
1013.679464	2393.514640
1013.972745	2392.264434
1014.265992	2396.516648
1014.559204	2395.274003
1014.852380	2393.993550
1015.145521	2394.825340
1015.438628	2393.859959
1015.731699	2392.219064
1016.024736	2391.324259
1016.317737	2393.504558
1016.610703	2396.763664
1016.903635	2392.168652
1017.196531	2393.081101
1017.489393	2390.792417
1017.782219	2390.197561
1018.075011	2396.100752
1018.367768	2394.767367
1018.660490	2394.951369
1018.953177	2394.951369
1019.245829	2394.951369
