Dividing Wavelength (nm)	Counts (n)	Blue Motor Position (mm): 5.600000	Red Motor Position (mm): 0.000000	
326.493990	1976.694396
326.888308	1976.694396
327.282561	1976.694396
327.676750	1953.079111
328.070874	1953.222784
328.464933	1961.102107
328.858929	1969.873715
329.252859	1980.805457
329.646726	2000.249188
330.040528	2012.657988
330.434265	2032.038704
330.827938	2050.650644
331.221547	2070.124621
331.615091	2090.266551
332.008571	2109.506115
332.401986	2130.777264
332.795338	2152.199647
333.188625	2172.598676
333.581847	2190.794721
333.975006	2207.463296
334.368100	2227.990874
334.761129	2240.881105
335.154095	2258.457088
335.546996	2273.020981
335.939833	2290.717952
336.332606	2300.286062
336.725315	2315.812816
337.117960	2324.339927
337.510540	2327.629280
337.903056	2338.215703
338.295508	2343.932372
338.687896	2350.765656
339.080220	2360.283354
339.472480	2363.802080
339.864676	2368.029087
340.256807	2368.719725
340.648875	2372.009078
341.040879	2374.476723
341.432818	2374.703575
341.824694	2374.275077
342.216506	2372.359438
342.608253	2376.357073
342.999937	2374.333050
343.391557	2372.687113
343.783113	2369.168388
344.174605	2372.808101
344.566033	2370.542102
344.957397	2367.887935
345.348697	2362.483818
345.739934	2365.377440
346.131106	2361.180680
346.522215	2359.038189
346.913260	2358.597088
347.304241	2356.802438
347.695159	2355.244721
348.086012	2354.165914
348.476802	2350.929493
348.867528	2352.547704
349.258191	2351.315142
349.648789	2348.013186
350.039324	2347.498988
350.429796	2348.973526
350.820203	2344.323061
351.210548	2344.766683
351.600828	2346.367249
351.991045	2344.106292
352.381198	2343.793740
352.771288	2345.283401
353.161314	2342.732577
353.551276	2344.746518
353.941175	2342.699810
354.331010	2342.964470
354.720782	2343.156034
355.110490	2344.159224
355.500135	2342.735098
355.889717	2346.034533
356.279235	2343.075376
356.668689	2344.948164
357.058080	2343.455983
357.447408	2342.619151
357.836672	2341.739470
358.225873	2343.952536
358.615010	2342.777948
359.004084	2348.444204
359.393095	2347.932527
359.782043	2348.411437
360.170927	2349.470079
360.559748	2350.669874
360.948505	2347.529235
361.337199	2350.135512
361.725830	2350.904288
362.114398	2354.168435
362.502903	2352.981243
362.891344	2352.908146
363.279722	2353.586181
363.668037	2353.782786
364.056289	2352.315811
364.444478	2355.035513
364.832603	2352.993846
365.220665	2355.050637
365.608665	2352.910667
365.996601	2356.726820
366.384474	2354.110461
366.772284	2355.784124
367.160031	2357.135154
367.547715	2354.889320
367.935336	2357.704804
368.322893	2358.148426
368.710388	2356.948631
369.097820	2360.122037
369.485189	2358.705473
369.872495	2358.806296
370.259738	2354.266737
370.646918	2360.742099
371.034035	2357.336800
371.421090	2360.306039
371.808081	2355.809330
372.195010	2357.238497
372.581875	2357.629187
372.968678	2357.992150
373.355418	2359.696060
373.742096	2361.838550
374.128710	2359.025586
374.515262	2361.263859
374.901751	2359.771677
375.288177	2361.336955
375.674540	2362.133458
376.060841	2360.512727
376.447079	2361.029445
376.833254	2361.160515
377.219367	2358.234125
377.605417	2361.107583
377.991404	2358.460977
378.377329	2360.270751
378.763191	2358.521471
379.148991	2361.170597
379.534727	2362.791328
379.920402	2361.830988
380.306013	2363.219826
380.691563	2364.933819
381.077049	2362.420803
381.462474	2365.223685
381.847835	2363.688654
382.233134	2361.347038
382.618371	2365.032121
383.003545	2364.704446
383.388657	2363.892820
383.773706	2364.520444
384.158693	2363.234950
384.543618	2365.763088
384.928480	2364.447347
385.313280	2365.677389
385.698017	2364.820393
386.082692	2368.457585
386.467305	2366.637729
386.851856	2367.905579
387.236344	2363.575228
387.620770	2370.146372
388.005133	2366.932636
388.389435	2370.010261
388.773674	2369.566639
389.157851	2368.409694
389.541965	2368.409694
389.926018	2369.077647
390.310008	2366.362986
390.693936	2370.012781
391.077802	2370.285003
391.461606	2367.807276
391.845348	2368.399612
392.229027	2366.950280
392.612645	2369.738038
392.996200	2369.962370
393.379694	2370.766434
393.763125	2371.089068
394.146494	2371.419263
394.529801	2374.259953
394.913047	2372.248533
395.296230	2372.054448
395.679351	2370.095960
396.062410	2371.802391
396.445408	2369.236443
396.828343	2371.830117
397.211217	2368.480270
397.594028	2371.993955
397.976778	2368.699561
398.359466	2372.099819
398.742092	2368.616382
399.124656	2371.520086
399.507158	2373.322299
399.889598	2373.629809
400.271977	2373.365148
400.654294	2377.002341
401.036549	2375.462268
401.418742	2372.997144
401.800874	2374.428832
402.182944	2372.891280
402.564952	2375.104347
402.946898	2373.294572
403.328783	2377.755993
403.710606	2374.575025
404.092367	2375.941178
404.474067	2376.089892
404.855705	2373.854140
405.237282	2374.539737
405.618797	2375.371528
406.000250	2376.712475
406.381642	2375.704244
406.762972	2376.838503
407.144240	2374.842207
407.525447	2376.059645
407.906593	2375.646271
408.287677	2375.091744
408.668700	2376.062166
409.049661	2378.033257
409.430560	2376.155427
409.811399	2378.466796
410.192176	2379.285984
410.572891	2379.711961
410.953545	2377.181302
411.334138	2379.117105
411.714669	2379.051570
412.095139	2379.742208
412.475547	2378.970912
412.855894	2377.723226
413.236180	2378.108874
413.616405	2382.650954
413.996568	2378.580222
414.376670	2378.008051
414.756711	2379.475027
415.136691	2378.618031
415.516609	2380.120295
415.896466	2380.389996
416.276262	2379.109543
416.655997	2378.479399
417.035670	2376.745242
417.415283	2380.631972
417.794834	2377.735829
418.174324	2380.710110
418.553753	2379.926210
418.933121	2380.178268
419.312428	2380.488299
419.691674	2381.569626
420.070859	2381.466283
420.449983	2384.072559
420.829045	2380.528628
421.208047	2381.443598
421.586988	2384.072559
421.965867	2385.998280
422.344686	2381.562065
422.723444	2384.047353
423.102141	2383.034082
423.480777	2380.682383
423.859352	2383.704555
424.237866	2382.431664
424.616319	2383.026520
424.994712	2382.829915
425.373044	2385.010214
425.751314	2384.158259
426.129524	2382.996273
426.507673	2381.665408
426.885762	2382.958464
427.263789	2386.394011
427.641756	2382.051057
428.019662	2384.269164
428.397508	2381.977960
428.775292	2386.693959
429.153016	2383.691952
429.530679	2387.114896
429.908282	2384.077600
430.285824	2389.259907
430.663305	2384.382590
431.040726	2385.423588
431.418086	2384.818650
431.795385	2384.130532
432.172624	2386.930893
432.549802	2381.579709
432.926920	2385.363095
433.303977	2385.723537
433.680974	2383.364277
434.057910	2382.824874
434.434786	2384.193547
434.811601	2386.267982
435.188355	2385.161448
435.565050	2387.006511
435.941683	2385.063146
436.318257	2384.027189
436.694770	2382.202291
437.071222	2383.679349
437.447614	2382.119112
437.823946	2384.339740
438.200218	2387.949207
438.576429	2387.860986
438.952580	2384.561551
439.328670	2386.073897
439.704700	2388.715462
440.080670	2388.150853
440.456580	2388.352499
440.832429	2389.020452
441.208218	2385.910060
441.583947	2390.038765
441.959616	2386.905688
442.335224	2388.370143
442.710773	2388.566748
443.086261	2384.894267
443.461689	2387.891233
443.837057	2389.012890
444.212365	2388.589433
444.587612	2386.673795
444.962800	2389.461553
445.337927	2389.524567
445.712995	2386.913249
446.088002	2389.885010
446.462949	2388.589433
446.837837	2389.789228
447.212664	2387.641696
447.587431	2388.569268
447.962139	2390.321069
448.336786	2389.436347
448.711374	2388.463404
449.085901	2390.033724
449.460369	2390.537839
449.834776	2389.781666
450.209124	2388.838970
450.583412	2387.298898
450.957640	2388.478528
451.331808	2391.084804
451.705917	2390.076573
452.079965	2391.278889
452.453954	2389.532129
452.827883	2389.534649
453.201752	2390.782335
453.575562	2389.393497
453.949311	2391.490617
454.323001	2388.992725
454.696632	2389.075904
455.070202	2389.448950
455.443713	2390.772253
455.817164	2386.704042
456.190556	2386.273023
456.563888	2387.465256
456.937160	2387.661861
457.310373	2391.977088
457.683526	2388.596995
458.056619	2389.680843
458.429653	2390.041285
458.802628	2390.870555
459.175542	2392.816441
459.548398	2392.841646
459.921194	2388.634803
460.293930	2390.220246
460.666607	2390.696635
461.039224	2392.226626
461.411782	2391.062119
461.784280	2394.469939
462.156719	2391.866183
462.529099	2392.274517
462.901419	2391.488097
463.273680	2392.975237
463.645882	2391.795607
464.018024	2393.643190
464.390106	2394.689229
464.762130	2392.607233
465.134094	2391.185627
465.505999	2392.347613
465.877845	2393.270144
466.249631	2390.764691
466.621358	2392.803838
466.993026	2398.167625
467.364634	2396.640156
467.736184	2394.041441
468.107674	2391.384753
468.479105	2393.534805
468.850477	2394.011194
469.221790	2394.641338
469.593043	2394.553118
469.964238	2393.542367
470.335373	2392.629918
470.706449	2393.728889
471.077467	2392.382901
471.448425	2396.478839
471.819324	2394.200237
472.190164	2393.859959
472.560945	2396.065464
472.931667	2392.017418
473.302330	2391.944321
473.672934	2395.755433
474.043479	2393.683519
474.413965	2392.816441
474.784393	2391.631769
475.154761	2391.914074
475.525070	2389.045658
475.895321	2390.215205
476.265513	2391.858621
476.635645	2392.829043
477.005719	2395.294168
477.375734	2395.480690
477.745691	2396.095711
478.115588	2395.344579
478.485427	2395.813407
478.855207	2393.365926
479.224928	2396.327604
479.594591	2390.245452
479.964194	2396.662841
480.333739	2395.768036
480.703226	2393.494476
481.072653	2396.413304
481.442022	2396.594785
481.811333	2394.046482
482.180584	2397.136709
482.549777	2398.349107
482.918912	2394.779970
483.287988	2394.951369
483.657005	2398.223078
484.025964	2396.125958
484.394864	2397.391288
484.763706	2397.318191
485.132489	2396.259549
485.501213	2396.471277
485.869879	2394.497665
486.238487	2397.865156
486.607036	2395.823489
486.975527	2394.046482
487.343959	2397.406411
487.712333	2397.882800
488.080648	2396.630073
488.448905	2398.676782
488.817104	2397.701319
489.185244	2397.842471
489.553326	2396.504045
489.921350	2400.110990
490.289315	2399.586710
490.657222	2398.656617
491.025070	2396.083108
491.392861	2396.536812
491.760593	2395.647048
492.128267	2395.047151
492.495883	2399.085115
492.863440	2397.630743
493.230939	2399.586710
493.598380	2399.153171
493.965763	2393.602861
494.333088	2394.631256
494.700354	2394.353993
495.067563	2393.194527
495.434713	2394.971534
495.801805	2396.723335
496.168839	2396.985475
496.535815	2395.173180
496.902733	2395.485732
497.269593	2397.948335
497.636395	2397.925650
498.003139	2397.451782
498.369825	2397.144271
498.736453	2399.155692
499.103023	2399.125445
499.469535	2397.487070
499.835989	2395.773077
500.202385	2398.538150
500.568723	2397.328273
500.935003	2397.298026
501.301226	2399.082595
501.667390	2397.202244
502.033497	2400.491597
502.399546	2395.228633
502.765537	2398.530588
503.131470	2396.378016
503.497345	2399.944632
503.863163	2398.908675
504.228923	2398.031514
504.594625	2399.054868
504.960269	2398.432286
505.325856	2398.586041
505.691385	2396.539333
506.056856	2398.495300
506.422270	2398.593603
506.787625	2401.459499
507.152924	2402.608882
507.518164	2398.449930
507.883347	2398.444889
508.248472	2397.963459
508.613540	2398.775084
508.978550	2401.280538
509.343503	2400.017729
509.708398	2399.085115
510.073236	2398.785167
510.438016	2400.100908
510.802738	2397.837430
511.167403	2399.377502
511.532010	2399.319529
511.896561	2399.397667
512.261053	2399.659807
512.625488	2398.452451
512.989866	2394.545556
513.354186	2399.624519
513.718449	2395.662172
514.082655	2402.011505
514.446803	2399.697616
514.810894	2399.276679
515.174927	2402.588717
515.538904	2399.526216
515.902822	2401.111659
516.266684	2401.840106
516.630488	2398.109652
516.994235	2399.143089
517.357925	2400.388254
517.721558	2399.566546
518.085133	2397.658469
518.448651	2400.594941
518.812112	2399.783315
519.175516	2399.435476
519.538863	2399.886659
519.902152	2399.329611
520.265385	2399.669889
520.628560	2401.187277
520.991678	2399.218706
521.354739	2399.427914
521.717743	2399.304406
522.080690	2401.898079
522.443580	2401.774571
522.806413	2400.582338
523.169189	2403.317164
523.531908	2399.437996
523.894569	2400.536968
524.257174	2401.986299
524.619722	2402.160219
524.982213	2402.011505
525.344647	2403.959911
525.707025	2401.620816
526.069345	2402.046793
526.431608	2403.717936
526.793815	2401.887997
527.155964	2404.663152
527.518057	2405.918399
527.880093	2404.912689
528.242072	2405.535272
528.603995	2404.474109
528.965860	2405.200035
529.327669	2406.122566
529.689421	2405.988976
530.051117	2408.630540
530.412755	2406.851013
530.774337	2411.443504
531.135862	2405.469737
531.497331	2402.248439
531.858743	2403.460837
532.220098	2405.769685
532.581396	2401.948491
532.942638	2404.456465
533.303824	2410.379821
533.664953	2408.426373
534.026025	2409.772362
534.387040	2409.117012
534.747999	2409.802608
535.108902	2409.782444
535.469748	2409.996693
535.830537	2410.362177
536.191270	2410.336971
536.551947	2409.492578
536.912567	2408.960736
537.273131	2410.974677
537.633638	2411.922414
537.994089	2411.337640
538.354483	2410.097516
538.714821	2410.780592
539.075103	2412.625655
539.435328	2413.522980
539.795497	2411.791344
540.155609	2413.500295
540.515665	2415.184040
540.875665	2413.142373
541.235609	2412.325706
541.595496	2413.442322
541.955328	2413.812846
542.315102	2414.422826
542.674821	2414.485840
543.034483	2416.582960
543.394090	2415.673032
543.753640	2417.994483
544.113134	2414.193453
544.472571	2415.882240
544.831953	2415.998187
545.191278	2417.462642
545.550548	2415.967940
545.909761	2415.814184
546.268918	2414.768145
546.628019	2418.980029
546.987064	2417.497930
547.346053	2420.855338
547.704986	2417.457601
548.063863	2416.474576
548.422684	2420.401634
548.781449	2418.770821
549.140158	2419.784093
549.498811	2421.919022
549.857408	2420.540266
550.215949	2418.755698
550.574434	2417.737385
550.932864	2420.079001
551.291237	2415.700758
551.649555	2421.694690
552.007817	2423.141502
552.366022	2422.019845
552.724173	2421.321645
553.082267	2421.339289
553.440305	2421.790472
553.798288	2420.527663
554.156215	2422.972623
554.514086	2422.549166
554.871902	2422.576892
555.229661	2424.888261
555.587365	2422.612180
555.945014	2422.556728
556.302606	2424.280802
556.660143	2426.093097
557.017625	2424.782397
557.375050	2425.410021
557.732421	2423.519588
558.089735	2426.246852
558.446994	2423.068405
558.804197	2425.377253
559.161345	2424.487490
559.518437	2424.023703
559.875474	2423.295257
560.232455	2420.341141
560.589381	2425.994795
560.946251	2426.173756
561.303065	2426.491348
561.659825	2424.938673
562.016528	2423.378436
562.373177	2428.674168
562.729770	2426.430854
563.086307	2426.246852
563.442789	2423.935483
563.799216	2427.885227
564.155587	2424.525298
564.511904	2423.839701
564.868164	2426.521595
565.224370	2427.517223
565.580520	2428.215423
565.936615	2425.306677
566.292654	2423.406162
566.648638	2426.556883
567.004567	2427.779363
567.360441	2426.123344
567.716260	2423.358271
568.072023	2425.241142
568.427732	2420.736871
568.783385	2423.766605
569.138982	2423.222160
569.494525	2422.589495
569.850013	2419.458939
570.205445	2423.791810
570.560823	2421.583785
570.916145	2422.914650
571.271412	2418.816192
571.626625	2424.621080
571.981782	2422.246697
572.336884	2421.578744
572.691931	2422.352561
573.046923	2423.154104
573.401860	2424.588313
573.756743	2424.109403
574.111570	2418.622107
574.466342	2425.848601
574.821059	2423.209557
575.175722	2422.425658
575.530330	2419.781573
575.884882	2419.514391
576.239380	2419.610173
576.593823	2421.462797
576.948211	2420.799886
577.302544	2418.037333
577.656823	2419.116140
578.011047	2418.428023
578.365216	2416.943403
578.719330	2422.307191
579.073389	2417.515574
579.427394	2421.919022
579.781344	2416.388876
580.135239	2419.844587
580.489080	2419.456418
580.842866	2420.585637
581.196597	2417.213105
581.550273	2416.645975
581.903895	2418.634710
582.257463	2416.850142
582.610975	2415.148752
582.964434	2416.983732
583.317837	2417.709658
583.671186	2414.667322
584.024481	2412.764286
584.377721	2416.015831
584.730906	2415.660429
585.084037	2414.737898
585.437113	2414.725295
585.790135	2416.146901
586.143103	2416.472055
586.496016	2414.208577
586.848874	2408.960736
587.201679	2412.141704
587.554428	2406.112484
587.907124	2412.585325
588.259765	2410.278998
588.612352	2413.268402
588.964884	2412.207239
589.317362	2412.260171
589.669786	2413.422157
590.022155	2416.225038
590.374470	2413.200346
590.726731	2415.869637
591.078937	2411.630027
591.431090	2412.693710
591.783188	2411.224214
592.135232	2413.749832
592.487222	2412.802095
592.839157	2413.480130
593.191038	2411.088103
593.542866	2411.020047
593.894639	2413.966602
594.246358	2412.285377
594.598022	2411.781261
594.949633	2410.967115
595.301190	2408.749007
595.652692	2412.015675
596.004141	2409.850499
596.355535	2410.147928
596.706876	2410.094995
597.058162	2410.231107
597.409395	2409.719429
597.760573	2408.769172
598.111698	2410.808319
598.462768	2412.265212
598.813785	2411.105747
599.164748	2411.756056
599.515657	2407.133317
599.866511	2409.205232
600.217312	2409.845458
600.568060	2411.040212
600.918753	2411.088103
601.269392	2408.459141
601.619978	2409.033832
601.970510	2409.588359
602.320988	2406.651887
602.671412	2409.182547
603.021783	2407.647515
603.372100	2410.284039
603.722363	2409.164903
604.072572	2408.595252
604.422728	2410.876374
604.772830	2406.029305
605.122878	2404.448903
605.472872	2405.633574
605.822813	2405.101733
606.172701	2409.721950
606.522534	2408.312948
606.872314	2406.641805
607.222041	2407.125756
607.571714	2407.312278
607.921333	2406.757752
608.270899	2407.332443
608.620411	2407.420663
608.969870	2410.094995
609.319276	2407.897052
609.668627	2409.048956
610.017926	2408.101219
610.367171	2408.433935
610.716362	2408.749007
611.065500	2408.887639
611.414585	2405.429408
611.763616	2407.907135
612.112594	2408.020561
612.461518	2409.772362
612.810389	2408.368400
613.159207	2411.178843
613.507971	2406.606517
613.856682	2408.547361
614.205340	2408.640623
614.553945	2406.911507
614.902496	2410.417629
615.250994	2408.640622
615.599439	2410.664646
615.947830	2410.553740
616.296169	2411.262022
616.644454	2409.318658
616.992686	2410.135325
617.340864	2408.567526
617.688990	2409.951322
618.037063	2406.972001
618.385082	2409.709347
618.733048	2410.261353
619.080961	2409.343863
619.428821	2410.261353
619.776628	2409.248082
620.124382	2412.481982
620.472083	2410.520973
620.819731	2412.023237
621.167326	2409.258164
621.514868	2411.624986
621.862357	2408.938051
622.209793	2409.149779
622.557176	2412.056004
622.904506	2407.337484
623.251783	2406.649367
623.599007	2408.234810
623.946179	2406.969480
624.293297	2409.086765
624.640363	2409.364028
624.987376	2409.633730
625.334336	2412.355953
625.681243	2412.139183
626.028097	2409.452248
626.374899	2411.660274
626.721647	2410.405026
627.068343	2410.742784
627.414987	2407.710530
627.761577	2412.340829
628.108115	2410.818401
628.454600	2410.289080
628.801032	2413.086920
629.147412	2411.899728
629.493739	2411.879564
629.840014	2411.045253
630.186236	2414.624472
630.532405	2411.256981
630.878521	2414.233783
631.224585	2414.178330
631.570597	2414.087589
631.916556	2413.948958
632.262462	2418.523805
632.608316	2414.180851
632.954117	2416.867786
633.299866	2417.291243
633.645562	2417.041705
633.991206	2417.011458
634.336797	2419.451377
634.682336	2415.922569
635.027823	2414.493402
635.373257	2417.258475
635.718639	2416.683783
636.063968	2416.953485
636.409245	2416.598084
636.754470	2416.227559
637.099642	2418.370049
637.444762	2416.189750
637.789829	2417.074473
638.134845	2418.294432
638.479808	2420.114289
638.824719	2420.457087
639.169577	2419.998342
639.514383	2420.290729
639.859137	2419.784093
640.203839	2421.737540
640.548489	2422.970102
640.893086	2420.855338
641.237632	2418.213774
641.582125	2417.412230
641.926566	2419.685791
642.270955	2424.064033
642.615292	2424.207706
642.959576	2426.866914
643.303809	2426.514033
643.647990	2424.406831
643.992118	2428.384302
644.336195	2428.976637
644.680219	2427.950762
645.024192	2429.977306
645.368112	2430.844385
645.711981	2428.958993
646.055797	2431.018304
646.399562	2434.413522
646.743274	2435.804880
647.086935	2441.955088
647.430544	2438.806887
647.774101	2442.096240
648.117606	2442.698658
648.461059	2445.879626
648.804460	2448.629575
649.147810	2446.545058
649.491108	2446.350974
649.834354	2447.281067
650.177548	2445.710747
650.520690	2445.617486
650.863781	2448.059925
651.206820	2450.406582
651.549807	2448.604370
651.892742	2448.748042
652.235626	2450.106633
652.578458	2453.574947
652.921238	2450.824998
653.263967	2456.166100
653.606644	2453.411110
653.949269	2456.110648
654.291843	2457.905298
654.634365	2458.588375
654.976836	2457.338169
655.319255	2460.713221
655.661622	2460.821606
656.003938	2463.208592
656.346203	2461.161884
656.688416	2461.665999
657.030577	2464.904941
657.372687	2466.235805
657.714746	2467.420476
658.056753	2471.695375
658.398708	2467.904427
658.740612	2472.018009
659.082465	2471.312247
659.424266	2473.298462
659.766016	2475.440952
660.107715	2481.260964
660.449362	2481.074442
660.790958	2486.579382
661.132503	2486.102993
661.473996	2488.432006
661.815438	2489.543580
662.156829	2494.872080
662.498168	2494.572131
662.839456	2494.665392
663.180693	2496.172697
663.521879	2499.729231
663.863013	2499.454488
664.204097	2503.167298
664.545129	2508.773061
664.886110	2509.957733
665.227040	2509.761128
665.567918	2516.544000
665.908746	2520.314783
666.249522	2524.549352
666.590248	2522.230422
666.930922	2531.995137
667.271545	2531.864067
667.612118	2533.762061
667.952639	2536.993441
668.293109	2536.075951
668.633528	2540.935623
668.973896	2544.071221
669.314213	2544.255223
669.654480	2544.121632
669.994695	2547.335368
670.334859	2548.262940
670.674973	2548.101623
671.015035	2552.931048
671.355047	2552.255534
671.695008	2559.431616
672.034918	2562.136195
672.374777	2561.851370
672.714585	2568.503173
673.054342	2571.671538
673.394049	2573.199007
673.733705	2575.160016
674.073310	2581.292580
674.412864	2581.126222
674.752368	2582.815008
675.091820	2584.410534
675.431223	2585.625452
675.770574	2584.526480
676.109875	2581.075810
676.449125	2582.678897
676.788324	2584.803744
677.127473	2587.251224
677.466571	2585.000349
677.805619	2588.667788
678.144616	2591.024527
678.483562	2595.543922
678.822458	2593.809765
679.161303	2598.172884
679.500098	2597.096597
679.838842	2598.314036
680.177535	2602.951897
680.516179	2604.237392
680.854771	2614.387755
681.193314	2623.363529
681.531805	2637.942546
681.870247	2647.611479
682.208638	2658.747388
682.546978	2663.380209
682.885268	2669.343894
683.223508	2667.967659
683.561697	2667.725683
683.899836	2668.895231
684.237925	2668.136537
684.575963	2673.575942
684.913951	2675.085768
685.251889	2678.549041
685.589776	2682.239165
685.927614	2689.372398
686.265401	2693.291895
686.603137	2700.218440
686.940824	2710.678835
687.278460	2720.335165
687.616046	2728.917729
687.953582	2743.045563
688.291068	2742.758217
688.628504	2749.525966
688.965889	2755.313211
689.303224	2756.893613
689.640510	2753.079980
689.977745	2746.329875
690.314930	2737.573390
690.652065	2733.994171
690.989150	2725.807337
691.326185	2720.347768
691.663170	2709.537013
692.000105	2705.867053
692.336990	2693.765763
692.673825	2692.986905
693.010610	2693.057481
693.347345	2683.592715
693.684030	2677.041736
694.020665	2680.036181
694.357251	2670.790705
694.693786	2676.734225
695.030272	2675.436128
695.366707	2673.321364
695.703093	2671.998061
696.039429	2674.453103
696.375716	2672.640808
696.711952	2678.496108
697.048139	2674.654749
697.384276	2677.276149
697.720363	2685.843590
698.056400	2683.577592
698.392388	2682.196315
698.728326	2684.742098
699.064214	2685.566327
699.400053	2685.692356
699.735842	2681.808147
700.071581	2680.079031
700.407270	2678.682631
700.742910	2676.308248
701.078501	2674.876560
701.414042	2673.490243
701.749533	2670.750376
702.084974	2671.841785
702.420366	2673.563339
702.755709	2670.193328
703.091002	2666.838440
703.426246	2667.476146
703.761440	2668.746517
704.096584	2666.160405
704.431679	2668.746517
704.766725	2670.447906
705.101721	2669.500169
705.436668	2671.216682
705.771565	2671.569563
706.106413	2678.367559
706.441212	2678.110460
706.775961	2686.141018
707.110661	2689.863910
707.445311	2697.907071
707.779913	2700.215920
708.114465	2707.462578
708.448967	2713.406099
708.783421	2732.239850
709.117825	2737.212948
709.452180	2750.327510
709.786485	2759.666247
710.120742	2779.104936
710.454949	2784.856893
710.789107	2800.943215
711.123216	2814.894608
711.457275	2826.330466
711.791286	2838.582990
712.125247	2846.439628
712.459159	2844.715554
712.793023	2859.866742
713.126837	2840.254132
713.460602	2847.949454
713.794318	2842.295800
714.127985	2839.346725
714.461602	2820.896102
714.795171	2818.115905
715.128691	2798.828451
715.462162	2792.486679
715.795584	2780.682817
716.128957	2777.390944
716.462281	2773.857095
716.795556	2766.917947
717.128782	2761.269334
717.461960	2752.404465
717.795088	2749.135277
718.128167	2743.431211
718.461198	2737.787639
718.794180	2736.761765
719.127113	2730.800600
719.459997	2729.515106
719.792833	2724.642831
720.125619	2727.239025
720.458357	2719.798282
720.791046	2719.568909
721.123686	2719.165617
721.456278	2717.025647
721.788821	2717.325596
722.121315	2718.101934
722.453761	2717.844835
722.786158	2720.390617
723.118506	2723.168293
723.450805	2723.344734
723.783056	2727.533932
724.115259	2727.523850
724.447412	2728.600137
724.779518	2737.354100
725.111574	2741.820562
725.443582	2751.333220
725.775542	2754.962851
726.107453	2765.997936
726.439315	2769.607402
726.771129	2785.797068
727.102895	2795.894499
727.434612	2806.765747
727.766281	2811.625420
728.097901	2818.778817
728.429473	2821.934579
728.760996	2824.760146
729.092471	2828.505723
729.423897	2830.375992
729.755276	2828.457832
730.086606	2839.908813
730.417887	2853.741740
730.749120	2875.922817
731.080305	2881.483209
731.411442	2893.012328
731.742530	2896.291599
732.073570	2904.793505
732.404562	2917.708941
732.735506	2911.914134
733.066401	2908.982703
733.397249	2893.506361
733.728048	2878.302241
734.058798	2853.577902
734.389501	2833.574604
734.720156	2820.288643
735.050762	2810.350008
735.381320	2802.047227
735.711831	2794.896351
736.042293	2784.786317
736.372707	2791.102882
736.703073	2786.757408
737.033391	2796.093625
737.363661	2798.798204
737.693883	2806.380099
738.024056	2814.821511
738.354182	2825.259220
738.684260	2839.671879
739.014290	2848.914835
739.344272	2862.825899
739.674207	2873.311499
740.004093	2882.622510
740.333931	2881.997407
740.663722	2885.501009
740.993464	2893.004766
741.323159	2888.739950
741.652806	2881.339536
741.982405	2874.148330
742.311956	2865.714480
742.641460	2862.352030
742.970915	2854.699559
743.300323	2845.408712
743.629683	2839.949143
743.958996	2830.882627
744.288260	2819.270330
744.617477	2811.297745
744.946647	2809.266160
745.275768	2802.765592
745.604842	2794.150260
745.933869	2794.215795
746.262847	2790.445012
746.591778	2794.099848
746.920662	2795.768470
747.249498	2796.436423
747.578286	2803.496559
747.907027	2811.804381
748.235720	2822.060608
748.564365	2827.983964
748.892963	2826.189313
749.221514	2830.131496
749.550017	2826.758964
749.878473	2830.116372
750.206881	2822.194199
750.535242	2820.676812
750.863555	2821.811071
751.191821	2820.326451
751.520039	2821.145639
751.848210	2820.583550
752.176334	2821.644713
752.504411	2823.031030
752.832440	2820.029023
753.160421	2823.900629
753.488356	2822.960454
753.816243	2819.678663
754.144082	2814.415698
754.471875	2817.765545
754.799620	2818.554486
755.127318	2821.543890
755.454969	2818.211687
755.782572	2817.826039
756.110129	2820.815443
756.437638	2817.999959
756.765100	2820.258396
757.092515	2823.172183
757.419882	2824.359374
757.747203	2828.523367
758.074477	2832.611743
758.401703	2832.878924
758.728882	2844.546675
759.056014	2847.886439
759.383099	2854.933972
759.710138	2859.413038
760.037129	2865.790097
760.364073	2871.937784
760.690970	2875.116232
761.017820	2876.721839
761.344623	2886.093344
761.671379	2906.827610
761.998088	2935.897424
762.324751	3020.724920
762.651366	3163.583658
762.977935	3344.288859
763.304456	3458.370170
763.630931	3491.513236
763.957359	3435.569031
764.283740	3347.857996
764.610074	3254.465579
764.936362	3152.523366
765.262602	3070.357600
765.588796	3003.645490
765.914943	2952.061884
766.241044	2911.367169
766.567097	2879.461707
766.893104	2850.293590
767.219064	2833.080571
767.544978	2815.907880
767.870845	2803.279790
768.196665	2794.641772
768.522438	2785.968467
768.848165	2776.186108
769.173846	2770.645880
769.499479	2763.124479
769.825066	2760.344282
770.150607	2750.193919
770.476101	2745.672004
770.801548	2744.709144
771.126949	2737.417115
771.452303	2732.582648
771.777611	2721.565206
772.102872	2725.585527
772.428087	2719.183261
772.753256	2713.650595
773.078378	2708.380068
773.403453	2702.126517
773.728482	2697.218954
774.053465	2696.787935
774.378401	2690.148736
774.703291	2685.951975
775.028135	2684.253106
775.352932	2680.250430
775.677683	2676.111643
776.002388	2671.940088
776.327046	2674.488391
776.651658	2671.441014
776.976224	2666.752741
777.300743	2669.003616
777.625216	2661.890548
777.949643	2661.973727
778.274024	2662.346772
778.598359	2652.945020
778.922647	2657.318221
779.246889	2657.141781
779.571086	2655.180772
779.895236	2660.262255
780.219339	2659.279230
780.543397	2662.755106
780.867409	2664.746361
781.191374	2671.289779
781.515294	2669.250632
781.839167	2674.750531
782.162995	2670.674758
782.486776	2667.372803
782.810511	2668.081085
783.134201	2663.390291
783.457844	2664.063285
783.781441	2663.975065
784.104993	2660.529436
784.428498	2656.506595
784.751958	2659.251504
785.075372	2656.068015
785.398739	2656.861997
785.722061	2660.587409
786.045337	2659.241421
786.368568	2670.039573
786.691752	2672.217351
787.014891	2690.811647
787.337983	2709.645398
787.661030	2742.349884
787.984031	2771.548247
788.306987	2793.880558
788.629897	2802.642084
788.952760	2799.143523
789.275579	2790.308901
789.598351	2770.993720
789.921078	2751.461769
790.243759	2732.320508
790.566395	2718.046481
790.888984	2706.890407
791.211529	2696.092256
791.534027	2682.796213
791.856480	2676.701458
792.178888	2671.715757
792.501249	2667.418173
792.823566	2657.756802
793.145836	2661.998932
793.468062	2660.630259
793.790241	2656.839312
794.112375	2663.833912
794.434464	2673.013854
794.756507	2674.780778
795.078505	2683.857376
795.400457	2701.647607
795.722364	2717.071018
796.044226	2733.636249
796.366042	2745.530852
796.687812	2745.377097
797.009538	2748.348857
797.331218	2745.488002
797.652852	2745.472878
797.974442	2733.764799
798.295986	2730.135168
798.617484	2720.345247
798.938938	2711.936602
799.260346	2709.567260
799.581709	2696.303984
799.903026	2696.281299
800.224299	2690.325176
800.545526	2681.321675
800.866708	2676.489729
801.187845	2671.791374
801.508936	2664.423727
801.829983	2666.039417
802.150984	2656.829229
802.471940	2654.883344
802.792851	2654.843015
803.113717	2655.032058
803.434538	2652.508960
803.755314	2650.043836
804.076045	2650.852941
804.396731	2646.562919
804.717372	2647.437560
805.037967	2649.413692
805.358518	2650.978970
805.679024	2653.479382
805.999485	2659.233860
806.319901	2661.250321
806.640272	2662.712256
806.960598	2666.394819
807.280879	2669.351455
807.601115	2672.295489
807.921306	2669.699295
808.241453	2670.957063
808.561554	2669.512772
808.881611	2670.762978
809.201623	2671.791374
809.521590	2667.327432
809.841513	2666.992195
810.161390	2670.231137
810.481223	2663.725528
810.801011	2662.314005
811.120755	2661.487255
811.440453	2658.858294
811.760107	2655.710093
812.079716	2652.234217
812.399281	2648.213897
812.718801	2648.786068
813.038276	2645.496715
813.357707	2647.198105
813.677093	2650.832777
813.996434	2644.692651
814.315731	2646.288177
814.634983	2648.516367
814.954191	2649.184319
815.273354	2658.782676
815.592473	2664.960610
815.911547	2670.268945
816.230577	2674.072496
816.549562	2683.857376
816.868502	2687.918025
817.187399	2699.313553
817.506250	2708.075079
817.825058	2709.751262
818.143821	2727.816237
818.462539	2744.477251
818.781213	2770.527413
819.099843	2805.475212
819.418429	2867.713297
819.736970	2927.430806
820.055466	3002.014677
820.373919	3098.698967
820.692327	3245.908221
821.010691	3481.498984
821.329011	3947.795632
821.647286	4574.562290
821.965517	5238.081480
822.283704	5628.012209
822.601847	5835.402758
822.919945	5621.776302
823.237999	5321.562988
823.556010	4973.922498
823.873976	4629.271412
824.191897	4285.494967
824.509775	4039.501783
824.827609	3810.779592
825.145398	3687.145293
825.463144	3627.589102
825.780845	3653.762773
826.098502	3764.451388
826.416116	3965.573262
826.733685	4167.000125
827.051210	4229.185278
827.368692	4129.073004
827.686129	3916.636261
828.003522	3688.269471
828.320872	3472.583703
828.638177	3309.641008
828.955439	3182.397244
829.272656	3075.285328
829.589830	2991.957575
829.906960	2919.289343
830.224046	2863.277082
830.541088	2821.037254
830.858086	2794.419962
831.175041	2774.973711
831.491952	2772.632095
831.808819	2777.963115
832.125642	2807.741211
832.442421	2870.564070
832.759157	2989.157214
833.075849	3171.828465
833.392497	3353.627596
833.709101	3471.557829
834.025662	3458.115592
834.342179	3361.537167
834.658653	3226.852659
834.975083	3111.253960
835.291469	3014.307531
835.607811	2929.782504
835.924110	2871.468957
836.240366	2817.541214
836.556578	2763.631115
836.872746	2725.847667
837.188871	2694.806762
837.504952	2667.677792
837.820990	2647.679535
838.136984	2640.120325
838.452935	2630.791670
838.768842	2636.788122
839.084706	2666.089829
839.400526	2749.624269
839.716303	2846.774865
840.032037	2917.325813
840.347727	2906.452044
840.663373	2844.145903
840.978977	2776.849020
841.294537	2722.490258
841.610054	2683.418795
841.925527	2656.743530
842.240957	2631.542802
842.556344	2606.175715
842.871687	2586.517736
843.186987	2565.861608
843.502244	2551.348126
843.817458	2542.130376
844.132629	2530.329035
844.447756	2529.041020
844.762840	2518.963754
845.077881	2515.031654
845.392879	2507.106960
845.707833	2508.142917
846.022745	2501.241577
846.337613	2506.711229
846.652438	2503.177381
846.967221	2498.587410
847.281960	2498.721001
847.596656	2495.499703
847.911309	2493.500886
848.225919	2493.435351
848.540485	2491.731441
848.855009	2495.335866
849.169490	2492.038951
849.483928	2490.982829
849.798323	2488.865545
850.112675	2488.515185
850.426984	2486.110554
850.741251	2486.982674
851.055474	2485.493013
851.369654	2488.202633
851.683792	2484.620893
851.997887	2486.561737
852.311938	2488.368991
852.625947	2487.897643
852.939914	2486.375215
853.253837	2488.739516
853.567718	2487.990905
853.881555	2484.509988
854.195350	2486.397900
854.509103	2487.527118
854.822812	2487.890082
855.136479	2489.374701
855.450103	2488.734475
855.763685	2487.270020
856.077224	2486.604587
856.390720	2490.675319
856.704173	2492.243118
857.017584	2490.214053
857.330953	2491.602891
857.644278	2492.414517
857.957561	2498.504231
858.270802	2494.418376
858.584000	2496.311329
858.897155	2493.813437
859.210268	2493.001812
859.523339	2490.415700
859.836367	2492.734630
860.149352	2490.851759
860.462295	2492.485093
860.775195	2488.817654
861.088054	2484.328506
861.400869	2487.703559
861.713642	2486.092910
862.026373	2492.212871
862.339062	2488.179948
862.651708	2495.532471
862.964312	2495.126658
863.276873	2496.389467
863.589392	2501.256701
863.901869	2503.240395
864.214303	2507.550582
864.526696	2511.054183
864.839045	2512.881602
865.151353	2518.346213
865.463619	2517.204391
865.775842	2514.323372
866.088023	2518.328568
866.400162	2518.179854
866.712258	2517.254803
867.024313	2519.369567
867.336325	2521.738909
867.648296	2519.276305
867.960224	2521.665812
868.272110	2519.354443
868.583954	2523.417613
868.895755	2523.294105
869.207515	2521.693539
869.519233	2525.096318
869.830909	2528.133613
870.142542	2528.050434
870.454134	2529.154446
870.765684	2532.572349
871.077191	2536.179294
871.388657	2537.976466
871.700081	2538.394881
872.011463	2542.846220
872.322803	2545.792775
872.634101	2545.444935
872.945357	2552.106820
873.256571	2555.207129
873.567744	2558.287274
873.878874	2560.727193
874.189963	2564.122410
874.501010	2562.746175
874.812015	2562.854560
875.122979	2565.987637
875.433900	2569.826476
875.744780	2568.619119
876.055618	2569.677762
876.366415	2572.883935
876.677169	2573.307392
876.987882	2576.503484
877.298554	2578.010789
877.609183	2586.255596
877.919771	2595.571648
878.230317	2610.127980
878.540822	2630.746299
878.851285	2653.171872
879.161707	2689.821061
879.472087	2751.529825
879.782425	2839.883608
880.092722	2992.330621
880.402977	3190.846218
880.713191	3385.316289
881.023363	3562.051581
881.333494	3671.666431
881.643583	3743.162595
881.953631	3763.266717
882.263637	3726.746077
882.573602	3658.448525
882.883526	3573.396698
883.193408	3479.517811
883.503248	3378.782954
883.813048	3284.105043
884.122806	3194.463246
884.432522	3102.167281
884.742197	3022.517050
885.051831	2957.337451
885.361424	2892.157853
885.670975	2841.431242
885.980485	2795.392904
886.289954	2761.612132
886.599382	2726.989488
886.908768	2701.367823
887.218113	2677.089627
887.527417	2660.554642
887.836680	2637.869450
888.145901	2620.880761
888.455082	2609.003803
888.764221	2600.885024
889.073319	2590.003694
889.382376	2586.769794
889.691392	2580.969946
890.000366	2579.749987
890.309300	2577.942733
890.618193	2578.751838
890.927044	2578.623289
891.235855	2579.419791
891.544625	2584.541604
891.853353	2586.570668
892.162041	2595.503593
892.470687	2611.168978
892.779293	2627.638428
893.087858	2658.316370
893.396381	2698.784232
893.704864	2756.460073
894.013306	2837.466374
894.321707	2923.962492
894.630068	2976.448465
894.938387	2987.987667
895.246665	2971.724904
895.554903	2927.738316
895.863100	2877.581356
896.171256	2842.719257
896.479371	2802.415232
896.787446	2769.246960
897.095480	2738.596745
897.403473	2714.802498
897.711425	2693.107893
898.019336	2671.977897
898.327207	2654.769918
898.635038	2636.843575
898.942827	2619.144084
899.250576	2604.436517
899.558284	2589.754157
899.865952	2580.012127
900.173579	2571.442165
900.481165	2561.324570
900.788711	2553.659495
901.096216	2548.182282
901.403681	2542.589121
901.711105	2542.911755
902.018489	2542.624409
902.325832	2549.460214
902.633135	2560.084446
902.940397	2590.732141
903.247619	2650.860503
903.554800	2754.602408
903.861941	2881.354660
904.169041	2977.615493
904.476101	3019.109230
904.783121	2994.914212
905.090100	2943.718774
905.397039	2883.237531
905.703938	2830.978409
906.010796	2783.974691
906.317614	2744.676376
906.624391	2705.539378
906.931129	2676.237672
907.237826	2646.225162
907.544483	2618.448404
907.851099	2592.030238
908.157675	2566.680796
908.464211	2539.012423
908.770707	2521.083559
909.077163	2508.987310
909.383578	2495.227481
909.689954	2490.168683
909.996289	2485.200626
910.302584	2483.993270
910.608839	2481.860862
910.915054	2478.606797
911.221229	2475.365335
911.527363	2478.521097
911.833458	2480.222487
912.139513	2481.520584
912.445527	2483.572333
912.751502	2492.956441
913.057436	2501.395333
913.363331	2511.568381
913.669186	2528.161339
913.975000	2550.307128
914.280775	2580.612024
914.586510	2629.964920
914.892205	2685.876358
915.197859	2757.347316
915.503475	2837.199193
915.809050	2907.367014
916.114585	2952.681946
916.420081	2968.788432
916.725536	2964.039665
917.030952	2937.487908
917.336328	2907.208217
917.641665	2879.159237
917.946961	2845.139011
918.252218	2815.759166
918.557435	2778.469751
918.862612	2746.929772
919.167750	2716.733260
919.472848	2690.105886
919.777906	2664.211999
920.082925	2638.849954
920.387904	2611.421036
920.692843	2594.129878
920.997743	2576.483319
921.302603	2559.199723
921.607423	2545.719678
921.912204	2535.985210
922.216946	2526.260824
922.521647	2516.375121
922.826310	2510.721467
923.130932	2500.437513
923.435516	2493.369816
923.740059	2487.244814
924.044564	2483.763897
924.349028	2479.120994
924.653454	2468.466516
924.957840	2469.441979
925.262186	2462.631380
925.566493	2458.235494
925.870761	2450.174689
926.174989	2453.446398
926.479178	2451.984463
926.783328	2447.850717
927.087438	2443.354008
927.391509	2443.956426
927.695541	2441.856785
927.999533	2438.002823
928.303486	2435.129365
928.607400	2434.839499
928.911275	2429.800866
929.215110	2430.925043
929.518906	2430.549477
929.822663	2431.648449
930.126381	2433.327153
930.430060	2432.891093
930.733699	2430.952769
931.037299	2433.911927
931.340861	2433.591813
931.644383	2438.517021
931.947866	2431.509817
932.251309	2430.095773
932.554714	2433.591813
932.858080	2432.528130
933.161407	2430.456216
933.464694	2431.776998
933.767943	2428.253232
934.071153	2429.712646
934.374323	2429.175763
934.677455	2427.781884
934.980548	2428.338931
935.283602	2429.211051
935.586617	2425.334403
935.889593	2428.127203
936.192530	2427.930598
936.495428	2429.102666
936.798287	2430.453695
937.101108	2435.005857
937.403890	2437.629778
937.706632	2443.346446
938.009336	2451.094700
938.312002	2457.973354
938.614628	2460.372943
938.917216	2467.112966
939.219765	2467.226392
939.522275	2471.138327
939.824747	2468.065744
940.127179	2467.100363
940.429573	2467.594396
940.731929	2464.506689
941.034246	2462.820423
941.336524	2464.965434
941.638763	2464.456278
941.940964	2463.541308
942.243126	2457.620473
942.545250	2458.061574
942.847335	2454.870524
943.149381	2452.468414
943.451389	2450.124278
943.753359	2446.867692
944.055290	2445.017589
944.357182	2444.795778
944.659036	2440.999789
944.960851	2441.614810
945.262628	2440.218410
945.564367	2438.080961
945.866067	2438.963163
946.167729	2439.739501
946.469352	2438.537185
946.770937	2439.298400
947.072484	2435.673810
947.373992	2436.898810
947.675462	2435.235230
947.976893	2436.492998
948.278286	2435.825045
948.579641	2433.395208
948.880958	2433.778336
949.182236	2432.772626
949.483476	2435.099118
949.784678	2433.259097
950.085841	2435.298244
950.386967	2433.206165
950.688054	2433.208686
950.989103	2437.271856
951.290114	2441.834100
951.591087	2440.256219
951.892021	2442.333174
952.192917	2444.475665
952.493776	2447.092023
952.794596	2449.365584
953.095378	2446.781993
953.396122	2448.233845
953.696828	2445.229317
953.997496	2443.684203
954.298126	2440.830910
954.598718	2442.718823
954.899272	2438.774120
955.199788	2439.363935
955.500266	2436.240940
955.800706	2431.058634
956.101108	2424.482448
956.401472	2426.251893
956.701798	2421.432550
957.002087	2418.657395
957.302337	2420.152097
957.602550	2416.676222
957.902724	2414.659760
958.202861	2415.937693
958.502960	2413.129770
958.803022	2410.160530
959.103045	2408.446538
959.403031	2406.490570
959.702979	2407.536610
960.002889	2406.558626
960.302762	2406.538461
960.602596	2403.216341
960.902393	2403.080230
961.202153	2404.287586
961.501875	2399.276679
961.801559	2402.069478
962.101205	2399.659807
962.400814	2401.260373
962.700385	2401.333470
962.999918	2398.366751
963.299414	2399.672410
963.598873	2399.067471
963.898293	2398.707029
964.197677	2397.182080
964.497022	2398.863305
964.796331	2399.947153
965.095601	2397.590413
965.394835	2398.003788
965.694030	2395.924312
965.993189	2398.530588
966.292309	2398.633932
966.591393	2396.133520
966.890439	2395.962121
967.189447	2398.399518
967.488419	2395.551267
967.787353	2398.875908
968.086249	2395.326935
968.385108	2397.943294
968.683930	2396.771226
968.982714	2397.756771
969.281462	2396.423386
969.580172	2395.790721
969.878844	2398.802811
970.177480	2399.178377
970.476078	2398.749879
970.774639	2399.967317
971.073162	2401.250291
971.371649	2398.676782
971.670098	2396.549415
971.968510	2398.976731
972.266885	2398.742317
972.565223	2404.300189
972.863524	2402.624005
973.161788	2402.571073
973.460014	2402.727349
973.758204	2403.407905
974.056356	2404.673234
974.354471	2403.909500
974.652550	2402.258522
974.950591	2405.399161
975.248595	2403.785991
975.546563	2403.440672
975.844493	2403.110477
976.142386	2403.750703
976.440243	2401.401526
976.738062	2404.693399
977.035845	2400.400857
977.333590	2403.218862
977.631299	2400.214334
977.928971	2400.675599
978.226606	2402.049314
978.524204	2402.382030
978.821765	2399.160733
979.119290	2398.835578
979.416777	2398.270969
979.714228	2398.603685
980.011642	2400.441186
980.309020	2401.068809
980.606360	2399.634601
980.903664	2403.695251
981.200931	2406.147772
981.498162	2410.498288
981.795356	2415.380645
982.092513	2423.229722
982.389633	2426.176276
982.686717	2434.232040
982.983764	2440.974583
983.280775	2442.534820
983.577749	2444.407609
983.874686	2442.053390
984.171587	2440.974583
984.468451	2438.317895
984.765279	2431.756833
985.062070	2430.360434
985.358824	2427.333221
985.655543	2422.907088
985.952224	2417.487847
986.248869	2413.490213
986.545478	2408.328071
986.842050	2406.425035
987.138586	2400.685682
987.435086	2397.706360
987.731549	2395.962121
988.027975	2398.717111
988.324366	2396.922460
988.620719	2395.765516
988.917037	2392.395504
989.213318	2395.604199
989.509563	2393.978427
989.805772	2392.471122
990.101944	2392.418189
990.398080	2394.190155
990.694180	2392.513971
990.990244	2391.750237
991.286271	2393.376009
991.582262	2393.980947
991.878217	2393.126472
992.174136	2395.513458
992.470019	2391.858621
992.765865	2395.137892
993.061676	2394.467418
993.357450	2395.629404
993.653188	2395.626884
993.948890	2397.673592
994.244556	2395.301729
994.540186	2401.048645
994.835780	2404.597617
995.131337	2406.162895
995.426859	2405.497463
995.722345	2415.279822
996.017795	2414.977353
996.313208	2417.192940
996.608586	2417.197981
996.903928	2417.777714
997.199234	2419.892478
997.494504	2420.557910
997.789738	2418.546490
998.084936	2415.867117
998.380099	2412.101375
998.675225	2410.710016
998.970316	2407.150962
999.265371	2406.364542
999.560390	2404.269942
999.855373	2400.415980
1000.150320	2402.069478
1000.445232	2399.246432
1000.740108	2396.796432
1001.034948	2396.904816
1001.329752	2395.296688
1001.624521	2395.699981
1001.919254	2391.465411
1002.213951	2390.182438
1002.508613	2387.684546
1002.803239	2390.832747
1003.097829	2387.760163
1003.392384	2390.603374
1003.686903	2393.043293
1003.981386	2391.374671
1004.275834	2390.164794
1004.570246	2388.632283
1004.864623	2389.257386
1005.158964	2391.838457
1005.453270	2389.456512
1005.747540	2386.250338
1006.041775	2387.492982
1006.335974	2390.172355
1006.630138	2389.980792
1006.924266	2388.919629
1007.218359	2388.685215
1007.512416	2390.588251
1007.806438	2388.571789
1008.100425	2390.789897
1008.394376	2389.259907
1008.688292	2388.763353
1008.982172	2387.228322
1009.276017	2391.167983
1009.569827	2386.575492
1009.863602	2389.784187
1010.157341	2389.206974
1010.451045	2388.629762
1010.744714	2390.323590
1011.038347	2388.488610
1011.331945	2385.690770
1011.625508	2389.527088
1011.919036	2386.908208
1012.212528	2385.889895
1012.505986	2390.540360
1012.799408	2389.249824
1013.092795	2389.925339
1013.386147	2390.142108
1013.679464	2387.067005
1013.972745	2386.842673
1014.265992	2388.337375
1014.559204	2389.252345
1014.852380	2389.448950
1015.145521	2389.088507
1015.438628	2386.772097
1015.731699	2389.665719
1016.024736	2387.172869
1016.317737	2390.167314
1016.610703	2388.352499
1016.903635	2386.262941
1017.196531	2383.770090
1017.489393	2389.307798
1017.782219	2384.823691
1018.075011	2389.355688
1018.367768	2388.294526
1018.660490	2389.993394
1018.953177	2389.993394
1019.245829	2389.993394
