Dividing Wavelength (nm)	Counts (n)	Blue Motor Position (mm): 20.800000	Red Motor Position (mm): 0.000000	
326.493990	1973.732718
326.888308	1973.732718
327.282561	1973.732718
327.676750	1947.637186
328.070874	1952.131374
328.464933	1957.404421
328.858929	1968.094188
329.252859	1980.860910
329.646726	1996.470843
330.040528	2008.060456
330.434265	2029.069464
330.827938	2048.631662
331.221547	2065.670762
331.615091	2088.209761
332.008571	2107.638368
332.401986	2127.313991
332.795338	2147.213946
333.188625	2170.168840
333.581847	2185.556962
333.975006	2204.592359
334.368100	2221.533156
334.761129	2238.839438
335.154095	2255.550863
335.546996	2290.322221
335.939833	2354.158352
336.332606	2369.546474
336.725315	2381.108361
337.117960	2391.288971
337.510540	2395.803324
337.903056	2409.535427
338.295508	2411.393092
338.687896	2418.599422
339.080220	2428.434713
339.472480	2432.190373
339.864676	2435.073913
340.256807	2437.914603
340.648875	2440.830910
341.040879	2442.000458
341.432818	2444.019440
341.824694	2443.240582
342.216506	2443.802671
342.608253	2448.513629
342.999937	2443.532969
343.391557	2441.650098
343.783113	2439.326126
344.174605	2438.640529
344.566033	2434.773964
344.957397	2435.683892
345.348697	2433.354879
345.739934	2429.838674
346.131106	2430.685588
346.522215	2431.247677
346.913260	2427.320618
347.304241	2425.203333
347.695159	2424.800041
348.086012	2421.687129
348.476802	2422.234094
348.867528	2419.731161
349.258191	2418.538928
349.648789	2416.028433
350.039324	2417.545821
350.429796	2418.332241
350.820203	2412.436611
351.210548	2413.560789
351.600828	2412.313103
351.991045	2412.948288
352.381198	2410.747825
352.771288	2411.675397
353.161314	2410.740263
353.551276	2408.398647
353.941175	2410.082393
354.331010	2409.666497
354.720782	2411.872002
355.110490	2412.323185
355.500135	2413.404513
355.889717	2410.989800
356.279235	2412.378638
356.668689	2409.008627
357.058080	2411.123391
357.447408	2409.159861
357.836672	2409.427042
358.225873	2410.891498
358.615010	2410.662125
359.004084	2417.429874
359.393095	2412.633216
359.782043	2414.765624
360.170927	2417.087076
360.559748	2416.892991
360.948505	2416.406520
361.337199	2417.891140
361.725830	2418.745615
362.114398	2417.182858
362.502903	2420.555390
362.891344	2421.830802
363.279722	2418.428023
363.668037	2420.159659
364.056289	2420.537746
364.444478	2419.794175
364.832603	2420.807447
365.220665	2423.978333
365.608665	2425.901533
365.996601	2423.481779
366.384474	2423.817016
366.772284	2424.608477
367.160031	2425.914136
367.547715	2421.651841
367.935336	2422.745771
368.322893	2424.371543
368.710388	2426.125865
369.097820	2430.098294
369.485189	2427.444126
369.872495	2428.633839
370.259738	2427.156781
370.646918	2428.686771
371.034035	2426.113262
371.421090	2428.596030
371.808081	2423.610329
372.195010	2430.856987
372.581875	2427.423962
372.968678	2429.715166
373.355418	2429.848757
373.742096	2429.889086
374.128710	2427.786925
374.515262	2429.163160
374.901751	2430.531833
375.288177	2429.924374
375.674540	2430.801535
376.060841	2430.977975
376.447079	2430.367996
376.833254	2431.691298
377.219367	2427.832295
377.605417	2432.197934
377.991404	2428.618715
378.377329	2433.523758
378.763191	2429.137954
379.148991	2434.668100
379.534727	2436.228337
379.920402	2437.163471
380.306013	2434.836978
380.691563	2435.668769
381.077049	2434.784046
381.462474	2432.739858
381.847835	2435.774633
382.233134	2432.946546
382.618371	2434.723552
383.003545	2440.135231
383.388657	2436.881166
383.773706	2437.922165
384.158693	2435.078954
384.543618	2438.433842
384.928480	2437.554160
385.313280	2435.373861
385.698017	2436.838317
386.082692	2438.017947
386.467305	2440.364604
386.851856	2438.300251
387.236344	2439.560540
387.620770	2441.703030
388.005133	2440.883842
388.389435	2442.620520
388.773674	2441.539192
389.157851	2444.899122
389.541965	2443.875767
389.926018	2442.343257
390.310008	2441.491302
390.693936	2441.745880
391.077802	2441.524069
391.461606	2443.588422
391.845348	2443.727053
392.229027	2442.522218
392.612645	2443.653957
392.996200	2443.870726
393.379694	2444.324430
393.763125	2444.861313
394.146494	2443.061621
394.529801	2445.806529
394.913047	2446.880295
395.296230	2448.705193
395.679351	2449.093362
396.062410	2448.203598
396.445408	2446.756787
396.828343	2447.238217
397.211217	2444.130346
397.594028	2446.408947
397.976778	2443.366611
398.359466	2447.084462
398.742092	2444.969698
399.124656	2447.759976
399.507158	2448.823660
399.889598	2448.604370
400.271977	2449.511777
400.654294	2451.472786
401.036549	2451.750050
401.418742	2451.490430
401.800874	2449.428598
402.182944	2450.033537
402.564952	2450.194854
402.946898	2452.536470
403.328783	2449.761314
403.710606	2451.858434
404.092367	2451.281222
404.474067	2451.233331
404.855705	2453.164093
405.237282	2452.228959
405.618797	2453.680812
406.000250	2452.788527
406.381642	2452.904474
406.762972	2455.379680
407.144240	2451.979422
407.525447	2456.022428
407.906593	2454.154680
408.287677	2455.571244
408.668700	2454.399176
409.049661	2454.676439
409.430560	2456.070318
409.811399	2456.793724
410.192176	2456.486214
410.572891	2457.040741
410.953545	2457.749023
411.334138	2457.161728
411.714669	2455.057047
412.095139	2458.374126
412.475547	2455.304063
412.855894	2460.229270
413.236180	2458.157356
413.616405	2456.917232
413.996568	2457.907819
414.376670	2458.548046
414.756711	2457.759105
415.136691	2459.745320
415.516609	2460.982923
415.896466	2458.966461
416.276262	2459.629373
416.655997	2461.113993
417.035670	2458.066615
417.415283	2458.018724
417.794834	2457.023097
418.174324	2461.343365
418.553753	2459.886472
418.933121	2460.151133
419.312428	2459.828499
419.691674	2465.381330
420.070859	2462.878397
420.449983	2462.684312
420.829045	2463.155660
421.208047	2465.411577
421.586988	2463.969807
421.965867	2466.182873
422.344686	2464.431072
422.723444	2466.649180
423.102141	2466.631536
423.480777	2468.569859
423.859352	2465.895527
424.237866	2466.931484
424.616319	2467.291927
424.994712	2465.961062
425.373044	2467.400312
425.751314	2469.784778
426.129524	2466.286217
426.507673	2469.444500
426.885762	2469.426856
427.263789	2469.250415
427.641756	2470.107411
428.019662	2467.906948
428.397508	2471.834007
428.775292	2472.396095
429.153016	2471.503811
429.530679	2473.923565
429.908282	2471.687813
430.285824	2472.496918
430.663305	2469.472226
431.040726	2470.798049
431.418086	2473.124542
431.795385	2474.949440
432.172624	2471.236630
432.549802	2473.797536
432.926920	2472.693523
433.303977	2474.183184
433.680974	2476.083699
434.057910	2476.534882
434.434786	2475.410705
434.811601	2477.936323
435.188355	2479.693165
435.565050	2476.628144
435.941683	2477.462455
436.318257	2474.573874
436.694770	2477.775006
437.071222	2479.163844
437.447614	2474.876343
437.823946	2476.146714
438.200218	2480.623258
438.576429	2482.107878
438.952580	2481.230717
439.328670	2479.191571
439.704700	2479.478916
440.080670	2480.663588
440.456580	2476.865078
440.832429	2480.633341
441.208218	2478.742908
441.583947	2485.225832
441.959616	2481.187867
442.335224	2480.282980
442.710773	2483.693321
443.086261	2484.182313
443.461689	2484.898157
443.837057	2481.540748
444.212365	2486.090390
444.587612	2485.639206
444.962800	2485.372025
445.337927	2485.114926
445.712995	2482.773310
446.088002	2487.406131
446.462949	2490.841677
446.837837	2486.990236
447.212664	2489.168014
447.587431	2492.825371
447.962139	2498.569766
448.336786	2500.394664
448.711374	2499.557832
449.085901	2495.855105
449.460369	2493.647079
449.834776	2496.351658
450.209124	2499.943480
450.583412	2500.470281
450.957640	2499.146978
451.331808	2497.947183
451.705917	2495.958448
452.079965	2497.427945
452.453954	2497.501041
452.827883	2499.479694
453.201752	2499.711587
453.575562	2502.365755
453.949311	2504.074706
454.323001	2502.401043
454.696632	2506.118894
455.070202	2508.894049
455.443713	2508.707526
455.817164	2509.080572
456.190556	2508.493277
456.563888	2513.473937
456.937160	2508.329440
457.310373	2513.158865
457.683526	2516.924607
458.056619	2518.147087
458.429653	2517.784124
458.802628	2519.092303
459.175542	2521.355781
459.548398	2524.599764
459.921194	2531.465815
460.293930	2530.180321
460.666607	2536.282638
461.039224	2541.182639
461.411782	2544.421581
461.784280	2545.525593
462.156719	2545.765048
462.529099	2543.194060
462.901419	2544.439225
463.273680	2542.974770
463.645882	2544.330840
464.018024	2543.183978
464.390106	2550.206305
464.762130	2562.572255
465.134094	2575.575912
465.505999	2590.233066
465.877845	2604.585231
466.249631	2613.578650
466.621358	2606.596652
466.993026	2606.609255
467.364634	2602.956939
467.736184	2598.624067
468.107674	2597.351176
468.479105	2595.243973
468.850477	2598.092225
469.221790	2594.432347
469.593043	2590.361616
469.964238	2588.977819
470.335373	2592.146184
470.706449	2603.208996
471.077467	2613.568567
471.448425	2635.089253
471.819324	2647.828249
472.190164	2642.925727
472.560945	2632.044396
472.931667	2625.606843
473.302330	2625.737913
473.672934	2624.051647
474.043479	2628.417286
474.413965	2626.418469
474.784393	2627.499796
475.154761	2636.742752
475.525070	2639.245685
475.895321	2646.008392
476.265513	2652.370329
476.635645	2664.320384
477.005719	2669.555622
477.375734	2679.620286
477.745691	2686.569516
478.115588	2704.468133
478.485427	2718.908518
478.855207	2752.059146
479.224928	2783.513425
479.594591	2803.786426
479.964194	2805.502938
480.333739	2813.732622
480.703226	2828.651917
481.072653	2852.980525
481.442022	2873.102291
481.811333	2895.091804
482.180584	2895.918553
482.549777	2911.639392
482.918912	2925.558017
483.287988	2945.437808
483.657005	2957.813840
484.025964	2973.693475
484.394864	2993.321207
484.763706	3013.511028
485.132489	3025.166176
485.501213	3048.872202
485.869879	3079.991245
486.238487	3106.265739
486.607036	3136.230357
486.975527	3164.402845
487.343959	3201.016746
487.712333	3237.434041
488.080648	3275.698919
488.448905	3323.569716
488.817104	3364.382898
489.185244	3432.279678
489.553326	3528.888351
489.921350	3664.553363
490.289315	3812.914520
490.657222	3899.057757
491.025070	3976.933502
491.392861	4008.523892
491.760593	4029.295967
492.128267	4038.062533
492.495883	4048.674162
492.863440	4074.106783
493.230939	4100.950928
493.598380	4134.928304
493.965763	4198.381308
494.333088	4244.845623
494.700354	4313.372548
495.067563	4383.552971
495.434713	4467.079849
495.801805	4565.432761
496.168839	4638.156446
496.535815	4716.410277
496.902733	4819.199404
497.269593	4897.856528
497.636395	4993.567874
498.003139	5125.139469
498.369825	5201.883475
498.736453	5326.984749
499.103023	5414.289972
499.469535	5524.008164
499.835989	5648.063399
500.202385	5739.656123
500.568723	5865.712696
500.935003	6017.559811
501.301226	6133.294621
501.667390	6323.603220
502.033497	6487.425597
502.399546	6562.468213
502.765537	6634.755838
503.131470	6816.290309
503.497345	7003.170923
503.863163	6996.211610
504.228923	7215.312759
504.594625	7422.433606
504.960269	7491.935994
505.325856	7739.441525
505.691385	7818.128895
506.056856	7997.974579
506.422270	8234.679437
506.787625	8336.157864
507.152924	8536.926857
507.518164	8728.838543
507.883347	8783.482130
508.248472	8997.491714
508.613540	9262.399307
508.978550	9504.455350
509.343503	9643.949118
509.708398	9873.132575
510.073236	10171.011835
510.438016	10367.389983
510.802738	10453.923910
511.167403	10782.629826
511.532010	11040.263034
511.896561	11311.986268
512.261053	11720.415511
512.625488	11830.942809
512.989866	12013.288906
513.354186	12193.628623
513.718449	12404.797516
514.082655	12832.708299
514.446803	12976.126605
514.810894	13345.456659
515.174927	13559.804000
515.538904	13759.274896
515.902822	14185.189382
516.266684	14267.861784
516.630488	14625.627432
516.994235	14815.288242
517.357925	15234.820627
517.721558	15540.009560
518.085133	15884.085954
518.448651	16183.848085
518.812112	16356.956267
519.175516	16640.294319
519.538863	17011.408942
519.902152	17257.737363
520.265385	17688.687961
520.628560	17978.216550
520.991678	18162.442997
521.354739	18508.813116
521.717743	18905.909845
522.080690	19119.942114
522.443580	19623.003898
522.806413	19908.302958
523.169189	20154.306225
523.531908	20491.483800
523.894569	20699.675892
524.257174	21043.739683
524.619722	21435.187800
524.982213	21707.470602
525.344647	21935.174480
525.707025	22216.211245
526.069345	22685.522503
526.431608	22914.277462
526.793815	23336.854704
527.155964	23374.333162
527.518057	23716.279668
527.880093	23882.826789
528.242072	24404.462703
528.603995	24520.666341
528.965860	24777.114878
529.327669	25092.146664
529.689421	25297.452696
530.051117	25529.943149
530.412755	25870.253802
530.774337	26166.048545
531.135862	26319.778531
531.497331	26668.636460
531.858743	26873.254374
532.220098	27323.258013
532.581396	27389.471048
532.942638	27436.638604
533.303824	27878.490698
533.664953	28116.821328
534.026025	28171.643876
534.387040	28712.078253
534.747999	28918.901672
535.108902	29256.898435
535.469748	29201.765856
535.830537	29501.548152
536.191270	29873.842404
536.551947	29875.536232
536.912567	30305.649999
537.273131	30619.035848
537.633638	30500.165440
537.994089	30953.997836
538.354483	30897.917520
538.714821	31504.932937
539.075103	31960.600313
539.435328	32029.510365
539.795497	32163.174039
540.155609	32365.238608
540.515665	32917.403751
540.875665	32728.113465
541.235609	33174.981507
541.595496	33359.414641
541.955328	34064.059563
542.315102	33801.468380
542.674821	33848.986296
543.034483	34075.497942
543.394090	34235.468877
543.753640	34397.199174
544.113134	35368.087596
544.472571	34788.574194
544.831953	35943.535308
545.191278	35521.270618
545.550548	35489.077809
545.909761	36039.123147
546.268918	36371.294856
546.628019	36795.613816
546.987064	36629.417056
547.346053	36224.294810
547.704986	37091.945442
548.063863	36899.915289
548.422684	37242.985973
548.781449	37278.332023
549.140158	37760.185673
549.498811	37792.045765
549.857408	37476.305697
550.215949	38341.894497
550.574434	38436.574928
550.932864	38402.365658
551.291237	39162.866566
551.649555	38969.089653
552.007817	39324.662398
552.366022	39166.539046
552.724173	39468.335283
553.082267	39945.122572
553.440305	40339.161842
553.798288	39884.079241
554.156215	40293.715840
554.514086	40600.540628
554.871902	40506.472697
555.229661	40657.702272
555.587365	40618.666097
555.945014	40844.093894
556.302606	40875.596064
556.660143	41208.639893
557.017625	41414.175297
557.375050	41344.204082
557.732421	41765.296704
558.089735	41872.126315
558.446994	41903.167220
558.804197	42433.352932
559.161345	42475.305414
559.518437	41909.226687
559.875474	42305.279898
560.232455	42553.067733
560.589381	42821.239473
560.946251	42634.510094
561.303065	43366.082340
561.659825	43264.225827
562.016528	43074.635592
562.373177	42899.987338
562.729770	43435.052886
563.086307	43082.179679
563.442789	43601.572280
563.799216	43721.166093
564.155587	43617.283036
564.511904	43730.146909
564.868164	43889.341506
565.224370	44188.821333
565.580520	44030.831571
565.936615	44299.686388
566.292654	44106.869815
566.648638	44405.716977
567.004567	44449.602742
567.360441	44547.522114
567.716260	44470.243746
568.072023	44820.669474
568.427732	44874.801384
568.783385	44498.126368
569.138982	44933.505620
569.494525	44957.408251
569.850013	44786.485409
570.205445	44810.287217
570.560823	44828.019476
570.916145	44777.028205
571.271412	44847.009503
571.626625	44659.816337
571.981782	44773.073420
572.336884	44513.519532
572.691931	44864.320825
573.046923	44533.253128
573.401860	44434.862408
573.756743	44450.989059
574.111570	44614.224141
574.466342	44500.740207
574.821059	44667.201627
575.175722	44245.844345
575.530330	44294.501562
575.884882	44074.200618
576.239380	44061.668309
576.593823	44069.020832
576.948211	44029.664544
577.302544	43608.776089
577.656823	43672.589535
578.011047	43911.875464
578.365216	43676.448538
578.719330	43513.047098
579.073389	43391.860280
579.427394	43508.469730
579.781344	43513.619269
580.135239	43195.456926
580.489080	43314.229032
580.842866	42839.314531
581.196597	43293.272955
581.550273	43260.634004
581.903895	43136.190601
582.257463	43587.676340
582.610975	43006.716126
582.964434	43303.141014
583.317837	42992.416893
583.671186	42830.847913
584.024481	43082.086417
584.377721	42646.714727
584.730906	42947.114564
585.084037	42990.823889
585.437113	42720.618043
585.790135	42774.409675
586.143103	42412.880806
586.496016	42532.996379
586.848874	42592.613064
587.201679	42606.539252
587.554428	42112.153294
587.907124	42320.063082
588.259765	42093.337187
588.612352	42353.299409
588.964884	41771.472117
589.317362	42066.772827
589.669786	42022.052751
590.022155	41803.339771
590.374470	42220.197824
590.726731	41782.441668
591.078937	41303.927783
591.431090	41426.001844
591.783188	41086.840575
592.135232	40785.581221
592.487222	41036.945755
592.839157	41125.609569
593.191038	40824.095637
593.542866	40606.958017
593.894639	40021.886743
594.246358	40299.866048
594.598022	40268.598291
594.949633	39908.180997
595.301190	39864.953103
595.652692	39724.564530
596.004141	40060.217156
596.355535	39084.738763
596.706876	39055.333713
597.058162	38889.938496
597.409395	39343.707877
597.760573	39413.744628
598.111698	39020.438846
598.462768	39034.249087
598.813785	39077.224923
599.164748	38560.836850
599.515657	38951.344791
599.866511	38442.831000
600.217312	39048.087054
600.568060	38032.861684
600.918753	38766.659600
601.269392	38745.499356
601.619978	38403.814990
601.970510	38620.113257
602.320988	38793.844022
602.671412	39094.493396
603.021783	38849.054739
603.372100	38512.507308
603.722363	38629.484762
604.072572	38696.123775
604.422728	38711.794202
604.772830	38532.876090
605.122878	38641.931371
605.472872	38598.179197
605.822813	38863.948828
606.172701	38703.748520
606.522534	38938.686454
606.872314	39206.913647
607.222041	38965.943973
607.571714	39366.612360
607.921333	38813.333123
608.270899	39106.443451
608.620411	39461.643151
608.969870	39251.157334
609.319276	39254.169423
609.668627	39316.442797
610.017926	39793.976177
610.367171	39943.370772
610.716362	40051.198532
611.065500	39993.066466
611.414585	40189.633658
611.763616	40476.500517
612.112594	40415.348800
612.461518	40635.425413
612.810389	40927.182192
613.159207	40801.110496
613.507971	40890.452345
613.856682	41363.052956
614.205340	41236.051167
614.553945	41927.417691
614.902496	41388.810732
615.250994	41858.094264
615.599439	41947.191617
615.947830	42150.803821
616.296169	42205.260885
616.644454	42325.356293
616.992686	42517.701518
617.340864	43045.606108
617.688990	42750.711211
618.037063	43363.259294
618.385082	43332.662011
618.733048	43621.487358
619.080961	43651.797296
619.428821	43671.848485
619.776628	43768.331129
620.124382	43596.274027
620.472083	43724.319335
620.819731	43850.554869
621.167326	43541.983321
621.514868	43526.615364
621.862357	43092.796349
622.209793	43109.739667
622.557176	42787.068012
622.904506	42532.648539
623.251783	42203.493961
623.599007	41989.612926
623.946179	41765.266457
624.293297	41725.411094
624.640363	41138.610704
624.987376	41138.119192
625.334336	40910.977403
625.681243	40543.661289
626.028097	40518.019460
626.374899	40380.980734
626.721647	40351.742042
627.068343	40268.825143
627.414987	40029.660202
627.761577	39809.719701
628.108115	40147.595476
628.454600	39587.861041
628.801032	39782.862954
629.147412	39748.832645
629.493739	39771.127148
629.840014	39414.972149
630.186236	39763.930900
630.532405	39375.333556
630.878521	39600.327814
631.224585	39481.923713
631.570597	39179.083957
631.916556	39351.579639
632.262462	39316.588990
632.608316	39341.782157
632.954117	39210.044204
633.299866	39199.777894
633.645562	39129.484045
633.991206	38655.628186
634.336797	38211.933551
634.682336	38225.022907
635.027823	37981.532656
635.373257	37806.539082
635.718639	37552.890906
636.063968	37439.361601
636.409245	36852.384770
636.754470	36923.646521
637.099642	36677.025713
637.444762	36210.293005
637.789829	36353.509665
638.134845	36024.244181
638.479808	35968.549513
638.824719	35866.050253
639.169577	35493.803891
639.514383	35545.279113
639.859137	35273.840705
640.203839	35499.265981
640.548489	35136.010517
640.893086	35198.185588
641.237632	34966.854600
641.582125	35077.220581
641.926566	35006.750292
642.270955	34978.300540
642.615292	35003.486144
642.959576	34974.597812
643.303809	34988.219010
643.647990	35122.288497
643.992118	35092.777582
644.336195	35101.909632
644.680219	35194.162748
645.024192	35491.416905
645.368112	35990.775961
645.711981	36001.190984
646.055797	36877.235138
646.399562	36813.585530
646.743274	37744.873168
647.086935	38198.556849
647.430544	38081.460928
647.774101	38210.481699
648.117606	38439.385371
648.461059	38737.403263
648.804460	38357.554842
649.147810	37750.100844
649.491108	37502.607917
649.834354	37139.518811
650.177548	36311.468962
650.520690	35875.245317
650.863781	35901.124081
651.206820	35740.830512
651.549807	35317.229916
651.892742	34837.057491
652.235626	34640.376874
652.578458	34510.579765
652.921238	33921.193263
653.263967	34240.711677
653.606644	33926.385652
653.949269	33882.661204
654.291843	33506.601209
654.634365	33895.538832
654.976836	33492.180989
655.319255	33475.421673
655.661622	33483.008609
656.003938	33260.567696
656.346203	33139.953049
656.688416	33360.816081
657.030577	33164.994981
657.372687	32994.480473
657.714746	33270.312246
658.056753	33384.257447
658.398708	32845.653008
658.740612	32909.993255
659.082465	33181.378731
659.424266	32999.982892
659.766016	33125.275730
660.107715	33001.706967
660.449362	33127.566934
660.790958	33112.942547
661.132503	33144.003616
661.473996	33160.611697
661.815438	33277.894142
662.156829	33480.455265
662.498168	33254.326747
662.839456	33270.546660
663.180693	33420.740277
663.521879	33588.953499
663.863013	33540.354255
664.204097	33539.023390
664.545129	34007.268445
664.886110	33970.541118
665.227040	34032.678381
665.567918	34166.019421
665.908746	34216.496494
666.249522	34388.057042
666.590248	34381.458171
666.930922	34500.084083
667.271545	34458.847445
667.612118	34544.889858
667.952639	34325.103112
668.293109	34374.345103
668.633528	34284.408398
668.973896	34206.058785
669.314213	34240.918364
669.654480	33973.495235
669.994695	34019.964591
670.334859	33909.631377
670.674973	33803.862928
671.015035	33973.238136
671.355047	33915.118673
671.695008	33877.403281
672.034918	33763.763070
672.374777	33848.696430
672.714585	33683.885987
673.054342	33925.558903
673.394049	33680.742828
673.733705	33962.981908
674.073310	33617.529279
674.412864	33708.963207
674.752368	33293.768735
675.091820	33587.950309
675.431223	33171.253573
675.770574	32906.628284
676.109875	32759.071191
676.449125	32482.884016
676.788324	32418.049736
677.127473	31877.575029
677.466571	31798.595272
677.805619	31457.926698
678.144616	31461.460547
678.483562	31380.713865
678.822458	31057.533054
679.161303	30985.134523
679.500098	30900.957336
679.838842	30783.548863
680.177535	30943.179520
680.516179	31223.172766
680.854771	31461.329477
681.193314	32319.994253
681.531805	33438.341466
681.870247	34225.033688
682.208638	34974.527236
682.546978	35200.060898
682.885268	35279.113752
683.223508	34747.019963
683.561697	34410.742234
683.899836	34221.550251
684.237925	33715.236923
684.575963	33567.531115
684.913951	33104.836371
685.251889	33252.882457
685.589776	33247.722836
685.927614	33240.773605
686.265401	33391.922521
686.603137	33485.388034
686.940824	33998.514481
687.278460	34384.200559
687.616046	34522.091240
687.953582	35118.129545
688.291068	35003.365157
688.628504	35261.983911
688.965889	35200.900250
689.303224	34824.021067
689.640510	34473.343282
689.977745	33741.241715
690.314930	32932.174332
690.652065	32409.265525
690.989150	31657.261483
691.326185	30749.526115
691.663170	30055.112214
692.000105	29294.681883
692.336990	28630.252765
692.673825	28178.330967
693.010610	27648.588876
693.347345	27067.812665
693.684030	26418.312924
694.020665	26144.724464
694.357251	25472.365611
694.693786	25424.018425
695.030272	25182.116137
695.366707	24650.223995
695.703093	24365.106415
696.039429	24351.306257
696.375716	24093.171453
696.711952	24047.977509
697.048139	23899.749942
697.384276	23719.750503
697.720363	23850.608774
698.056400	23645.902640
698.392388	23415.083329
698.728326	23377.786352
699.064214	23172.661802
699.400053	23119.016364
699.735842	22763.761211
700.071581	22488.118480
700.407270	22196.210467
700.742910	22006.209378
701.078501	21737.455385
701.414042	21449.345881
701.749533	21157.226139
702.084974	20807.072634
702.420366	21010.626864
702.755709	20576.109650
703.091002	20275.341808
703.426246	20304.222579
703.761440	20194.065805
704.096584	19939.250602
704.431679	19881.499143
704.766725	19794.461102
705.101721	19733.730321
705.436668	19824.156018
705.771565	19494.015894
706.106413	19836.388378
706.441212	19828.665331
706.775961	19954.984043
707.110661	20032.116218
707.445311	20388.331710
707.779913	20222.833150
708.114465	20469.310285
708.448967	20758.085221
708.783421	21460.300308
709.117825	21735.648131
709.452180	21953.173919
709.786485	22356.239375
710.120742	23157.485409
710.454949	23168.467562
710.789107	23640.246466
711.123216	24347.704352
711.457275	24469.400327
711.791286	25016.305025
712.125247	25076.239303
712.459159	24778.075218
712.793023	25425.926502
713.126837	24316.623118
713.460602	24571.531583
713.794318	24181.217726
714.127985	23807.080932
714.461602	22900.177355
714.795171	22866.525132
715.128691	21837.595385
715.462162	21293.929628
715.795584	20877.051411
716.128957	20611.049887
716.462281	20203.931343
716.795556	19978.407764
717.128782	19481.700355
717.461960	18930.727446
717.795088	18857.497124
718.128167	18448.727603
718.461198	17986.385740
718.794180	17845.430037
719.127113	17489.638002
719.459997	17284.979758
719.792833	16939.562417
720.125619	16904.211326
720.458357	16595.075169
720.791046	16422.181236
721.123686	16255.692089
721.456278	16021.807757
721.788821	15974.342773
722.121315	15715.892897
722.453761	15799.881041
722.786158	15718.670573
723.118506	15724.707355
723.450805	15598.345793
723.783056	15749.769451
724.115259	15649.936961
724.447412	15585.906745
724.779518	15828.048488
725.111574	15852.472878
725.443582	16050.524690
725.775542	16036.779984
726.107453	16504.727610
726.439315	16376.289092
726.771129	16780.806400
727.102895	17160.256571
727.434612	17359.765276
727.766281	17489.630440
728.097901	17743.714676
728.429473	17776.998894
728.760996	17759.932068
729.092471	17849.906582
729.423897	17723.025781
729.755276	17586.549143
730.086606	17702.777986
730.417887	18226.747955
730.749120	18740.297859
731.080305	18924.138658
731.411442	19247.347195
731.742530	19318.908895
732.073570	19420.863711
732.404562	19705.343584
732.735506	19503.034518
733.066401	19239.530886
733.397249	18708.024392
733.728048	18061.188901
734.058798	17230.656284
734.389501	16558.146197
734.720156	16093.326606
735.050762	15563.234156
735.381320	15205.934815
735.711831	14970.409587
736.042293	14623.802534
736.372707	14631.974244
736.703073	14418.544393
737.033391	14610.118322
737.363661	14580.521708
737.693883	14679.477037
738.024056	14852.928017
738.354182	15037.585483
738.684260	15321.762887
739.014290	15547.092381
739.344272	15735.860908
739.674207	16020.930596
740.004093	16130.686598
740.333931	16112.165398
740.663722	16157.298849
740.993464	16142.162784
741.323159	15963.927749
741.652806	15697.913622
741.982405	15476.803573
742.311956	15143.101874
742.641460	15015.734601
742.970915	14718.515732
743.300323	14377.065779
743.629683	14161.634590
743.958996	13886.685018
744.288260	13618.785500
744.617477	13314.103203
744.946647	13244.626021
745.275768	12970.972025
745.604842	12779.992953
745.933869	12613.503806
746.262847	12568.158627
746.591778	12491.641473
746.920662	12390.389898
747.249498	12393.026422
747.578286	12514.394721
747.907027	12659.824448
748.235720	12872.603990
748.564365	12909.399372
748.892963	12814.320690
749.221514	12861.957073
749.550017	12725.863563
749.878473	12680.009228
750.206881	12454.863736
750.535242	12368.992721
750.863555	12281.064916
751.191821	12177.582630
751.520039	12203.373173
751.848210	12107.054367
752.176334	12143.058288
752.504411	12049.517158
752.832440	11888.159905
753.160421	11950.559308
753.488356	11823.713795
753.816243	11733.257851
754.144082	11589.897517
754.471875	11535.150587
754.799620	11481.769809
755.127318	11452.367279
755.454969	11417.283369
755.782572	11369.031965
756.110129	11376.487831
756.437638	11295.768876
756.765100	11287.786209
757.092515	11288.620520
757.419882	11303.875051
757.747203	11313.521299
758.074477	11383.205169
758.401703	11338.071718
758.728882	11501.263951
759.056014	11539.508664
759.383099	11658.694144
759.710138	11764.021492
760.037129	11838.940600
760.364073	11858.631347
760.690970	11848.168432
761.017820	11843.744819
761.344623	12031.074096
761.671379	12353.430679
761.998088	12983.900064
762.324751	14532.671075
762.651366	17404.109785
762.977935	21058.863145
763.304456	23287.998361
763.630931	23749.891562
763.957359	22563.032547
764.283740	20653.945065
764.610074	18783.883675
764.936362	16648.879404
765.262602	15126.387928
765.588796	13663.414835
765.914943	12628.604582
766.241044	11790.706840
766.567097	11149.575414
766.893104	10607.739596
767.219064	10238.288554
767.544978	9863.002377
767.870845	9548.469665
768.196665	9361.876396
768.522438	9167.968413
768.848165	9002.646294
769.173846	8839.464144
769.499479	8711.567550
769.825066	8557.078870
770.150607	8369.623564
770.476101	8304.063358
770.801548	8196.207872
771.126949	8058.481028
771.452303	7967.815876
771.777611	7806.541803
772.102872	7787.748381
772.428087	7665.833117
772.753256	7539.426184
773.078378	7452.211702
773.403453	7314.129457
773.728482	7207.506532
774.053465	7148.313304
774.378401	7058.921043
774.703291	6963.839841
775.028135	6869.618155
775.352932	6830.423184
775.677683	6750.271358
776.002388	6664.433111
776.327046	6662.930847
776.651658	6575.998670
776.976224	6494.881463
777.300743	6483.806048
777.625216	6413.292909
777.949643	6372.951075
778.274024	6378.221601
778.598359	6309.979502
778.922647	6309.724923
779.246889	6277.665706
779.571086	6279.672085
779.895236	6290.593745
780.219339	6284.002436
780.543397	6285.560152
780.867409	6331.563202
781.191374	6329.040104
781.515294	6301.210415
781.839167	6349.552559
782.162995	6323.865360
782.486776	6271.581033
782.810511	6229.056380
783.134201	6157.623230
783.457844	6142.494727
783.781441	6093.575370
784.104993	6052.578186
784.428498	6019.543505
784.751958	6001.591956
785.075372	5984.620912
785.398739	5945.357885
785.722061	5967.813705
786.045337	5968.222038
786.368568	6074.121557
786.691752	6103.899653
787.014891	6346.686663
787.337983	6625.225537
787.661030	7060.342649
787.984031	7486.889799
788.306987	7748.712207
788.629897	7837.121442
788.952760	7746.441167
789.275579	7571.190494
789.598351	7270.878877
789.921078	7007.770976
790.243759	6727.056845
790.566395	6526.582759
790.888984	6331.250650
791.211529	6192.828128
791.534027	6033.134456
791.856480	5892.849227
792.178888	5828.761038
792.501249	5765.865082
792.823566	5658.672507
793.145836	5659.204349
793.468062	5637.968488
793.790241	5593.649184
794.112375	5643.370085
794.434464	5739.852728
794.756507	5764.715699
795.078505	5888.173557
795.400457	6102.246155
795.722364	6339.016548
796.044226	6535.792947
796.366042	6694.861516
796.687812	6640.943855
797.009538	6667.233472
797.331218	6573.228556
797.652852	6504.308421
797.974442	6382.546911
798.295986	6316.538043
798.617484	6188.233116
798.938938	6071.568213
799.260346	6007.739643
799.581709	5872.014138
799.903026	5821.947918
800.224299	5747.255663
800.545526	5629.393486
800.866708	5564.821346
801.187845	5516.070868
801.508936	5440.335093
801.829983	5417.990178
802.150984	5308.193848
802.471940	5280.240650
802.792851	5263.209111
803.113717	5238.346141
803.434538	5219.905600
803.755314	5183.125341
804.076045	5172.680071
804.396731	5135.751098
804.717372	5152.815404
805.037967	5153.458151
805.358518	5184.267163
805.679024	5241.030555
805.999485	5246.963993
806.319901	5266.309421
806.640272	5284.689468
806.960598	5335.383311
807.280879	5326.021888
807.601115	5365.254668
807.921306	5323.632381
808.241453	5320.108615
808.561554	5332.502292
808.881611	5297.801509
809.201623	5290.469151
809.521590	5242.953755
809.841513	5227.432042
810.161390	5242.444599
810.481223	5155.383872
810.801011	5142.395339
811.120755	5114.018684
811.440453	5062.702258
811.760107	5033.342578
812.079716	5007.247045
812.399281	4952.641267
812.718801	4945.659269
813.038276	4915.142644
813.357707	4881.029156
813.677093	4905.604781
813.996434	4842.842416
814.315731	4859.284139
814.634983	4861.353532
814.954191	4865.338565
815.273354	4924.012554
815.592473	4964.251044
815.911547	5037.035223
816.230577	5093.977577
816.549562	5180.665258
816.868502	5229.037650
817.187399	5281.755516
817.506250	5364.337178
817.825058	5389.661414
818.143821	5543.179672
818.462539	5711.284509
818.781213	5940.266320
819.099843	6299.042718
819.418429	6926.063954
819.736970	7544.447173
820.055466	8245.681756
820.373919	9157.984408
820.692327	10595.797102
821.010691	13265.146037
821.329011	19434.058931
821.647286	28924.794781
821.965517	39191.838077
822.283704	44612.437052
822.601847	46112.051772
822.919945	41540.730944
823.237999	36479.268809
823.556010	31299.573973
823.873976	26633.383671
824.191897	22449.533489
824.509775	19404.366535
824.827609	16658.379459
825.145398	15118.657319
825.463144	14370.832393
825.780845	14661.772505
826.098502	15903.360806
826.416116	18349.036265
826.733685	20617.633634
827.051210	21150.355046
827.368692	19732.674200
827.686129	17181.623502
828.003522	14712.070617
828.320872	12506.709482
828.638177	10868.866324
828.955439	9632.659454
829.272656	8575.050583
829.589830	7736.994044
829.906960	7014.909250
830.224046	6481.167004
830.541088	6070.638120
830.858086	5820.606972
831.175041	5612.445126
831.491952	5559.394544
831.808819	5592.829997
832.125642	5836.204302
832.442421	6383.842488
832.759157	7478.150959
833.075849	9239.116738
833.392497	11074.626059
833.709101	12187.629650
834.025662	11943.179058
834.342179	10896.375901
834.658653	9588.335109
834.975083	8488.657809
835.291469	7590.954338
835.607811	6860.876794
835.924110	6341.927814
836.240366	5861.689855
836.556578	5409.894085
836.872746	5058.077000
837.188871	4790.885763
837.504952	4571.220005
837.820990	4403.808327
838.136984	4287.798774
838.452935	4243.350921
838.768842	4270.076598
839.084706	4553.218045
839.400526	5284.054282
839.716303	6180.752043
840.032037	6747.859166
840.347727	6603.210818
840.663373	6004.248644
840.978977	5431.452580
841.294537	4990.530579
841.610054	4662.023789
841.925527	4427.141308
842.240957	4220.980801
842.556344	4040.225188
842.871687	3884.128380
843.186987	3729.911922
843.502244	3615.013944
843.817458	3525.031868
844.132629	3458.627269
844.447756	3413.266967
844.762840	3364.609750
845.077881	3326.107937
845.392879	3294.225160
845.707833	3266.849174
846.022745	3237.386150
846.337613	3230.126889
846.652438	3203.459185
846.967221	3196.973740
847.281960	3178.344156
847.596656	3166.477280
847.911309	3157.229283
848.225919	3144.112201
848.540485	3133.024183
848.855009	3126.511012
849.169490	3115.440639
849.483928	3108.176336
849.798323	3101.433793
850.112675	3093.710745
850.426984	3088.392328
850.741251	3084.470310
851.055474	3081.385124
851.369654	3083.552820
851.683792	3081.438056
851.997887	3084.906370
852.311938	3083.411668
852.625947	3083.136925
852.939914	3079.013261
853.253837	3082.857141
853.567718	3077.944536
853.881555	3076.401943
854.195350	3081.022161
854.509103	3076.066707
854.822812	3072.401788
855.136479	3067.932805
855.450103	3070.773495
855.763685	3065.502969
856.077224	3067.327866
856.390720	3076.958991
856.704173	3087.643716
857.017584	3092.427771
857.330953	3096.944645
857.644278	3104.574432
857.957561	3112.025257
858.270802	3107.488218
858.584000	3107.783126
858.897155	3101.547219
859.210268	3093.362905
859.523339	3077.604258
859.836367	3077.271542
860.149352	3072.805080
860.462295	3067.390881
860.775195	3059.007442
861.088054	3055.095507
861.400869	3053.550393
861.713642	3051.468396
862.026373	3062.044737
862.339062	3062.349727
862.651708	3069.707291
862.964312	3085.997780
863.276873	3096.780808
863.589392	3127.400776
863.901869	3153.680311
864.214303	3175.289217
864.526696	3192.116589
864.839045	3213.788509
865.151353	3222.998697
865.463619	3219.661453
865.775842	3224.979871
866.088023	3229.383318
866.400162	3225.932649
866.712258	3224.833677
867.024313	3222.653378
867.336325	3224.069942
867.648296	3221.408213
867.960224	3220.273953
868.272110	3222.519788
868.583954	3223.623800
868.895755	3230.414234
869.207515	3227.359295
869.519233	3246.558530
869.830909	3252.156731
870.142542	3261.258534
870.454134	3269.195831
870.765684	3280.631688
871.077191	3300.980306
871.388657	3311.904486
871.700081	3330.067764
872.011463	3349.448480
872.322803	3369.456819
872.634101	3388.925755
872.945357	3405.765730
873.256571	3432.098197
873.567744	3447.685445
873.878874	3455.151393
874.189963	3473.539002
874.501010	3472.959269
874.812015	3471.444403
875.122979	3484.599294
875.433900	3479.996720
875.744780	3484.523676
876.055618	3494.174965
876.366415	3488.859069
876.677169	3496.206550
876.987882	3513.464941
877.298554	3535.126779
877.609183	3568.867221
877.919771	3617.277422
878.230317	3681.877288
878.540822	3784.961322
878.851285	3935.293571
879.161707	4153.893125
879.472087	4523.994476
879.782425	5142.050020
880.092722	6310.118133
880.402977	8217.070687
880.713191	10562.102030
881.023363	12921.220878
881.333494	14238.958329
881.643583	14697.383215
881.953631	14292.487821
882.263637	13458.862456
882.573602	12433.539655
882.883526	11495.985863
883.193408	10554.573067
883.503248	9647.848451
883.813048	8825.953851
884.122806	8071.910662
884.432522	7317.161711
884.742197	6657.816597
885.051831	6105.071721
885.361424	5614.539726
885.670975	5221.596907
885.980485	4905.004884
886.289954	4641.954955
886.599382	4423.506636
886.908768	4246.423504
887.218113	4085.545161
887.527417	3954.492805
887.836680	3833.905885
888.145901	3733.566759
888.455082	3660.565810
888.764221	3593.029472
889.073319	3528.497661
889.382376	3499.616891
889.691392	3475.399188
890.000366	3467.164463
890.309300	3464.477528
890.618193	3466.524237
890.927044	3457.046867
891.235855	3464.971561
891.544625	3483.943944
891.853353	3511.655166
892.162041	3568.836974
892.470687	3659.156807
892.779293	3775.758696
893.087858	3946.442083
893.396381	4228.126636
893.704864	4634.539418
894.013306	5189.673800
894.321707	5758.464668
894.630068	6115.902640
894.938387	6149.708618
895.246665	5976.013142
895.554903	5661.331716
895.863100	5327.577084
896.171256	5058.621444
896.479371	4826.158717
896.787446	4604.980612
897.095480	4406.601126
897.403473	4261.088221
897.711425	4116.157568
898.019336	3995.956296
898.327207	3875.631515
898.635038	3770.785598
898.942827	3666.121161
899.250576	3582.785847
899.558284	3500.221829
899.865952	3444.673355
900.173579	3383.864437
900.481165	3339.179649
900.788711	3295.213226
901.096216	3261.697115
901.403681	3235.992271
901.711105	3225.468862
902.018489	3222.892833
902.325832	3254.498347
902.633135	3314.326761
902.940397	3479.452276
903.247619	3878.386506
903.554800	4620.618272
903.861941	5571.621862
904.169041	6266.020640
904.476101	6477.129040
904.783121	6209.378236
905.090100	5806.199354
905.397039	5398.226335
905.703938	5042.709042
906.010796	4724.428232
906.317614	4476.186693
906.624391	4240.270776
906.931129	4045.462947
907.237826	3868.094990
907.544483	3699.486038
907.851099	3532.432282
908.157675	3371.891697
908.464211	3234.479925
908.770707	3135.695995
909.077163	3057.530384
909.383578	3001.702126
909.689954	2953.975002
909.996289	2924.746392
910.302584	2903.707136
910.608839	2892.977040
910.915054	2880.679145
911.221229	2875.610265
911.527363	2878.639998
911.833458	2888.664333
912.139513	2900.624470
912.445527	2911.135276
912.751502	2944.472427
913.057436	2987.586895
913.363331	3043.342056
913.669186	3131.390849
913.975000	3247.110536
914.280775	3430.963937
914.586510	3694.049154
914.892205	4062.824681
915.197859	4555.967994
915.503475	5135.415861
915.809050	5617.498883
916.114585	5910.331948
916.420081	5967.826308
916.725536	5906.392287
917.030952	5668.898488
917.336328	5470.352643
917.641665	5261.212814
917.946961	5036.195871
918.252218	4835.590716
918.557435	4611.687868
918.862612	4420.310544
919.167750	4248.538268
919.472848	4060.924166
919.777906	3894.303949
920.082925	3737.135896
920.387904	3587.322886
920.692843	3474.968169
920.997743	3379.617265
921.302603	3287.442287
921.607423	3224.392576
921.912204	3159.422185
922.216946	3111.506018
922.521647	3065.986919
922.826310	3022.093593
923.130932	2983.007007
923.435516	2947.759259
923.740059	2920.791606
924.044564	2886.713406
924.349028	2861.290868
924.653454	2835.923781
924.957840	2809.001499
925.262186	2791.531381
925.566493	2767.651435
925.870761	2744.580594
926.174989	2733.149778
926.479178	2721.529918
926.783328	2701.783719
927.087438	2691.754343
927.391509	2679.491736
927.695541	2666.256187
927.999533	2655.878972
928.303486	2647.331695
928.607400	2642.313227
928.911275	2637.309882
929.215110	2631.061371
929.518906	2629.796042
929.822663	2628.079529
930.126381	2626.579786
930.430060	2630.907616
930.733699	2634.968266
931.037299	2637.014974
931.340861	2634.950622
931.644383	2639.974131
931.947866	2639.956487
932.251309	2633.287041
932.554714	2634.779222
932.858080	2633.065230
933.161407	2631.305867
933.464694	2626.010135
933.767943	2623.449229
934.071153	2616.111830
934.374323	2613.558485
934.677455	2613.790378
934.980548	2607.554471
935.283602	2607.347784
935.586617	2604.494491
935.889593	2607.367948
936.192530	2608.403905
936.495428	2615.133846
936.798287	2621.853704
937.101108	2637.287196
937.403890	2661.923315
937.706632	2685.226049
938.009336	2716.319886
938.312002	2744.772158
938.614628	2770.398864
938.917216	2787.732871
939.219765	2793.880558
939.522275	2806.062507
939.824747	2808.426808
940.127179	2800.504634
940.429573	2793.547842
940.731929	2792.406021
941.034246	2783.493261
941.336524	2783.982253
941.638763	2775.616458
941.940964	2770.713936
942.243126	2753.402613
942.545250	2742.135635
942.847335	2726.137533
943.149381	2714.890719
943.451389	2702.378575
943.753359	2690.864579
944.055290	2682.803774
944.357182	2674.614420
944.659036	2670.079902
944.960851	2667.740807
945.262628	2660.789056
945.564367	2660.942811
945.866067	2661.015907
946.167729	2658.520536
946.469352	2657.923160
946.770937	2657.514826
947.072484	2650.762201
947.373992	2650.462252
947.675462	2644.864051
947.976893	2638.890283
948.278286	2637.816517
948.579641	2633.740745
948.880958	2631.522637
949.182236	2629.720424
949.483476	2624.689353
949.784678	2625.470732
950.085841	2626.095835
950.386967	2633.705457
950.688054	2635.570683
950.989103	2644.158289
951.290114	2654.354023
951.591087	2664.743841
951.892021	2675.146262
952.192917	2688.838036
952.493776	2697.662575
952.794596	2700.964531
953.095378	2704.145499
953.396122	2701.924871
953.696828	2697.097966
953.997496	2694.537060
954.298126	2684.522808
954.598718	2678.440656
954.899272	2665.376506
955.199788	2656.125988
955.500266	2643.190387
955.800706	2627.973665
956.101108	2611.133690
956.401472	2601.847885
956.701798	2586.953796
957.002087	2573.859399
957.302337	2564.568552
957.602550	2553.157900
957.902724	2542.803370
958.202861	2530.840712
958.502960	2525.063550
958.803022	2518.739422
959.103045	2510.817249
959.403031	2506.882629
959.702979	2500.107318
960.002889	2495.706391
960.302762	2491.227325
960.602596	2487.179279
960.902393	2483.403455
961.202153	2480.973618
961.501875	2477.981694
961.801559	2475.831642
962.101205	2472.653194
962.400814	2472.567494
962.700385	2468.552215
962.999918	2469.540282
963.299414	2465.174642
963.598873	2466.434931
963.898293	2461.323201
964.197677	2459.452933
964.497022	2461.209775
964.796331	2461.744137
965.095601	2458.212809
965.394835	2455.931687
965.694030	2455.969495
965.993189	2457.605350
966.292309	2455.520833
966.591393	2456.123251
966.890439	2454.726851
967.189447	2456.108127
967.488419	2455.644341
967.787353	2456.831533
968.086249	2454.701645
968.385108	2456.140895
968.683930	2456.309773
968.982714	2458.313632
969.281462	2461.585341
969.580172	2462.253294
969.878844	2464.718418
970.177480	2464.448716
970.476078	2471.738225
970.774639	2473.139665
971.073162	2475.451034
971.371649	2472.910293
971.670098	2475.388020
971.968510	2477.192753
972.266885	2477.230562
972.565223	2479.796509
972.863524	2481.046715
973.161788	2483.567292
973.460014	2483.917652
973.758204	2486.007211
974.056356	2483.494195
974.354471	2487.086018
974.652550	2485.465287
974.950591	2484.993939
975.248595	2488.255565
975.546563	2483.975626
975.844493	2485.268682
976.142386	2483.610142
976.440243	2477.407002
976.738062	2478.463124
977.035845	2473.308544
977.333590	2471.720581
977.631299	2471.292083
977.928971	2469.119345
978.226606	2465.582976
978.524204	2466.845785
978.821765	2467.342338
979.119290	2467.067596
979.416777	2463.659776
979.714228	2463.758078
980.011642	2464.042903
980.309020	2470.019191
980.606360	2472.849799
980.903664	2478.798361
981.200931	2496.901144
981.498162	2512.952178
981.795356	2541.200283
982.092513	2578.048597
982.389633	2622.652727
982.686717	2663.647390
982.983764	2693.579241
983.280775	2709.902497
983.577749	2711.371993
983.874686	2704.447968
984.171587	2688.107068
984.468451	2673.248267
984.765279	2654.850576
985.062070	2638.136631
985.358824	2620.691718
985.655543	2600.945518
985.952224	2574.411405
986.248869	2547.562220
986.545478	2522.038858
986.842050	2502.733759
987.138586	2484.938486
987.435086	2473.356435
987.731549	2461.234981
988.027975	2457.461677
988.324366	2450.734257
988.620719	2444.974739
988.917037	2440.185643
989.213318	2438.322936
989.509563	2439.104315
989.805772	2438.060796
990.101944	2435.552822
990.398080	2432.114755
990.694180	2432.318922
990.990244	2433.831268
991.286271	2433.523758
991.582262	2433.372523
991.878217	2434.819334
992.174136	2435.073913
992.470019	2438.017947
992.765865	2437.460899
993.061676	2438.469130
993.357450	2441.645057
993.653188	2443.843000
993.948890	2452.092848
994.244556	2456.680298
994.540186	2467.037349
994.835780	2476.111426
995.131337	2490.181286
995.426859	2504.914058
995.722345	2525.290402
996.017795	2542.301776
996.313208	2558.443550
996.608586	2568.495611
996.903928	2569.665159
997.199234	2570.383523
997.494504	2567.129458
997.789738	2559.260217
998.084936	2548.278063
998.380099	2538.392361
998.675225	2526.487676
998.970316	2515.422343
999.265371	2498.562204
999.560390	2487.736326
999.855373	2477.497743
1000.150320	2467.080198
1000.445232	2456.047633
1000.740108	2452.463373
1001.034948	2444.495829
1001.329752	2440.924172
1001.624521	2438.937957
1001.919254	2431.068716
1002.213951	2428.931267
1002.508613	2427.315577
1002.803239	2426.708118
1003.097829	2422.816347
1003.392384	2427.492017
1003.686903	2419.700914
1003.981386	2424.507654
1004.275834	2421.729978
1004.570246	2421.901378
1004.864623	2419.378280
1005.158964	2418.307035
1005.453270	2420.008424
1005.747540	2416.396438
1006.041775	2415.993145
1006.335974	2417.268557
1006.630138	2415.363001
1006.924266	2416.683783
1007.218359	2414.082548
1007.512416	2414.924421
1007.806438	2415.317631
1008.100425	2415.620100
1008.394376	2414.488361
1008.688292	2412.973494
1008.982172	2414.558937
1009.276017	2414.006931
1009.569827	2411.405695
1009.863602	2413.437280
1010.157341	2410.215983
1010.451045	2413.535583
1010.744714	2414.122877
1011.038347	2410.924265
1011.331945	2411.675397
1011.625508	2407.816394
1011.919036	2412.088772
1012.212528	2408.660787
1012.505986	2411.632547
1012.799408	2410.868813
1013.092795	2407.957546
1013.386147	2408.673390
1013.679464	2408.381003
1013.972745	2408.985942
1014.265992	2409.757238
1014.559204	2410.866292
1014.852380	2410.757907
1015.145521	2410.296642
1015.438628	2410.500808
1015.731699	2407.934861
1016.024736	2410.931827
1016.317737	2407.415622
1016.610703	2409.399316
1016.903635	2407.224058
1017.196531	2404.680796
1017.489393	2408.484347
1017.782219	2407.014850
1018.075011	2413.623803
1018.367768	2410.291600
1018.660490	2409.318658
1018.953177	2409.318658
1019.245829	2409.318658
