Dividing Wavelength (nm)	Counts (n)	Blue Motor Position (mm): 19.600000	Red Motor Position (mm): 0.000000	
326.493990	1975.348408
326.888308	1975.348408
327.282561	1975.348408
327.676750	1948.045519
328.070874	1951.082814
328.464933	1956.118927
328.858929	1965.971862
329.252859	1980.354274
329.646726	1993.115955
330.040528	2009.986176
330.434265	2028.078877
330.827938	2044.155117
331.221547	2067.808211
331.615091	2086.823443
332.008571	2109.095261
332.401986	2127.923971
332.795338	2148.910294
333.188625	2169.137924
333.581847	2187.611232
333.975006	2205.376258
334.368100	2225.261090
334.761129	2238.141238
335.154095	2255.515574
335.546996	2289.303908
335.939833	2352.525018
336.332606	2367.325846
336.725315	2377.902187
337.117960	2386.381408
337.510540	2392.531615
337.903056	2406.271280
338.295508	2408.925448
338.687896	2418.054977
339.080220	2422.985226
339.472480	2432.732297
339.864676	2434.736155
340.256807	2435.804880
340.648875	2437.297062
341.040879	2438.748914
341.432818	2438.738832
341.824694	2440.692279
342.216506	2441.501384
342.608253	2440.488112
342.999937	2440.165478
343.391557	2436.573656
343.783113	2437.775971
344.174605	2435.472164
344.566033	2432.507965
344.957397	2433.669951
345.348697	2428.056627
345.739934	2429.468150
346.131106	2426.866914
346.522215	2425.493200
346.913260	2423.877510
347.304241	2422.576892
347.695159	2419.867272
348.086012	2419.922725
348.476802	2417.626479
348.867528	2418.508681
349.258191	2415.617579
349.648789	2414.465676
350.039324	2409.384193
350.429796	2411.075500
350.820203	2410.513411
351.210548	2411.083062
351.600828	2408.630540
351.991045	2408.277659
352.381198	2408.532238
352.771288	2409.711868
353.161314	2407.985273
353.551276	2409.069121
353.941175	2406.062072
354.331010	2408.784295
354.720782	2409.714388
355.110490	2411.342681
355.500135	2406.787998
355.889717	2405.865467
356.279235	2411.259502
356.668689	2411.080541
357.058080	2410.296642
357.447408	2406.387227
357.836672	2408.325550
358.225873	2407.932340
358.615010	2407.881929
359.004084	2412.096333
359.393095	2412.529873
359.782043	2416.245203
360.170927	2412.928124
360.559748	2414.800912
360.948505	2415.751170
361.337199	2415.168917
361.725830	2418.629669
362.114398	2416.565316
362.502903	2414.632034
362.891344	2419.156469
363.279722	2417.707138
363.668037	2418.012127
364.056289	2418.125553
364.444478	2420.285688
364.832603	2419.171593
365.220665	2422.700401
365.608665	2421.477921
365.996601	2422.478590
366.384474	2419.348033
366.772284	2422.904567
367.160031	2418.526325
367.547715	2424.205185
367.935336	2420.056315
368.322893	2421.921542
368.710388	2421.230904
369.097820	2424.948755
369.485189	2422.385328
369.872495	2422.755853
370.259738	2423.577561
370.646918	2425.911616
371.034035	2425.125196
371.421090	2426.682912
371.808081	2426.299784
372.195010	2427.176945
372.581875	2425.185689
372.968678	2426.783735
373.355418	2425.944383
373.742096	2424.681574
374.128710	2425.982192
374.515262	2427.305495
374.901751	2426.675350
375.288177	2426.055288
375.674540	2427.981009
376.060841	2428.185176
376.447079	2426.120823
376.833254	2425.377253
377.219367	2425.974630
377.605417	2425.911616
377.991404	2426.816503
378.377329	2424.984043
378.763191	2426.241811
379.148991	2432.828079
379.534727	2428.464960
379.920402	2433.012081
380.306013	2429.821030
380.691563	2432.210537
381.077049	2431.681216
381.462474	2427.527305
381.847835	2433.639704
382.233134	2431.177101
382.618371	2435.346135
383.003545	2433.924530
383.388657	2431.487132
383.773706	2434.834458
384.158693	2434.337904
384.543618	2434.940322
384.928480	2435.673810
385.313280	2438.474171
385.698017	2431.945877
386.082692	2436.583738
386.467305	2437.279417
386.851856	2440.087340
387.236344	2436.755137
387.620770	2440.808225
388.005133	2436.210693
388.389435	2435.235230
388.773674	2437.919644
389.157851	2439.207659
389.541965	2438.113728
389.926018	2439.394182
390.310008	2440.667073
390.693936	2439.575663
391.077802	2439.968873
391.461606	2440.223451
391.845348	2440.949378
392.229027	2441.776127
392.612645	2439.626075
392.996200	2438.804367
393.379694	2444.402568
393.763125	2439.996599
394.146494	2440.382248
394.529801	2441.287135
394.913047	2442.686055
395.296230	2443.059100
395.679351	2442.822166
396.062410	2442.580191
396.445408	2446.582867
396.828343	2443.127156
397.211217	2440.210848
397.594028	2443.253185
397.976778	2441.955088
398.359466	2443.298555
398.742092	2439.119439
399.124656	2446.053546
399.507158	2443.835438
399.889598	2444.531117
400.271977	2445.093206
400.654294	2449.529421
401.036549	2444.715119
401.418742	2446.474482
401.800874	2450.131839
402.182944	2446.177054
402.564952	2449.955399
402.946898	2444.178237
403.328783	2446.918104
403.710606	2447.071859
404.092367	2447.775100
404.474067	2448.700152
404.855705	2449.466407
405.237282	2448.581684
405.618797	2451.361881
406.000250	2449.857096
406.381642	2450.199895
406.762972	2452.342385
407.144240	2449.567230
407.525447	2452.536470
407.906593	2449.680656
408.287677	2452.135698
408.668700	2452.675101
409.049661	2453.325410
409.430560	2451.036726
409.811399	2452.874227
410.192176	2449.695779
410.572891	2454.810030
410.953545	2450.215018
411.334138	2451.790379
411.714669	2453.373301
412.095139	2453.232149
412.475547	2454.116871
412.855894	2453.562344
413.236180	2454.436985
413.616405	2454.195009
413.996568	2454.179886
414.376670	2459.531071
414.756711	2452.647375
415.136691	2454.227777
415.516609	2455.084773
415.896466	2456.879424
416.276262	2456.181224
416.655997	2448.924483
417.035670	2452.055039
417.415283	2456.226594
417.794834	2451.815585
418.174324	2454.358847
418.553753	2456.660133
418.933121	2456.133333
419.312428	2458.754733
419.691674	2457.842284
420.070859	2456.897068
420.449983	2459.289095
420.829045	2459.203396
421.208047	2459.173149
421.586988	2457.224743
421.965867	2460.493931
422.344686	2458.346399
422.723444	2459.843622
423.102141	2459.478138
423.480777	2460.559466
423.859352	2461.524847
424.237866	2460.856894
424.616319	2461.507203
424.994712	2461.751699
425.373044	2460.839250
425.751314	2460.632563
426.129524	2462.848150
426.507673	2464.267235
426.885762	2461.277830
427.263789	2464.007615
427.641756	2465.582976
428.019662	2463.437965
428.397508	2465.429221
428.775292	2464.660445
429.153016	2464.705815
429.530679	2464.678089
429.908282	2466.291258
430.285824	2464.297482
430.663305	2464.136165
431.040726	2465.812348
431.418086	2466.291258
431.795385	2469.257977
432.172624	2467.773357
432.549802	2467.390229
432.926920	2467.891824
433.303977	2469.953656
433.680974	2470.172946
434.057910	2470.162864
434.434786	2469.850312
434.811601	2470.709829
435.188355	2469.384006
435.565050	2470.750158
435.941683	2469.474747
436.318257	2472.108749
436.694770	2466.722277
437.071222	2470.840899
437.447614	2469.114304
437.823946	2469.570528
438.200218	2471.629840
438.576429	2472.312916
438.952580	2472.174284
439.328670	2472.701085
439.704700	2475.869450
440.080670	2475.856847
440.456580	2472.716208
440.832429	2475.236785
441.208218	2472.917855
441.583947	2476.368524
441.959616	2477.681745
442.335224	2474.800726
442.710773	2474.836014
443.086261	2476.726446
443.461689	2475.652681
443.837057	2476.711323
444.212365	2477.505305
444.587612	2476.106384
444.962800	2478.382465
445.337927	2478.402630
445.712995	2477.127218
446.088002	2480.363639
446.462949	2477.795171
446.837837	2480.225007
447.212664	2479.998155
447.587431	2482.765749
447.962139	2487.277581
448.336786	2489.677171
448.711374	2487.451501
449.085901	2486.677684
449.460369	2487.698518
449.834776	2486.869248
450.209124	2490.884527
450.583412	2492.056595
450.957640	2489.185658
451.331808	2489.893940
451.705917	2487.572489
452.079965	2487.930411
452.453954	2492.626246
452.827883	2490.128354
453.201752	2488.058960
453.575562	2488.429485
453.949311	2491.940649
454.323001	2494.655310
454.696632	2492.792604
455.070202	2496.573469
455.443713	2494.844353
455.817164	2496.853253
456.190556	2495.033397
456.563888	2499.293172
456.937160	2496.220588
457.310373	2498.229488
457.683526	2500.258553
458.056619	2500.182935
458.429653	2499.290651
458.802628	2504.488081
459.175542	2505.556805
459.548398	2505.314830
459.921194	2510.875223
460.293930	2515.268588
460.666607	2517.451408
461.039224	2523.374763
461.411782	2526.835516
461.784280	2523.861235
462.156719	2523.583971
462.529099	2524.627490
462.901419	2524.627490
463.273680	2523.112623
463.645882	2524.209074
464.018024	2525.625639
464.390106	2527.163191
464.762130	2535.763399
465.134094	2543.083154
465.505999	2559.313149
465.877845	2569.352607
466.249631	2579.134966
466.621358	2574.534913
466.993026	2574.376117
467.364634	2570.580128
467.736184	2566.955538
468.107674	2564.127451
468.479105	2567.895714
468.850477	2563.681309
469.221790	2561.266596
469.593043	2555.595298
469.964238	2559.698797
470.335373	2558.549414
470.706449	2564.928995
471.077467	2573.377968
471.448425	2592.123499
471.819324	2604.360900
472.190164	2598.377050
472.560945	2589.376070
472.931667	2582.436922
473.302330	2581.423650
473.672934	2579.833166
474.043479	2583.480441
474.413965	2580.957343
474.784393	2579.329051
475.154761	2587.450349
475.525070	2584.685277
475.895321	2587.974629
476.265513	2588.808940
476.635645	2599.528954
477.005719	2603.471136
477.375734	2604.812083
477.745691	2612.522528
478.115588	2618.269443
478.485427	2629.606998
478.855207	2645.680717
479.224928	2655.153046
479.594591	2666.941784
479.964194	2663.871721
480.333739	2671.267094
480.703226	2673.389420
481.072653	2680.774710
481.442022	2687.610515
481.811333	2692.838191
482.180584	2693.422965
482.549777	2694.842050
482.918912	2695.625949
483.287988	2701.682896
483.657005	2699.147195
484.025964	2702.103832
484.394864	2707.933926
484.763706	2713.206973
485.132489	2711.011551
485.501213	2719.306769
485.869879	2725.371277
486.238487	2732.534757
486.607036	2741.165212
486.975527	2744.366345
487.343959	2755.043509
487.712333	2762.985847
488.080648	2772.889194
488.448905	2785.522325
488.817104	2799.811476
489.185244	2819.330823
489.553326	2847.823425
489.921350	2889.165928
490.289315	2936.416663
490.657222	2959.880713
491.025070	2984.574805
491.392861	2991.549242
491.760593	2995.181393
492.128267	2994.152998
492.495883	2999.491580
492.863440	3000.938391
493.230939	3010.430883
493.598380	3018.436236
493.965763	3035.319060
494.333088	3051.564178
494.700354	3070.682754
495.067563	3097.068153
495.434713	3123.594705
495.801805	3158.048471
496.168839	3181.714168
496.535815	3211.194835
496.902733	3245.157089
497.269593	3274.665483
497.636395	3311.536482
498.003139	3359.036754
498.369825	3385.538100
498.736453	3440.191769
499.103023	3472.845843
499.469535	3513.616175
499.835989	3565.358578
500.202385	3603.714197
500.568723	3660.248217
500.935003	3722.524111
501.301226	3774.589148
501.667390	3855.192157
502.033497	3926.358126
502.399546	3966.473107
502.765537	4005.272348
503.131470	4086.066921
503.497345	4171.290147
503.863163	4191.510215
504.228923	4293.026451
504.594625	4386.791912
504.960269	4436.001136
505.325856	4556.101585
505.691385	4603.599336
506.056856	4701.813616
506.422270	4815.277386
506.787625	4883.950505
507.152924	4987.198377
507.518164	5094.204429
507.883347	5140.590606
508.248472	5255.891877
508.613540	5393.374224
508.978550	5526.992527
509.343503	5621.607423
509.708398	5745.445888
510.073236	5907.047637
510.438016	6026.782602
510.802738	6097.371359
511.167403	6284.498990
511.532010	6429.860661
511.896561	6588.876297
512.261053	6815.443395
512.625488	6899.078658
512.989866	7018.284302
513.354186	7142.692417
513.718449	7276.867768
514.082655	7517.991198
514.446803	7619.013400
514.810894	7841.290476
515.174927	7989.265986
515.538904	8131.280331
515.902822	8381.518167
516.266684	8464.556053
516.630488	8691.481072
516.994235	8828.252618
517.357925	9080.902645
517.721558	9282.813460
518.085133	9509.015074
518.448651	9707.374396
518.812112	9851.032157
519.175516	10049.066324
519.538863	10289.189084
519.902152	10469.289347
520.265385	10738.408824
520.628560	10942.487335
520.991678	11095.904770
521.354739	11330.636016
521.717743	11595.556213
522.080690	11782.661158
522.443580	12100.596649
522.806413	12323.488746
523.169189	12524.552646
523.531908	12780.156790
523.894569	12954.285806
524.257174	13224.474008
524.619722	13516.465201
524.982213	13734.182553
525.344647	13932.171350
525.707025	14163.212472
526.069345	14496.457947
526.431608	14698.560325
526.793815	15015.021278
527.155964	15106.581235
527.518057	15384.870571
527.880093	15541.539550
528.242072	15945.956035
528.603995	16088.106492
528.965860	16318.189794
529.327669	16583.775423
529.689421	16785.109025
530.051117	17012.815424
530.412755	17300.645144
530.774337	17576.411383
531.135862	17744.725427
531.497331	18065.809119
531.858743	18277.587992
532.220098	18661.552516
532.581396	18795.984965
532.942638	18906.660977
533.303824	19273.117574
533.664953	19502.608541
534.026025	19635.947060
534.387040	20080.375183
534.747999	20291.939807
535.108902	20620.529777
535.469748	20657.204171
535.830537	20955.834563
536.191270	21295.046244
536.551947	21379.538503
536.912567	21759.606215
537.273131	22073.138257
537.633638	22083.770051
537.994089	22488.839365
538.354483	22539.384494
538.714821	23065.842273
539.075103	23507.580940
539.435328	23634.907884
539.795497	23821.778416
540.155609	24069.793102
540.515665	24554.487442
540.875665	24504.441387
541.235609	24947.261382
541.595496	25148.773945
541.955328	25789.376050
542.315102	25672.073441
542.674821	25802.725025
543.034483	26063.995426
543.394090	26281.364939
543.753640	26493.320252
544.113134	27332.596750
544.472571	26988.530439
544.831953	27969.430592
545.191278	27745.714267
545.550548	27818.289238
545.909761	28328.446446
546.268918	28691.711992
546.628019	29132.308838
546.987064	29082.426621
547.346053	28853.240643
547.704986	29642.342537
548.063863	29590.829507
548.422684	29936.103175
548.781449	30074.258517
549.140158	30548.177390
549.498811	30670.566523
549.857408	30515.939211
550.215949	31301.774437
550.574434	31472.828349
550.932864	31540.057176
551.291237	32244.719743
551.649555	32169.500687
552.007817	32555.403534
552.366022	32537.555329
552.724173	32864.290154
553.082267	33351.734443
553.440305	33765.129223
553.798288	33470.478822
554.156215	33902.974533
554.514086	34263.535501
554.871902	34259.232876
555.229661	34482.233357
555.587365	34546.850867
555.945014	34794.258095
556.302606	34933.197336
556.660143	35285.521058
557.017625	35539.123864
557.375050	35574.961427
557.732421	36032.952774
558.089735	36192.757351
558.446994	36302.077293
558.804197	36838.072934
559.161345	36965.357028
559.518437	36561.613537
559.875474	36976.301373
560.232455	37273.479913
560.589381	37578.976356
560.946251	37494.055599
561.303065	38231.226047
561.659825	38211.467244
562.016528	38106.399516
562.373177	38033.718680
562.729770	38584.789892
563.086307	38342.698561
563.442789	38879.185715
563.799216	39058.973426
564.155587	39040.048934
564.511904	39206.384326
564.868164	39418.203528
565.224370	39764.177917
565.580520	39697.604439
565.936615	39988.436166
566.292654	39892.934027
566.648638	40232.765770
567.004567	40327.695738
567.360441	40476.939097
567.716260	40481.115693
568.072023	40862.733560
568.427732	40966.238531
568.783385	40701.784641
569.138982	41169.739829
569.494525	41235.078224
569.850013	41139.979378
570.205445	41218.298744
570.560823	41283.274176
570.916145	41283.692592
571.271412	41422.052100
571.626625	41300.855200
571.981782	41468.786117
572.336884	41265.814139
572.691931	41672.660461
573.046923	41398.270457
573.401860	41363.428522
573.756743	41430.261619
574.111570	41619.640125
574.466342	41579.046234
574.821059	41777.040072
575.175722	41426.500918
575.530330	41530.504963
575.884882	41356.940557
576.239380	41399.321537
576.593823	41468.307207
576.948211	41470.684111
577.302544	41101.006217
577.656823	41212.004863
578.011047	41481.247849
578.365216	41311.139154
578.719330	41189.261698
579.073389	41124.210648
579.427394	41268.122988
579.781344	41313.805924
580.135239	41067.222925
580.489080	41206.719213
580.842866	40809.572072
581.196597	41268.879161
581.550273	41281.610595
581.903895	41224.496842
582.257463	41681.895854
582.610975	41157.958653
582.964434	41468.937351
583.317837	41205.705942
583.671186	41106.218770
584.024481	41369.309028
584.377721	40999.527790
584.730906	41314.635194
585.084037	41375.749102
585.437113	41154.709629
585.790135	41251.688826
586.143103	40933.334920
586.496016	41098.331885
586.848874	41179.222240
587.201679	41222.135062
587.554428	40777.250714
587.907124	41004.042144
588.259765	40829.799702
588.612352	41108.101641
588.964884	40576.343090
589.317362	40890.911090
589.669786	40877.741075
590.022155	40692.602180
590.374470	41131.588377
590.726731	40718.039842
591.078937	40304.939969
591.431090	40431.180544
591.783188	40126.425150
592.135232	39858.387000
592.487222	40137.677005
592.839157	40254.488102
593.191038	39970.270368
593.542866	39776.405236
593.894639	39225.250844
594.246358	39519.326554
594.598022	39501.150674
594.949633	39170.448461
595.301190	39160.202316
595.652692	39035.514417
596.004141	39387.147500
596.355535	38450.070097
596.706876	38437.540309
597.058162	38290.177300
597.409395	38765.384188
597.760573	38866.081236
598.111698	38469.838982
598.462768	38495.458126
598.813785	38553.476765
599.164748	38058.483348
599.515657	38451.320303
599.866511	37974.807756
600.217312	38589.858773
600.568060	37602.876467
600.918753	38332.827982
601.269392	38324.996549
601.619978	37992.045982
601.970510	38209.644867
602.320988	38391.716221
602.671412	38711.685817
603.021783	38470.292686
603.372100	38158.812392
603.722363	38282.794530
604.072572	38353.743729
604.422728	38385.757577
604.772830	38216.795744
605.122878	38311.871905
605.472872	38261.972044
605.822813	38560.451202
606.172701	38386.740602
606.522534	38623.049729
606.872314	38902.521216
607.222041	38678.068882
607.571714	39074.417001
607.921333	38535.066471
608.270899	38835.574693
608.620411	39172.495169
608.969870	38988.929114
609.319276	39007.397381
609.668627	39050.005213
610.017926	39535.133092
610.367171	39711.860822
610.716362	39794.903750
611.065500	39757.097616
611.414585	39954.163882
611.763616	40244.390671
612.112594	40178.901041
612.461518	40394.417930
612.810389	40685.932733
613.159207	40572.471483
613.507971	40666.917501
613.856682	41127.343726
614.205340	41010.915757
614.553945	41694.347504
614.902496	41174.667557
615.250994	41630.859213
615.599439	41719.192831
615.947830	41935.624689
616.296169	41990.122083
616.644454	42124.257104
616.992686	42306.608242
617.340864	42831.145341
617.688990	42556.871283
618.037063	43155.949404
618.385082	43130.189107
618.733048	43422.202985
619.080961	43433.311168
619.428821	43456.492914
619.776628	43557.061412
620.124382	43380.207653
620.472083	43533.718349
620.819731	43656.329293
621.167326	43334.660828
621.514868	43316.827746
621.862357	42884.107703
622.209793	42921.828137
622.557176	42595.226903
622.904506	42350.408307
623.251783	42017.551001
623.599007	41795.616723
623.946179	41578.892478
624.293297	41538.656509
624.640363	40968.449077
624.987376	40951.231016
625.334336	40715.637732
625.681243	40382.926619
626.028097	40336.356440
626.374899	40197.311335
626.721647	40166.963589
627.068343	40071.113610
627.414987	39854.119663
627.761577	39637.312239
628.108115	39975.266152
628.454600	39423.101009
628.801032	39607.090522
629.147412	39572.306560
629.493739	39601.038617
629.840014	39255.185216
630.186236	39607.317374
630.532405	39221.333868
630.878521	39450.935740
631.224585	39320.019496
631.570597	39030.621977
631.916556	39188.815905
632.262462	39152.413733
632.608316	39155.456069
632.954117	39049.528824
633.299866	39054.915297
633.645562	38978.297320
633.991206	38486.326075
634.336797	38071.050945
634.682336	38067.771674
635.027823	37823.762184
635.373257	37648.761049
635.718639	37404.136538
636.063968	37275.445963
636.409245	36695.642694
636.754470	36763.899917
637.099642	36527.051386
637.444762	36056.885652
637.789829	36201.428136
638.134845	35866.529162
638.479808	35811.557900
638.824719	35714.465277
639.169577	35319.987427
639.514383	35396.406278
639.859137	35097.004589
640.203839	35340.086507
640.548489	34981.373123
640.893086	35050.681427
641.237632	34814.659645
641.582125	34921.126293
641.926566	34856.647415
642.270955	34828.699258
642.615292	34846.628122
642.959576	34821.762631
643.303809	34827.474258
643.647990	34973.735775
643.992118	34943.304850
644.336195	34928.209115
644.680219	35032.989497
645.024192	35328.348181
645.368112	35852.252615
645.711981	35856.673707
646.055797	36733.390854
646.399562	36661.753538
646.743274	37595.796166
647.086935	38029.100983
647.430544	37925.850591
647.774101	38042.437356
648.117606	38294.439595
648.461059	38587.370963
648.804460	38194.622229
649.147810	37574.845131
649.491108	37348.341047
649.834354	36988.261510
650.177548	36159.727711
650.520690	35715.823868
650.863781	35727.766362
651.206820	35576.314977
651.549807	35148.371427
651.892742	34683.312381
652.235626	34481.683872
652.578458	34340.561811
652.921238	33755.258643
653.263967	34086.638892
653.606644	33778.752941
653.949269	33719.584918
654.291843	33326.987418
654.634365	33734.904985
654.976836	33329.586133
655.319255	33331.665609
655.661622	33333.619056
656.003938	33114.855665
656.346203	32983.868844
656.688416	33199.985630
657.030577	33009.596372
657.372687	32836.833509
657.714746	33107.712350
658.056753	33211.943247
658.398708	32685.752649
658.740612	32742.395054
659.082465	33013.261291
659.424266	32833.229084
659.766016	32961.483600
660.107715	32841.635208
660.449362	32969.189004
660.790958	32948.840386
661.132503	32976.932216
661.473996	32997.106914
661.815438	33102.141875
662.156829	33288.246151
662.498168	33078.982814
662.839456	33104.203707
663.180693	33256.174330
663.521879	33409.553957
663.863013	33371.846126
664.204097	33364.551576
664.545129	33827.261444
664.886110	33790.798778
665.227040	33852.048797
665.567918	33967.148422
665.908746	34032.806930
666.249522	34200.165676
666.590248	34205.594999
666.930922	34324.130170
667.271545	34265.211684
667.612118	34347.105228
667.952639	34143.765247
668.293109	34194.207032
668.633528	34091.869089
668.973896	34025.973646
669.314213	34047.948036
669.654480	33780.839979
669.994695	33816.082685
670.334859	33722.566761
670.674973	33621.083293
671.015035	33771.957466
671.355047	33734.244594
671.695008	33683.752397
672.034918	33575.075202
672.374777	33658.037471
672.714585	33500.370343
673.054342	33734.756271
673.394049	33489.572192
673.733705	33763.974798
674.073310	33426.242697
674.412864	33502.772453
674.752368	33108.453399
675.091820	33395.531987
675.431223	32980.894563
675.770574	32702.948025
676.109875	32571.900710
676.449125	32291.761270
676.788324	32207.175750
677.127473	31690.523016
677.466571	31613.632817
677.805619	31275.096651
678.144616	31267.245054
678.483562	31191.554649
678.822458	30874.277029
679.161303	30800.580401
679.500098	30711.909025
679.838842	30596.164133
680.177535	30746.138460
680.516179	31032.050021
680.854771	31268.588521
681.193314	32135.735038
681.531805	33248.365583
681.870247	34026.273595
682.208638	34755.932723
682.546978	34988.808825
682.885268	35063.526287
683.223508	34541.471956
683.561697	34196.740212
683.899836	34002.610419
684.237925	33504.829244
684.575963	33365.353120
684.913951	32906.719025
685.251889	33071.234560
685.589776	33056.038002
685.927614	33040.586866
686.265401	33200.608212
686.603137	33293.297387
686.940824	33796.933862
687.278460	34189.380127
687.616046	34330.976057
687.953582	34927.349598
688.291068	34790.192405
688.628504	35070.699849
688.965889	35004.207029
689.303224	34619.299810
689.640510	34271.450112
689.977745	33545.844072
690.314930	32732.116141
690.652065	32215.831411
690.989150	31466.284931
691.326185	30574.346019
691.663170	29858.945795
692.000105	29111.942577
692.336990	28445.925495
692.673825	27986.389034
693.010610	27470.815107
693.347345	26903.700422
693.684030	26259.473728
694.020665	25981.907797
694.357251	25314.201929
694.693786	25273.844972
695.030272	25038.874271
695.366707	24494.308668
695.703093	24216.742737
696.039429	24199.741446
696.375716	23937.102372
696.711952	23901.564757
697.048139	23759.966308
697.384276	23571.051588
697.720363	23704.198543
698.056400	23495.172140
698.392388	23275.690384
698.728326	23235.015834
699.064214	23036.127192
699.400053	22975.267862
699.735842	22629.754739
700.071581	22344.803518
700.407270	22056.641082
700.742910	21868.958924
701.078501	21598.311977
701.414042	21310.502421
701.749533	21022.239162
702.084974	20677.903149
702.420366	20881.038963
702.755709	20437.740059
703.091002	20154.933849
703.426246	20180.865544
703.761440	20069.541744
704.096584	19810.055911
704.431679	19767.841289
704.766725	19661.959414
705.101721	19611.565520
705.436668	19697.358396
705.771565	19374.716988
706.106413	19726.471060
706.441212	19699.148006
706.775961	19834.606330
707.110661	19906.911600
707.445311	20262.590210
707.779913	20111.373238
708.114465	20349.040957
708.448967	20629.230808
708.783421	21326.780307
709.117825	21604.961259
709.452180	21829.335455
709.786485	22218.600752
710.120742	23024.156972
710.454949	23031.867417
710.789107	23509.675540
711.123216	24217.529157
711.457275	24319.234436
711.791286	24872.712799
712.125247	24935.785195
712.459159	24618.242915
712.793023	25291.642766
713.126837	24184.312994
713.460602	24433.184677
713.794318	24043.879051
714.127985	23652.957735
714.461602	22774.987861
714.795171	22705.969423
715.128691	21708.395653
715.462162	21173.839261
715.795584	20757.523132
716.128957	20491.292236
716.462281	20084.448436
716.795556	19859.597851
717.128782	19361.715853
717.461960	18819.443975
717.795088	18739.914732
718.128167	18344.859669
718.461198	17885.202220
718.794180	17737.987925
719.127113	17381.293523
719.459997	17182.861105
719.792833	16840.889393
720.125619	16800.335830
720.458357	16501.337434
720.791046	16327.891495
721.123686	16167.542473
721.456278	15932.236535
721.788821	15896.320835
722.121315	15629.157325
722.453761	15711.529779
722.786158	15629.207736
723.118506	15642.140817
723.450805	15510.100394
723.783056	15657.478527
724.115259	15564.864969
724.447412	15502.732748
724.779518	15745.058493
725.111574	15768.666216
725.443582	15960.882892
725.775542	15946.631550
726.107453	16412.764361
726.439315	16288.371369
726.771129	16694.761466
727.102895	17061.684369
727.434612	17269.263961
727.766281	17388.184780
728.097901	17655.512128
728.429473	17679.394594
728.760996	17662.579825
729.092471	17755.395029
729.423897	17629.565309
729.755276	17496.302407
730.086606	17611.485211
730.417887	18126.212224
730.749120	18646.819743
731.080305	18827.756837
731.411442	19149.745416
731.742530	19233.219362
732.073570	19309.091248
732.404562	19605.770713
732.735506	19420.253731
733.066401	19131.080544
733.397249	18614.410165
733.728048	17968.996280
734.058798	17144.694529
734.389501	16466.755119
734.720156	16010.175294
735.050762	15476.551516
735.381320	15143.081709
735.711831	14895.160284
736.042293	14547.751687
736.372707	14557.287029
736.703073	14355.242624
737.033391	14543.386048
737.363661	14512.211552
737.693883	14610.032622
738.024056	14784.564930
738.354182	14972.431090
738.684260	15253.283853
739.014290	15479.026722
739.344272	15670.910682
739.674207	15945.298165
740.004093	16059.071966
740.333931	16040.339038
740.663722	16072.914974
740.993464	16074.218113
741.323159	15901.109931
741.652806	15621.383866
741.982405	15401.642490
742.311956	15072.661831
742.641460	14950.502071
742.970915	14644.221728
743.300323	14311.591273
743.629683	14102.312812
743.958996	13821.170183
744.288260	13552.083473
744.617477	13245.326741
744.946647	13178.831401
745.275768	12900.700861
745.604842	12726.496228
745.933869	12563.674521
746.262847	12507.085048
746.591778	12430.514963
746.920662	12338.985253
747.249498	12340.336282
747.578286	12453.704270
747.907027	12595.897576
748.235720	12816.828664
748.564365	12847.695649
748.892963	12749.672933
749.221514	12805.957416
749.550017	12655.640290
749.878473	12616.525978
750.206881	12399.043039
750.535242	12313.383753
750.863555	12224.515772
751.191821	12131.756021
751.520039	12153.337201
751.848210	12066.460476
752.176334	12086.327663
752.504411	11994.195535
752.832440	11837.430774
753.160421	11903.409396
753.488356	11783.286261
753.816243	11687.874863
754.144082	11549.127186
754.471875	11493.223310
754.799620	11438.115937
755.127318	11407.611915
755.454969	11372.124713
755.782572	11319.588328
756.110129	11336.698004
756.437638	11250.854716
756.765100	11243.650907
757.092515	11252.525858
757.419882	11264.082703
757.747203	11266.189906
758.074477	11354.145437
758.401703	11301.914042
758.728882	11456.894235
759.056014	11500.182623
759.383099	11611.609767
759.710138	11725.655791
760.037129	11796.526852
760.364073	11822.771099
760.690970	11797.880402
761.017820	11796.562140
761.344623	11981.733803
761.671379	12308.687918
761.998088	12941.680401
762.324751	14486.980577
762.651366	17342.113675
762.977935	20994.706900
763.304456	23207.879303
763.630931	23655.624505
763.957359	22483.861226
764.283740	20577.415308
764.610074	18698.451241
764.936362	16581.181749
765.262602	15071.129320
765.588796	13609.560189
765.914943	12581.961306
766.241044	11746.755540
766.567097	11109.510844
766.893104	10569.784749
767.219064	10206.819151
767.544978	9825.513836
767.870845	9517.501857
768.196665	9336.358075
768.522438	9133.849884
768.848165	8966.768402
769.173846	8809.053383
769.499479	8683.382459
769.825066	8524.238273
770.150607	8349.370728
770.476101	8291.110113
770.801548	8170.888677
771.126949	8038.006382
771.452303	7942.181609
771.777611	7784.333000
772.102872	7760.742920
772.428087	7648.171434
772.753256	7515.576485
773.078378	7424.785304
773.403453	7289.584079
773.728482	7189.512134
774.053465	7125.202134
774.378401	7038.438835
774.703291	6947.904753
775.028135	6844.997159
775.352932	6817.510268
775.677683	6731.586321
776.002388	6647.686398
776.327046	6645.793445
776.651658	6556.822120
776.976224	6484.726059
777.300743	6463.122194
777.625216	6397.511577
777.949643	6353.986254
778.274024	6357.885587
778.598359	6296.542306
778.922647	6299.879550
779.246889	6258.380772
779.571086	6263.946205
779.895236	6277.131343
780.219339	6271.276043
780.543397	6274.154542
780.867409	6321.564073
781.191374	6315.585265
781.515294	6290.356810
781.839167	6342.033678
782.162995	6305.608821
782.486776	6260.059476
782.810511	6212.932249
783.134201	6142.187217
783.457844	6134.227235
783.781441	6082.759574
784.104993	6042.513523
784.428498	6011.828019
784.751958	5988.497559
785.075372	5967.312110
785.398739	5927.280308
785.722061	5954.056396
786.045337	5946.635818
786.368568	6059.666049
786.691752	6081.915181
787.014891	6328.041956
787.337983	6607.919256
787.661030	7045.390587
787.984031	7469.356666
788.306987	7731.549598
788.629897	7819.379101
788.952760	7728.771923
789.275579	7552.883544
789.598351	7253.393635
789.921078	6990.333625
790.243759	6718.328087
790.566395	6510.307394
790.888984	6314.725748
791.211529	6179.486714
791.534027	6016.929667
791.856480	5879.878338
792.178888	5821.037990
792.501249	5755.780254
792.823566	5652.630684
793.145836	5644.597606
793.468062	5625.806705
793.790241	5589.485191
794.112375	5631.858610
794.434464	5722.906889
794.756507	5757.935347
795.078505	5880.921857
795.400457	6098.528304
795.722364	6329.839127
796.044226	6528.730291
796.366042	6676.990625
796.687812	6628.280476
797.009538	6658.572770
797.331218	6562.657256
797.652852	6494.125290
797.974442	6374.284460
798.295986	6302.543800
798.617484	6174.047309
798.938938	6065.039919
799.260346	6006.754098
799.581709	5863.222366
799.903026	5809.750847
800.224299	5740.654272
800.545526	5623.540706
800.866708	5554.933123
801.187845	5510.349158
801.508936	5433.206901
801.829983	5404.374022
802.150984	5298.802178
802.471940	5268.252786
802.792851	5256.164099
803.113717	5234.713989
803.434538	5208.348755
803.755314	5179.795659
804.076045	5166.151776
804.396731	5130.891426
804.717372	5141.961800
805.037967	5145.961955
805.358518	5178.726935
805.679024	5233.549483
805.999485	5248.945167
806.319901	5265.994349
806.640272	5282.143685
806.960598	5328.343340
807.280879	5321.691537
807.601115	5356.362073
807.921306	5318.681968
808.241453	5313.895393
808.561554	5325.474923
808.881611	5293.776148
809.201623	5286.920178
809.521590	5238.366305
809.841513	5222.474068
810.161390	5239.124999
810.481223	5148.631246
810.801011	5134.279081
811.120755	5112.604640
811.440453	5057.431732
811.760107	5030.154048
812.079716	5002.553731
812.399281	4949.954332
812.718801	4944.933343
813.038276	4912.722890
813.357707	4876.318198
813.677093	4901.400459
813.996434	4837.168597
814.315731	4859.558882
814.634983	4856.791288
814.954191	4864.509295
815.273354	4920.899642
815.592473	4967.416889
815.911547	5037.683012
816.230577	5088.732256
816.549562	5175.568652
816.868502	5223.265529
817.187399	5278.622439
817.506250	5359.137228
817.825058	5385.746958
818.143821	5539.141708
818.462539	5706.117327
818.781213	5938.030568
819.099843	6297.124559
819.418429	6923.142606
819.736970	7537.765124
820.055466	8247.582271
820.373919	9156.847628
820.692327	10595.918090
821.010691	13283.185806
821.329011	19481.591971
821.647286	29019.729790
821.965517	39328.569292
822.283704	44762.275268
822.601847	46218.445324
822.919945	41639.265337
823.237999	36537.872223
823.556010	31338.723574
823.873976	26662.559349
824.191897	22483.374755
824.509775	19424.432848
824.827609	16662.389697
825.145398	15124.068997
825.463144	14371.722156
825.780845	14669.228371
826.098502	15917.554175
826.416116	18367.988483
826.733685	20649.937348
827.051210	21171.414466
827.368692	19735.033460
827.686129	17182.966969
828.003522	14720.083531
828.320872	12510.518074
828.638177	10871.225584
828.955439	9631.094176
829.272656	8572.610665
829.589830	7739.005465
829.906960	7014.213571
830.224046	6484.398384
830.541088	6073.617442
830.858086	5818.154450
831.175041	5614.023007
831.491952	5561.368156
831.808819	5591.912507
832.125642	5835.163303
832.442421	6383.913064
832.759157	7485.347206
833.075849	9251.956557
833.392497	11091.236661
833.709101	12197.953933
834.025662	11945.437495
834.342179	10895.949923
834.658653	9594.946583
834.975083	8498.256166
835.291469	7591.859225
835.607811	6862.926023
835.924110	6344.534091
836.240366	5860.749680
836.556578	5412.712090
836.872746	5060.635385
837.188871	4789.973315
837.504952	4568.049119
837.820990	4406.623812
838.136984	4293.379332
838.452935	4239.345724
838.768842	4271.757823
839.084706	4553.044125
839.400526	5289.833965
839.716303	6191.290576
840.032037	6750.810762
840.347727	6606.215346
840.663373	6009.010014
840.978977	5432.077683
841.294537	4991.506043
841.610054	4660.801309
841.925527	4426.274229
842.240957	4218.949216
842.556344	4037.850805
842.871687	3879.228378
843.186987	3732.795462
843.502244	3612.495887
843.817458	3525.846014
844.132629	3452.933286
844.447756	3407.580545
844.762840	3367.871376
845.077881	3325.366888
845.392879	3292.916980
845.707833	3268.850512
846.022745	3241.245153
846.337613	3227.066908
846.652438	3205.626881
846.967221	3195.975592
847.281960	3177.681245
847.596656	3169.113804
847.911309	3155.996721
848.225919	3147.467089
848.540485	3131.970582
848.855009	3126.516054
849.169490	3114.823097
849.483928	3108.940071
849.798323	3102.411777
850.112675	3093.372988
850.426984	3090.865014
850.741251	3087.890733
851.055474	3080.883529
851.369654	3084.775300
851.683792	3080.129877
851.997887	3087.076587
852.311938	3085.002152
852.625947	3084.689600
852.939914	3075.693661
853.253837	3082.365628
853.567718	3082.269846
853.881555	3078.012592
854.195350	3081.790937
854.509103	3076.475040
854.822812	3074.556881
855.136479	3066.198648
855.450103	3073.596541
855.763685	3065.777712
856.077224	3071.900193
856.390720	3075.988569
856.704173	3087.114395
857.017584	3096.296857
857.330953	3101.174173
857.644278	3108.262036
857.957561	3111.624485
858.270802	3107.977210
858.584000	3108.055348
858.897155	3100.055037
859.210268	3090.499530
859.523339	3077.243816
859.836367	3077.221131
860.149352	3071.388516
860.462295	3067.380798
860.775195	3058.175652
861.088054	3054.712379
861.400869	3053.590722
861.713642	3049.703993
862.026373	3061.028945
862.339062	3065.369378
862.651708	3075.116449
862.964312	3088.775455
863.276873	3098.910695
863.589392	3130.503606
863.901869	3154.902791
864.214303	3174.964063
864.526696	3194.372505
864.839045	3208.308775
865.151353	3225.080694
865.463619	3226.393914
865.775842	3225.552042
866.088023	3231.566138
866.400162	3223.500292
866.712258	3223.885940
867.024313	3222.668502
867.336325	3220.059704
867.648296	3224.049778
867.960224	3219.084241
868.272110	3224.077504
868.583954	3222.676063
868.895755	3229.877352
869.207515	3230.787280
869.519233	3249.079107
869.830909	3252.234869
870.142542	3264.280706
870.454134	3272.898558
870.765684	3285.231741
871.077191	3301.781849
871.388657	3315.382882
871.700081	3331.456602
872.011463	3353.186495
872.322803	3370.742313
872.634101	3386.306876
872.945357	3411.124476
873.256571	3436.710853
873.567744	3451.947740
873.878874	3457.868575
874.189963	3471.315853
874.501010	3475.313488
874.812015	3471.706543
875.122979	3488.090293
875.433900	3487.603821
875.744780	3487.455107
876.055618	3497.728979
876.366415	3489.065756
876.677169	3501.963548
876.987882	3515.055425
877.298554	3536.152653
877.609183	3574.442737
877.919771	3620.289511
878.230317	3688.851724
878.540822	3787.219759
878.851285	3942.363789
879.161707	4156.620389
879.472087	4534.555693
879.782425	5155.925796
880.092722	6333.110836
880.402977	8260.802697
880.713191	10626.311207
881.023363	13010.711441
881.333494	14349.054608
881.643583	14805.117714
881.953631	14393.142019
882.263637	13546.664233
882.573602	12508.801561
882.883526	11558.574308
883.193408	10609.284710
883.503248	9692.137508
883.813048	8862.333338
884.122806	8100.365455
884.432522	7336.897828
884.742197	6682.306522
885.051831	6119.696109
885.361424	5627.959277
885.670975	5233.887240
885.980485	4916.148354
886.289954	4649.511645
886.599382	4430.523922
886.908768	4253.844083
887.218113	4092.471707
887.527417	3958.306438
887.836680	3840.706401
888.145901	3739.734610
888.455082	3659.986077
888.764221	3592.905963
889.073319	3535.930843
889.382376	3505.452027
889.691392	3477.002275
890.000366	3471.010863
890.309300	3466.483907
890.618193	3469.745534
890.927044	3464.550625
891.235855	3472.041779
891.544625	3487.540807
891.853353	3514.974766
892.162041	3574.104980
892.470687	3664.203002
892.779293	3782.375210
893.087858	3954.391982
893.396381	4232.381370
893.704864	4644.775481
894.013306	5206.269279
894.321707	5780.739006
894.630068	6140.684953
894.938387	6177.876065
895.246665	5993.871429
895.554903	5680.122617
895.863100	5340.779866
896.171256	5073.656686
896.479371	4834.126261
896.787446	4612.212148
897.095480	4412.627826
897.403473	4267.389663
897.711425	4122.879947
898.019336	4003.828057
898.327207	3881.955643
898.635038	3781.684572
898.942827	3674.986030
899.250576	3588.701641
899.558284	3506.230885
899.865952	3450.505970
900.173579	3386.894170
900.481165	3340.520596
900.788711	3301.030718
901.096216	3268.903444
901.403681	3240.647777
901.711105	3230.189903
902.018489	3225.786455
902.325832	3259.431116
902.633135	3316.527224
902.940397	3484.932010
903.247619	3889.139287
903.554800	4637.251559
903.861941	5596.540286
904.169041	6301.346526
904.476101	6510.546849
904.783121	6234.644499
905.090100	5828.750956
905.397039	5416.820631
905.703938	5060.660591
906.010796	4743.135954
906.317614	4490.654805
906.624391	4252.835852
906.931129	4056.767735
907.237826	3878.666290
907.544483	3707.743448
907.851099	3537.284393
908.157675	3377.767161
908.464211	3239.967221
908.770707	3138.748413
909.077163	3060.731517
909.383578	2998.637104
909.689954	2956.687142
909.996289	2925.434509
910.302584	2905.542116
910.608839	2894.685991
910.915054	2879.290307
911.221229	2876.626058
911.527363	2881.810884
911.833458	2888.311452
912.139513	2897.521640
912.445527	2914.769948
912.751502	2947.671039
913.057436	2988.426247
913.363331	3045.149310
913.669186	3132.663741
913.975000	3248.895104
914.280775	3436.400822
914.586510	3701.802448
914.892205	4074.537802
915.197859	4571.930808
915.503475	5157.284387
915.809050	5645.903264
916.114585	5938.242297
916.420081	6003.631103
916.725536	5937.735661
917.030952	5691.709709
917.336328	5495.679400
917.641665	5280.737203
917.946961	5052.078027
918.252218	4853.905228
918.557435	4627.610352
918.862612	4431.728758
919.167750	4261.705762
919.472848	4069.174014
919.777906	3905.656627
920.082925	3747.235847
920.387904	3597.259000
920.692843	3483.933861
920.997743	3385.248234
921.302603	3292.385139
921.607423	3227.258472
921.912204	3161.302536
922.216946	3113.532562
922.521647	3065.412228
922.826310	3024.583923
923.130932	2988.388438
923.435516	2948.142387
923.740059	2922.805547
924.044564	2891.626011
924.349028	2866.596682
924.653454	2838.270438
924.957840	2811.632982
925.262186	2790.954168
925.566493	2771.646549
925.870761	2744.131932
926.174989	2733.835375
926.479178	2719.095041
926.783328	2702.118955
927.087438	2694.781556
927.391509	2679.216993
927.695541	2669.212824
927.999533	2656.930052
928.303486	2651.772952
928.607400	2644.027219
928.911275	2640.387506
929.215110	2631.169756
929.518906	2626.337810
929.822663	2627.774539
930.126381	2627.633387
930.430060	2629.191103
930.733699	2630.048099
931.037299	2637.657721
931.340861	2637.375417
931.644383	2639.331384
931.947866	2639.921199
932.251309	2634.638070
932.554714	2633.942391
932.858080	2633.839047
933.161407	2628.742441
933.464694	2627.141874
933.767943	2623.159363
934.071153	2618.251799
934.374323	2614.596963
934.677455	2612.459514
934.980548	2610.395161
935.283602	2606.906683
935.586617	2603.234202
935.889593	2608.363576
936.192530	2611.025305
936.495428	2612.804833
936.798287	2624.976699
937.101108	2636.594038
937.403890	2660.171514
937.706632	2686.181348
938.009336	2718.938765
938.312002	2748.898342
938.614628	2771.147475
938.917216	2790.742440
939.219765	2800.139151
939.522275	2809.245995
939.824747	2808.676345
940.127179	2802.679892
940.429573	2795.952472
940.731929	2796.217133
941.034246	2785.184568
941.336524	2785.330761
941.638763	2776.952364
941.940964	2772.808535
942.243126	2756.996956
942.545250	2746.556727
942.847335	2730.178018
943.149381	2719.478169
943.451389	2705.700695
943.753359	2694.118644
944.055290	2685.271419
944.357182	2675.582322
944.659036	2670.372289
944.960851	2666.626712
945.262628	2663.334838
945.564367	2664.433810
945.866067	2659.448109
946.167729	2659.861483
946.469352	2659.357368
946.770937	2655.815957
947.072484	2651.304125
947.373992	2649.335554
947.675462	2645.816829
947.976893	2642.265336
948.278286	2636.646970
948.579641	2635.726959
948.880958	2634.781743
949.182236	2632.210754
949.483476	2626.670526
949.784678	2625.667337
950.085841	2626.927625
950.386967	2633.382823
950.688054	2637.146044
950.989103	2645.947899
951.290114	2654.553148
951.591087	2666.722494
951.892021	2674.884122
952.192917	2689.344672
952.493776	2701.115766
952.794596	2701.372865
953.095378	2706.136755
953.396122	2705.504090
953.696828	2700.553677
953.997496	2697.420600
954.298126	2684.784948
954.598718	2680.033660
954.899272	2666.523368
955.199788	2655.667243
955.500266	2645.912611
955.800706	2626.819240
956.101108	2610.659822
956.401472	2603.574480
956.701798	2587.871286
957.002087	2571.817731
957.302337	2564.389591
957.602550	2553.898950
957.902724	2541.747249
958.202861	2534.661907
958.502960	2524.307377
958.803022	2519.268744
959.103045	2509.645181
959.403031	2506.484377
959.702979	2496.268479
960.002889	2494.557008
960.302762	2492.500217
960.602596	2485.656850
960.902393	2480.711478
961.202153	2482.019658
961.501875	2473.447176
961.801559	2474.959522
962.101205	2473.429532
962.400814	2472.091105
962.700385	2467.685137
962.999918	2465.862760
963.299414	2466.646659
963.598873	2464.484004
963.898293	2460.940073
964.197677	2461.655917
964.497022	2459.447892
964.796331	2458.913529
965.095601	2458.429578
965.394835	2455.102417
965.694030	2455.397324
965.993189	2457.050823
966.292309	2455.225925
966.591393	2454.825153
966.890439	2455.762808
967.189447	2454.709207
967.488419	2454.535287
967.787353	2458.817747
968.086249	2452.934721
968.385108	2459.291616
968.683930	2456.196347
968.982714	2461.136678
969.281462	2457.139043
969.580172	2460.516616
969.878844	2460.602316
970.177480	2466.631536
970.476078	2470.409881
970.774639	2475.070427
971.073162	2476.844913
971.371649	2474.399954
971.670098	2475.871971
971.968510	2476.723926
972.266885	2478.642085
972.565223	2480.290542
972.863524	2482.579226
973.161788	2485.659371
973.460014	2487.862355
973.758204	2487.005359
974.056356	2486.420585
974.354471	2486.579382
974.652550	2485.586274
974.950591	2488.956286
975.248595	2486.039978
975.546563	2485.117447
975.844493	2481.376911
976.142386	2481.830615
976.440243	2477.036477
976.738062	2479.410861
977.035845	2475.229224
977.333590	2471.466002
977.631299	2466.077009
977.928971	2468.156485
978.226606	2466.918882
978.524204	2467.095322
978.821765	2464.899899
979.119290	2462.938891
979.416777	2463.251442
979.714228	2461.363530
980.011642	2466.616412
980.309020	2468.920220
980.606360	2471.289562
980.903664	2480.169554
981.200931	2492.475011
981.498162	2512.823628
981.795356	2541.901004
982.092513	2579.240830
982.389633	2623.061060
982.686717	2668.494459
982.983764	2699.542926
983.280775	2715.493137
983.577749	2717.824670
983.874686	2706.061138
984.171587	2689.253931
984.468451	2676.797240
984.765279	2660.514313
985.062070	2640.848772
985.358824	2621.808333
985.655543	2601.590786
985.952224	2576.838721
986.248869	2547.892415
986.545478	2521.713703
986.842050	2503.842813
987.138586	2483.847076
987.435086	2471.997844
987.731549	2462.863273
988.027975	2458.802624
988.324366	2450.215018
988.620719	2448.279215
988.917037	2439.724377
989.213318	2440.634305
989.509563	2434.176587
989.805772	2434.395878
990.101944	2437.334870
990.398080	2433.455702
990.694180	2433.385126
990.990244	2434.738676
991.286271	2434.978131
991.582262	2435.300765
991.878217	2434.413522
992.174136	2432.611309
992.470019	2437.420570
992.765865	2439.447114
993.061676	2441.808894
993.357450	2440.478030
993.653188	2445.546910
993.948890	2449.668053
994.244556	2456.307253
994.540186	2465.351083
994.835780	2476.144193
995.131337	2490.103148
995.426859	2505.571929
995.722345	2530.147554
996.017795	2544.524924
996.313208	2557.795762
996.608586	2568.490570
996.903928	2570.912844
997.199234	2572.770509
997.494504	2569.662638
997.789738	2560.865825
998.084936	2552.830225
998.380099	2536.322967
998.675225	2528.489014
998.970316	2514.691376
999.265371	2500.636639
999.560390	2486.309680
999.855373	2476.736529
1000.150320	2467.019705
1000.445232	2457.164249
1000.740108	2452.400358
1001.034948	2444.609255
1001.329752	2443.487598
1001.624521	2438.401074
1001.919254	2429.011925
1002.213951	2429.662234
1002.508613	2425.780546
1002.803239	2423.950607
1003.097829	2420.751995
1003.392384	2425.412541
1003.686903	2422.155956
1003.981386	2420.119330
1004.275834	2418.135636
1004.570246	2419.791655
1004.864623	2417.074473
1005.158964	2416.666139
1005.453270	2415.471386
1005.747540	2416.310738
1006.041775	2416.099010
1006.335974	2414.818557
1006.630138	2415.426016
1006.924266	2416.172106
1007.218359	2416.333423
1007.512416	2413.041550
1007.806438	2414.359812
1008.100425	2414.390058
1008.394376	2415.655388
1008.688292	2414.322003
1008.982172	2413.782599
1009.276017	2415.947775
1009.569827	2412.522311
1009.863602	2415.650347
1010.157341	2414.173289
1010.451045	2412.098854
1010.744714	2409.280849
1011.038347	2411.940058
1011.331945	2411.662794
1011.625508	2411.594739
1011.919036	2408.890160
1012.212528	2410.616755
1012.505986	2408.766651
1012.799408	2411.660274
1013.092795	2409.926117
1013.386147	2410.344532
1013.679464	2409.154820
1013.972745	2410.649522
1014.265992	2409.447207
1014.559204	2409.366549
1014.852380	2412.270253
1015.145521	2409.936199
1015.438628	2406.276321
1015.731699	2407.856723
1016.024736	2410.578946
1016.317737	2410.833524
1016.610703	2412.287897
1016.903635	2407.125756
1017.196531	2408.348236
1017.489393	2407.065262
1017.782219	2404.935374
1018.075011	2411.299831
1018.367768	2409.812691
1018.660490	2413.752353
1018.953177	2413.752353
1019.245829	2413.752353
