Dividing Wavelength (nm)	Counts (n)	Blue Motor Position (mm): 28.000000	Red Motor Position (mm): 0.000000	
326.493990	1971.847327
326.888308	1971.847327
327.282561	1971.847327
327.676750	1947.881682
328.070874	1949.948555
328.464933	1954.316714
328.858929	1963.466409
329.252859	1977.909314
329.646726	1989.874493
330.040528	2008.047853
330.434265	2027.123579
330.827938	2042.650333
331.221547	2063.293858
331.615091	2085.101889
332.008571	2107.875302
332.401986	2128.168467
332.795338	2148.973308
333.188625	2166.009888
333.581847	2187.638958
333.975006	2201.844930
334.368100	2222.034751
334.761129	2238.569736
335.154095	2255.142529
335.546996	2290.105452
335.939833	2365.253932
336.332606	2381.017620
336.725315	2390.913405
337.117960	2401.199879
337.510540	2408.610376
337.903056	2417.528177
338.295508	2423.451532
338.687896	2432.465116
339.080220	2437.435693
339.472480	2442.005499
339.864676	2448.342230
340.256807	2452.959927
340.648875	2451.288784
341.040879	2455.072170
341.432818	2454.492437
341.824694	2455.813220
342.216506	2456.171142
342.608253	2456.705504
342.999937	2453.048147
343.391557	2453.650565
343.783113	2454.409258
344.174605	2449.108485
344.566033	2450.141922
344.957397	2447.719647
345.348697	2447.389452
345.739934	2444.750408
346.131106	2441.251847
346.522215	2442.265119
346.913260	2438.668255
347.304241	2440.341918
347.695159	2436.389654
348.086012	2439.820159
348.476802	2434.567277
348.867528	2432.268511
349.258191	2428.094435
349.648789	2426.640062
350.039324	2426.655186
350.429796	2431.608119
350.820203	2425.682243
351.210548	2427.587799
351.600828	2425.301636
351.991045	2428.177614
352.381198	2425.720052
352.771288	2425.231060
353.161314	2424.094280
353.551276	2424.689136
353.941175	2422.828950
354.331010	2425.553694
354.720782	2426.095618
355.110490	2424.832809
355.500135	2425.059661
355.889717	2422.186203
356.279235	2426.803900
356.668689	2424.868097
357.058080	2423.829619
357.447408	2424.641245
357.836672	2422.460946
358.225873	2424.893302
358.615010	2423.320462
359.004084	2427.708787
359.393095	2425.899013
359.782043	2431.207348
360.170927	2428.550660
360.559748	2428.812800
360.948505	2431.426638
361.337199	2431.842533
361.725830	2432.588624
362.114398	2434.244643
362.502903	2432.162646
362.891344	2433.004519
363.279722	2432.795311
363.668037	2432.661721
364.056289	2435.063830
364.444478	2436.624067
364.832603	2438.083482
365.220665	2439.046342
365.608665	2436.712288
365.996601	2438.990889
366.384474	2436.074582
366.772284	2439.167330
367.160031	2439.873091
367.547715	2439.520210
367.935336	2439.552978
368.322893	2438.015426
368.710388	2439.777309
369.097820	2442.161775
369.485189	2442.023143
369.872495	2443.442228
370.259738	2443.477516
370.646918	2442.600355
371.034035	2443.525407
371.421090	2445.118412
371.808081	2442.441559
372.195010	2445.836776
372.581875	2444.856272
372.968678	2445.299893
373.355418	2447.709565
373.742096	2446.396344
374.128710	2446.711416
374.515262	2450.010852
374.901751	2447.225614
375.288177	2448.221242
375.674540	2445.352825
376.060841	2448.672425
376.447079	2448.420368
376.833254	2447.830552
377.219367	2444.400047
377.605417	2448.753084
377.991404	2444.873916
378.377329	2449.990687
378.763191	2444.788216
379.148991	2453.703497
379.534727	2449.292487
379.920402	2453.577468
380.306013	2452.866665
380.691563	2454.131995
381.077049	2450.454473
381.462474	2452.970009
381.847835	2454.837756
382.233134	2453.249793
382.618371	2454.663837
383.003545	2457.408745
383.388657	2454.726851
383.773706	2455.200719
384.158693	2456.216512
384.543618	2459.669702
384.928480	2455.437654
385.313280	2455.442695
385.698017	2454.938579
386.082692	2459.473097
386.467305	2458.124589
386.851856	2459.074846
387.236344	2458.280864
387.620770	2459.112655
388.005133	2460.625001
388.389435	2461.915536
388.773674	2461.615588
389.157851	2463.516103
389.541965	2460.912347
389.926018	2464.390743
390.310008	2461.645835
390.693936	2463.967286
391.077802	2463.974848
391.461606	2462.316308
391.845348	2465.214972
392.229027	2464.360496
392.612645	2462.278499
392.996200	2463.387553
393.379694	2465.456947
393.763125	2468.277472
394.146494	2466.195476
394.529801	2468.287555
394.913047	2469.439458
395.296230	2468.559777
395.679351	2473.328709
396.062410	2467.478450
396.445408	2467.228913
396.828343	2468.653038
397.211217	2464.239508
397.594028	2471.856692
397.976778	2466.601289
398.359466	2471.902062
398.742092	2466.460137
399.124656	2473.003554
399.507158	2470.692185
399.889598	2473.905921
400.271977	2471.377782
400.654294	2475.637557
401.036549	2474.478092
401.418742	2475.047742
401.800874	2475.723257
402.182944	2474.490695
402.564952	2479.637713
402.946898	2475.521611
403.328783	2475.642598
403.710606	2479.405820
404.092367	2478.327013
404.474067	2481.079483
404.855705	2479.723412
405.237282	2479.196612
405.618797	2481.712148
406.000250	2483.100985
406.381642	2484.578043
406.762972	2485.177941
407.144240	2482.644761
407.525447	2483.746253
407.906593	2484.124340
408.287677	2484.401603
408.668700	2486.748260
409.049661	2484.951089
409.430560	2487.595174
409.811399	2485.863538
410.192176	2487.960658
410.572891	2487.302787
410.953545	2488.366471
411.334138	2486.276912
411.714669	2490.050216
412.095139	2488.404279
412.475547	2490.145998
412.855894	2490.640031
413.236180	2486.740698
413.616405	2491.618015
413.996568	2490.740854
414.376670	2492.180103
414.756711	2489.793117
415.136691	2493.947028
415.516609	2492.303612
415.896466	2495.487100
416.276262	2496.339055
416.655997	2492.535505
417.035670	2489.606594
417.415283	2498.708398
417.794834	2493.568941
418.174324	2498.494149
418.553753	2499.378871
418.933121	2499.716628
419.312428	2498.161432
419.691674	2501.274345
420.070859	2501.823831
420.449983	2502.834582
420.829045	2502.511948
421.208047	2502.741321
421.586988	2504.072185
421.965867	2509.420850
422.344686	2506.794408
422.723444	2508.120232
423.102141	2508.412619
423.480777	2511.003772
423.859352	2509.912362
424.237866	2512.800943
424.616319	2515.140039
424.994712	2515.702127
425.373044	2518.623476
425.751314	2518.247910
426.129524	2520.723117
426.507673	2519.649351
426.885762	2520.370236
427.263789	2522.822757
427.641756	2523.606657
428.019662	2526.374250
428.397508	2527.352234
428.775292	2529.802235
429.153016	2530.455064
429.530679	2533.149561
429.908282	2534.145189
430.285824	2535.677699
430.663305	2537.636188
431.040726	2537.404295
431.418086	2540.328164
431.795385	2545.540717
432.172624	2544.207332
432.549802	2548.174720
432.926920	2551.396017
433.303977	2555.307953
433.680974	2558.546894
434.057910	2562.254662
434.434786	2569.042576
434.811601	2574.071127
435.188355	2581.237127
435.565050	2583.800554
435.941683	2590.981678
436.318257	2603.534151
436.694770	2605.840479
437.071222	2620.638786
437.447614	2623.171966
437.823946	2635.404325
438.200218	2648.675163
438.576429	2658.487769
438.952580	2674.921930
439.328670	2692.376926
439.704700	2712.092878
440.080670	2724.668037
440.456580	2748.374062
440.832429	2778.031171
441.208218	2786.439815
441.583947	2815.116419
441.959616	2846.016171
442.335224	2878.408105
442.710773	2911.979669
443.086261	2958.428861
443.461689	2984.547079
443.837057	3025.148532
444.212365	3085.017275
444.587612	3136.444606
444.962800	3171.904082
445.337927	3237.852457
445.712995	3241.731625
446.088002	3376.552243
446.462949	3450.001855
446.837837	3525.694780
447.212664	3604.752675
447.587431	3843.778985
447.962139	4115.217393
448.336786	4362.110423
448.711374	4364.343654
449.085901	4214.893607
449.460369	4303.131444
449.834776	4417.207714
450.209124	4746.115276
450.583412	4841.193958
450.957640	5003.846787
451.331808	5006.011963
451.705917	4987.962111
452.079965	5115.223520
452.453954	5291.663904
452.827883	5419.434469
453.201752	5533.621645
453.575562	5689.060582
453.949311	5986.942363
454.323001	6160.695813
454.696632	6295.445855
455.070202	6693.392019
455.443713	6899.003041
455.817164	7176.332037
456.190556	7460.222095
456.563888	7555.827578
456.937160	7815.865417
457.310373	7689.143412
457.683526	7957.221891
458.056619	8155.974423
458.429653	8346.567847
458.802628	8677.675873
459.175542	8922.650744
459.548398	9462.946490
459.921194	10101.146484
460.293930	10536.709738
460.666607	11355.582166
461.039224	12118.122220
461.411782	12515.876821
461.784280	12414.867221
462.156719	12518.415042
462.529099	12615.724434
462.901419	12470.060294
463.273680	12381.288095
463.645882	12675.643589
464.018024	12954.747072
464.390106	13530.124207
464.762130	14839.737838
465.134094	16759.126918
465.505999	19337.460341
465.877845	21700.687729
466.249631	22617.986165
466.621358	22198.703318
466.993026	21611.262701
467.364634	21037.831451
467.736184	20509.969711
468.107674	20284.534352
468.479105	20251.547562
468.850477	20259.898233
469.221790	19878.444204
469.593043	19324.350820
469.964238	19173.305248
470.335373	19430.109187
470.706449	20634.781119
471.077467	22357.156865
471.448425	25298.584435
471.819324	27302.173387
472.190164	26580.249909
472.560945	24790.637773
472.931667	23271.133181
473.302330	22922.542434
473.672934	22714.075599
474.043479	23316.702691
474.413965	23097.447787
474.784393	23125.527014
475.154761	23978.979237
475.525070	24257.003912
475.895321	24232.133380
476.265513	24889.167125
476.635645	25796.698326
477.005719	25944.953619
477.375734	26523.688163
477.745691	27256.245955
478.115588	28463.849317
478.485427	30146.967078
478.855207	32863.823847
479.224928	35133.888192
479.594591	36705.777934
479.964194	36218.011011
480.333739	36614.976671
480.703226	36938.772503
481.072653	37734.087619
481.442022	38414.542565
481.811333	38941.864902
482.180584	38154.837442
482.549777	37986.896443
482.918912	37794.894017
483.287988	37825.269489
483.657005	37375.412043
484.025964	37109.160982
484.394864	37333.265477
484.763706	37208.514563
485.132489	36704.875568
485.501213	36788.533516
485.869879	37111.721889
486.238487	36960.144475
486.607036	37351.083435
486.975527	37079.682835
487.343959	37435.303472
487.712333	37697.362813
488.080648	37799.645304
488.448905	38364.070533
488.817104	38378.059735
489.185244	39388.869054
489.553326	41045.271220
489.921350	43686.271227
490.289315	46656.786254
490.657222	47453.434755
491.025070	47901.454700
491.392861	47153.826379
491.760593	46074.162460
492.128267	44616.409482
492.495883	43304.895335
492.863440	42131.685245
493.230939	41016.657631
493.598380	40130.140480
493.965763	39970.479576
494.333088	39336.980458
494.700354	38993.458591
495.067563	38826.021707
495.434713	38815.745315
495.801805	38967.063109
496.168839	38708.792195
496.535815	38472.856112
496.902733	38590.400697
497.269593	38278.499467
497.636395	38290.152094
498.003139	38744.062628
498.369825	38311.851741
498.736453	38649.634254
499.103023	38261.972044
499.469535	38213.950013
499.835989	38365.502221
500.202385	38103.770554
500.568723	38175.337295
500.935003	38405.342459
501.301226	38260.618494
501.667390	38892.731296
502.033497	39177.808546
502.399546	38667.217799
502.765537	38060.114162
503.131470	38472.447779
503.497345	38841.107360
503.863163	37595.433203
504.228923	38207.522541
504.594625	38626.742375
504.960269	37976.920000
505.325856	38649.634254
505.691385	38058.884120
506.056856	38229.849812
506.422270	38673.332718
506.787625	38275.487377
507.152924	38479.591094
507.518164	38592.596119
507.883347	37853.492389
508.248472	38120.938203
508.613540	38590.791386
508.978550	38910.246785
509.343503	38651.300356
509.708398	38877.562464
510.073236	39391.939117
510.438016	39419.035319
510.802738	38888.100996
511.167403	39492.578192
511.532010	39740.025749
511.896561	40040.400380
512.261053	40862.814219
512.625488	40420.924317
512.989866	40313.464561
513.354186	40162.320686
513.718449	40169.811841
514.082655	40830.790289
514.446803	40517.538030
514.810894	41036.333255
515.174927	40965.406741
515.538904	40886.845399
515.902822	41525.708305
516.266684	41003.409479
516.630488	41423.312388
516.994235	41277.812086
517.357925	41819.161433
517.721558	42003.579443
518.085133	42320.783967
518.448651	42442.459776
518.812112	42244.695311
519.175516	42335.753673
519.538863	42654.210923
519.902152	42636.629899
520.265385	43074.950664
520.628560	43139.396775
520.991678	42927.975824
521.354739	43174.175695
521.717743	43482.570802
522.080690	43387.746699
522.443580	43904.792643
522.806413	43974.058097
523.169189	43923.898616
523.531908	44102.113487
523.894569	43980.840969
524.257174	44134.936439
524.619722	44420.880768
524.982213	44441.221824
525.344647	44354.589595
525.707025	44406.400053
526.069345	44799.854549
526.431608	44709.912803
526.793815	45028.717893
527.155964	44573.239561
527.518057	44744.159882
527.880093	44522.155028
528.242072	45064.338686
528.603995	44755.812509
528.965860	44774.542916
529.327669	44860.507192
529.689421	44776.201456
530.051117	44740.298358
530.412755	44882.957971
530.774337	44932.817503
531.135862	44756.477941
531.497331	44953.975225
531.858743	44874.761054
532.220098	45202.408328
532.581396	44916.216983
532.942638	44576.722998
533.303824	44873.261311
533.664953	44855.065266
534.026025	44584.549389
534.387040	45031.324169
534.747999	44985.636192
535.108902	45152.294218
535.469748	44673.019119
535.830537	44799.557121
536.191270	45000.429458
536.551947	44651.730326
536.912567	44961.070649
537.273131	45063.915229
537.633638	44560.853446
537.994089	44933.341783
538.354483	44510.759500
538.714821	45083.696717
539.075103	45414.698878
539.435328	45202.829264
539.795497	45085.577067
540.155609	45078.955512
540.515665	45534.141457
540.875665	44978.833155
541.235609	45299.465663
541.595496	45287.102233
541.955328	45952.453882
542.315102	45334.574779
542.674821	45121.275998
543.034483	45164.524057
543.394090	45129.659437
543.753640	45091.729795
544.113134	46077.779488
544.472571	45109.393998
544.831953	46311.321022
545.191278	45559.455611
545.550548	45291.641792
545.909761	45734.912971
546.268918	45942.963910
546.628019	46232.351347
546.987064	45814.119580
547.346053	45091.507985
547.704986	45939.117510
548.063863	45542.290482
548.422684	45739.520585
548.781449	45584.963849
549.140158	45976.043962
549.498811	45824.010324
549.857408	45261.099962
550.215949	46097.704648
550.574434	46027.793927
550.932864	45811.956925
551.291237	46501.334713
551.649555	46113.667462
552.007817	46349.134717
552.366022	46017.804880
552.724173	46185.473657
553.082267	46571.653768
553.440305	46867.204015
553.798288	46201.824640
554.156215	46509.687905
554.514086	46710.676188
554.871902	46454.913248
555.229661	46471.317163
555.587365	46319.341498
555.945014	46405.837615
556.302606	46338.969230
556.660143	46545.596044
557.017625	46639.174983
557.375050	46435.519929
557.732421	46788.738456
558.089735	46771.475024
558.446994	46684.936057
558.804197	47132.429202
559.161345	47088.843385
559.518437	46354.102774
559.875474	46662.187850
560.232455	46836.702514
560.589381	47000.925662
560.946251	46692.717078
561.303065	47362.341105
561.659825	47155.126997
562.016528	46861.623458
562.373177	46564.270998
562.729770	47061.699293
563.086307	46586.943588
563.442789	47039.848411
563.799216	47099.081969
564.155587	46882.929895
564.511904	46912.773526
564.868164	47001.265940
565.224370	47232.115498
565.580520	46984.630132
565.936615	47192.988583
566.292654	46921.391378
566.648638	47143.040830
567.004567	47104.100437
567.360441	47138.218967
567.716260	47006.221394
568.072023	47321.147316
568.427732	47309.361099
568.783385	46856.894856
569.138982	47255.592152
569.494525	47225.642657
569.850013	46976.342476
570.205445	46955.711553
570.560823	46925.394054
570.916145	46798.661967
571.271412	46839.684357
571.626625	46597.706451
571.981782	46639.202709
572.336884	46344.065837
572.691931	46655.246181
573.046923	46267.649506
573.401860	46117.080323
573.756743	46111.835003
574.111570	46208.917543
574.466342	46061.942703
574.821059	46198.517643
575.175722	45720.021402
575.530330	45743.936636
575.884882	45472.220964
576.239380	45435.496158
576.593823	45414.073775
576.948211	45313.535523
577.302544	44879.209873
577.656823	44903.747689
578.011047	45115.950019
578.365216	44863.025248
578.719330	44657.686449
579.073389	44499.343807
579.427394	44581.234831
579.781344	44574.388944
580.135239	44236.394702
580.489080	44319.026775
580.842866	43804.561902
581.196597	44251.780303
581.550273	44205.978900
581.903895	44084.106485
582.257463	44506.792112
582.610975	43900.106890
582.964434	44178.802040
583.317837	43807.919310
583.671186	43663.427238
584.024481	43888.655909
584.377721	43422.119806
584.730906	43721.564345
585.084037	43720.546032
585.437113	43463.976507
585.790135	43495.687885
586.143103	43106.979635
586.496016	43222.779980
586.848874	43236.980911
587.201679	43264.931588
587.554428	42755.878393
587.907124	42960.912202
588.259765	42706.651526
588.612352	42949.846870
588.964884	42358.335522
589.317362	42637.570074
589.669786	42595.710853
590.022155	42355.295706
590.374470	42793.402222
590.726731	42311.344406
591.078937	41832.843124
591.431090	41922.026177
591.783188	41589.698192
592.135232	41262.313058
592.487222	41509.080059
592.839157	41601.494492
593.191038	41289.953705
593.542866	41055.920658
593.894639	40457.666766
594.246358	40728.437222
594.598022	40701.666174
594.949633	40321.338843
595.301190	40274.574579
595.652692	40122.755190
596.004141	40448.471702
596.355535	39477.527827
596.706876	39434.378071
597.058162	39257.186554
597.409395	39697.846415
597.760573	39796.960540
598.111698	39357.845793
598.462768	39373.690140
598.813785	39427.179303
599.164748	38873.700940
599.515657	39269.565107
599.866511	38755.319524
600.217312	39351.040236
600.568060	38344.024385
600.918753	39077.940767
601.269392	39042.884583
601.619978	38695.276861
601.970510	38913.072351
602.320988	39078.331457
602.671412	39386.706399
603.021783	39118.212025
603.372100	38784.011251
603.722363	38891.962520
604.072572	38968.739293
604.422728	38981.601797
604.772830	38793.433168
605.122878	38881.275273
605.472872	38819.553906
605.822813	39104.545457
606.172701	38938.003378
606.522534	39159.972943
606.872314	39413.371582
607.222041	39187.858086
607.571714	39574.549874
607.921333	39021.537818
608.270899	39312.959360
608.620411	39648.007047
608.969870	39450.507242
609.319276	39449.574629
609.668627	39507.958752
610.017926	39972.793466
610.367171	40129.061673
610.716362	40227.273433
611.065500	40172.413076
611.414585	40363.561027
611.763616	40661.783086
612.112594	40576.990878
612.461518	40796.011368
612.810389	41077.322877
613.159207	40966.861113
613.507971	41041.694522
613.856682	41501.052022
614.205340	41391.517831
614.553945	42072.925555
614.902496	41519.366534
615.250994	41985.695950
615.599439	42059.132958
615.947830	42280.898357
616.296169	42329.548013
616.644454	42454.790439
616.992686	42618.610295
617.340864	43147.623938
617.688990	42879.608473
618.037063	43461.153460
618.385082	43427.833954
618.733048	43738.779885
619.080961	43738.714350
619.428821	43740.551851
619.776628	43846.126215
620.124382	43666.555274
620.472083	43809.852592
620.819731	43930.522692
621.167326	43603.392137
621.514868	43574.639916
621.862357	43156.103159
622.209793	43173.018751
622.557176	42844.701003
622.904506	42605.294087
623.251783	42245.403593
623.599007	42032.752600
623.946179	41807.428147
624.293297	41755.229519
624.640363	41164.902842
624.987376	41162.722543
625.334336	40922.524165
625.681243	40565.529815
626.028097	40545.065251
626.374899	40395.151417
626.721647	40371.062264
627.068343	40253.820149
627.414987	40026.312876
627.761577	39808.081326
628.108115	40132.172065
628.454600	39594.873286
628.801032	39774.625708
629.147412	39737.966437
629.493739	39759.698852
629.840014	39409.431921
630.186236	39752.633675
630.532405	39357.959219
630.878521	39585.678221
631.224585	39454.333478
631.570597	39170.130868
631.916556	39346.203249
632.262462	39296.273140
632.608316	39298.493769
632.954117	39188.969660
633.299866	39185.468579
633.645562	39098.634704
633.991206	38593.967313
634.336797	38181.169910
634.682336	38173.378806
635.027823	37922.374715
635.373257	37749.107737
635.718639	37510.898094
636.063968	37377.940182
636.409245	36812.741136
636.754470	36864.080247
637.099642	36621.199975
637.444762	36161.660994
637.789829	36299.602086
638.134845	35940.366943
638.479808	35918.526144
638.824719	35797.374614
639.169577	35399.420888
639.514383	35492.500753
639.859137	35182.121952
640.203839	35428.851144
640.548489	35056.163682
640.893086	35128.715968
641.237632	34888.537754
641.582125	35004.411196
641.926566	34928.078045
642.270955	34888.694030
642.615292	34913.534316
642.959576	34893.581429
643.303809	34894.516563
643.647990	35046.252773
643.992118	35005.154766
644.336195	35001.222666
644.680219	35085.404894
645.024192	35392.801853
645.368112	35901.030819
645.711981	35914.248725
646.055797	36775.560106
646.399562	36718.859728
646.743274	37638.227558
647.086935	38080.041843
647.430544	37980.637851
647.774101	38096.009698
648.117606	38334.799073
648.461059	38630.911409
648.804460	38251.062987
649.147810	37638.156982
649.491108	37378.129225
649.834354	37034.307410
650.177548	36213.027831
650.520690	35771.447960
650.863781	35773.172034
651.206820	35626.227441
651.549807	35186.384247
651.892742	34716.173143
652.235626	34513.561608
652.578458	34398.769494
652.921238	33798.403359
653.263967	34119.907986
653.606644	33808.861232
653.949269	33765.242649
654.291843	33376.395767
654.634365	33771.891931
654.976836	33379.150758
655.319255	33365.905126
655.661622	33363.492934
656.003938	33139.264932
656.346203	32998.951976
656.688416	33230.383787
657.030577	33028.737633
657.372687	32865.104300
657.714746	33130.528612
658.056753	33253.361367
658.398708	32723.334451
658.740612	32760.553290
659.082465	33030.539846
659.424266	32849.837166
659.766016	32975.016577
660.107715	32856.501571
660.449362	32989.691376
660.790958	32970.164467
661.132503	32993.184896
661.473996	33014.819008
661.815438	33131.493993
662.156829	33326.248889
662.498168	33098.850001
662.839456	33122.049391
663.180693	33269.548512
663.521879	33435.168059
663.863013	33392.993766
664.204097	33376.196642
664.545129	33852.951164
664.886110	33814.361131
665.227040	33874.118969
665.567918	33994.708410
665.908746	34054.740991
666.249522	34217.487081
666.590248	34220.816763
666.930922	34328.498330
667.271545	34299.725944
667.612118	34381.059920
667.952639	34171.731048
668.293109	34223.060076
668.633528	34109.608909
668.973896	34039.884710
669.314213	34060.669388
669.654480	33797.584171
669.994695	33834.823175
670.334859	33726.521546
670.674973	33620.470793
671.015035	33774.992240
671.355047	33745.471243
671.695008	33684.886656
672.034918	33584.532407
672.374777	33669.485931
672.714585	33506.565921
673.054342	33741.002260
673.394049	33501.469315
673.733705	33777.595996
674.073310	33444.065696
674.412864	33504.972917
674.752368	33107.941722
675.091820	33402.100611
675.431223	32986.409585
675.770574	32719.195664
676.109875	32586.053750
676.449125	32299.136478
676.788324	32220.590260
677.127473	31705.331405
677.466571	31616.919649
677.805619	31264.464857
678.144616	31264.764806
678.483562	31195.025484
678.822458	30881.932021
679.161303	30811.401238
679.500098	30701.937623
679.838842	30583.909088
680.177535	30762.073547
680.516179	31032.337367
680.854771	31264.752203
681.193314	32129.100880
681.531805	33251.009668
681.870247	34022.374262
682.208638	34750.032053
682.546978	34994.119681
682.885268	35067.344961
683.223508	34536.110689
683.561697	34198.486972
683.899836	34013.479146
684.237925	33506.961652
684.575963	33354.998590
684.913951	32900.155443
685.251889	33065.296081
685.589776	33049.250088
685.927614	33038.134344
686.265401	33192.494475
686.603137	33290.108857
686.940824	33799.149449
687.278460	34177.046945
687.616046	34326.925490
687.953582	34945.114624
688.291068	34797.718847
688.628504	35071.955096
688.965889	35014.806055
689.303224	34608.473932
689.640510	34282.649035
689.977745	33543.600758
690.314930	32734.288878
690.652065	32224.300550
690.989150	31460.931226
691.326185	30570.376111
691.663170	29879.218795
692.000105	29113.845612
692.336990	28435.883517
692.673825	27989.222162
693.010610	27483.677611
693.347345	26909.762410
693.684030	26252.373263
694.020665	25977.577446
694.357251	25318.270141
694.693786	25258.545070
695.030272	25033.278590
695.366707	24488.649973
695.703093	24211.164700
696.039429	24195.247257
696.375716	23947.182159
696.711952	23903.160283
697.048139	23752.240739
697.384276	23573.468821
697.720363	23693.488612
698.056400	23493.989990
698.392388	23282.006950
698.728326	23234.821750
699.064214	23032.691645
699.400053	22964.154638
699.735842	22613.751596
700.071581	22346.701512
700.407270	22053.444990
700.742910	21863.753932
701.078501	21596.227460
701.414042	21317.013072
701.749533	21027.721417
702.084974	20675.889208
702.420366	20879.995445
702.755709	20443.257602
703.091002	20155.737913
703.426246	20170.765592
703.761440	20067.646270
704.096584	19816.322065
704.431679	19757.794269
704.766725	19663.749024
705.101721	19614.121385
705.436668	19700.957780
705.771565	19374.900991
706.106413	19711.846673
706.441212	19694.363951
706.775961	19812.664708
707.110661	19899.400281
707.445311	20252.684342
707.779913	20103.440983
708.114465	20345.804536
708.448967	20624.678646
708.783421	21309.158954
709.117825	21597.858273
709.452180	21814.040594
709.786485	22221.295248
710.120742	23012.209437
710.454949	23029.593856
710.789107	23491.272808
711.123216	24197.387227
711.457275	24313.444671
711.791286	24867.875812
712.125247	24922.083339
712.459159	24626.485201
712.793023	25280.451404
713.126837	24174.197919
713.460602	24428.808956
713.794318	24041.363515
714.127985	23655.679958
714.461602	22765.087034
714.795171	22711.363458
715.128691	21709.277855
715.462162	21174.171977
715.795584	20747.738253
716.128957	20503.053248
716.462281	20077.537014
716.795556	19852.575523
717.128782	19361.060503
717.461960	18811.967943
717.795088	18737.026150
718.128167	18338.901025
718.461198	17873.559676
718.794180	17735.484992
719.127113	17374.871093
719.459997	17189.820418
719.792833	16844.077922
720.125619	16806.861604
720.458357	16488.878222
720.791046	16325.491906
721.123686	16156.673746
721.456278	15918.340595
721.788821	15881.454472
722.121315	15624.166582
722.453761	15691.360122
722.786158	15632.197141
723.118506	15629.653878
723.450805	15502.720145
723.783056	15660.689742
724.115259	15562.137705
724.447412	15494.676984
724.779518	15740.193779
725.111574	15757.399237
725.443582	15958.634537
725.775542	15934.711742
726.107453	16406.924184
726.439315	16284.691327
726.771129	16685.551278
727.102895	17057.359059
727.434612	17259.627796
727.766281	17389.445069
728.097901	17648.220099
728.429473	17676.145570
728.760996	17658.652767
729.092471	17743.417248
729.423897	17619.200697
729.755276	17489.585069
730.086606	17599.905680
730.417887	18117.969937
730.749120	18646.567686
731.080305	18819.721238
731.411442	19141.019178
731.742530	19211.234890
732.073570	19308.748449
732.404562	19598.571946
732.735506	19406.446011
733.066401	19115.233677
733.397249	18600.604966
733.728048	17962.190722
734.058798	17136.323693
734.389501	16461.913090
734.720156	15998.941083
735.050762	15484.854296
735.381320	15124.764677
735.711831	14888.879006
736.042293	14547.479465
736.372707	14556.382142
736.703073	14339.985572
737.033391	14530.543708
737.363661	14500.823586
737.693883	14609.316778
738.024056	14777.409012
738.354182	14952.347133
738.684260	15241.210289
739.014290	15469.110772
739.344272	15655.086500
739.674207	15941.043431
740.004093	16046.564863
740.333931	16041.133020
740.663722	16067.982205
740.993464	16061.227059
741.323159	15885.552930
741.652806	15619.080058
741.982405	15395.222581
742.311956	15058.720520
742.641460	14940.439928
742.970915	14633.436179
743.300323	14308.430470
743.629683	14084.341099
743.958996	13816.509636
744.288260	13547.876630
744.617477	13249.589037
744.946647	13179.907687
745.275768	12902.732446
745.604842	12723.617729
745.933869	12555.407028
746.262847	12512.063188
746.591778	12429.819283
746.920662	12335.048112
747.249498	12329.548213
747.578286	12446.916357
747.907027	12595.199376
748.235720	12816.087614
748.564365	12844.668436
748.892963	12742.723703
749.221514	12804.412302
749.550017	12654.196000
749.878473	12617.750978
750.206881	12399.789130
750.535242	12302.900673
750.863555	12223.094167
751.191821	12127.607151
751.520039	12145.682208
751.848210	12050.180069
752.176334	12080.767270
752.504411	11985.310502
752.832440	11833.556648
753.160421	11901.319838
753.488356	11777.783842
753.816243	11684.023422
754.144082	11545.164839
754.471875	11487.922537
754.799620	11431.529669
755.127318	11404.090669
755.454969	11367.920390
755.782572	11317.687813
756.110129	11334.555513
756.437638	11250.458985
756.765100	11242.960269
757.092515	11246.811710
757.419882	11253.418142
757.747203	11261.683114
758.074477	11342.666730
758.401703	11302.685339
758.728882	11455.946498
759.056014	11493.530821
759.383099	11623.411108
759.710138	11717.201776
760.037129	11791.415122
760.364073	11816.179790
760.690970	11801.772173
761.017820	11789.517127
761.344623	11983.818320
761.671379	12304.327320
761.998088	12933.551540
762.324751	14476.628568
762.651366	17320.913103
762.977935	20983.719706
763.304456	23194.915976
763.630931	23662.019209
763.957359	22484.360300
764.283740	20572.049000
764.610074	18703.457107
764.936362	16584.524034
765.262602	15078.370938
765.588796	13614.750057
765.914943	12582.808220
766.241044	11743.859397
766.567097	11107.575041
766.893104	10562.409541
767.219064	10206.504079
767.544978	9827.774793
767.870845	9511.860805
768.196665	9329.610491
768.522438	9137.696285
768.848165	8972.106984
769.173846	8806.225296
769.499479	8683.846245
769.825066	8526.524436
770.150607	8347.490378
770.476101	8281.330275
770.801548	8176.131477
771.126949	8037.066207
771.452303	7947.636137
771.777611	7783.211343
772.102872	7763.223168
772.428087	7646.986763
772.753256	7517.051023
773.078378	7429.881911
773.403453	7286.584592
773.728482	7192.488935
774.053465	7125.282793
774.378401	7041.715585
774.703291	6952.066226
775.028135	6856.364961
775.352932	6815.750905
775.677683	6739.221149
776.002388	6648.629094
776.327046	6645.175903
776.651658	6559.171298
776.976224	6485.827551
777.300743	6472.670139
777.625216	6400.727833
777.949643	6359.806266
778.274024	6365.147369
778.598359	6300.902904
778.922647	6299.307379
779.246889	6259.673827
779.571086	6267.570795
779.895236	6282.353979
780.219339	6278.913391
780.543397	6270.479541
780.867409	6320.727242
781.191374	6323.746893
781.515294	6288.935205
781.839167	6335.369273
782.162995	6309.394728
782.486776	6262.418736
782.810511	6217.509617
783.134201	6140.563965
783.457844	6133.060207
783.781441	6088.357776
784.104993	6042.758019
784.428498	6013.085787
784.751958	5990.700543
785.075372	5972.055836
785.398739	5931.280463
785.722061	5954.540347
786.045337	5954.994051
786.368568	6064.712244
786.691752	6083.891313
787.014891	6331.265774
787.337983	6612.791531
787.661030	7049.846967
787.984031	7468.010678
788.306987	7738.491267
788.629897	7825.131058
788.952760	7734.624702
789.275579	7552.192906
789.598351	7258.797752
789.921078	6998.328895
790.243759	6716.931687
790.566395	6514.857035
790.888984	6322.768909
791.211529	6184.474936
791.534027	6020.115676
791.856480	5882.885386
792.178888	5817.622608
792.501249	5760.120687
792.823566	5656.633360
793.145836	5649.916023
793.468062	5630.109329
793.790241	5588.124080
794.112375	5631.553620
794.434464	5729.684721
794.756507	5758.268063
795.078505	5880.309357
795.400457	6096.363128
795.722364	6331.638819
796.044226	6528.553850
796.366042	6685.792480
796.687812	6631.002699
797.009538	6660.069992
797.331218	6567.017854
797.652852	6502.541496
797.974442	6381.193362
798.295986	6307.884902
798.617484	6178.596950
798.938938	6070.136525
799.260346	6001.395351
799.581709	5866.519280
799.903026	5814.708822
800.224299	5741.730558
800.545526	5624.178412
800.866708	5559.102157
801.187845	5511.813613
801.508936	5435.702272
801.829983	5408.779990
802.150984	5302.845183
802.471940	5274.186224
802.792851	5260.156693
803.113717	5238.567951
803.434538	5212.656421
803.755314	5178.752140
804.076045	5173.889948
804.396731	5132.877640
804.717372	5152.676772
805.037967	5152.961597
805.358518	5181.330691
805.679024	5243.777984
805.999485	5249.592955
806.319901	5269.142549
806.640272	5287.817504
806.960598	5328.819729
807.280879	5325.364018
807.601115	5364.788361
807.921306	5328.025747
808.241453	5322.001568
808.561554	5325.910983
808.881611	5294.401251
809.201623	5294.156755
809.521590	5238.996449
809.841513	5224.142690
810.161390	5243.397377
810.481223	5156.513090
810.801011	5143.711080
811.120755	5119.024550
811.440453	5059.420467
811.760107	5033.115726
812.079716	5007.294936
812.399281	4956.691834
812.718801	4950.087923
813.038276	4918.742028
813.357707	4880.159557
813.677093	4908.853805
813.996434	4843.575903
814.315731	4861.212380
814.634983	4861.484602
814.954191	4871.234194
815.273354	4924.188995
815.592473	4965.229028
815.911547	5042.393970
816.230577	5091.577988
816.549562	5177.426317
816.868502	5234.517384
817.187399	5286.290034
817.506250	5364.342219
817.825058	5389.311054
818.143821	5543.703953
818.462539	5714.157967
818.781213	5935.799858
819.099843	6299.806453
819.418429	6926.500014
819.736970	7544.797533
820.055466	8246.778207
820.373919	9157.243359
820.692327	10600.999573
821.010691	13284.309984
821.329011	19495.687037
821.647286	29077.216588
821.965517	39417.021378
822.283704	44917.343681
822.601847	46395.243631
822.919945	41784.422841
823.237999	36657.554256
823.556010	31432.521803
823.873976	26744.309220
824.191897	22523.625847
824.509775	19455.259503
824.827609	16699.260696
825.145398	15152.213759
825.463144	14388.683118
825.780845	14683.603221
826.098502	15936.327432
826.416116	18402.283453
826.733685	20672.725884
827.051210	21206.427800
827.368692	19782.291756
827.686129	17218.199593
828.003522	14743.971039
828.320872	12534.834080
828.638177	10885.247553
828.955439	9646.081527
829.272656	8587.449301
829.589830	7742.415805
829.906960	7021.863522
830.224046	6490.974569
830.541088	6081.902578
830.858086	5824.541592
831.175041	5620.170695
831.491952	5566.482406
831.808819	5593.805460
832.125642	5839.138253
832.442421	6387.051182
832.759157	7495.563104
833.075849	9261.988453
833.392497	11103.050605
833.709101	12219.333466
834.025662	11970.136629
834.342179	10913.077243
834.658653	9613.671948
834.975083	8511.378290
835.291469	7606.191226
835.607811	6875.566716
835.924110	6357.305854
836.240366	5867.172110
836.556578	5420.530920
836.872746	5066.248710
837.188871	4794.752328
837.504952	4574.128751
837.820990	4406.293616
838.136984	4298.047440
838.452935	4246.347887
838.768842	4274.669089
839.084706	4557.727357
839.400526	5292.379748
839.716303	6195.459610
840.032037	6759.221927
840.347727	6620.476770
840.663373	6017.527044
840.978977	5443.614363
841.294537	4999.728164
841.610054	4670.583668
841.925527	4428.988891
842.240957	4228.741657
842.556344	4049.349677
842.871687	3886.777506
843.186987	3735.190010
843.502244	3620.705406
843.817458	3536.462684
844.132629	3461.054585
844.447756	3411.830238
844.762840	3369.035883
845.077881	3332.318639
845.392879	3294.550314
845.707833	3271.391253
846.022745	3245.777151
846.337613	3234.053947
846.652438	3211.048642
846.967221	3203.040769
847.281960	3183.660053
847.596656	3173.824762
847.911309	3162.817402
848.225919	3147.935916
848.540485	3139.093732
848.855009	3129.661734
849.169490	3119.589508
849.483928	3113.842593
849.798323	3105.471757
850.112675	3097.978082
850.426984	3097.103442
850.741251	3088.815785
851.055474	3085.460897
851.369654	3086.890064
851.683792	3083.809919
851.997887	3088.992225
852.311938	3087.426947
852.625947	3088.808223
852.939914	3081.425453
853.253837	3086.050712
853.567718	3084.112388
853.881555	3080.404619
854.195350	3084.462748
854.509103	3079.968560
854.822812	3080.402099
855.136479	3074.234247
855.450103	3078.141141
855.763685	3075.124011
856.077224	3075.098805
856.390720	3080.402099
856.704173	3092.221084
857.017584	3099.210644
857.330953	3105.580142
857.644278	3108.718260
857.957561	3113.063735
858.270802	3110.961573
858.584000	3110.336470
858.897155	3105.917899
859.210268	3091.686722
859.523339	3080.631471
859.836367	3081.405288
860.149352	3074.110739
860.462295	3071.547312
860.775195	3062.150601
861.088054	3062.001887
861.400869	3060.751681
861.713642	3054.049467
862.026373	3066.266703
862.339062	3069.581262
862.651708	3078.909917
862.964312	3093.597319
863.276873	3102.041252
863.589392	3132.681385
863.901869	3159.679284
864.214303	3180.496729
864.526696	3201.074719
864.839045	3212.641647
865.151353	3228.170921
865.463619	3229.549677
865.775842	3231.719893
866.088023	3234.961355
866.400162	3228.967423
866.712258	3228.826271
867.024313	3228.110427
867.336325	3226.590519
867.648296	3228.664954
867.960224	3225.052967
868.272110	3229.542115
868.583954	3231.848443
868.895755	3235.755337
869.207515	3234.547981
869.519233	3255.972884
869.830909	3259.400869
870.142542	3269.697426
870.454134	3274.524331
870.765684	3289.047895
871.077191	3308.569763
871.388657	3322.478307
871.700081	3340.132427
872.011463	3357.433667
872.322803	3376.990824
872.634101	3393.924059
872.945357	3417.327616
873.256571	3443.155968
873.567744	3458.654995
873.878874	3463.691108
874.189963	3477.864312
874.501010	3482.565188
874.812015	3476.614106
875.122979	3494.984071
875.433900	3489.680777
875.744780	3493.116323
876.055618	3499.790811
876.366415	3500.534381
876.677169	3503.367509
876.987882	3521.989532
877.298554	3541.813869
877.609183	3579.007502
877.919771	3627.261427
878.230317	3696.105944
878.540822	3797.901964
878.851285	3949.900314
879.161707	4170.619674
879.472087	4541.270510
879.782425	5172.092776
880.092722	6352.978023
880.402977	8291.662120
880.713191	10678.010760
881.023363	13095.420470
881.333494	14451.143015
881.643583	14911.317182
881.953631	14501.882228
882.263637	13646.345488
882.573602	12591.791556
882.883526	11637.874179
883.193408	10672.505820
883.503248	9755.053629
883.813048	8919.653778
884.122806	8149.355388
884.432522	7376.788479
884.742197	6717.370268
885.051831	6154.207848
885.361424	5652.910468
885.670975	5258.704840
885.980485	4929.855252
886.289954	4667.937062
886.599382	4447.270635
886.908768	4267.182976
887.218113	4108.736990
887.527417	3971.224395
887.836680	3850.488760
888.145901	3750.263060
888.455082	3671.847912
888.764221	3605.856688
889.073319	3542.441493
889.382376	3510.669621
889.691392	3486.247751
890.000366	3477.319868
890.309300	3476.646873
890.618193	3483.326402
890.927044	3474.128817
891.235855	3476.188128
891.544625	3494.991632
891.853353	3522.470962
892.162041	3584.220055
892.470687	3674.529806
892.779293	3796.535811
893.087858	3967.682984
893.396381	4247.938371
893.704864	4655.679497
894.013306	5228.074790
894.321707	5805.130629
894.630068	6162.833262
894.938387	6207.835642
895.246665	6026.762437
895.554903	5708.002718
895.863100	5369.055698
896.171256	5096.291466
896.479371	4856.871947
896.787446	4629.765445
897.095480	4434.244293
897.403473	4284.237199
897.711425	4137.940394
898.019336	4015.984800
898.327207	3892.884864
898.635038	3791.086324
898.942827	3684.886857
899.250576	3601.080194
899.558284	3514.992410
899.865952	3462.559369
900.173579	3396.006056
900.481165	3351.898480
900.788711	3305.860143
901.096216	3279.976338
901.403681	3246.981987
901.711105	3235.581417
902.018489	3233.696026
902.325832	3267.320522
902.633135	3325.248421
902.940397	3495.853670
903.247619	3903.524219
903.554800	4651.326460
903.861941	5618.963338
904.169041	6334.643347
904.476101	6548.398352
904.783121	6273.408451
905.090100	5868.913828
905.397039	5451.632319
905.703938	5089.967339
906.010796	4765.843832
906.317614	4509.291951
906.624391	4267.737503
906.931129	4075.344387
907.237826	3893.159607
907.544483	3721.611662
907.851099	3548.753018
908.157675	3391.542114
908.464211	3249.205135
908.770707	3149.458345
909.077163	3066.092784
909.383578	3006.317302
909.689954	2962.749130
909.996289	2934.349790
910.302584	2916.778848
910.608839	2899.578431
910.915054	2889.360012
911.221229	2883.731564
911.527363	2889.344889
911.833458	2894.118861
912.139513	2904.115469
912.445527	2920.098448
912.751502	2953.606997
913.057436	2998.410252
913.363331	3055.980229
913.669186	3142.299906
913.975000	3259.935231
914.280775	3447.773665
914.586510	3717.556054
914.892205	4096.272737
915.197859	4595.324282
915.503475	5179.447820
915.809050	5682.391136
916.114585	5974.457946
916.420081	6042.221136
916.725536	5971.526515
917.030952	5734.360391
917.336328	5525.417167
917.641665	5312.123427
917.946961	5081.969548
918.252218	4881.742479
918.557435	4653.473992
918.862612	4452.702478
919.167750	4280.466416
919.472848	4089.764607
919.777906	3923.872837
920.082925	3765.638579
920.387904	3607.739559
920.692843	3497.229905
920.997743	3396.542939
921.302603	3303.251346
921.607423	3241.290524
921.912204	3173.615554
922.216946	3123.768625
922.521647	3073.833475
922.826310	3031.250849
923.130932	2994.344562
923.435516	2954.353088
923.740059	2927.985333
924.044564	2895.825292
924.349028	2870.584235
924.653454	2840.906962
924.957840	2817.778148
925.262186	2796.506999
925.566493	2775.946653
925.870761	2749.730133
926.174989	2738.362331
926.479178	2724.680639
926.783328	2710.567929
927.087438	2697.607123
927.391509	2682.821418
927.695541	2671.960252
927.999533	2662.770229
928.303486	2654.530463
928.607400	2646.139462
928.911275	2642.429173
929.215110	2636.634367
929.518906	2631.676392
929.822663	2632.467853
930.126381	2632.480456
930.430060	2634.015487
930.733699	2636.735190
931.037299	2641.423463
931.340861	2639.565798
931.644383	2643.581077
931.947866	2644.859009
932.251309	2638.953298
932.554714	2639.081847
932.858080	2635.651342
933.161407	2631.762092
933.464694	2629.780918
933.767943	2625.884106
934.071153	2622.425875
934.374323	2619.108796
934.677455	2617.117540
934.980548	2613.767693
935.283602	2609.931375
935.586617	2606.619337
935.889593	2611.574791
936.192530	2612.734257
936.495428	2618.476131
936.798287	2628.634056
937.101108	2642.603093
937.403890	2664.499345
937.706632	2689.117820
938.009336	2722.323900
938.312002	2754.945207
938.614628	2774.809873
938.917216	2793.915846
939.219765	2805.056796
939.522275	2813.546099
939.824747	2815.451656
940.127179	2808.527631
940.429573	2802.904224
940.731929	2802.700057
941.034246	2792.295115
941.336524	2792.532050
941.638763	2780.042591
941.940964	2777.592590
942.243126	2762.454005
942.545250	2752.480082
942.847335	2738.364852
943.149381	2723.362378
943.451389	2714.736963
943.753359	2695.474715
944.055290	2689.185875
944.357182	2676.474606
944.659036	2673.928823
944.960851	2671.173832
945.262628	2667.786177
945.564367	2667.357679
945.866067	2667.382885
946.167729	2663.680157
946.469352	2663.433141
946.770937	2662.518171
947.072484	2653.895278
947.373992	2653.832263
947.675462	2649.731285
947.976893	2643.518062
948.278286	2643.356746
948.579641	2640.024543
948.880958	2634.489356
949.182236	2636.914151
949.483476	2631.147071
949.784678	2632.926598
950.085841	2632.641773
950.386967	2635.474902
950.688054	2641.189049
950.989103	2650.129536
951.290114	2658.860814
951.591087	2672.628205
951.892021	2683.489371
952.192917	2693.748119
952.493776	2703.888400
952.794596	2710.288145
953.095378	2709.652960
953.396122	2706.842517
953.696828	2704.669779
953.997496	2699.172401
954.298126	2691.126719
954.598718	2682.380317
954.899272	2672.517300
955.199788	2661.126813
955.500266	2647.261119
955.800706	2631.930970
956.101108	2614.811212
956.401472	2605.822835
956.701798	2593.046030
957.002087	2578.890470
957.302337	2566.864798
957.602550	2556.540515
957.902724	2544.497198
958.202861	2537.880684
958.502960	2527.339631
958.803022	2516.541479
959.103045	2512.395130
959.403031	2507.958915
959.702979	2501.944818
960.002889	2499.383912
960.302762	2490.004846
960.602596	2487.033085
960.902393	2483.249699
961.202153	2479.347846
961.501875	2478.576550
961.801559	2475.332567
962.101205	2474.518421
962.400814	2470.709829
962.700385	2469.401650
962.999918	2470.790488
963.299414	2466.951649
963.598873	2466.472739
963.898293	2462.492748
964.197677	2464.032821
964.497022	2457.761626
964.796331	2459.959569
965.095601	2459.838581
965.394835	2455.916563
965.694030	2456.133333
965.993189	2458.129630
966.292309	2456.738271
966.591393	2454.870524
966.890439	2453.511933
967.189447	2456.120730
967.488419	2455.568724
967.787353	2457.723817
968.086249	2457.751543
968.385108	2455.921604
968.683930	2459.503344
968.982714	2461.814713
969.281462	2463.241360
969.580172	2464.693212
969.878844	2465.862760
970.177480	2467.755713
970.476078	2472.660756
970.774639	2476.900366
971.073162	2475.836683
971.371649	2474.457927
971.670098	2475.483802
971.968510	2479.869606
972.266885	2476.219810
972.565223	2481.245841
972.863524	2484.860348
973.161788	2486.944865
973.460014	2486.160966
973.758204	2487.333034
974.056356	2487.534680
974.354471	2490.080463
974.652550	2489.329331
974.950591	2484.487303
975.248595	2485.525780
975.546563	2485.651809
975.844493	2484.850266
976.142386	2483.773979
976.440243	2481.145018
976.738062	2478.027064
977.035845	2477.069245
977.333590	2474.004223
977.631299	2472.121352
977.928971	2469.134469
978.226606	2469.303347
978.524204	2467.206227
978.821765	2465.333439
979.119290	2465.381330
979.416777	2464.252111
979.714228	2465.449385
980.011642	2469.298306
980.309020	2472.839717
980.606360	2476.300469
980.903664	2483.516881
981.200931	2494.549446
981.498162	2518.063908
981.795356	2545.795295
982.092513	2586.064032
982.389633	2629.980044
982.686717	2671.451096
982.983764	2703.580890
983.280775	2720.446070
983.577749	2722.621328
983.874686	2712.657487
984.171587	2696.576207
984.468451	2678.637261
984.765279	2660.995743
985.062070	2642.446817
985.358824	2626.189096
985.655543	2603.075406
985.952224	2576.669842
986.248869	2551.650595
986.545478	2522.180010
986.842050	2508.263905
987.138586	2485.528301
987.435086	2473.676548
987.731549	2460.635083
988.027975	2459.768005
988.324366	2452.607046
988.620719	2444.901642
988.917037	2441.302258
989.213318	2439.308482
989.509563	2437.470981
989.805772	2435.721701
990.101944	2435.721701
990.398080	2434.743717
990.694180	2432.397060
990.990244	2434.973090
991.286271	2434.247163
991.582262	2434.486618
991.878217	2435.976279
992.174136	2436.402257
992.470019	2436.621547
992.765865	2437.004675
993.061676	2441.980293
993.357450	2441.322423
993.653188	2445.909873
993.948890	2452.770883
994.244556	2459.195834
994.540186	2463.354786
994.835780	2477.401961
995.131337	2492.356544
995.426859	2506.607886
995.722345	2529.409025
996.017795	2547.042981
996.313208	2561.632080
996.608586	2570.320509
996.903928	2576.942064
997.199234	2573.456106
997.494504	2571.520303
997.789738	2564.825651
998.084936	2556.648899
998.380099	2541.437218
998.675225	2528.741072
998.970316	2518.825122
999.265371	2504.324243
999.560390	2489.309166
999.855373	2478.662249
1000.150320	2469.194963
1000.445232	2460.952676
1000.740108	2453.259875
1001.034948	2447.331478
1001.329752	2442.560026
1001.624521	2436.979469
1001.919254	2430.607450
1002.213951	2431.487132
1002.508613	2426.997984
1002.803239	2428.026380
1003.097829	2420.573034
1003.392384	2423.519588
1003.686903	2421.818199
1003.981386	2422.592016
1004.275834	2417.613876
1004.570246	2422.607139
1004.864623	2417.119843
1005.158964	2420.116809
1005.453270	2415.100861
1005.747540	2418.448187
1006.041775	2416.184709
1006.335974	2416.003228
1006.630138	2412.829821
1006.924266	2415.655388
1007.218359	2414.203536
1007.512416	2412.671025
1007.806438	2411.690521
1008.100425	2413.651529
1008.394376	2413.344019
1008.688292	2414.221180
1008.982172	2412.776889
1009.276017	2411.062897
1009.569827	2413.003741
1009.863602	2411.365366
1010.157341	2411.856879
1010.451045	2412.754204
1010.744714	2409.694224
1011.038347	2411.458628
1011.331945	2411.665315
1011.625508	2410.324368
1011.919036	2410.221024
1012.212528	2408.408729
1012.505986	2411.173802
1012.799408	2409.006106
1013.092795	2411.317475
1013.386147	2410.755387
1013.679464	2407.483678
1013.972745	2409.008627
1014.265992	2406.634243
1014.559204	2408.156672
1014.852380	2411.105747
1015.145521	2410.342012
1015.438628	2408.650705
1015.731699	2409.749676
1016.024736	2404.164078
1016.317737	2411.481313
1016.610703	2414.937024
1016.903635	2404.960580
1017.196531	2406.709861
1017.489393	2409.812691
1017.782219	2403.692730
1018.075011	2413.260840
1018.367768	2410.324368
1018.660490	2410.901580
1018.953177	2410.901580
1019.245829	2410.901580
