Dividing Wavelength (nm)	Counts (n)	Blue Motor Position (mm): 16.400000	Red Motor Position (mm): 0.000000	
326.493990	1976.152472
326.888308	1976.152472
327.282561	1976.152472
327.676750	1949.535180
328.070874	1953.686570
328.464933	1956.867538
328.858929	1969.883797
329.252859	1982.128760
329.646726	1995.623929
330.040528	2012.889881
330.434265	2028.860256
330.827938	2045.586805
331.221547	2068.937429
331.615091	2091.567169
332.008571	2109.561568
332.401986	2130.265587
332.795338	2149.981539
333.188625	2171.971052
333.581847	2190.497293
333.975006	2206.586135
334.368100	2226.539022
334.761129	2243.658781
335.154095	2259.011615
335.546996	2288.456994
335.939833	2345.303566
336.332606	2359.164218
336.725315	2369.717874
337.117960	2378.176930
337.510540	2384.543907
337.903056	2394.064126
338.295508	2404.065775
338.687896	2409.817732
339.080220	2417.848290
339.472480	2422.642427
339.864676	2426.473704
340.256807	2428.585948
340.648875	2430.736000
341.040879	2433.337235
341.432818	2432.485280
341.824694	2431.716504
342.216506	2433.238933
342.608253	2438.222113
342.999937	2433.216247
343.391557	2432.112235
343.783113	2430.302461
344.174605	2426.824064
344.566033	2425.803231
344.957397	2424.371543
345.348697	2424.157294
345.739934	2420.631007
346.131106	2422.685277
346.522215	2419.166552
346.913260	2419.635379
347.304241	2417.664288
347.695159	2412.550037
348.086012	2412.424008
348.476802	2409.606003
348.867528	2410.543658
349.258191	2406.372103
349.648789	2408.706158
350.039324	2407.350087
350.429796	2403.463357
350.820203	2406.548544
351.210548	2399.800959
351.600828	2401.764489
351.991045	2400.650394
352.381198	2402.074520
352.771288	2401.545198
353.161314	2402.313974
353.551276	2399.405229
353.941175	2397.804662
354.331010	2403.324726
354.720782	2402.198028
355.110490	2402.583676
355.500135	2402.813049
355.889717	2403.743142
356.279235	2404.486712
356.668689	2401.905641
357.058080	2401.456978
357.447408	2400.400857
357.836672	2398.160064
358.225873	2402.369427
358.615010	2398.946484
359.004084	2404.665673
359.393095	2408.507032
359.782043	2406.992165
360.170927	2404.927813
360.559748	2408.290262
360.948505	2408.254974
361.337199	2410.657084
361.725830	2408.002917
362.114398	2409.669018
362.502903	2408.819583
362.891344	2411.907290
363.279722	2408.960736
363.668037	2413.850655
364.056289	2413.959040
364.444478	2411.045253
364.832603	2410.672207
365.220665	2413.946437
365.608665	2413.742270
365.996601	2411.690521
366.384474	2415.055491
366.772284	2414.309400
367.160031	2412.693710
367.547715	2418.077663
367.935336	2415.284863
368.322893	2413.603638
368.710388	2415.539442
369.097820	2412.953330
369.485189	2416.635892
369.872495	2418.420461
370.259738	2416.613207
370.646918	2418.279309
371.034035	2415.572209
371.421090	2418.022210
371.808081	2418.213774
372.195010	2418.896850
372.581875	2417.278640
372.968678	2415.844431
373.355418	2419.489186
373.742096	2417.230749
374.128710	2417.298804
374.515262	2418.866603
374.901751	2419.330389
375.288177	2422.418096
375.674540	2421.256110
376.060841	2420.255441
376.447079	2416.908115
376.833254	2420.134453
377.219367	2417.634041
377.605417	2417.961716
377.991404	2418.712848
378.377329	2419.695873
378.763191	2416.013310
379.148991	2423.630493
379.534727	2420.988929
379.920402	2421.939186
380.306013	2423.146543
380.691563	2423.012952
381.077049	2424.036306
381.462474	2423.635535
381.847835	2424.348858
382.233134	2426.365319
382.618371	2423.764084
383.003545	2423.572520
383.388657	2424.802562
383.773706	2424.979002
384.158693	2425.253745
384.543618	2425.316759
384.928480	2427.718869
385.313280	2428.195258
385.698017	2424.860535
386.082692	2429.291709
386.467305	2425.551173
386.851856	2428.399425
387.236344	2426.788776
387.620770	2426.425813
388.005133	2428.669127
388.389435	2426.874476
388.773674	2429.851277
389.157851	2431.673654
389.541965	2429.695002
389.926018	2429.478232
390.310008	2429.130392
390.693936	2432.311360
391.077802	2431.351021
391.461606	2432.573500
391.845348	2432.170208
392.229027	2429.130392
392.612645	2432.248346
392.996200	2432.513007
393.379694	2431.088881
393.763125	2433.609458
394.146494	2433.034766
394.529801	2433.591813
394.913047	2434.930240
395.296230	2436.041814
395.679351	2433.337235
396.062410	2431.356062
396.445408	2431.910589
396.828343	2434.509303
397.211217	2428.840526
397.594028	2433.470826
397.976778	2431.789601
398.359466	2434.403439
398.742092	2428.669127
399.124656	2436.283790
399.507158	2437.349994
399.889598	2438.335539
400.271977	2437.075251
400.654294	2435.489808
401.036549	2435.948553
401.418742	2438.330498
401.800874	2436.286310
402.182944	2434.932760
402.564952	2437.425611
402.946898	2437.491146
403.328783	2440.271342
403.710606	2437.813780
404.092367	2436.992072
404.474067	2438.068358
404.855705	2439.179932
405.237282	2442.673452
405.618797	2441.617330
406.000250	2439.598348
406.381642	2440.601538
406.762972	2440.783019
407.144240	2440.122628
407.525447	2439.638677
407.906593	2439.946188
408.287677	2440.798143
408.668700	2437.145827
409.049661	2441.622372
409.430560	2442.365942
409.811399	2444.032043
410.192176	2442.131528
410.572891	2439.285797
410.953545	2441.453493
411.334138	2441.249326
411.714669	2440.709923
412.095139	2441.657660
412.475547	2444.344595
412.855894	2440.498194
413.236180	2443.608586
413.616405	2443.164965
413.996568	2442.373503
414.376670	2444.889039
414.756711	2442.403750
415.136691	2445.264605
415.516609	2444.470623
415.896466	2445.776282
416.276262	2446.582867
416.655997	2442.539862
417.035670	2439.689089
417.415283	2444.720161
417.794834	2440.629264
418.174324	2444.455500
418.553753	2444.606735
418.933121	2445.478854
419.312428	2445.229317
419.691674	2446.330809
420.070859	2446.771910
420.449983	2447.391972
420.829045	2446.240068
421.208047	2447.923814
421.586988	2445.378031
421.965867	2447.369287
422.344686	2446.154369
422.723444	2446.895418
423.102141	2449.093362
423.480777	2447.351643
423.859352	2446.749225
424.237866	2449.315172
424.616319	2449.085800
424.994712	2450.893053
425.373044	2446.731581
425.751314	2448.929524
426.129524	2447.923814
426.507673	2449.635286
426.885762	2447.250820
427.263789	2446.603032
427.641756	2448.546396
428.019662	2453.222067
428.397508	2450.396500
428.775292	2451.634103
429.153016	2449.698300
429.530679	2449.968002
429.908282	2449.675615
430.285824	2451.472786
430.663305	2447.036571
431.040726	2450.343568
431.418086	2451.276181
431.795385	2449.816767
432.172624	2452.158383
432.549802	2449.184102
432.926920	2452.385235
433.303977	2448.382559
433.680974	2451.303908
434.057910	2453.660647
434.434786	2453.605194
434.811601	2455.263734
435.188355	2454.321038
435.565050	2454.900771
435.941683	2457.431430
436.318257	2455.402366
436.694770	2451.445060
437.071222	2452.821295
437.447614	2450.459514
437.823946	2452.919597
438.200218	2456.098045
438.576429	2453.690894
438.952580	2451.908846
439.328670	2454.494958
439.704700	2455.299022
440.080670	2455.609053
440.456580	2456.846656
440.832429	2455.934207
441.208218	2457.181893
441.583947	2457.028138
441.959616	2457.706173
442.335224	2456.362705
442.710773	2458.706842
443.086261	2461.562656
443.461689	2457.134002
443.837057	2456.735751
444.212365	2459.422686
444.587612	2458.653910
444.962800	2461.073664
445.337927	2457.403704
445.712995	2460.514096
446.088002	2460.146091
446.462949	2460.617439
446.837837	2461.141719
447.212664	2460.705659
447.587431	2466.984417
447.962139	2467.796042
448.336786	2469.394088
448.711374	2468.121197
449.085901	2466.485342
449.460369	2464.085753
449.834776	2467.120528
450.209124	2464.698253
450.583412	2468.448872
450.957640	2466.954170
451.331808	2468.511886
451.705917	2466.404684
452.079965	2470.120014
452.453954	2464.693212
452.827883	2470.843420
453.201752	2469.971300
453.575562	2469.089098
453.949311	2470.230920
454.323001	2467.468367
454.696632	2470.908955
455.070202	2471.534058
455.443713	2469.575570
455.817164	2471.304685
456.190556	2471.178657
456.563888	2470.218317
456.937160	2470.142699
457.310373	2473.870633
457.683526	2473.805098
458.056619	2474.296610
458.429653	2473.147227
458.802628	2478.889101
459.175542	2474.878863
459.548398	2474.619244
459.921194	2479.100830
460.293930	2481.583598
460.666607	2482.377580
461.039224	2482.770790
461.411782	2487.141470
461.784280	2485.419916
462.156719	2485.024186
462.529099	2484.439412
462.901419	2481.089565
463.273680	2482.911942
463.645882	2480.837507
464.018024	2484.686428
464.390106	2483.390852
464.762130	2488.532829
465.134094	2493.064826
465.505999	2499.913233
465.877845	2506.257526
466.249631	2506.063441
466.621358	2505.622340
466.993026	2505.738287
467.364634	2505.370282
467.736184	2501.823831
468.107674	2496.238232
468.479105	2498.224447
468.850477	2494.559528
469.221790	2496.323932
469.593043	2493.568941
469.964238	2494.189003
470.335373	2494.685557
470.706449	2497.972389
471.077467	2501.385250
471.448425	2508.160561
471.819324	2510.986128
472.190164	2512.644668
472.560945	2507.293483
472.931667	2504.341887
473.302330	2502.837103
473.672934	2501.110507
474.043479	2504.132679
474.413965	2503.298368
474.784393	2499.280569
475.154761	2502.685868
475.525070	2499.698984
475.895321	2504.689727
476.265513	2505.400529
476.635645	2510.396313
477.005719	2510.817249
477.375734	2514.356139
477.745691	2517.348064
478.115588	2519.586336
478.485427	2523.490710
478.855207	2530.601257
479.224928	2537.416897
479.594591	2542.379913
479.964194	2541.253216
480.333739	2543.234389
480.703226	2546.569112
481.072653	2550.465924
481.442022	2552.978939
481.811333	2556.180072
482.180584	2554.214022
482.549777	2556.386759
482.918912	2555.355843
483.287988	2557.760474
483.657005	2558.733417
484.025964	2562.045455
484.394864	2561.987481
484.763706	2561.682492
485.132489	2561.871535
485.501213	2562.899930
485.869879	2564.787842
486.238487	2570.350756
486.607036	2569.037535
486.975527	2569.375292
487.343959	2576.145562
487.712333	2579.099678
488.080648	2582.699062
488.448905	2581.776531
488.817104	2585.345668
489.185244	2590.177614
489.553326	2598.750096
489.921350	2610.448093
490.289315	2624.417131
490.657222	2630.393418
491.025070	2634.428862
491.392861	2635.069089
491.760593	2631.373923
492.128267	2630.227060
492.495883	2629.816206
492.863440	2626.395783
493.230939	2622.889661
493.598380	2620.502675
493.965763	2622.675412
494.333088	2624.974178
494.700354	2625.450567
495.067563	2627.484673
495.434713	2626.297481
495.801805	2633.019860
496.168839	2634.683440
496.535815	2635.721918
496.902733	2640.112763
497.269593	2642.025881
497.636395	2645.048053
498.003139	2649.678353
498.369825	2649.428815
498.736453	2656.930052
499.103023	2659.264107
499.469535	2657.187151
499.835989	2660.395846
500.202385	2664.091011
500.568723	2664.360713
500.935003	2672.797084
501.301226	2674.143072
501.667390	2679.058197
502.033497	2683.270081
502.399546	2686.695545
502.765537	2679.789164
503.131470	2685.830987
503.497345	2694.176617
503.863163	2692.145032
504.228923	2697.218954
504.594625	2702.993596
504.960269	2703.026363
505.325856	2713.015409
505.691385	2712.337374
506.056856	2716.851727
506.422270	2722.981771
506.787625	2724.950341
507.152924	2730.704818
507.518164	2735.299830
507.883347	2735.534244
508.248472	2740.772002
508.613540	2744.459607
508.978550	2752.560741
509.343503	2759.023500
509.708398	2764.072216
510.073236	2773.080757
510.438016	2776.481016
510.802738	2779.500667
511.167403	2791.150773
511.532010	2796.691002
511.896561	2808.336067
512.261053	2823.041113
512.625488	2822.718479
512.989866	2827.681495
513.354186	2834.915551
513.718449	2840.531396
514.082655	2857.414220
514.446803	2864.318080
514.810894	2876.638660
515.174927	2884.104609
515.538904	2890.358161
515.902822	2908.324833
516.266684	2914.109557
516.630488	2926.641865
516.994235	2935.400870
517.357925	2956.941721
517.721558	2973.748928
518.085133	2983.014568
518.448651	3002.465860
518.812112	3011.855009
519.175516	3026.812113
519.538863	3045.804660
519.902152	3058.750343
520.265385	3085.533993
520.628560	3099.346755
520.991678	3115.591873
521.354739	3138.095584
521.717743	3161.567196
522.080690	3179.924558
522.443580	3208.621326
522.806413	3227.576065
523.169189	3249.671442
523.531908	3278.915176
523.894569	3301.675985
524.257174	3325.603822
524.619722	3356.427957
524.982213	3386.435425
525.344647	3410.620361
525.707025	3437.797221
526.069345	3476.404898
526.431608	3506.190556
526.793815	3543.810166
527.155964	3565.966037
527.518057	3600.371912
527.880093	3630.238228
528.242072	3680.876619
528.603995	3703.483673
528.965860	3743.452461
529.327669	3787.325623
529.689421	3823.904236
530.051117	3857.196016
530.412755	3905.180238
530.774337	3953.827373
531.135862	3991.033609
531.497331	4041.755178
531.858743	4084.993155
532.220098	4140.957524
532.581396	4178.194007
532.942638	4213.872774
533.303824	4282.250984
533.664953	4332.528932
534.026025	4371.708780
534.387040	4445.440696
534.747999	4501.823481
535.108902	4568.041558
535.469748	4599.384932
535.830537	4660.539169
536.191270	4732.713369
536.551947	4776.367240
536.912567	4854.772306
537.273131	4923.029529
537.633638	4956.555723
537.994089	5043.301378
538.354483	5092.409778
538.714821	5189.986352
539.075103	5279.237460
539.435328	5338.556717
539.795497	5400.275564
540.155609	5469.092355
540.515665	5573.408952
540.875665	5614.864880
541.235609	5709.116813
541.595496	5784.456857
541.955328	5913.517958
542.315102	5950.131858
542.674821	6005.443398
543.034483	6090.732159
543.394090	6171.045302
543.753640	6249.271407
544.113134	6422.049393
544.472571	6426.036946
544.831953	6623.771164
545.191278	6646.325286
545.550548	6702.655139
545.909761	6840.492888
546.268918	6955.746268
546.628019	7084.782163
546.987064	7133.933413
547.346053	7151.585013
547.704986	7341.949064
548.063863	7394.677013
548.422684	7517.363574
548.781449	7608.006041
549.140158	7760.190914
549.498811	7849.469748
549.857408	7879.348667
550.215949	8090.958662
550.574434	8194.075464
550.932864	8278.822301
551.291237	8476.427970
551.649555	8547.299031
552.007817	8690.135084
552.366022	8763.551928
552.724173	8904.363958
553.082267	9081.336185
553.440305	9254.066280
553.798288	9274.994630
554.156215	9443.805228
554.514086	9608.804714
554.871902	9698.272592
555.229661	9829.524074
555.587365	9937.377040
555.945014	10081.813659
556.302606	10209.276714
556.660143	10391.607687
557.017625	10541.098063
557.375050	10643.544391
557.732421	10852.890908
558.089735	10990.116156
558.446994	11117.203645
558.804197	11357.333967
559.161345	11490.496046
559.518437	11490.589307
559.875474	11698.597397
560.232455	11882.901982
560.589381	12080.661406
560.946251	12170.199860
561.303065	12484.296512
561.659825	12598.992845
562.016528	12696.488760
562.373177	12794.980303
562.729770	13076.296853
563.086307	13129.155871
563.442789	13410.099375
563.799216	13588.440275
564.155587	13706.768758
564.511904	13887.226943
564.868164	14089.057098
565.224370	14324.083253
565.580520	14438.456951
565.936615	14672.653835
566.292654	14768.839051
566.648638	15024.276837
567.004567	15196.946438
567.360441	15400.218364
567.716260	15536.329518
568.072023	15817.953577
568.427732	16006.691857
568.783385	16055.351594
569.138982	16372.014194
569.494525	16558.214252
569.850013	16670.352199
570.205445	16865.303701
570.560823	17041.214764
570.916145	17199.151593
571.271412	17405.181031
571.626625	17520.946088
571.981782	17751.362106
572.336884	17837.505343
572.691931	18166.085230
573.046923	18221.013643
573.401860	18372.071818
573.756743	18556.106701
574.111570	18807.864444
574.466342	18953.687381
574.821059	19208.149704
575.175722	19215.966013
575.530330	19419.646272
575.884882	19504.020064
576.239380	19693.552325
576.593823	19889.625483
576.948211	20063.240301
577.302544	20064.674510
577.656823	20276.534041
578.011047	20582.927810
578.365216	20662.562917
578.719330	20767.615523
579.073389	20917.420971
579.427394	21157.062301
579.781344	21354.466324
580.135239	21391.647354
580.489080	21642.225468
580.842866	21595.942634
581.196597	22016.077437
581.550273	22191.454138
581.903895	22334.181807
582.257463	22752.726125
582.610975	22661.161127
582.964434	23002.164938
583.317837	23028.036140
583.671186	23144.693481
584.024481	23472.471824
584.377721	23433.438170
584.730906	23772.317135
585.084037	23992.224868
585.437113	24036.236662
585.790135	24247.783642
586.143103	24230.555499
586.496016	24485.199303
586.848874	24701.142169
587.201679	24918.652834
587.554428	24817.983512
587.907124	25117.508709
588.259765	25169.994683
588.612352	25509.740725
588.964884	25344.509346
589.317362	25707.021240
589.669786	25854.210329
590.022155	25915.886326
590.374470	26352.356988
590.726731	26246.868323
591.078937	26140.058876
591.431090	26381.119291
591.783188	26349.433119
592.135232	26329.833113
592.487222	26661.639338
592.839157	26906.568839
593.191038	26873.577008
593.542866	26893.411427
593.894639	26676.767841
594.246358	27011.649170
594.598022	27172.552719
594.949633	27091.185975
595.301190	27223.765801
595.652692	27295.975288
596.004141	27670.948914
596.355535	27170.957193
596.706876	27292.547304
597.058162	27346.044028
597.409395	27822.720412
597.760573	28042.101346
598.111698	27909.564370
598.462768	28056.740856
598.813785	28241.680626
599.164748	28022.123253
599.515657	28446.704353
599.866511	28236.062260
600.217312	28805.233735
600.568060	28210.385143
600.918753	28897.002900
601.269392	29013.463636
601.619978	28887.580983
601.970510	29191.456696
602.320988	29464.825866
602.671412	29819.019856
603.021783	29778.176428
603.372100	29658.111267
603.722363	29870.479955
604.072572	30061.063296
604.422728	30199.899194
604.772830	30187.424859
605.122878	30383.198068
605.472872	30458.344028
605.822813	30799.988065
606.172701	30782.848142
606.522534	31103.672214
606.872314	31425.010484
607.222041	31361.970855
607.571714	31788.838119
607.921333	31458.335031
608.270899	31809.615234
608.620411	32204.398074
608.969870	32152.101144
609.319276	32261.234563
609.668627	32428.104317
610.017926	32927.952365
610.367171	33149.085099
610.716362	33341.158102
611.065500	33411.313319
611.414585	33679.711912
611.763616	34016.009806
612.112594	34065.723144
612.461518	34334.635934
612.810389	34686.763051
613.159207	34676.912637
613.507971	34829.016851
613.856682	35337.543245
614.205340	35315.561294
614.553945	36009.279516
614.902496	35637.958206
615.250994	36124.910982
615.599439	36272.596625
615.947830	36551.536270
616.296169	36688.602723
616.644454	36886.120172
616.992686	37113.244317
617.340864	37657.152050
617.688990	37491.779518
618.037063	38093.542053
618.385082	38141.763210
618.733048	38491.175665
619.080961	38562.084535
619.428821	38667.512706
619.776628	38827.261831
620.124382	38736.258921
620.472083	38952.887384
620.819731	39135.490580
621.167326	38913.513452
621.514868	38980.522990
621.862357	38673.236937
622.209793	38774.571691
622.557176	38542.552585
622.904506	38396.424658
623.251783	38131.002867
623.599007	38012.165227
623.946179	37878.524238
624.293297	37900.745645
624.640363	37424.475073
624.987376	37474.715213
625.334336	37307.779923
625.681243	37060.788591
626.028097	37095.723787
626.374899	37015.617332
626.721647	37025.830709
627.068343	36991.465164
627.414987	36836.202666
627.761577	36679.609304
628.108115	37038.128604
628.454600	36579.239931
628.801032	36801.791750
629.147412	36810.616290
629.493739	36865.645525
629.840014	36582.743533
630.186236	36943.642258
630.532405	36623.753320
630.878521	36872.778758
631.224585	36796.896790
631.570597	36559.589514
631.916556	36747.750581
632.262462	36737.249857
632.608316	36792.732797
632.954117	36741.063490
633.299866	36761.790194
633.645562	36717.110448
633.991206	36311.988201
634.336797	35959.455272
634.682336	35982.140464
635.027823	35789.959077
635.373257	35676.074370
635.718639	35473.508206
636.063968	35388.521913
636.409245	34877.757247
636.754470	34973.524047
637.099642	34789.211900
637.444762	34359.849265
637.789829	34523.545613
638.134845	34218.875919
638.479808	34201.151222
638.824719	34150.089374
639.169577	33803.205058
639.514383	33896.499171
639.859137	33623.175372
640.203839	33900.237187
640.548489	33562.749581
640.893086	33661.099972
641.237632	33448.685913
641.582125	33589.008951
641.926566	33535.968451
642.270955	33533.740261
642.615292	33586.201029
642.959576	33594.392904
643.303809	33610.340594
643.647990	33754.517594
643.992118	33748.483333
644.336195	33774.755306
644.680219	33886.820156
645.024192	34191.021023
645.368112	34692.968712
645.711981	34737.814816
646.055797	35574.129636
646.399562	35532.656064
646.743274	36450.796373
647.086935	36888.315594
647.430544	36795.092057
647.774101	36944.383307
648.117606	37198.623819
648.461059	37483.393559
648.804460	37136.340363
649.147810	36575.814467
649.491108	36359.584255
649.834354	36026.157299
650.177548	35249.502014
650.520690	34830.624979
650.863781	34860.118250
651.206820	34727.629165
651.549807	34314.027697
651.892742	33866.831981
652.235626	33695.654561
652.578458	33575.360027
652.921238	33020.074411
653.263967	33338.055272
653.606644	33042.981414
653.949269	33017.100130
654.291843	32637.440751
654.634365	33036.044786
654.976836	32655.006652
655.319255	32671.836544
655.661622	32677.485157
656.003938	32474.344301
656.346203	32346.437625
656.688416	32589.169183
657.030577	32386.182082
657.372687	32244.782758
657.714746	32531.306819
658.056753	32651.399706
658.398708	32119.716772
658.740612	32182.315300
659.082465	32464.027580
659.424266	32306.342808
659.766016	32421.187854
660.107715	32324.717814
660.449362	32442.295165
660.790958	32440.480350
661.132503	32463.636890
661.473996	32501.125431
661.815438	32619.940386
662.156829	32812.880467
662.498168	32599.768209
662.839456	32639.989055
663.180693	32775.865795
663.521879	32951.635706
663.863013	32911.815632
664.204097	32918.976591
664.545129	33376.604975
664.886110	33341.546271
665.227040	33432.221505
665.567918	33534.589696
665.908746	33606.025366
666.249522	33771.579379
666.590248	33775.566932
666.930922	33904.262548
667.271545	33863.504819
667.612118	33946.038590
667.952639	33754.106740
668.293109	33782.743014
668.633528	33708.910275
668.973896	33634.235663
669.314213	33675.270655
669.654480	33416.258691
669.994695	33438.364151
670.334859	33344.908720
670.674973	33265.402163
671.015035	33432.135805
671.355047	33383.778537
671.695008	33319.478620
672.034918	33228.563931
672.374777	33310.394461
672.714585	33150.214318
673.054342	33391.337747
673.394049	33155.799916
673.733705	33440.330201
674.073310	33113.368524
674.412864	33178.875798
674.752368	32790.578402
675.091820	33094.877572
675.431223	32675.120856
675.770574	32409.459610
676.109875	32276.655453
676.449125	32011.021933
676.788324	31940.720522
677.127473	31410.081107
677.466571	31343.961333
677.805619	31000.338643
678.144616	30985.507568
678.483562	30918.286302
678.822458	30605.749887
679.161303	30541.699507
679.500098	30461.514914
679.838842	30346.032162
680.177535	30509.373108
680.516179	30768.672418
680.854771	31007.176968
681.193314	31871.623947
681.531805	32987.949658
681.870247	33753.214456
682.208638	34493.654091
682.546978	34723.109770
682.885268	34804.753778
683.223508	34285.439314
683.561697	33951.205773
683.899836	33753.426184
684.237925	33261.575927
684.575963	33119.337250
684.913951	32662.099555
685.251889	32822.146108
685.589776	32813.044304
685.927614	32803.735814
686.265401	32956.893629
686.603137	33056.060687
686.940824	33563.102462
687.278460	33937.493834
687.616046	34077.658076
687.953582	34690.070048
688.291068	34540.274682
688.628504	34815.655273
688.965889	34770.461328
689.303224	34376.112028
689.640510	34048.663880
689.977745	33317.777230
690.314930	32525.096117
690.652065	31998.537516
690.989150	31254.627046
691.326185	30368.843383
691.663170	29665.612503
692.000105	28918.173226
692.336990	28265.827753
692.673825	27815.259505
693.010610	27295.083004
693.347345	26726.730717
693.684030	26095.530364
694.020665	25818.322355
694.357251	25157.285934
694.693786	25109.558810
695.030272	24876.145825
695.366707	24342.776624
695.703093	24056.466812
696.039429	24039.601632
696.375716	23798.939468
696.711952	23764.667184
697.048139	23609.689512
697.384276	23437.307256
697.720363	23562.474065
698.056400	23355.302806
698.392388	23135.747953
698.728326	23104.021452
699.064214	22910.365527
699.400053	22847.930836
699.735842	22495.319769
700.071581	22216.433056
700.407270	21934.236825
700.742910	21749.375193
701.078501	21488.220738
701.414042	21212.953574
701.749533	20918.658574
702.084974	20569.699823
702.420366	20769.332035
702.755709	20335.334060
703.091002	20049.051974
703.426246	20062.370702
703.761440	19969.787391
704.096584	19702.127328
704.431679	19659.302726
704.766725	19572.078162
705.101721	19515.730664
705.436668	19600.601010
705.771565	19291.101890
706.106413	19622.827457
706.441212	19609.685169
706.775961	19734.239478
707.110661	19819.334155
707.445311	20160.645476
707.779913	20014.378918
708.114465	20251.469424
708.448967	20529.315139
708.783421	21219.108823
709.117825	21488.321562
709.452180	21709.590407
709.786485	22105.373916
710.120742	22898.284401
710.454949	22918.680910
710.789107	23391.780595
711.123216	24088.142902
711.457275	24209.241500
711.791286	24747.445167
712.125247	24814.018645
712.459159	24503.440718
712.793023	25158.309288
713.126837	24065.644233
713.460602	24299.392454
713.794318	23929.888480
714.127985	23544.104100
714.461602	22655.905724
714.795171	22608.725566
715.128691	21613.480809
715.462162	21076.517266
715.795584	20659.979326
716.128957	20398.333359
716.462281	19997.546505
716.795556	19755.873590
717.128782	19288.362023
717.461960	18739.922293
717.795088	18650.701432
718.128167	18251.941122
718.461198	17800.525959
718.794180	17661.697623
719.127113	17304.206719
719.459997	17109.504755
719.792833	16768.896674
720.125619	16733.076756
720.458357	16428.833039
720.791046	16249.330153
721.123686	16101.089983
721.456278	15871.248656
721.788821	15821.192519
722.121315	15568.224898
722.453761	15637.576052
722.786158	15566.810855
723.118506	15573.003912
723.450805	15437.628767
723.783056	15596.460401
724.115259	15505.273490
724.447412	15439.042810
724.779518	15678.409398
725.111574	15704.530137
725.443582	15897.434930
725.775542	15884.975718
726.107453	16331.669840
726.439315	16226.644961
726.771129	16626.778986
727.102895	16993.863206
727.434612	17183.466043
727.766281	17311.896999
728.097901	17564.821770
728.429473	17606.958254
728.760996	17581.651662
729.092471	17663.242737
729.423897	17545.463739
729.755276	17417.489008
730.086606	17527.441614
730.417887	18056.233447
730.749120	18563.413853
731.080305	18738.535976
731.411442	19064.532272
731.742530	19133.344022
732.073570	19237.194312
732.404562	19518.904071
732.735506	19333.964301
733.066401	19049.396207
733.397249	18523.155198
733.728048	17888.305051
734.058798	17064.217549
734.389501	16397.136784
734.720156	15937.189469
735.050762	15424.141160
735.381320	15074.151492
735.711831	14840.546943
736.042293	14484.951513
736.372707	14499.177649
736.703073	14287.207212
737.033391	14484.139887
737.363661	14444.218990
737.693883	14559.789962
738.024056	14721.374067
738.354182	14904.567077
738.684260	15183.700806
739.014290	15407.563325
739.344272	15597.216574
739.674207	15876.693102
740.004093	15985.521531
740.333931	15980.462733
740.663722	16009.938360
740.993464	15997.595095
741.323159	15827.824157
741.652806	15559.871706
741.982405	15336.760319
742.311956	15007.593138
742.641460	14877.806112
742.970915	14578.054063
743.300323	14248.546603
743.629683	14041.019943
743.958996	13762.009722
744.288260	13489.764729
744.617477	13192.220706
744.946647	13123.063637
745.275768	12851.259745
745.604842	12670.829287
745.933869	12502.835356
746.262847	12461.855816
746.591778	12385.837737
746.920662	12284.253445
747.249498	12290.353242
747.578286	12399.688307
747.907027	12542.564689
748.235720	12763.258843
748.564365	12789.732462
748.892963	12693.688399
749.221514	12756.574273
749.550017	12599.557454
749.878473	12565.980849
750.206881	12342.471211
750.535242	12253.920823
750.863555	12176.675222
751.191821	12078.037486
751.520039	12093.952408
751.848210	12006.546362
752.176334	12037.040302
752.504411	11943.660489
752.832440	11791.606686
753.160421	11847.119872
753.488356	11729.499670
753.816243	11637.680094
754.144082	11494.034936
754.471875	11447.505086
754.799620	11393.494164
755.127318	11349.449603
755.454969	11316.230919
755.782572	11272.382963
756.110129	11284.083481
756.437638	11206.540453
756.765100	11195.830521
757.092515	11192.803308
757.419882	11224.302958
757.747203	11220.978317
758.074477	11296.951026
758.401703	11247.782132
758.728882	11410.543346
759.056014	11448.722525
759.383099	11562.196377
759.710138	11661.686069
760.037129	11751.141344
760.364073	11763.870257
760.690970	11751.335428
761.017820	11745.293605
761.344623	11935.387955
761.671379	12249.764391
761.998088	12879.691852
762.324751	14415.265123
762.651366	17250.911641
762.977935	20882.715147
763.304456	23091.607610
763.630931	23550.501324
763.957359	22375.894834
764.283740	20469.574945
764.610074	18622.418038
764.936362	16512.327149
765.262602	15005.692623
765.588796	13552.892578
765.914943	12533.672094
766.241044	11695.217304
766.567097	11067.326469
766.893104	10524.963850
767.219064	10159.926338
767.544978	9786.959091
767.870845	9478.662287
768.196665	9294.375346
768.522438	9099.411242
768.848165	8938.817724
769.173846	8770.420501
769.499479	8643.655646
769.825066	8495.014704
770.150607	8310.049728
770.476101	8254.539063
770.801548	8141.828945
771.126949	8005.085127
771.452303	7908.695744
771.777611	7747.207422
772.102872	7726.626912
772.428087	7608.752132
772.753256	7490.796693
773.078378	7401.190184
773.403453	7262.210613
773.728482	7159.189593
774.053465	7098.484019
774.378401	7011.985381
774.703291	6917.617501
775.028135	6829.115004
775.352932	6791.336597
775.677683	6706.448608
776.002388	6614.949145
776.327046	6619.244208
776.651658	6529.776330
776.976224	6458.585155
777.300743	6442.355161
777.625216	6373.455190
777.949643	6336.032185
778.274024	6337.325241
778.598359	6271.880982
778.922647	6270.424088
779.246889	6233.548048
779.571086	6236.275312
779.895236	6252.722076
780.219339	6244.351240
780.543397	6245.125058
780.867409	6296.663294
781.191374	6292.469054
781.515294	6257.617037
781.839167	6310.370191
782.162995	6279.624194
782.486776	6230.939251
782.810511	6191.933323
783.134201	6115.486745
783.457844	6106.468121
783.781441	6059.950874
784.104993	6014.709039
784.428498	5986.743238
784.751958	5970.223377
785.075372	5941.546773
785.398739	5908.214664
785.722061	5933.790958
786.045337	5929.518580
786.368568	6034.326689
786.691752	6056.714453
787.014891	6304.424150
787.337983	6582.461429
787.661030	7015.594847
787.984031	7433.904752
788.306987	7699.450051
788.629897	7783.143287
788.952760	7691.328752
789.275579	7519.359871
789.598351	7226.362968
789.921078	6960.956301
790.243759	6686.619229
790.566395	6484.032900
790.888984	6295.029960
791.211529	6153.529813
791.534027	5991.141644
791.856480	5855.622826
792.178888	5795.093692
792.501249	5731.088682
792.823566	5629.779134
793.145836	5622.983658
793.468062	5607.424137
793.790241	5566.119443
794.112375	5608.954127
794.434464	5703.047264
794.756507	5736.386935
795.078505	5854.221385
795.400457	6066.585032
795.722364	6303.758718
796.044226	6494.238716
796.366042	6650.280072
796.687812	6598.441887
797.009538	6625.341483
797.331218	6530.419077
797.652852	6466.948430
797.974442	6341.590057
798.295986	6273.733606
798.617484	6146.283154
798.938938	6040.103851
799.260346	5979.206713
799.581709	5839.113047
799.903026	5782.919305
800.224299	5710.770312
800.545526	5601.795689
800.866708	5533.311614
801.187845	5484.548533
801.508936	5414.841978
801.829983	5382.321494
802.150984	5276.459784
802.471940	5249.741669
802.792851	5235.036623
803.113717	5213.765474
803.434538	5186.339077
803.755314	5156.981918
804.076045	5145.089836
804.396731	5106.857725
804.717372	5130.735150
805.037967	5129.565602
805.358518	5162.812012
805.679024	5212.207758
805.999485	5227.510180
806.319901	5242.837809
806.640272	5258.798102
806.960598	5305.028003
807.280879	5295.903515
807.601115	5333.429864
807.921306	5296.573988
808.241453	5293.700530
808.561554	5300.634638
808.881611	5269.737406
809.201623	5261.558133
809.521590	5217.959714
809.841513	5197.744688
810.161390	5213.155495
810.481223	5130.105006
810.801011	5113.678406
811.120755	5093.692752
811.440453	5039.417169
811.760107	5009.538250
812.079716	4976.276717
812.399281	4930.366929
812.718801	4926.006331
813.038276	4892.928800
813.357707	4858.409499
813.677093	4877.089494
813.996434	4818.420546
814.315731	4840.336962
814.634983	4831.736754
814.954191	4840.747816
815.273354	4905.642590
815.592473	4945.792859
815.911547	5015.622922
816.230577	5071.068053
816.549562	5154.020240
816.868502	5203.695770
817.187399	5262.861272
817.506250	5338.448332
817.825058	5365.390779
818.143821	5516.890055
818.462539	5682.497000
818.781213	5902.117388
819.099843	6269.005003
819.418429	6894.881897
819.736970	7500.631985
820.055466	8206.930406
820.373919	9106.320143
820.692327	10538.690912
821.010691	13198.537272
821.329011	19362.265338
821.647286	28848.564973
821.965517	39124.899115
822.283704	44531.261872
822.601847	45999.011459
822.919945	41444.906171
823.237999	36344.995156
823.556010	31178.298935
823.873976	26521.437288
824.191897	22351.354497
824.509775	19313.817329
824.827609	16574.139257
825.145398	15043.982707
825.463144	14292.502944
825.780845	14580.877109
826.098502	15820.224617
826.416116	18249.095390
826.733685	20515.575474
827.051210	21042.582738
827.368692	19624.788466
827.686129	17080.092143
828.003522	14636.478515
828.320872	12435.185592
828.638177	10814.192490
828.955439	9578.943440
829.272656	8530.234726
829.589830	7700.148251
829.906960	6980.609239
830.224046	6447.098886
830.541088	6047.824378
830.858086	5788.666221
831.175041	5592.189770
831.491952	5539.693715
831.808819	5566.747067
832.125642	5806.993336
832.442421	6352.315112
832.759157	7445.259951
833.075849	9189.484058
833.392497	11021.527586
833.709101	12125.467182
834.025662	11870.732637
834.342179	10832.685963
834.658653	9534.331749
834.975083	8446.581819
835.291469	7549.934469
835.607811	6829.757751
835.924110	6314.748433
836.240366	5827.682231
836.556578	5388.648142
836.872746	5038.328279
837.188871	4765.987505
837.504952	4545.356365
837.820990	4387.822828
838.136984	4272.629942
838.452935	4227.141091
838.768842	4250.824431
839.084706	4527.414899
839.400526	5261.041415
839.716303	6161.361245
840.032037	6718.408745
840.347727	6567.857206
840.663373	5977.361650
840.978977	5404.495010
841.294537	4971.414524
841.610054	4642.632991
841.925527	4405.779418
842.240957	4200.463304
842.556344	4026.384700
842.871687	3868.173128
843.186987	3718.695355
843.502244	3601.405349
843.817458	3518.140611
844.132629	3446.457924
844.447756	3399.544946
844.762840	3350.315558
845.077881	3317.477482
845.392879	3282.121349
845.707833	3258.248965
846.022745	3232.024883
846.337613	3221.398131
846.652438	3194.952238
846.967221	3186.672142
847.281960	3167.162877
847.596656	3160.372443
847.911309	3144.502891
848.225919	3133.752630
848.540485	3122.841053
848.855009	3117.462141
849.169490	3104.970162
849.483928	3100.014708
849.798323	3091.651434
850.112675	3083.623396
850.426984	3086.411154
850.741251	3076.177612
851.055474	3073.732652
851.369654	3074.340111
851.683792	3073.268866
851.997887	3075.086202
852.311938	3073.394895
852.625947	3074.130903
852.939914	3066.654872
853.253837	3078.887232
853.567718	3070.334915
853.881555	3067.262331
854.195350	3070.029925
854.509103	3068.290727
854.822812	3063.610015
855.136479	3060.098852
855.450103	3064.719069
855.763685	3059.496434
856.077224	3063.204203
856.390720	3068.893145
856.704173	3077.997468
857.017584	3083.444435
857.330953	3090.824684
857.644278	3102.671396
857.957561	3101.343052
858.270802	3096.869028
858.584000	3099.704677
858.897155	3094.076229
859.210268	3080.248344
859.523339	3067.900037
859.836367	3066.188566
860.149352	3059.962741
860.462295	3059.803944
860.775195	3045.610576
861.088054	3043.934392
861.400869	3048.171482
861.713642	3042.127138
862.026373	3051.546534
862.339062	3056.670867
862.651708	3065.429872
862.964312	3075.098805
863.276873	3088.054570
863.589392	3120.428860
863.901869	3141.954587
864.214303	3165.297650
864.526696	3180.380783
864.839045	3200.202599
865.151353	3210.257181
865.463619	3212.971842
865.775842	3217.256823
866.088023	3219.946278
866.400162	3212.757593
866.712258	3216.225907
867.024313	3211.209959
867.336325	3212.596276
867.648296	3212.475288
867.960224	3209.357335
868.272110	3212.145093
868.583954	3209.621995
868.895755	3219.951320
869.207515	3218.222204
869.519233	3238.343969
869.830909	3242.933940
870.142542	3255.075559
870.454134	3260.683843
870.765684	3270.035183
871.077191	3289.436064
871.388657	3301.862508
871.700081	3321.250786
872.011463	3338.299968
872.322803	3360.286960
872.634101	3379.579456
872.945357	3396.724420
873.256571	3423.324069
873.567744	3438.064403
873.878874	3444.181843
874.189963	3461.956951
874.501010	3462.002322
874.812015	3457.976960
875.122979	3475.883139
875.433900	3470.345431
875.744780	3473.967500
876.055618	3478.686020
876.366415	3478.428921
876.677169	3485.302535
876.987882	3501.184690
877.298554	3521.984491
877.609183	3560.224163
877.919771	3603.492387
878.230317	3671.021163
878.540822	3767.145884
878.851285	3923.187240
879.161707	4139.898882
879.472087	4508.684492
879.782425	5122.475219
880.092722	6292.592562
880.402977	8205.987710
880.713191	10561.756711
881.023363	12932.911314
881.333494	14269.265746
881.643583	14710.628847
881.953631	14304.644563
882.263637	13457.113176
882.573602	12432.861620
882.883526	11490.135603
883.193408	10539.522702
883.503248	9633.400504
883.813048	8808.105646
884.122806	8053.258393
884.432522	7293.344780
884.742197	6643.093907
885.051831	6084.566828
885.361424	5595.063228
885.670975	5207.421182
885.980485	4887.222213
886.289954	4624.144559
886.599382	4410.911313
886.908768	4233.641658
887.218113	4073.746341
887.527417	3941.509314
887.836680	3825.595543
888.145901	3722.856827
888.455082	3647.489057
888.764221	3579.315013
889.073319	3521.268647
889.382376	3488.843945
889.691392	3464.898464
890.000366	3457.286322
890.309300	3452.845066
890.618193	3456.638534
890.927044	3449.442287
891.235855	3456.293215
891.544625	3472.288796
891.853353	3496.987929
892.162041	3557.201991
892.470687	3649.928975
892.779293	3763.317128
893.087858	3933.977830
893.396381	4211.861353
893.704864	4620.096512
894.013306	5175.682078
894.321707	5745.508903
894.630068	6097.366318
894.938387	6137.488861
895.246665	5955.210820
895.554903	5644.761443
895.863100	5308.927336
896.171256	5040.412797
896.479371	4808.325635
896.787446	4584.652160
897.095480	4393.274836
897.403473	4246.932661
897.711425	4101.981843
898.019336	3981.957012
898.327207	3861.546531
898.635038	3758.419647
898.942827	3654.292094
899.250576	3570.629105
899.558284	3487.359325
899.865952	3434.149947
900.173579	3373.323384
900.481165	3327.584995
900.788711	3284.455404
901.096216	3257.117226
901.403681	3229.862228
901.711105	3222.698748
902.018489	3211.709033
902.325832	3243.664907
902.633135	3300.803866
902.940397	3470.577324
903.247619	3869.738406
903.554800	4612.396150
903.861941	5560.891767
904.169041	6258.658035
904.476101	6471.132587
904.783121	6197.382810
905.090100	5793.551099
905.397039	5386.500611
905.703938	5031.918452
906.010796	4714.439186
906.317614	4461.363181
906.624391	4230.440526
906.931129	4036.991288
907.237826	3861.296994
907.544483	3689.870037
907.851099	3523.264944
908.157675	3366.023793
908.464211	3225.090776
908.770707	3126.778194
909.077163	3049.056204
909.383578	2990.505723
909.689954	2944.260698
909.996289	2916.632654
910.302584	2900.135478
910.608839	2884.744836
910.915054	2870.203628
911.221229	2869.437372
911.527363	2870.982486
911.833458	2877.021788
912.139513	2893.115672
912.445527	2901.526837
912.751502	2937.901283
913.057436	2982.412150
913.363331	3036.937270
913.669186	3124.474386
913.975000	3238.560739
914.280775	3416.155548
914.586510	3682.570446
914.892205	4049.730284
915.197859	4548.446593
915.503475	5122.286176
915.809050	5606.680567
916.114585	5897.494650
916.420081	5962.195339
916.725536	5896.801491
917.030952	5660.210059
917.336328	5453.530313
917.641665	5249.141772
917.946961	5024.081979
918.252218	4823.431453
918.557435	4596.551803
918.862612	4409.189759
919.167750	4234.720465
919.472848	4046.778688
919.777906	3884.070407
920.082925	3726.597363
920.387904	3577.409457
920.692843	3467.943321
920.997743	3368.768702
921.302603	3278.458951
921.607423	3215.820094
921.912204	3151.802481
922.216946	3104.108125
922.521647	3050.780279
922.826310	3010.632530
923.130932	2976.919813
923.435516	2938.576797
923.740059	2910.109401
924.044564	2881.752911
924.349028	2853.290556
924.653454	2826.610250
924.957840	2800.502114
925.262186	2781.378497
925.566493	2762.025507
925.870761	2732.970817
926.174989	2724.184086
926.479178	2712.042467
926.783328	2696.669468
927.087438	2684.326203
927.391509	2670.793225
927.695541	2658.354178
927.999533	2653.905360
928.303486	2641.534368
928.607400	2635.283338
928.911275	2631.268059
929.215110	2625.591719
929.518906	2620.711882
929.822663	2620.855555
930.126381	2620.792541
930.430060	2625.616925
930.733699	2625.422841
931.037299	2631.084057
931.340861	2628.913840
931.644383	2631.222688
931.947866	2633.191259
932.251309	2629.004581
932.554714	2626.622635
932.858080	2629.362503
933.161407	2620.623662
933.464694	2616.661315
933.767943	2616.058897
934.071153	2610.851386
934.374323	2607.645212
934.677455	2605.134717
934.980548	2603.009871
935.283602	2598.687081
935.586617	2595.218767
935.889593	2600.199428
936.192530	2600.985848
936.495428	2607.967846
936.798287	2613.722323
937.101108	2630.574900
937.403890	2655.024496
937.706632	2677.989472
938.009336	2711.072045
938.312002	2739.506673
938.614628	2762.234715
938.917216	2780.226593
939.219765	2789.459466
939.522275	2800.297947
939.824747	2799.314922
940.127179	2795.224026
940.429573	2788.544497
940.731929	2784.251954
941.034246	2776.211314
941.336524	2776.027312
941.638763	2768.185797
941.940964	2762.123810
942.243126	2746.506315
942.545250	2737.389388
942.847335	2724.476473
943.149381	2711.676983
943.451389	2696.712318
943.753359	2682.960050
944.055290	2676.220027
944.357182	2667.019922
944.659036	2662.263593
944.960851	2661.303253
945.262628	2655.173210
945.564367	2655.392500
945.866067	2656.012562
946.167729	2653.640699
946.469352	2650.842859
946.770937	2648.513846
947.072484	2641.219296
947.373992	2643.192908
947.675462	2642.560243
947.976893	2634.149078
948.278286	2632.036835
948.579641	2627.935856
948.880958	2625.417800
949.182236	2627.036010
949.483476	2621.294136
949.784678	2619.842283
950.085841	2621.198354
950.386967	2628.152626
950.688054	2629.932153
950.989103	2635.459778
951.290114	2645.327837
951.591087	2661.169663
951.892021	2670.354645
952.192917	2682.675225
952.493776	2690.587316
952.794596	2697.007225
953.095378	2695.668799
953.396122	2698.401104
953.696828	2691.356092
953.997496	2685.717561
954.298126	2678.612055
954.598718	2672.736590
954.899272	2660.509272
955.199788	2646.308341
955.500266	2637.602268
955.800706	2621.672222
956.101108	2606.032042
956.401472	2593.401432
956.701798	2580.606983
957.002087	2568.757751
957.302337	2556.774928
957.602550	2545.732281
957.902724	2536.910262
958.202861	2529.492204
958.502960	2517.648013
958.803022	2512.468227
959.103045	2504.876249
959.403031	2497.085146
959.702979	2494.330156
960.002889	2491.343272
960.302762	2487.189361
960.602596	2480.051087
960.902393	2477.371714
961.202153	2477.069245
961.501875	2473.389203
961.801559	2470.094808
962.101205	2466.492904
962.400814	2467.256639
962.700385	2464.788994
962.999918	2462.643983
963.299414	2461.010649
963.598873	2460.163735
963.898293	2459.576441
964.197677	2457.446553
964.497022	2454.777263
964.796331	2456.397993
965.095601	2451.810543
965.394835	2451.732406
965.694030	2453.680812
965.993189	2453.393466
966.292309	2453.695935
966.591393	2449.922631
966.890439	2450.106633
967.189447	2451.046809
967.488419	2452.246603
967.787353	2453.164093
968.086249	2450.507405
968.385108	2452.871706
968.683930	2453.751388
968.982714	2453.955554
969.281462	2455.593929
969.580172	2455.220884
969.878844	2457.179372
970.177480	2462.812862
970.476078	2461.713890
970.774639	2469.136989
971.073162	2470.621609
971.371649	2472.754017
971.670098	2468.380816
971.968510	2470.619088
972.266885	2473.114460
972.565223	2475.645119
972.863524	2476.943216
973.161788	2479.277270
973.460014	2479.128556
973.758204	2479.458752
974.056356	2484.149545
974.354471	2480.083855
974.652550	2480.318268
974.950591	2483.171562
975.248595	2479.998155
975.546563	2481.089565
975.844493	2478.216107
976.142386	2476.479430
976.440243	2475.410705
976.738062	2471.546661
977.035845	2468.758903
977.333590	2467.816207
977.631299	2466.228243
977.928971	2462.916205
978.226606	2462.840588
978.524204	2459.667182
978.821765	2459.042079
979.119290	2459.483180
979.416777	2458.537963
979.714228	2460.655248
980.011642	2460.471246
980.309020	2466.329067
980.606360	2468.358131
980.903664	2475.995479
981.200931	2489.294043
981.498162	2508.820952
981.795356	2538.629295
982.092513	2574.149265
982.389633	2621.006790
982.686717	2661.003305
982.983764	2690.627645
983.280775	2706.862681
983.577749	2709.930223
983.874686	2702.368493
984.171587	2684.379135
984.468451	2668.852381
984.765279	2651.601553
985.062070	2631.641104
985.358824	2614.390276
985.655543	2595.034765
985.952224	2571.018708
986.248869	2543.095757
986.545478	2517.970647
986.842050	2499.497338
987.138586	2480.272898
987.435086	2467.758234
987.731549	2454.323559
988.027975	2453.154011
988.324366	2449.312652
988.620719	2443.096909
988.917037	2438.708585
989.213318	2437.488625
989.509563	2434.975610
989.805772	2431.610640
990.101944	2430.932605
990.398080	2429.296750
990.694180	2429.246339
990.990244	2429.314394
991.286271	2432.999478
991.582262	2429.929415
991.878217	2430.655341
992.174136	2432.946546
992.470019	2432.843202
992.765865	2439.149686
993.061676	2439.026177
993.357450	2440.384768
993.653188	2442.736467
993.948890	2448.743001
994.244556	2455.052005
994.540186	2464.869653
994.835780	2472.590180
995.131337	2489.498210
995.426859	2501.811228
995.722345	2524.632531
996.017795	2538.921682
996.313208	2554.947510
996.608586	2563.101576
996.903928	2566.010322
997.199234	2568.261197
997.494504	2560.911195
997.789738	2553.795606
998.084936	2545.235727
998.380099	2534.616537
998.675225	2526.321318
998.970316	2511.896056
999.265371	2498.476505
999.560390	2484.431850
999.855373	2477.535552
1000.150320	2460.075515
1000.445232	2455.084773
1000.740108	2450.557817
1001.034948	2443.001127
1001.329752	2437.339911
1001.624521	2437.377720
1001.919254	2426.761050
1002.213951	2426.330031
1002.508613	2424.452202
1002.803239	2425.437747
1003.097829	2420.389032
1003.392384	2423.421286
1003.686903	2419.461459
1003.981386	2419.786614
1004.275834	2418.307035
1004.570246	2417.432395
1004.864623	2415.781417
1005.158964	2416.703948
1005.453270	2415.340316
1005.747540	2415.453742
1006.041775	2414.322003
1006.335974	2413.301169
1006.630138	2411.322516
1006.924266	2414.236303
1007.218359	2413.913669
1007.512416	2413.961560
1007.806438	2412.534914
1008.100425	2413.404513
1008.394376	2409.411919
1008.688292	2411.793864
1008.982172	2411.662794
1009.276017	2412.003072
1009.569827	2409.492577
1009.863602	2408.534758
1010.157341	2412.860068
1010.451045	2408.262536
1010.744714	2410.142886
1011.038347	2411.282187
1011.331945	2411.372928
1011.625508	2411.335119
1011.919036	2408.310427
1012.212528	2409.459810
1012.505986	2410.203380
1012.799408	2409.391754
1013.092795	2408.131466
1013.386147	2409.243040
1013.679464	2409.784964
1013.972745	2408.751528
1014.265992	2407.370252
1014.559204	2408.854872
1014.852380	2407.652556
1015.145521	2410.357135
1015.438628	2405.106774
1015.731699	2410.311765
1016.024736	2407.425704
1016.317737	2410.178174
1016.610703	2409.953843
1016.903635	2407.145920
1017.196531	2406.838410
1017.489393	2406.591393
1017.782219	2405.215158
1018.075011	2410.082392
1018.367768	2409.966446
1018.660490	2411.781261
1018.953177	2411.781261
1019.245829	2411.781261
