Dividing Wavelength (nm)	Counts (n)	Blue Motor Position (mm): 21.200000	Red Motor Position (mm): 0.000000	
326.493990	1973.407564
326.888308	1973.407564
327.282561	1973.407564
327.676750	1948.166507
328.070874	1947.702721
328.464933	1957.094390
328.858929	1967.390947
329.252859	1979.076342
329.646726	1994.431696
330.040528	2008.746052
330.434265	2026.937056
330.827938	2045.463297
331.221547	2066.084136
331.615091	2089.477611
332.008571	2107.456886
332.401986	2128.786008
332.795338	2150.105048
333.188625	2169.473161
333.581847	2188.803465
333.975006	2205.466999
334.368100	2222.566593
334.761129	2240.147617
335.154095	2256.649834
335.546996	2290.281892
335.939833	2355.771522
336.332606	2368.576052
336.725315	2382.295553
337.117960	2389.088507
337.510540	2398.563356
337.903056	2408.716240
338.295508	2412.582805
338.687896	2422.776018
339.080220	2430.799014
339.472480	2433.319591
339.864676	2435.436876
340.256807	2437.891918
340.648875	2439.870571
341.040879	2444.616817
341.432818	2444.095057
341.824694	2443.250664
342.216506	2443.807712
342.608253	2445.186467
342.999937	2442.620520
343.391557	2442.015582
343.783113	2442.620520
344.174605	2436.094746
344.566033	2435.804880
344.957397	2434.925199
345.348697	2435.550302
345.739934	2432.351690
346.131106	2429.727769
346.522215	2430.587286
346.913260	2427.529826
347.304241	2425.843560
347.695159	2426.945052
348.086012	2423.325504
348.476802	2419.307704
348.867528	2423.151584
349.258191	2419.590009
349.648789	2416.099010
350.039324	2419.418609
350.429796	2417.245872
350.820203	2416.030954
351.210548	2415.395769
351.600828	2412.696231
351.991045	2412.517270
352.381198	2412.131622
352.771288	2414.130439
353.161314	2411.481313
353.551276	2410.657084
353.941175	2410.710016
354.331010	2412.192115
354.720782	2416.613207
355.110490	2416.086407
355.500135	2415.264699
355.889717	2414.594225
356.279235	2413.580953
356.668689	2412.328227
357.058080	2412.159348
357.447408	2412.910480
357.836672	2409.878226
358.225873	2412.446694
358.615010	2411.458627
359.004084	2416.436767
359.393095	2417.104720
359.782043	2416.275450
360.170927	2419.383321
360.559748	2416.411561
360.948505	2418.753177
361.337199	2417.825605
361.725830	2423.300298
362.114398	2422.292067
362.502903	2420.643610
362.891344	2422.592016
363.279722	2422.186203
363.668037	2420.421799
364.056289	2420.744433
364.444478	2424.268199
364.832603	2423.580082
365.220665	2424.212747
365.608665	2423.338107
365.996601	2426.972778
366.384474	2422.662592
366.772284	2426.675350
367.160031	2426.786256
367.547715	2426.498910
367.935336	2424.709300
368.322893	2423.885072
368.710388	2429.571493
369.097820	2427.771801
369.485189	2426.627459
369.872495	2429.629467
370.259738	2428.754826
370.646918	2432.659200
371.034035	2428.792635
371.421090	2430.524271
371.808081	2429.417738
372.195010	2428.157450
372.581875	2427.635690
372.968678	2429.916812
373.355418	2430.458736
373.742096	2429.518561
374.128710	2432.480239
374.515262	2435.517534
374.901751	2432.485280
375.288177	2431.792122
375.674540	2434.116093
376.060841	2434.438727
376.447079	2432.034097
376.833254	2435.308326
377.219367	2427.892789
377.605417	2433.463264
377.991404	2429.649631
378.377329	2432.404622
378.763191	2428.621236
379.148991	2435.333532
379.534727	2433.914447
379.920402	2436.732452
380.306013	2437.821342
380.691563	2436.787905
381.077049	2434.705908
381.462474	2437.740683
381.847835	2437.455858
382.233134	2436.629109
382.618371	2435.762030
383.003545	2439.865529
383.388657	2438.650611
383.773706	2440.541044
384.158693	2439.621033
384.543618	2436.235899
384.928480	2439.242947
385.313280	2441.191353
385.698017	2440.339398
386.082692	2442.426436
386.467305	2440.001641
386.851856	2442.958277
387.236344	2441.624892
387.620770	2440.954419
388.005133	2443.570778
388.389435	2441.052721
388.773674	2443.520366
389.157851	2444.586570
389.541965	2444.193360
389.926018	2442.978442
390.310008	2445.657815
390.693936	2443.974070
391.077802	2444.412650
391.461606	2446.643361
391.845348	2445.488937
392.229027	2448.135542
392.612645	2447.765017
392.996200	2449.269802
393.379694	2447.971705
393.763125	2450.658640
394.146494	2447.616303
394.529801	2448.430450
394.913047	2448.997580
395.296230	2449.302569
395.679351	2449.678135
396.062410	2447.646550
396.445408	2448.818619
396.828343	2449.242076
397.211217	2443.921138
397.594028	2448.954730
397.976778	2446.184616
398.359466	2448.188474
398.742092	2447.170161
399.124656	2450.008331
399.507158	2451.923969
399.889598	2452.236521
400.271977	2449.191664
400.654294	2454.862962
401.036549	2450.255348
401.418742	2452.733075
401.800874	2452.538990
402.182944	2450.434308
402.564952	2451.563527
402.946898	2454.749536
403.328783	2453.819443
403.710606	2450.890533
404.092367	2455.800617
404.474067	2455.389763
404.855705	2454.119392
405.237282	2458.895885
405.618797	2455.702314
406.000250	2458.762295
406.381642	2452.463373
406.762972	2456.037551
407.144240	2455.031841
407.525447	2457.252469
407.906593	2456.181224
408.287677	2459.236163
408.668700	2457.622994
409.049661	2455.006635
409.430560	2457.628035
409.811399	2459.067284
410.192176	2458.585854
410.572891	2456.355144
410.953545	2459.281533
411.334138	2458.497634
411.714669	2461.119034
412.095139	2458.447223
412.475547	2460.191462
412.855894	2459.500824
413.236180	2460.756071
413.616405	2460.667851
413.996568	2460.637604
414.376670	2460.945114
414.756711	2461.202213
415.136691	2461.300516
415.516609	2460.239353
415.896466	2461.368571
416.276262	2463.180866
416.655997	2461.040896
417.035670	2460.030145
417.415283	2459.997377
417.794834	2457.638117
418.174324	2464.093315
418.553753	2464.458798
418.933121	2464.269755
419.312428	2463.236319
419.691674	2466.003912
420.070859	2466.177832
420.449983	2467.143213
420.829045	2463.727831
421.208047	2466.197997
421.586988	2466.505507
421.965867	2468.353090
422.344686	2469.714201
422.723444	2469.648666
423.102141	2468.738738
423.480777	2468.786629
423.859352	2469.313430
424.237866	2470.437607
424.616319	2469.620940
424.994712	2472.943060
425.373044	2470.510704
425.751314	2470.188070
426.129524	2472.756538
426.507673	2472.872484
426.885762	2473.285859
427.263789	2473.212762
427.641756	2471.944912
428.019662	2472.527165
428.397508	2474.790643
428.775292	2474.006744
429.153016	2476.358442
429.530679	2475.791312
429.908282	2473.802577
430.285824	2476.005561
430.663305	2473.127063
431.040726	2475.733339
431.418086	2477.008751
431.795385	2476.421457
432.172624	2476.862557
432.549802	2476.184522
432.926920	2478.052270
433.303977	2476.960860
433.680974	2479.272229
434.057910	2477.775006
434.434786	2479.572178
434.811601	2477.986735
435.188355	2480.860193
435.565050	2477.452372
435.941683	2480.187198
436.318257	2480.875316
436.694770	2478.952116
437.071222	2481.165182
437.447614	2476.865078
437.823946	2479.433546
438.200218	2482.211222
438.576429	2480.207363
438.952580	2483.017806
439.328670	2483.675677
439.704700	2480.797178
440.080670	2482.463279
440.456580	2484.603249
440.832429	2484.303301
441.208218	2484.938486
441.583947	2489.475524
441.959616	2485.674494
442.335224	2485.127529
442.710773	2484.850266
443.086261	2486.468476
443.461689	2486.317242
443.837057	2487.675832
444.212365	2488.764722
444.587612	2488.767242
444.962800	2488.033754
445.337927	2488.021152
445.712995	2485.366984
446.088002	2489.485607
446.462949	2492.172542
446.837837	2492.386791
447.212664	2491.423930
447.587431	2496.331494
447.962139	2502.549757
448.336786	2506.310458
448.711374	2503.865498
449.085901	2501.942298
449.460369	2497.871566
449.834776	2503.595796
450.209124	2503.195025
450.583412	2504.810714
450.957640	2506.388596
451.331808	2509.030160
451.705917	2502.680827
452.079965	2502.990858
452.453954	2505.425735
452.827883	2506.945643
453.201752	2506.764162
453.575562	2513.289935
453.949311	2510.451766
454.323001	2511.039060
454.696632	2513.042919
455.070202	2518.729340
455.443713	2512.836231
455.817164	2516.841428
456.190556	2516.271778
456.563888	2520.213960
456.937160	2518.084073
457.310373	2521.416275
457.683526	2520.103055
458.056619	2524.788807
458.429653	2523.412572
458.802628	2526.578417
459.175542	2529.792152
459.548398	2530.918850
459.921194	2541.606096
460.293930	2544.270346
460.666607	2549.074566
461.039224	2555.507078
461.411782	2558.393139
461.784280	2554.866852
462.156719	2557.838612
462.529099	2557.498334
462.901419	2555.199568
463.273680	2554.206460
463.645882	2555.852397
464.018024	2560.318859
464.390106	2567.169787
464.762130	2572.221024
465.134094	2588.660226
465.505999	2607.529265
465.877845	2624.429733
466.249631	2632.233440
466.621358	2628.165228
466.993026	2624.200361
467.364634	2627.431741
467.736184	2617.891357
468.107674	2617.225925
468.479105	2614.619648
468.850477	2617.374639
469.221790	2615.327930
469.593043	2613.598814
469.964238	2614.039915
470.335373	2619.360853
470.706449	2625.470732
471.077467	2642.008237
471.448425	2665.820127
471.819324	2686.014989
472.190164	2681.588856
472.560945	2671.965294
472.931667	2662.641680
473.302330	2660.549601
473.672934	2665.676454
474.043479	2671.662824
474.413965	2671.935047
474.784393	2675.947805
475.154761	2689.987419
475.525070	2695.789787
475.895321	2703.943853
476.265513	2713.010368
476.635645	2731.899572
477.005719	2743.963053
477.375734	2759.474683
477.745691	2775.319030
478.115588	2798.992288
478.485427	2834.161898
478.855207	2885.687532
479.224928	2932.091353
479.594591	2967.142495
479.964194	2974.487457
480.333739	2994.997391
480.703226	3023.129550
481.072653	3062.453071
481.442022	3104.561829
481.811333	3137.651962
482.180584	3151.192502
482.549777	3176.514217
482.918912	3204.805173
483.287988	3235.987230
483.657005	3258.354830
484.025964	3284.853655
484.394864	3324.625838
484.763706	3359.903833
485.132489	3384.527349
485.501213	3425.832043
485.869879	3479.999241
486.238487	3524.058925
486.607036	3579.186463
486.975527	3623.357053
487.343959	3687.631765
487.712333	3753.875047
488.080648	3815.886280
488.448905	3899.047675
488.817104	3961.731902
489.185244	4078.694233
489.553326	4237.049478
489.921350	4460.163386
490.289315	4709.163618
490.657222	4849.993292
491.025070	4975.351665
491.392861	5023.169530
491.760593	5056.022729
492.128267	5063.440787
492.495883	5077.213220
492.863440	5107.485348
493.230939	5142.904495
493.598380	5188.148851
493.965763	5290.595180
494.333088	5354.766547
494.700354	5441.923056
495.067563	5548.548501
495.434713	5663.149052
495.801805	5800.586029
496.168839	5908.381022
496.535815	6014.696436
496.902733	6151.805738
497.269593	6264.231031
497.636395	6396.425208
498.003139	6581.042344
498.369825	6675.372415
498.736453	6856.382605
499.103023	6963.585263
499.469535	7102.726150
499.835989	7272.754187
500.202385	7391.238946
500.568723	7561.259421
500.935003	7766.625947
501.301226	7908.179026
501.667390	8174.326743
502.033497	8390.466215
502.399546	8484.224114
502.765537	8551.992346
503.131470	8797.990571
503.497345	9045.634733
503.863163	9008.395730
504.228923	9298.625039
504.594625	9579.087112
504.960269	9641.274786
505.325856	9968.211257
505.691385	10046.623885
506.056856	10276.389595
506.422270	10572.675850
506.787625	10692.647750
507.152924	10947.435227
507.518164	11190.161744
507.883347	11218.248533
508.248472	11492.462096
508.613540	11828.674290
508.978550	12123.163374
509.343503	12291.789970
509.708398	12572.418402
510.073236	12970.740132
510.438016	13212.120661
510.802738	13291.286941
511.167403	13709.279253
511.532010	14024.991595
511.896561	14353.810937
512.261053	14872.333939
512.625488	14977.905783
512.989866	15186.700293
513.354186	15392.996911
513.718449	15630.178158
514.082655	16135.281609
514.446803	16276.302847
514.810894	16728.096096
515.174927	16964.377497
515.538904	17183.831527
515.902822	17713.540850
516.266684	17765.411802
516.630488	18215.659937
516.994235	18419.698119
517.357925	18919.170601
517.721558	19270.221431
518.085133	19676.936682
518.448651	20010.156951
518.812112	20185.732778
519.175516	20490.712503
519.538863	20914.179509
519.902152	21170.915392
520.265385	21659.282212
520.628560	21953.826749
520.991678	22118.309517
521.354739	22512.918437
521.717743	22938.895937
522.080690	23169.261544
522.443580	23716.108269
522.806413	24019.469784
523.169189	24265.586477
523.531908	24628.390757
523.894569	24819.783204
524.257174	25166.473437
524.619722	25611.138494
524.982213	25875.695727
525.344647	26081.291625
525.707025	26367.001540
526.069345	26870.791770
526.431608	27079.253564
526.793815	27525.433488
527.155964	27505.984716
527.518057	27860.282050
527.880093	27981.121028
528.242072	28585.368852
528.603995	28628.702610
528.965860	28868.923673
529.327669	29188.489977
529.689421	29352.448465
530.051117	29576.063967
530.412755	29909.475800
530.774337	30196.967763
531.135862	30292.162392
531.497331	30663.271973
531.858743	30820.898772
532.220098	31291.422428
532.581396	31307.501188
532.942638	31296.483746
533.303824	31727.701525
533.664953	31919.288057
534.026025	31933.821703
534.387040	32477.245485
534.747999	32654.235355
535.108902	32977.910200
535.469748	32833.113138
535.830537	33121.406644
536.191270	33477.624657
536.551947	33417.413116
536.912567	33829.661033
537.273131	34112.915906
537.633638	33911.380658
537.994089	34367.262282
538.354483	34256.722381
538.714821	34866.490268
539.075103	35323.937171
539.435328	35327.173592
539.795497	35400.174541
540.155609	35581.358651
540.515665	36112.860104
540.875665	35850.460484
541.235609	36280.435619
541.595496	36418.976609
541.955328	37125.436348
542.315102	36788.435213
542.674821	36774.897194
543.034483	36956.960986
543.394090	37095.101204
543.753640	37208.285191
544.113134	38192.688946
544.472571	37515.107458
544.831953	38717.223524
545.191278	38205.705205
545.550548	38125.908781
545.909761	38647.610231
546.268918	38961.371646
546.628019	39368.989264
546.987064	39124.964650
547.346053	38622.661561
547.704986	39533.149398
548.063863	39272.504100
548.422684	39574.764123
548.781449	39574.207075
549.140158	40051.453110
549.498811	40048.380527
549.857408	39650.189867
550.215949	40520.640860
550.574434	40565.237428
550.932864	40495.493064
551.291237	41235.254665
551.649555	41000.530980
552.007817	41315.235091
552.366022	41125.317182
552.724173	41392.833572
553.082267	41848.155629
553.440305	42221.392577
553.798288	41713.072870
554.156215	42092.543206
554.514086	42362.557488
554.871902	42233.438414
555.229661	42341.029240
555.587365	42282.395580
555.945014	42462.566418
556.302606	42480.225580
556.660143	42779.002166
557.017625	42953.337869
557.375050	42849.827857
557.732421	43268.316723
558.089735	43319.262624
558.446994	43329.017256
558.804197	43851.784910
559.161345	43878.072007
559.518437	43248.230245
559.875474	43614.066780
560.232455	43859.923853
560.589381	44091.988329
560.946251	43867.278897
561.303065	44599.685454
561.659825	44467.246780
562.016528	44239.938633
562.373177	44042.617789
562.729770	44576.445734
563.086307	44164.865770
563.442789	44675.796794
563.799216	44795.897244
564.155587	44647.946940
564.511904	44738.992699
564.868164	44883.323454
565.224370	45164.771073
565.580520	44962.116689
565.936615	45229.597791
566.292654	44995.577347
566.648638	45292.256813
567.004567	45303.123020
567.360441	45374.989709
567.716260	45287.213139
568.072023	45613.474095
568.427732	45671.800245
568.783385	45272.384585
569.138982	45701.908536
569.494525	45706.190997
569.850013	45505.424524
570.205445	45521.896494
570.560823	45518.178643
570.916145	45429.063646
571.271412	45503.350089
571.626625	45300.937680
571.981782	45393.959571
572.336884	45126.397810
572.691931	45467.666282
573.046923	45099.891423
573.401860	44985.757180
573.756743	45008.079409
574.111570	45154.807233
574.466342	45023.911153
574.821059	45184.537438
575.175722	44748.845634
575.530330	44780.783864
575.884882	44538.606834
576.239380	44524.950348
576.593823	44528.191810
576.948211	44468.217202
577.302544	44049.254468
577.656823	44097.848671
578.011047	44333.502448
578.365216	44072.718519
578.719330	43896.242846
579.073389	43783.419302
579.427394	43870.966501
579.781344	43882.808171
580.135239	43561.739603
580.489080	43655.744519
580.842866	43145.947754
581.196597	43631.355417
581.550273	43589.435702
581.903895	43461.796207
582.257463	43899.317950
582.610975	43307.849451
582.964434	43590.315384
583.317837	43265.927216
583.671186	43121.593940
584.024481	43357.716545
584.377721	42918.770677
584.730906	43205.617372
585.084037	43235.453441
585.437113	42977.994152
585.790135	43013.604863
586.143103	42650.750171
586.496016	42783.405614
586.848874	42808.392093
587.201679	42830.132069
587.554428	42329.001047
587.907124	42536.474775
588.259765	42293.803711
588.612352	42563.066862
588.964884	41972.125164
589.317362	42271.640278
589.669786	42219.371075
590.022155	42014.060002
590.374470	42408.830239
590.726731	41971.139618
591.078937	41505.145439
591.431090	41601.345778
591.783188	41264.803388
592.135232	40968.653244
592.487222	41212.932436
592.839157	41304.991467
593.191038	40997.218942
593.542866	40761.741605
593.894639	40182.079488
594.246358	40462.710441
594.598022	40431.815729
594.949633	40071.121172
595.301190	40028.732630
595.652692	39889.493440
596.004141	40191.713133
596.355535	39249.178681
596.706876	39204.093122
597.058162	39030.884117
597.409395	39482.412705
597.760573	39573.408052
598.111698	39159.894805
598.462768	39169.956948
598.813785	39225.762522
599.164748	38685.318062
599.515657	39082.195501
599.866511	38575.657842
600.217312	39173.019449
600.568060	38166.651387
600.918753	38895.398066
601.269392	38863.346410
601.619978	38524.366622
601.970510	38744.443235
602.320988	38923.709186
602.671412	39219.942509
603.021783	38961.434661
603.372100	38635.831575
603.722363	38747.283925
604.072572	38822.510543
604.422728	38829.704270
604.772830	38647.716095
605.122878	38742.562884
605.472872	38691.259062
605.822813	38964.648396
606.172701	38805.370620
606.522534	39030.879076
606.872314	39299.703646
607.222041	39057.635000
607.571714	39452.763159
607.921333	38910.629912
608.270899	39193.231956
608.620411	39522.983911
608.969870	39322.895474
609.319276	39320.304321
609.668627	39384.818487
610.017926	39868.161797
610.367171	40014.347697
610.716362	40122.568667
611.065500	40070.339793
611.414585	40252.292679
611.763616	40541.241535
612.112594	40479.537812
612.461518	40688.181088
612.810389	40975.088277
613.159207	40862.741122
613.507971	40936.110075
613.856682	41392.440362
614.205340	41280.594802
614.553945	41963.199801
614.902496	41424.129055
615.250994	41883.973027
615.599439	41963.081334
615.947830	42187.374871
616.296169	42236.266502
616.644454	42364.127807
616.992686	42535.789178
617.340864	43044.751632
617.688990	42778.193061
618.037063	43374.498546
618.385082	43343.918907
618.733048	43629.550684
619.080961	43653.486083
619.428821	43661.786342
619.776628	43749.479734
620.124382	43572.033639
620.472083	43714.955392
620.819731	43829.087115
621.167326	43506.085265
621.514868	43502.753062
621.862357	43054.450812
622.209793	43082.220008
622.557176	42740.157555
622.904506	42503.175433
623.251783	42159.661128
623.599007	41929.630757
623.946179	41730.074162
624.293297	41676.779083
624.640363	41082.106932
624.987376	41089.174629
625.334336	40834.848418
625.681243	40493.852169
626.028097	40464.439557
626.374899	40301.385956
626.721647	40285.019850
627.068343	40170.114310
627.414987	39951.572729
627.761577	39734.125078
628.108115	40050.782637
628.454600	39519.790340
628.801032	39689.427688
629.147412	39664.000108
629.493739	39675.002426
629.840014	39339.954738
630.186236	39659.190847
630.532405	39289.568406
630.878521	39504.621508
631.224585	39376.558557
631.570597	39082.321530
631.916556	39244.268597
632.262462	39208.945232
632.608316	39221.238086
632.954117	39093.530536
633.299866	39097.069426
633.645562	39012.360397
633.991206	38525.553814
634.336797	38102.817776
634.682336	38099.263763
635.027823	37843.410081
635.373257	37678.292128
635.718639	37434.814480
636.063968	37292.744682
636.409245	36724.168063
636.754470	36776.472555
637.099642	36555.029790
637.444762	36071.678918
637.789829	36226.911168
638.134845	35879.578189
638.479808	35821.423438
638.824719	35730.009675
639.169577	35332.943192
639.514383	35400.416516
639.859137	35103.399293
640.203839	35346.203948
640.548489	34979.429758
640.893086	35056.987910
641.237632	34813.021270
641.582125	34929.439156
641.926566	34848.442937
642.270955	34807.586906
642.615292	34825.278835
642.959576	34816.471940
643.303809	34808.562369
643.647990	34960.437211
643.992118	34919.503042
644.336195	34910.965848
644.680219	35014.304461
645.024192	35312.599616
645.368112	35826.094067
645.711981	35824.443089
646.055797	36687.977620
646.399562	36626.195759
646.743274	37549.435195
647.086935	37992.746702
647.430544	37881.634630
647.774101	38004.263218
648.117606	38235.876511
648.461059	38526.400728
648.804460	38144.480392
649.147810	37545.624082
649.491108	37295.824827
649.834354	36934.341329
650.177548	36123.738914
650.520690	35670.776117
650.863781	35673.561355
651.206820	35543.764246
651.549807	35094.602480
651.892742	34616.204541
652.235626	34415.642236
652.578458	34293.817712
652.921238	33708.983372
653.263967	34025.121691
653.606644	33720.328488
653.949269	33671.015922
654.291843	33282.111067
654.634365	33678.655790
654.976836	33280.583597
655.319255	33278.657877
655.661622	33275.018163
656.003938	33044.140879
656.346203	32915.021806
656.688416	33128.353354
657.030577	32933.832871
657.372687	32770.217182
657.714746	33032.178221
658.056753	33153.281860
658.398708	32624.182517
658.740612	32678.095137
659.082465	32936.524847
659.424266	32769.541667
659.766016	32886.211611
660.107715	32769.811369
660.449362	32897.808786
660.790958	32885.752866
661.132503	32902.348345
661.473996	32931.748354
661.815438	33039.112328
662.156829	33225.214084
662.498168	33005.795342
662.839456	33031.792573
663.180693	33181.592980
663.521879	33340.127186
663.863013	33292.493323
664.204097	33283.207518
664.545129	33738.458998
664.886110	33707.884400
665.227040	33785.278715
665.567918	33887.556164
665.908746	33951.553613
666.249522	34123.038543
666.590248	34122.352946
666.930922	34235.708331
667.271545	34193.871796
667.612118	34278.916061
667.952639	34048.633633
668.293109	34117.158037
668.633528	34009.247098
668.973896	33926.998152
669.314213	33966.041889
669.654480	33713.119638
669.994695	33734.083277
670.334859	33622.847697
670.674973	33541.695202
671.015035	33691.908984
671.355047	33639.738082
671.695008	33602.546970
672.034918	33472.298678
672.374777	33575.576797
672.714585	33409.448093
673.054342	33650.367355
673.394049	33397.931577
673.733705	33673.796118
674.073310	33343.250181
674.412864	33410.831889
674.752368	33000.093797
675.091820	33304.972700
675.431223	32889.770666
675.770574	32612.809674
676.109875	32478.387306
676.449125	32203.634339
676.788324	32133.713536
677.127473	31593.450557
677.466571	31518.533970
677.805619	31170.858192
678.144616	31175.866578
678.483562	31101.055855
678.822458	30787.140685
679.161303	30713.189478
679.500098	30620.772526
679.838842	30512.574241
680.177535	30671.254640
680.516179	30936.195001
680.854771	31188.232529
681.193314	32031.829296
681.531805	33153.274298
681.870247	33927.293060
682.208638	34650.136548
682.546978	34883.564656
682.885268	34965.601873
683.223508	34437.793066
683.561697	34101.205306
683.899836	33911.297478
684.237925	33412.979421
684.575963	33258.566358
684.913951	32813.336691
685.251889	32970.517348
685.589776	32945.780406
685.927614	32933.409414
686.265401	33091.404217
686.603137	33181.645912
686.940824	33692.332441
687.278460	34089.996300
687.616046	34215.261411
687.953582	34819.776416
688.291068	34682.762896
688.628504	34963.484589
688.965889	34906.632976
689.303224	34508.855691
689.640510	34161.694111
689.977745	33429.484158
690.314930	32637.581904
690.652065	32127.969141
690.989150	31365.996216
691.326185	30473.822891
691.663170	29777.589133
692.000105	29024.649957
692.336990	28363.681591
692.673825	27906.390963
693.010610	27392.841059
693.347345	26822.177403
693.684030	26183.223756
694.020665	25913.814412
694.357251	25236.593366
694.693786	25196.680030
695.030272	24949.459325
695.366707	24420.664972
695.703093	24147.885617
696.039429	24135.456652
696.375716	23871.544686
696.711952	23828.105064
697.048139	23679.564945
697.384276	23510.298122
697.720363	23630.829590
698.056400	23440.450415
698.392388	23216.149316
698.728326	23166.420854
699.064214	22963.753866
699.400053	22912.581114
699.735842	22571.791552
700.071581	22284.428139
700.407270	21996.623624
700.742910	21811.293165
701.078501	21548.825490
701.414042	21265.434506
701.749533	20985.854634
702.084974	20622.276537
702.420366	20824.792289
702.755709	20388.445136
703.091002	20102.697413
703.426246	20123.678695
703.761440	20014.099134
704.096584	19739.762062
704.431679	19705.033553
704.766725	19611.573081
705.101721	19560.720442
705.436668	19645.368977
705.771565	19319.095418
706.106413	19673.715385
706.441212	19643.602052
706.775961	19773.270612
707.110661	19855.814465
707.445311	20208.312106
707.779913	20053.710000
708.114465	20283.616862
708.448967	20571.655790
708.783421	21263.717993
709.117825	21536.867873
709.452180	21763.296339
709.786485	22154.257985
710.120742	22957.981745
710.454949	22976.316422
710.789107	23436.490589
711.123216	24139.660974
711.457275	24266.272074
711.791286	24793.728001
712.125247	24866.882705
712.459159	24552.586927
712.793023	25219.463525
713.126837	24107.362302
713.460602	24365.234965
713.794318	23985.378981
714.127985	23595.234003
714.461602	22701.840718
714.795171	22658.363287
715.128691	21654.644350
715.462162	21123.276488
715.795584	20711.013447
716.128957	20444.202818
716.462281	20046.148269
716.795556	19811.767383
717.128782	19321.290840
717.461960	18767.593187
717.795088	18692.323719
718.128167	18300.275705
718.461198	17843.756374
718.794180	17700.287656
719.127113	17339.656113
719.459997	17137.785628
719.792833	16806.261707
720.125619	16767.230573
720.458357	16463.354860
720.791046	16291.968232
721.123686	16134.928728
721.456278	15896.454425
721.788821	15851.192425
722.121315	15605.761330
722.453761	15678.666497
722.786158	15599.858139
723.118506	15610.384068
723.450805	15477.184180
723.783056	15636.484642
724.115259	15532.152922
724.447412	15474.371217
724.779518	15715.865171
725.111574	15738.346197
725.443582	15938.863132
725.775542	15913.243988
726.107453	16382.083899
726.439315	16252.410298
726.771129	16657.431722
727.102895	17026.655912
727.434612	17225.983135
727.766281	17357.494236
728.097901	17610.247607
728.429473	17646.443092
728.760996	17627.077499
729.092471	17711.970530
729.423897	17590.418229
729.755276	17459.552395
730.086606	17574.271413
730.417887	18105.324203
730.749120	18604.748794
731.080305	18787.984654
731.411442	19102.003168
731.742530	19172.148303
732.073570	19280.898595
732.404562	19567.258818
732.735506	19367.372027
733.066401	19086.592361
733.397249	18575.182427
733.728048	17938.252803
734.058798	17116.837113
734.389501	16443.124710
734.720156	15985.604710
735.050762	15459.830008
735.381320	15120.978770
735.711831	14882.249889
736.042293	14530.558832
736.372707	14532.343400
736.703073	14327.949818
737.033391	14524.322924
737.363661	14474.463392
737.693883	14597.449902
738.024056	14764.735551
738.354182	14948.442759
738.684260	15235.130658
739.014290	15462.753877
739.344272	15639.826927
739.674207	15919.149700
740.004093	16033.112544
740.333931	16017.621078
740.663722	16054.363528
740.993464	16046.080912
741.323159	15874.391815
741.652806	15598.189517
741.982405	15375.667945
742.311956	15052.905549
742.641460	14930.952476
742.970915	14632.047341
743.300323	14296.233398
743.629683	14087.116254
743.958996	13805.744252
744.288260	13537.640567
744.617477	13239.373138
744.946647	13166.112570
745.275768	12896.819173
745.604842	12708.617776
745.933869	12541.982436
746.262847	12496.632216
746.591778	12423.711925
746.920662	12324.164260
747.249498	12329.817914
747.578286	12442.308742
747.907027	12582.573807
748.235720	12802.214359
748.564365	12833.250223
748.892963	12736.676838
749.221514	12796.691775
749.550017	12658.639777
749.878473	12614.181841
750.206881	12391.080537
750.535242	12303.419912
750.863555	12218.231974
751.191821	12122.742438
751.520039	12147.441571
751.848210	12047.483052
752.176334	12077.682084
752.504411	11989.305616
752.832440	11833.344919
753.160421	11895.151986
753.488356	11767.993921
753.816243	11683.947804
754.144082	11545.487473
754.471875	11490.778351
754.799620	11433.745257
755.127318	11406.618808
755.454969	11363.668177
755.782572	11313.493573
756.110129	11330.376397
756.437638	11247.703994
756.765100	11244.591082
757.092515	11241.037068
757.419882	11258.207238
757.747203	11264.453228
758.074477	11335.939310
758.401703	11289.112032
758.728882	11460.786006
759.056014	11500.490133
759.383099	11606.039292
759.710138	11716.564070
760.037129	11796.133642
760.364073	11816.126858
760.690970	11803.397945
761.017820	11795.652212
761.344623	11973.506640
761.671379	12299.208028
761.998088	12917.840784
762.324751	14470.687568
762.651366	17321.200449
762.977935	20974.794343
763.304456	23187.215613
763.630931	23660.597604
763.957359	22480.506338
764.283740	20575.096378
764.610074	18701.785964
764.936362	16586.716936
765.262602	15070.426079
765.588796	13610.553296
765.914943	12585.270824
766.241044	11741.424520
766.567097	11111.872625
766.893104	10567.382639
767.219064	10209.954749
767.544978	9827.605915
767.870845	9516.917083
768.196665	9331.889093
768.522438	9137.388774
768.848165	8977.390113
769.173846	8811.521028
769.499479	8688.907563
769.825066	8527.590640
770.150607	8347.439967
770.476101	8286.986450
770.801548	8171.836413
771.126949	8034.298613
771.452303	7946.990870
771.777611	7789.863145
772.102872	7767.959332
772.428087	7644.287225
772.753256	7523.932198
773.078378	7437.894825
773.403453	7294.443751
773.728482	7194.742331
774.053465	7133.867878
774.378401	7047.102058
774.703291	6949.994312
775.028135	6854.472008
775.352932	6816.539846
775.677683	6735.200829
776.002388	6648.881151
776.327046	6652.079763
776.651658	6558.909158
776.976224	6488.048179
777.300743	6472.234079
777.625216	6404.060035
777.949643	6361.810125
778.274024	6368.474530
778.598359	6297.696730
778.922647	6301.240662
779.246889	6264.107522
779.571086	6270.623214
779.895236	6279.901457
780.219339	6276.337362
780.543397	6278.557990
780.867409	6331.041442
781.191374	6323.073899
781.515294	6288.680627
781.839167	6336.770714
782.162995	6311.448998
782.486776	6259.736842
782.810511	6226.969342
783.134201	6149.136447
783.457844	6134.996011
783.781441	6089.343321
784.104993	6044.656013
784.428498	6012.339696
784.751958	5997.198591
785.075372	5975.831660
785.398739	5931.867758
785.722061	5960.075534
786.045337	5958.537982
786.368568	6065.223921
786.691752	6092.630154
787.014891	6338.459500
787.337983	6615.506192
787.661030	7050.159518
787.984031	7474.748180
788.306987	7739.164261
788.629897	7827.540729
788.952760	7738.617296
789.275579	7566.938281
789.598351	7268.106243
789.921078	7003.065059
790.243759	6722.981072
790.566395	6522.257449
790.888984	6326.736297
791.211529	6187.146747
791.534027	6021.582652
791.856480	5887.263628
792.178888	5829.325647
792.501249	5762.487509
792.823566	5657.273587
793.145836	5654.937012
793.468062	5636.869517
793.790241	5594.841417
794.112375	5640.763808
794.434464	5731.907870
794.756507	5764.814001
795.078505	5884.435541
795.400457	6105.714468
795.722364	6337.723492
796.044226	6528.400095
796.366042	6693.780188
796.687812	6635.779193
797.009538	6665.693399
797.331218	6574.014976
797.652852	6502.720457
797.974442	6380.636314
798.295986	6312.699204
798.617484	6186.970307
798.938938	6075.396969
799.260346	6009.851887
799.581709	5868.311410
799.903026	5821.224513
800.224299	5749.032669
800.545526	5634.893384
800.866708	5567.588939
801.187845	5519.390467
801.508936	5440.561945
801.829983	5411.235032
802.150984	5308.821471
802.471940	5277.911637
802.792851	5265.391931
803.113717	5242.757150
803.434538	5218.864602
803.755314	5182.313716
804.076045	5169.957848
804.396731	5137.568434
804.717372	5154.063089
805.037967	5159.278163
805.358518	5187.959808
805.679024	5240.544084
805.999485	5252.032873
806.319901	5273.379639
806.640272	5288.475374
806.960598	5335.559751
807.280879	5327.214121
807.601115	5365.615111
807.921306	5328.565150
808.241453	5324.343184
808.561554	5332.804761
808.881611	5298.482065
809.201623	5297.763700
809.521590	5248.211679
809.841513	5229.866920
810.161390	5243.717490
810.481223	5160.014172
810.801011	5146.932377
811.120755	5120.224344
811.440453	5064.920366
811.760107	5038.103948
812.079716	5013.994630
812.399281	4959.411537
812.718801	4958.816680
813.038276	4924.493984
813.357707	4888.071648
813.677093	4906.136623
813.996434	4848.254094
814.315731	4868.131364
814.634983	4867.743195
814.954191	4871.627404
815.273354	4930.543369
815.592473	4971.981654
815.911547	5044.352458
816.230577	5101.196509
816.549562	5183.821021
816.868502	5236.034772
817.187399	5293.645078
817.506250	5371.442684
817.825058	5397.878495
818.143821	5549.836516
818.462539	5719.539399
818.781213	5955.372137
819.099843	6310.705428
819.418429	6943.718075
819.736970	7557.682723
820.055466	8268.061958
820.373919	9183.628758
820.692327	10631.521239
821.010691	13313.619252
821.329011	19517.979019
821.647286	29104.839591
821.965517	39465.779418
822.283704	44957.204084
822.601847	46464.433467
822.919945	41839.394103
823.237999	36718.872331
823.556010	31506.808246
823.873976	26801.917006
824.191897	22595.134615
824.509775	19514.558596
824.827609	16750.592245
825.145398	15184.036043
825.463144	14431.749696
825.780845	14720.837184
826.098502	15977.339739
826.416116	18424.146937
826.733685	20722.429140
827.051210	21248.960015
827.368692	19828.834209
827.686129	17256.832476
828.003522	14788.197081
828.320872	12565.151579
828.638177	10911.602706
828.955439	9667.783694
829.272656	8606.938402
829.589830	7768.108046
829.906960	7036.843310
830.224046	6505.077197
830.541088	6096.804229
830.858086	5836.277398
831.175041	5634.187623
831.491952	5576.136216
831.808819	5607.426658
832.125642	5849.394481
832.442421	6401.307565
832.759157	7505.264805
833.075849	9268.345348
833.392497	11125.524069
833.709101	12239.843401
834.025662	12000.174344
834.342179	10939.535739
834.658653	9636.740268
834.975083	8524.293726
835.291469	7626.302909
835.607811	6886.019549
835.924110	6365.643922
836.240366	5881.095777
836.556578	5433.458959
836.872746	5078.743210
837.188871	4807.130882
837.504952	4585.892283
837.820990	4414.866098
838.136984	4301.672030
838.452935	4251.409205
838.768842	4281.509935
839.084706	4558.755752
839.400526	5299.528104
839.716303	6205.161310
840.032037	6770.304903
840.347727	6632.832638
840.663373	6028.985586
840.978977	5451.702895
841.294537	5001.933669
841.610054	4677.835368
841.925527	4439.935756
842.240957	4233.868510
842.556344	4047.693658
842.871687	3891.959812
843.186987	3741.710743
843.502244	3620.019809
843.817458	3536.399670
844.132629	3464.454843
844.447756	3414.355856
844.762840	3371.601830
845.077881	3330.849143
845.392879	3297.975778
845.707833	3273.329577
846.022745	3247.365114
846.337613	3235.223495
846.652438	3211.827500
846.967221	3202.483722
847.281960	3181.759538
847.596656	3174.780061
847.911309	3163.553411
848.225919	3147.963643
848.540485	3141.505925
848.855009	3135.015439
849.169490	3121.926083
849.483928	3114.124897
849.798323	3106.795060
850.112675	3097.657968
850.426984	3100.937239
850.741251	3090.587750
851.055474	3089.342585
851.369654	3088.906525
851.683792	3087.946186
851.997887	3088.629262
852.311938	3087.893253
852.625947	3090.444077
852.939914	3082.426122
853.253837	3087.323603
853.567718	3084.757656
853.881555	3081.047367
854.195350	3085.037440
854.509103	3083.356215
854.822812	3082.310176
855.136479	3074.574525
855.450103	3079.769434
855.763685	3072.386664
856.077224	3076.333888
856.390720	3086.353181
856.704173	3094.557659
857.017584	3101.161570
857.330953	3104.619802
857.644278	3114.011472
857.957561	3119.176134
858.270802	3112.466358
858.584000	3110.039042
858.897155	3110.822942
859.210268	3098.141919
859.523339	3084.946699
859.836367	3085.133222
860.149352	3076.792633
860.462295	3072.704257
860.775195	3063.995664
861.088054	3056.176834
861.400869	3061.684295
861.713642	3055.365208
862.026373	3066.944739
862.339062	3071.073444
862.651708	3079.991245
862.964312	3096.730396
863.276873	3104.730707
863.589392	3136.253042
863.901869	3159.800272
864.214303	3181.525124
864.526696	3200.472301
864.839045	3215.638612
865.151353	3231.740058
865.463619	3233.189390
865.775842	3233.149060
866.088023	3237.749113
866.400162	3231.669482
866.712258	3232.322311
867.024313	3229.000191
867.336325	3232.652507
867.648296	3228.798545
867.960224	3230.424317
868.272110	3233.627970
868.583954	3231.026735
868.895755	3239.203486
869.207515	3235.606623
869.519233	3256.136722
869.830909	3262.990171
870.142542	3272.588527
870.454134	3278.834517
870.765684	3293.713483
871.077191	3312.479178
871.388657	3323.325220
871.700081	3342.499249
872.011463	3361.159080
872.322803	3379.841596
872.634101	3395.491858
872.945357	3413.632450
873.256571	3445.575722
873.567744	3461.916622
873.878874	3466.234370
874.189963	3482.035867
874.501010	3483.180209
874.812015	3481.504025
875.122979	3496.637569
875.433900	3494.754698
875.744780	3497.585306
876.055618	3504.103518
876.366415	3504.988240
876.677169	3509.668952
876.987882	3526.075387
877.298554	3549.907442
877.609183	3590.060232
877.919771	3632.806696
878.230317	3701.081563
878.540822	3801.602171
878.851285	3954.081951
879.161707	4177.357176
879.472087	4554.127973
879.782425	5183.727759
880.092722	6373.014089
880.402977	8301.996485
880.713191	10691.412667
881.023363	13090.684306
881.333494	14442.487353
881.643583	14903.339556
881.953631	14501.743596
882.263637	13653.511488
882.573602	12604.139863
882.883526	11650.121662
883.193408	10688.032574
883.503248	9771.949056
883.813048	8933.552239
884.122806	8160.718149
884.432522	7391.380098
884.742197	6731.301496
885.051831	6162.765207
885.361424	5665.475544
885.670975	5264.958392
885.980485	4941.991829
886.289954	4670.646682
886.599382	4453.680462
886.908768	4276.766209
887.218113	4108.321094
887.527417	3975.733707
887.836680	3855.807178
888.145901	3752.385386
888.455082	3679.570960
888.764221	3609.425825
889.073319	3548.054818
889.382376	3513.689272
889.691392	3493.244873
890.000366	3485.499140
890.309300	3478.794405
890.618193	3483.676763
890.927044	3479.386741
891.235855	3482.615600
891.544625	3498.064216
891.853353	3527.474307
892.162041	3588.994028
892.470687	3678.945857
892.779293	3797.539001
893.087858	3972.678768
893.396381	4250.806787
893.704864	4666.591074
894.013306	5240.420575
894.321707	5813.478780
894.630068	6171.473800
894.938387	6214.905861
895.246665	6035.097985
895.554903	5716.739038
895.863100	5378.585999
896.171256	5104.836222
896.479371	4861.040981
896.787446	4636.676867
897.095480	4440.954069
897.403473	4289.537972
897.711425	4146.039008
898.019336	4021.242723
898.327207	3902.407604
898.635038	3798.837098
898.942827	3688.314841
899.250576	3601.702777
899.558284	3517.908718
899.865952	3463.169349
900.173579	3401.062333
900.481165	3353.403265
900.788711	3310.498004
901.096216	3280.702265
901.403681	3252.645723
901.711105	3241.547623
902.018489	3236.456057
902.325832	3268.953856
902.633135	3325.606343
902.940397	3499.566479
903.247619	3903.529261
903.554800	4660.740815
903.861941	5637.655937
904.169041	6346.265727
904.476101	6552.585031
904.783121	6282.280882
905.090100	5875.333738
905.397039	5457.480057
905.703938	5095.139563
906.010796	4771.638638
906.317614	4512.755223
906.624391	4277.502218
906.931129	4080.922423
907.237826	3897.374012
907.544483	3725.367322
907.851099	3552.911969
908.157675	3389.339130
908.464211	3251.546751
908.770707	3148.225783
909.077163	3070.244174
909.383578	3009.273939
909.689954	2961.554376
909.996289	2933.074378
910.302584	2915.082500
910.608839	2899.349058
910.915054	2888.762635
911.221229	2887.618293
911.527363	2888.538304
911.833458	2892.470404
912.139513	2906.981365
912.445527	2921.237748
912.751502	2956.304015
913.057436	2997.270951
913.363331	3057.149777
913.669186	3145.334681
913.975000	3262.854059
914.280775	3450.823563
914.586510	3717.210735
914.892205	4097.396914
915.197859	4594.464766
915.503475	5187.924520
915.809050	5684.591600
916.114585	5984.136961
916.420081	6049.427465
916.725536	5981.500438
917.030952	5740.329117
917.336328	5535.144073
917.641665	5319.007123
917.946961	5089.770734
918.252218	4889.931834
918.557435	4657.529600
918.862612	4454.781954
919.167750	4285.905821
919.472848	4093.051439
919.777906	3924.283691
920.082925	3764.857201
920.387904	3610.668469
920.692843	3501.635873
920.997743	3398.761047
921.302603	3303.752941
921.607423	3237.595358
921.912204	3174.843075
922.216946	3126.223667
922.521647	3075.721388
922.826310	3034.136909
923.130932	2997.212978
923.435516	2954.484158
923.740059	2927.576999
924.044564	2898.270252
924.349028	2872.595655
924.653454	2843.384689
924.957840	2815.665905
925.262186	2797.490024
925.566493	2774.933382
925.870761	2752.742222
926.174989	2739.166395
926.479178	2726.984447
926.783328	2710.588094
927.087438	2699.487473
927.391509	2686.604804
927.695541	2672.771878
927.999533	2664.138902
928.303486	2652.035092
928.607400	2650.013589
928.911275	2641.993113
929.215110	2635.018677
929.518906	2632.886269
929.822663	2632.120014
930.126381	2631.646145
930.430060	2636.447844
930.733699	2633.897020
931.037299	2640.188380
931.340861	2640.747948
931.644383	2644.009575
931.947866	2643.941519
932.251309	2640.251395
932.554714	2640.400109
932.858080	2637.831641
933.161407	2631.913326
933.464694	2629.405352
933.767943	2628.729838
934.071153	2623.567696
934.374323	2620.293467
934.677455	2616.152159
934.980548	2616.704165
935.283602	2610.135542
935.586617	2608.731580
935.889593	2612.978752
936.192530	2613.447580
936.495428	2617.586367
936.798287	2630.711011
937.101108	2642.015799
937.403890	2663.440702
937.706632	2688.444826
938.009336	2722.701987
938.312002	2752.590988
938.614628	2777.612755
938.917216	2795.876855
939.219765	2804.348514
939.522275	2814.642550
939.824747	2816.810247
940.127179	2809.677014
940.429573	2804.860191
940.731929	2800.635704
941.034246	2794.425003
941.336524	2791.639765
941.638763	2786.404527
941.940964	2776.889349
942.243126	2762.007863
942.545250	2753.019486
942.847335	2736.333267
943.149381	2726.939076
943.451389	2709.375696
943.753359	2697.062678
944.055290	2688.528005
944.357182	2679.612724
944.659036	2674.561488
944.960851	2668.789367
945.262628	2665.999088
945.564367	2668.597803
945.866067	2666.664520
946.167729	2666.737617
946.469352	2665.910868
946.770937	2666.165446
947.072484	2653.938127
947.373992	2656.115906
947.675462	2649.249854
947.976893	2645.186684
948.278286	2644.513690
948.579641	2638.345839
948.880958	2636.810807
949.182236	2636.873822
949.483476	2634.602782
949.784678	2633.405508
950.085841	2631.585651
950.386967	2636.815848
950.688054	2642.227527
950.989103	2651.409989
951.290114	2655.914260
951.591087	2670.624347
951.892021	2684.442149
952.192917	2695.545291
952.493776	2705.105839
952.794596	2710.086499
953.095378	2712.347457
953.396122	2707.896118
953.696828	2706.373689
953.997496	2700.984696
954.298126	2693.591844
954.598718	2681.218332
954.899272	2672.116528
955.199788	2658.880979
955.500266	2648.821356
955.800706	2634.186887
956.101108	2615.539659
956.401472	2606.460541
956.701798	2593.406473
957.002087	2577.783937
957.302337	2564.833213
957.602550	2556.996739
957.902724	2544.167003
958.202861	2534.520755
958.502960	2529.346010
958.803022	2522.832839
959.103045	2513.378155
959.403031	2505.206445
959.702979	2502.842144
960.002889	2500.929026
960.302762	2492.162459
960.602596	2486.992756
960.902393	2485.331696
961.202153	2482.425471
961.501875	2477.971611
961.801559	2479.272229
962.101205	2476.166878
962.400814	2472.640591
962.700385	2469.159674
962.999918	2469.016002
963.299414	2465.706484
963.598873	2466.281176
963.898293	2466.724797
964.197677	2461.164404
964.497022	2461.229939
964.796331	2461.116513
965.095601	2460.113324
965.394835	2457.466718
965.694030	2457.123920
965.993189	2457.993519
966.292309	2460.519137
966.591393	2456.360185
966.890439	2456.017386
967.189447	2457.683488
967.488419	2456.362705
967.787353	2457.469239
968.086249	2456.400514
968.385108	2459.866307
968.683930	2459.909157
968.982714	2460.786318
969.281462	2460.849332
969.580172	2462.717080
969.878844	2466.734879
970.177480	2468.521968
970.476078	2470.031794
970.774639	2475.211580
971.073162	2476.930613
971.371649	2478.102681
971.670098	2478.062352
971.968510	2479.337764
972.266885	2476.058493
972.565223	2484.827581
972.863524	2482.997642
973.161788	2487.459063
973.460014	2487.617859
973.758204	2486.728096
974.056356	2488.220277
974.354471	2491.237408
974.652550	2490.604743
974.950591	2492.301091
975.248595	2490.692963
975.546563	2484.043681
975.844493	2483.277426
976.142386	2483.458907
976.440243	2481.064359
976.738062	2482.299442
977.035845	2473.134624
977.333590	2475.819039
977.631299	2470.866105
977.928971	2469.263018
978.226606	2467.808645
978.524204	2468.655559
978.821765	2466.830661
979.119290	2467.826289
979.416777	2467.478450
979.714228	2463.493418
980.011642	2468.534571
980.309020	2473.079172
980.606360	2475.171250
980.903664	2484.371356
981.200931	2496.666730
981.498162	2516.859072
981.795356	2546.342260
982.092513	2585.403641
982.389633	2627.913171
982.686717	2671.902279
982.983764	2706.066179
983.280775	2721.355998
983.577749	2723.216184
983.874686	2714.709237
984.171587	2698.811958
984.468451	2679.912673
984.765279	2664.078408
985.062070	2645.736170
985.358824	2625.435444
985.655543	2603.788729
985.952224	2580.337281
986.248869	2552.084135
986.545478	2525.857532
986.842050	2507.888339
987.138586	2486.047540
987.435086	2475.158648
987.731549	2461.792028
988.027975	2459.909157
988.324366	2455.016717
988.620719	2447.583536
988.917037	2443.525407
989.213318	2444.747887
989.509563	2437.415529
989.805772	2437.135745
990.101944	2436.117432
990.398080	2437.506269
990.694180	2433.591813
990.990244	2432.875970
991.286271	2436.084664
991.582262	2436.377051
991.878217	2436.034252
992.174136	2436.346804
992.470019	2439.767227
992.765865	2439.033739
993.061676	2439.021136
993.357450	2445.027671
993.653188	2444.609255
993.948890	2453.443877
994.244556	2458.197685
994.540186	2464.645321
994.835780	2476.847434
995.131337	2491.476862
995.426859	2507.621158
995.722345	2531.072605
996.017795	2548.746891
996.313208	2564.644169
996.608586	2571.865622
996.903928	2577.920048
997.199234	2573.720767
997.494504	2572.899059
997.789738	2563.895558
998.084936	2557.581513
998.380099	2540.865047
998.675225	2529.565300
998.970316	2518.673888
999.265371	2504.949346
999.560390	2489.268837
999.855373	2480.038484
1000.150320	2470.614047
1000.445232	2463.107769
1000.740108	2454.802468
1001.034948	2447.170161
1001.329752	2442.446600
1001.624521	2440.228492
1001.919254	2431.716504
1002.213951	2430.620053
1002.508613	2427.272727
1002.803239	2426.738365
1003.097829	2420.918353
1003.392384	2424.739547
1003.686903	2423.385998
1003.981386	2420.661254
1004.275834	2419.642941
1004.570246	2422.302149
1004.864623	2417.805440
1005.158964	2419.148908
1005.453270	2417.334092
1005.747540	2416.872827
1006.041775	2418.354926
1006.335974	2415.851993
1006.630138	2414.571540
1006.924266	2416.822415
1007.218359	2415.035326
1007.512416	2416.323341
1007.806438	2414.679925
1008.100425	2415.781417
1008.394376	2413.943916
1008.688292	2416.754360
1008.982172	2413.154976
1009.276017	2414.286715
1009.569827	2413.097003
1009.863602	2415.284863
1010.157341	2412.928124
1010.451045	2413.165058
1010.744714	2412.398803
1011.038347	2412.232445
1011.331945	2410.173133
1011.625508	2412.101375
1011.919036	2414.518608
1012.212528	2407.715571
1012.505986	2409.381672
1012.799408	2410.200860
1013.092795	2409.527866
1013.386147	2408.048287
1013.679464	2411.682959
1013.972745	2408.317989
1014.265992	2409.948802
1014.559204	2410.160530
1014.852380	2407.947464
1015.145521	2411.473751
1015.438628	2410.790675
1015.731699	2409.243040
1016.024736	2409.144738
1016.317737	2409.416960
1016.610703	2412.981056
1016.903635	2407.123235
1017.196531	2407.985272
1017.489393	2409.827814
1017.782219	2407.597104
1018.075011	2412.731519
1018.367768	2412.391241
1018.660490	2413.051632
1018.953177	2413.051632
1019.245829	2413.051632
