Dividing Wavelength (nm)	Counts (n)	Blue Motor Position (mm): 13.400000	Red Motor Position (mm): 0.000000	
326.493990	1972.727008
326.888308	1972.727008
327.282561	1972.727008
327.676750	1949.860334
328.070874	1953.603391
328.464933	1957.779987
328.858929	1968.414301
329.252859	1980.397124
329.646726	1996.150730
330.040528	2009.532472
330.434265	2029.712211
330.827938	2047.683925
331.221547	2067.110011
331.615091	2091.052971
332.008571	2109.521238
332.401986	2128.773405
332.795338	2152.209729
333.188625	2171.053562
333.581847	2189.398321
333.975006	2208.705940
334.368100	2225.404763
334.761129	2242.063255
335.154095	2256.720410
335.546996	2286.357354
335.939833	2339.554130
336.332606	2353.477797
336.725315	2365.054806
337.117960	2373.909593
337.510540	2383.485265
337.903056	2392.193858
338.295508	2396.224261
338.687896	2405.071486
339.080220	2409.432084
339.472480	2416.368711
339.864676	2422.004721
340.256807	2423.131419
340.648875	2425.573858
341.040879	2427.068560
341.432818	2426.940011
341.824694	2430.728438
342.216506	2427.870104
342.608253	2428.727100
342.999937	2422.861717
343.391557	2425.757860
343.783113	2423.340627
344.174605	2421.548497
344.566033	2417.394586
344.957397	2419.448856
345.348697	2416.048598
345.739934	2416.431726
346.131106	2414.483320
346.522215	2412.108936
346.913260	2410.934348
347.304241	2410.755387
347.695159	2407.627351
348.086012	2404.932854
348.476802	2403.087792
348.867528	2401.280538
349.258191	2400.738614
349.648789	2401.169633
350.039324	2399.415311
350.429796	2400.307595
350.820203	2395.505896
351.210548	2396.350289
351.600828	2396.879611
351.991045	2396.529250
352.381198	2394.066647
352.771288	2396.667882
353.161314	2393.353323
353.551276	2394.951369
353.941175	2395.072357
354.331010	2395.037069
354.720782	2396.740979
355.110490	2398.603685
355.500135	2395.589075
355.889717	2395.820968
356.279235	2396.937584
356.668689	2395.790721
357.058080	2397.552605
357.447408	2392.440875
357.836672	2392.697973
358.225873	2394.061606
358.615010	2392.098076
359.004084	2396.965310
359.393095	2399.692574
359.782043	2400.234498
360.170927	2399.160733
360.559748	2399.967317
360.948505	2400.310116
361.337199	2403.460837
361.725830	2401.449417
362.114398	2406.674573
362.502903	2402.697102
362.891344	2405.079047
363.279722	2406.092319
363.668037	2404.365724
364.056289	2403.851526
364.444478	2406.059552
364.832603	2406.724984
365.220665	2406.697258
365.608665	2405.177350
365.996601	2407.634912
366.384474	2404.653070
366.772284	2410.460479
367.160031	2408.320509
367.547715	2407.909655
367.935336	2407.387896
368.322893	2407.246743
368.710388	2404.390930
369.097820	2412.416447
369.485189	2407.594583
369.872495	2410.457958
370.259738	2408.875036
370.646918	2410.137845
371.034035	2409.916034
371.421090	2411.214132
371.808081	2413.157496
372.195010	2411.788823
372.581875	2412.224883
372.968678	2411.680438
373.355418	2410.931827
373.742096	2411.730850
374.128710	2411.914852
374.515262	2413.580953
374.901751	2410.853689
375.288177	2414.611869
375.674540	2412.126580
376.060841	2414.944585
376.447079	2411.630027
376.833254	2416.119174
377.219367	2409.182547
377.605417	2415.133629
377.991404	2409.747156
378.377329	2413.712023
378.763191	2409.532907
379.148991	2413.389389
379.534727	2416.247724
379.920402	2414.531211
380.306013	2417.137487
380.691563	2416.267888
381.077049	2416.721592
381.462474	2417.984401
381.847835	2415.206725
382.233134	2419.506830
382.618371	2417.906263
383.003545	2416.459452
383.388657	2420.429361
383.773706	2418.402817
384.158693	2419.902560
384.543618	2419.393404
384.928480	2421.737540
385.313280	2420.772159
385.698017	2420.701583
386.082692	2421.513209
386.467305	2418.740574
386.851856	2420.613363
387.236344	2421.200657
387.620770	2424.600916
388.005133	2420.010945
388.389435	2424.056471
388.773674	2422.070256
389.157851	2423.580082
389.541965	2421.354413
389.926018	2422.521440
390.310008	2422.816347
390.693936	2422.534042
391.077802	2424.434558
391.461606	2424.066553
391.845348	2425.641914
392.229027	2424.167376
392.612645	2423.302818
392.996200	2424.444640
393.379694	2425.503282
393.763125	2426.093097
394.146494	2427.202151
394.529801	2429.193407
394.913047	2424.129568
395.296230	2428.890938
395.679351	2426.488828
396.062410	2426.682912
396.445408	2425.583941
396.828343	2426.698036
397.211217	2422.622263
397.594028	2426.569486
397.976778	2422.773497
398.359466	2427.555032
398.742092	2425.357089
399.124656	2426.498910
399.507158	2426.667789
399.889598	2430.264652
400.271977	2427.585279
400.654294	2433.037287
401.036549	2429.899168
401.418742	2429.652152
401.800874	2429.241298
402.182944	2428.069229
402.564952	2430.461257
402.946898	2430.859508
403.328783	2430.085691
403.710606	2428.933787
404.092367	2430.937646
404.474067	2431.658531
404.855705	2430.214240
405.237282	2432.429828
405.618797	2431.855136
406.000250	2433.211206
406.381642	2431.562749
406.762972	2434.496701
407.144240	2432.611309
407.525447	2433.112904
407.906593	2429.286668
408.287677	2431.073757
408.668700	2432.928902
409.049661	2432.555856
409.430560	2433.503593
409.811399	2434.010229
410.192176	2433.400250
410.572891	2434.221958
410.953545	2435.585590
411.334138	2436.636670
411.714669	2437.579366
412.095139	2436.112390
412.475547	2433.493511
412.855894	2435.830086
413.236180	2437.281938
413.616405	2435.663728
413.996568	2434.080805
414.376670	2439.331167
414.756711	2435.028542
415.136691	2436.329160
415.516609	2438.048193
415.896466	2435.847730
416.276262	2437.521393
416.655997	2433.178439
417.035670	2434.380754
417.415283	2434.602565
417.794834	2431.358582
418.174324	2439.230344
418.553753	2436.533327
418.933121	2438.000303
419.312428	2436.245981
419.691674	2436.525765
420.070859	2436.097267
420.449983	2439.053904
420.829045	2436.407298
421.208047	2435.653645
421.586988	2437.352514
421.965867	2437.455858
422.344686	2438.486774
422.723444	2439.048863
423.102141	2438.920313
423.480777	2436.903852
423.859352	2441.433328
424.237866	2439.099274
424.616319	2439.240426
424.994712	2437.750765
425.373044	2440.185643
425.751314	2440.775458
426.129524	2438.824531
426.507673	2441.057762
426.885762	2438.764037
427.263789	2441.130859
427.641756	2440.220931
428.019662	2442.431477
428.397508	2440.984666
428.775292	2443.729574
429.153016	2439.769748
429.530679	2442.943154
429.908282	2442.113884
430.285824	2440.316713
430.663305	2440.730087
431.040726	2441.745880
431.418086	2443.112032
431.795385	2441.309820
432.172624	2443.684203
432.549802	2438.958122
432.926920	2441.579522
433.303977	2441.554316
433.680974	2443.837959
434.057910	2443.101950
434.434786	2443.608586
434.811601	2442.786878
435.188355	2445.408278
435.565050	2443.908535
435.941683	2442.802002
436.318257	2441.670262
436.694770	2441.259408
437.071222	2441.062803
437.447614	2440.185643
437.823946	2441.897114
438.200218	2444.503391
438.576429	2442.915427
438.952580	2444.702517
439.328670	2444.495829
439.704700	2442.083637
440.080670	2443.094388
440.456580	2443.117074
440.832429	2444.621858
441.208218	2443.611107
441.583947	2445.738474
441.959616	2447.006324
442.335224	2445.136056
442.710773	2444.649584
443.086261	2445.526745
443.461689	2449.816767
443.837057	2447.386931
444.212365	2446.184616
444.587612	2447.371808
444.962800	2448.546396
445.337927	2448.720316
445.712995	2446.550099
446.088002	2450.900615
446.462949	2448.087651
446.837837	2448.309462
447.212664	2449.221911
447.587431	2449.836932
447.962139	2452.622169
448.336786	2453.877417
448.711374	2455.588888
449.085901	2450.487241
449.460369	2452.654937
449.834776	2450.535132
450.209124	2453.479165
450.583412	2456.627366
450.957640	2454.991512
451.331808	2456.314814
451.705917	2452.997735
452.079965	2455.929166
452.453954	2454.651234
452.827883	2456.740792
453.201752	2454.109310
453.575562	2455.404886
453.949311	2456.271965
454.323001	2456.468570
454.696632	2455.972016
455.070202	2458.832871
455.443713	2458.379167
455.817164	2456.448405
456.190556	2456.506378
456.563888	2458.719445
456.937160	2454.648713
457.310373	2458.976544
457.683526	2460.993005
458.056619	2463.276648
458.429653	2459.339507
458.802628	2460.627522
459.175542	2461.867645
459.548398	2460.856894
459.921194	2465.487194
460.293930	2463.410238
460.666607	2466.747482
461.039224	2466.674386
461.411782	2468.400981
461.784280	2469.084057
462.156719	2466.636577
462.529099	2469.016002
462.901419	2466.084571
463.273680	2465.623305
463.645882	2469.016002
464.018024	2467.496094
464.390106	2466.916361
464.762130	2471.518934
465.134094	2473.961373
465.505999	2481.079483
465.877845	2486.503764
466.249631	2486.869248
466.621358	2483.090903
466.993026	2484.509988
467.364634	2483.642909
467.736184	2479.073103
468.107674	2475.972794
468.479105	2478.437918
468.850477	2479.685604
469.221790	2473.318626
469.593043	2471.632360
469.964238	2470.510704
470.335373	2474.452886
470.706449	2474.641929
471.077467	2481.528145
471.448425	2483.262302
471.819324	2485.682056
472.190164	2483.514360
472.560945	2484.394041
472.931667	2480.144349
473.302330	2478.465644
473.672934	2477.956488
474.043479	2477.533031
474.413965	2474.432721
474.784393	2473.235447
475.154761	2475.445993
475.525070	2474.515900
475.895321	2477.303658
476.265513	2475.178812
476.635645	2478.107723
477.005719	2478.727784
477.375734	2479.710809
477.745691	2482.541417
478.115588	2486.387818
478.485427	2486.886892
478.855207	2491.474342
479.224928	2491.451657
479.594591	2494.809065
479.964194	2496.016422
480.333739	2494.660351
480.703226	2493.019456
481.072653	2497.359889
481.442022	2495.514827
481.811333	2499.323418
482.180584	2497.145640
482.549777	2495.613129
482.918912	2495.136740
483.287988	2495.023314
483.657005	2499.734273
484.025964	2495.280413
484.394864	2496.238232
484.763706	2499.784684
485.132489	2500.571104
485.501213	2500.104797
485.869879	2502.622854
486.238487	2504.074706
486.607036	2504.740138
486.975527	2502.433810
487.343959	2504.659480
487.712333	2504.805673
488.080648	2506.466733
488.448905	2508.420181
488.817104	2508.231137
489.185244	2515.140039
489.553326	2518.668846
489.921350	2526.936339
490.289315	2534.840868
490.657222	2537.900848
491.025070	2539.579552
491.392861	2539.350180
491.760593	2538.944367
492.128267	2538.510828
492.495883	2538.261291
492.863440	2537.878163
493.230939	2536.075951
493.598380	2537.565612
493.965763	2535.297092
494.333088	2537.263142
494.700354	2537.401774
495.067563	2538.420087
495.434713	2537.747093
495.801805	2547.385779
496.168839	2549.432488
496.535815	2549.230842
496.902733	2554.576985
497.269593	2554.708055
497.636395	2558.118396
498.003139	2560.444888
498.369825	2563.285578
498.736453	2566.622822
499.103023	2566.411094
499.469535	2569.917216
499.835989	2573.312433
500.202385	2575.782599
500.568723	2576.266550
500.935003	2582.540266
501.301226	2584.705441
501.667390	2587.190730
502.033497	2592.932604
502.399546	2591.049733
502.765537	2594.664241
503.131470	2599.584407
503.497345	2604.320571
503.863163	2604.176898
504.228923	2605.406939
504.594625	2612.789709
504.960269	2612.746859
505.325856	2619.078549
505.691385	2619.474279
506.056856	2622.892182
506.422270	2628.495424
506.787625	2628.442492
507.152924	2633.077833
507.518164	2635.018677
507.883347	2632.843419
508.248472	2640.868936
508.613540	2643.825573
508.978550	2650.676501
509.343503	2651.727582
509.708398	2654.439722
510.073236	2661.953562
510.438016	2663.450785
510.802738	2663.405414
511.167403	2669.701816
511.532010	2672.489574
511.896561	2678.254133
512.261053	2688.543128
512.625488	2683.784279
512.989866	2683.648168
513.354186	2690.680577
513.718449	2689.006914
514.082655	2701.718184
514.446803	2703.187680
514.810894	2708.188505
515.174927	2710.983824
515.538904	2711.646736
515.902822	2717.423898
516.266684	2720.718292
516.630488	2721.421533
516.994235	2726.495455
517.357925	2729.804972
517.721558	2734.284037
518.085133	2741.248392
518.448651	2742.133114
518.812112	2743.519431
519.175516	2746.224010
519.538863	2750.861872
519.902152	2752.764907
520.265385	2761.607091
520.628560	2762.927874
520.991678	2764.150353
521.354739	2765.697988
521.717743	2770.320726
522.080690	2773.695778
522.443580	2780.942437
522.806413	2783.876388
523.169189	2783.720113
523.531908	2787.203550
523.894569	2790.369395
524.257174	2792.143881
524.619722	2800.063533
524.982213	2801.351548
525.344647	2802.626960
525.707025	2804.739204
526.069345	2812.200111
526.431608	2813.082313
526.793815	2819.955927
527.155964	2819.981132
527.518057	2821.395176
527.880093	2822.879796
528.242072	2828.089828
528.603995	2829.012359
528.965860	2827.469766
529.327669	2837.305057
529.689421	2838.787157
530.051117	2841.514421
530.412755	2845.494412
530.774337	2848.609845
531.135862	2850.880885
531.497331	2853.600587
531.858743	2854.170238
532.220098	2863.183821
532.581396	2860.275075
532.942638	2864.648276
533.303824	2870.304451
533.664953	2875.527086
534.026025	2876.759648
534.387040	2884.023951
534.747999	2887.706514
535.108902	2895.611043
535.469748	2893.314797
535.830537	2899.550705
536.191270	2905.542116
536.551947	2909.164185
536.912567	2917.096441
537.273131	2920.889909
537.633638	2920.037954
537.994089	2928.638162
538.354483	2932.114038
538.714821	2946.546861
539.075103	2954.902574
539.435328	2959.127061
539.795497	2967.127372
540.155609	2971.848413
540.515665	2984.695793
540.875665	2990.717451
541.235609	2998.460664
541.595496	3004.147085
541.955328	3020.843387
542.315102	3023.172400
542.674821	3027.641383
543.034483	3037.600182
543.394090	3050.029147
543.753640	3058.445353
544.113134	3080.245823
544.472571	3083.809919
544.831953	3112.320164
545.191278	3114.240844
545.550548	3118.992132
545.909761	3139.512148
546.268918	3154.529746
546.628019	3172.637570
546.987064	3185.530321
547.346053	3186.893953
547.704986	3214.786657
548.063863	3224.606825
548.422684	3243.947212
548.781449	3259.219387
549.140158	3284.987245
549.498811	3302.331335
549.857408	3311.528920
550.215949	3343.005885
550.574434	3358.625900
550.932864	3379.614744
551.291237	3412.379724
551.649555	3434.041562
552.007817	3462.942497
552.366022	3480.452945
552.724173	3508.078468
553.082267	3540.556101
553.440305	3581.094540
553.798288	3592.638782
554.156215	3629.040954
554.514086	3665.309536
554.871902	3691.271478
555.229661	3725.165676
555.587365	3755.014348
555.945014	3793.773259
556.302606	3826.949093
556.660143	3869.413252
557.017625	3913.364552
557.375050	3943.450158
557.732421	3997.950072
558.089735	4038.468346
558.446994	4076.811362
558.804197	4136.700270
559.161345	4177.803318
559.518437	4193.897202
559.875474	4247.492229
560.232455	4304.331238
560.589381	4366.453377
560.946251	4402.530395
561.303065	4479.594513
561.659825	4524.823746
562.016528	4566.889654
562.373177	4611.256849
562.729770	4687.141338
563.086307	4721.312799
563.442789	4808.476870
563.799216	4871.382908
564.155587	4919.659518
564.511904	4985.489425
564.868164	5058.445004
565.224370	5140.056243
565.580520	5191.286969
565.936615	5270.695225
566.292654	5326.611703
566.648638	5415.623357
567.004567	5490.040870
567.360441	5570.091872
567.716260	5634.006141
568.072023	5738.567234
568.427732	5821.390871
568.783385	5866.443663
569.138982	5981.064378
569.494525	6066.259878
569.850013	6136.553727
570.205445	6224.219392
570.560823	6311.517054
570.916145	6391.610906
571.271412	6486.291337
571.626625	6559.446041
571.981782	6657.123438
572.336884	6720.727676
572.691931	6851.780032
573.046923	6911.883189
573.401860	6989.572411
573.756743	7089.543532
574.111570	7201.764658
574.466342	7295.920809
574.821059	7403.776296
575.175722	7455.465767
575.530330	7563.389309
575.884882	7637.103581
576.239380	7737.634271
576.593823	7844.196702
576.948211	7939.351001
577.302544	7998.844178
577.656823	8110.127649
578.011047	8258.156091
578.365216	8335.804983
578.719330	8422.432171
579.073389	8516.830298
579.427394	8652.167634
579.781344	8769.772712
580.135239	8843.865071
580.489080	8970.191345
580.842866	9021.195219
581.196597	9221.102175
581.550273	9335.377571
581.903895	9446.396382
582.257463	9650.167382
582.610975	9679.995889
582.964434	9857.729330
583.317837	9929.893447
583.671186	10035.457729
584.024481	10204.787566
584.377721	10256.479558
584.730906	10441.232805
585.084037	10579.428476
585.437113	10659.560137
585.790135	10791.837493
586.143103	10850.619868
586.496016	11007.475370
586.848874	11152.461475
587.201679	11306.320011
587.554428	11331.944196
587.907124	11519.071827
588.259765	11609.815116
588.612352	11816.373875
588.964884	11821.231026
589.317362	12032.815815
589.669786	12174.845283
590.022155	12259.463571
590.374470	12509.613187
590.726731	12533.508256
591.078937	12564.120663
591.431090	12727.537227
591.783188	12780.141667
592.135232	12843.105678
592.487222	13060.981827
592.839157	13236.151841
593.191038	13288.607567
593.542866	13372.177295
593.894639	13342.963809
594.246358	13573.210949
594.598022	13709.175909
594.949633	13742.765117
595.301190	13871.793450
595.652692	13975.779851
596.004141	14212.512436
596.355535	14059.198344
596.706876	14179.165203
597.058162	14269.885808
597.409395	14570.804883
597.760573	14734.869235
598.111698	14746.418519
598.462768	14899.024328
598.813785	15056.857814
599.164748	15021.665519
599.515657	15303.198838
599.866511	15276.931906
600.217312	15641.029242
600.568060	15415.331743
600.918753	15829.727192
601.269392	15970.682895
601.619978	15993.947820
601.970510	16223.360649
602.320988	16440.329390
602.671412	16712.224023
603.021783	16761.145900
603.372100	16780.113242
603.722363	16974.666492
604.072572	17150.121331
604.422728	17314.236095
604.772830	17390.125625
605.122878	17589.054597
605.472872	17712.399028
605.822813	17989.249115
606.172701	18067.137463
606.522534	18329.146393
606.872314	18603.944730
607.222041	18655.510693
607.571714	18984.105703
607.921333	18896.994565
608.270899	19175.568726
608.620411	19491.407097
608.969870	19552.268947
609.319276	19707.667556
609.668627	19892.236801
610.017926	20275.119997
610.367171	20498.649800
610.716362	20713.032429
611.065500	20840.266111
611.414585	21081.979356
611.763616	21403.660424
612.112594	21521.131911
612.461518	21784.824587
612.810389	22094.238007
613.159207	22173.719359
613.507971	22366.120037
613.856682	22785.914562
614.205340	22879.213716
614.553945	23408.439088
614.902496	23261.733950
615.250994	23672.182175
615.599439	23880.412076
615.947830	24149.599609
616.296169	24342.769063
616.644454	24577.863272
616.992686	24825.913247
617.340864	25280.703462
617.688990	25271.268943
618.037063	25776.700068
618.385082	25922.016369
618.733048	26238.396664
619.080961	26407.875215
619.428821	26558.396507
619.776628	26780.517308
620.124382	26812.921844
620.472083	27043.577318
620.819731	27260.689732
621.167326	27201.647738
621.514868	27333.408376
621.862357	27223.995173
622.209793	27379.010654
622.557176	27305.515672
622.904506	27279.004244
623.251783	27199.495165
623.599007	27195.076594
623.946179	27187.363629
624.293297	27296.988560
624.640363	27041.376854
624.987376	27182.040170
625.334336	27141.990723
625.681243	27040.134210
626.028097	27149.383576
626.374899	27180.411878
626.721647	27294.669629
627.068343	27334.875352
627.414987	27304.966186
627.761577	27261.284588
628.108115	27618.813301
628.454600	27357.920987
628.801032	27608.849461
629.147412	27702.929994
629.493739	27830.118306
629.840014	27700.333800
630.186236	28049.484115
630.532405	27889.729950
630.878521	28152.933633
631.224585	28169.713114
631.570597	28073.961438
631.916556	28297.571899
632.262462	28367.616211
632.608316	28481.460588
632.954117	28517.366207
633.299866	28614.937739
633.645562	28645.625763
633.991206	28407.126254
634.336797	28190.689355
634.682336	28312.029928
635.027823	28210.556543
635.373257	28191.536269
635.718639	28113.002654
636.063968	28102.075953
636.409245	27784.669783
636.754470	27909.995388
637.099642	27823.647985
637.444762	27556.154279
637.789829	27758.710362
638.134845	27576.981807
638.479808	27637.793245
638.824719	27643.124266
639.169577	27432.978726
639.514383	27573.889059
639.859137	27425.537983
640.203839	27695.456484
640.548489	27493.974167
640.893086	27625.848231
641.237632	27518.786727
641.582125	27694.849025
641.926566	27704.366723
642.270955	27762.760929
642.615292	27850.585390
642.959576	27919.402182
643.303809	27995.183327
643.647990	28175.694443
643.992118	28223.928203
644.336195	28286.695610
644.680219	28430.267671
645.024192	28744.976823
645.368112	29232.582429
645.711981	29306.407607
646.055797	30063.568750
646.399562	30075.576778
646.743274	30889.909647
647.086935	31318.019555
647.430544	31299.384930
647.774101	31457.223457
648.117606	31720.500237
648.461059	32036.668803
648.804460	31796.490590
649.147810	31369.628368
649.491108	31248.456673
649.834354	31014.043019
650.177548	30396.776416
650.520690	30080.973333
650.863781	30166.078093
651.206820	30113.357706
651.549807	29816.811831
651.892742	29473.723503
652.235626	29377.566014
652.578458	29318.685337
652.921238	28858.483443
653.263967	29206.678460
653.606644	28976.695981
653.949269	29002.824281
654.291843	28705.121461
654.634365	29112.824778
654.976836	28807.030907
655.319255	28859.221972
655.661622	28919.758668
656.003938	28775.909343
656.346203	28718.104953
656.688416	28944.951835
657.030577	28831.707355
657.372687	28727.297497
657.714746	29009.647483
658.056753	29157.345729
658.398708	28740.724610
658.740612	28833.746502
659.082465	29114.861405
659.424266	29005.450722
659.766016	29147.558328
660.107715	29090.149668
660.449362	29235.811288
660.790958	29257.503373
661.132503	29312.577979
661.473996	29380.028617
661.815438	29537.478976
662.156829	29739.719986
662.498168	29581.228629
662.839456	29640.893206
663.180693	29829.586115
663.521879	29997.791774
663.863013	30012.070843
664.204097	30022.246412
664.545129	30476.177110
664.886110	30485.982154
665.227040	30571.530535
665.567918	30700.263960
665.908746	30794.853650
666.249522	30980.032875
666.590248	31018.988391
666.930922	31147.605870
667.271545	31146.118730
667.612118	31257.447571
667.952639	31115.140839
668.293109	31181.474862
668.633528	31116.524636
668.973896	31092.188466
669.314213	31155.016366
669.654480	30961.375565
669.994695	31011.940858
670.334859	30949.654882
670.674973	30904.115619
671.015035	31075.419068
671.355047	31058.516079
671.695008	31034.086647
672.034918	30955.855501
672.374777	31064.746945
672.714585	30957.100666
673.054342	31197.838447
673.394049	30992.781953
673.733705	31267.955856
674.073310	30978.230662
674.412864	31093.214341
674.752368	30741.858520
675.091820	31050.853525
675.431223	30689.183504
675.770574	30464.975666
676.109875	30368.145183
676.449125	30124.886825
676.788324	30090.337277
677.127473	29614.991757
677.466571	29571.708410
677.805619	29274.550035
678.144616	29292.519228
678.483562	29259.708878
678.822458	28973.066350
679.161303	28934.539332
679.500098	28848.393574
679.838842	28779.826320
680.177535	28945.914695
680.516179	29232.947913
680.854771	29471.959099
681.193314	30294.231785
681.531805	31347.275892
681.870247	32098.732969
682.208638	32811.632781
682.546978	33034.625701
682.885268	33124.839670
683.223508	32647.225631
683.561697	32348.030630
683.899836	32187.374098
684.237925	31734.572618
684.575963	31614.814967
684.913951	31184.353361
685.251889	31362.225433
685.589776	31349.438547
685.927614	31360.007326
686.265401	31519.242252
686.603137	31618.164814
686.940824	32109.757972
687.278460	32477.701709
687.616046	32609.059055
687.953582	33189.661347
688.291068	33072.820003
688.628504	33339.121476
688.965889	33307.959583
689.303224	32958.085862
689.640510	32637.972593
689.977745	31972.378968
690.314930	31234.626268
690.652065	30764.311820
690.989150	30068.204091
691.326185	29235.287008
691.663170	28576.715711
692.000105	27873.220171
692.336990	27256.855934
692.673825	26845.991814
693.010610	26376.738528
693.347345	25841.746077
693.684030	25238.209056
694.020665	24988.724873
694.357251	24358.154664
694.693786	24324.041176
695.030272	24111.576706
695.366707	23593.212500
695.703093	23335.964940
696.039429	23342.218491
696.375716	23095.827056
696.711952	23062.600811
697.048139	22928.256582
697.384276	22764.537549
697.720363	22891.335171
698.056400	22706.627294
698.392388	22501.961489
698.728326	22469.766160
699.064214	22291.218573
699.400053	22241.651428
699.735842	21906.061816
700.071581	21657.805154
700.407270	21399.047768
700.742910	21217.719985
701.078501	20968.465174
701.414042	20703.739062
701.749533	20421.951165
702.084974	20102.825962
702.420366	20307.020419
702.755709	19890.384177
703.091002	19607.129304
703.426246	19646.775459
703.761440	19550.617970
704.096584	19306.411874
704.431679	19257.144678
704.766725	19174.305917
705.101721	19127.208937
705.436668	19216.263441
705.771565	18912.228932
706.106413	19258.036962
706.441212	19246.079345
706.775961	19373.456700
707.110661	19452.423854
707.445311	19812.382404
707.779913	19657.006480
708.114465	19902.412370
708.448967	20179.252375
708.783421	20850.471927
709.117825	21127.851335
709.452180	21346.894511
709.786485	21731.310218
710.120742	22512.994054
710.454949	22517.155527
710.789107	22990.056087
711.123216	23673.220653
711.457275	23787.054948
711.791286	24309.557941
712.125247	24376.217118
712.459159	24088.473098
712.793023	24721.563883
713.126837	23652.546881
713.460602	23901.506784
713.794318	23539.322566
714.127985	23165.485720
714.461602	22309.182725
714.795171	22272.336931
715.128691	21300.790638
715.462162	20780.593973
715.795584	20386.259796
716.128957	20135.323760
716.462281	19746.250027
716.795556	19515.067753
717.128782	19042.028561
717.461960	18500.318772
717.795088	18427.073327
718.128167	18043.247435
718.461198	17591.494515
718.794180	17459.827138
719.127113	17112.216895
719.459997	16928.434070
719.792833	16588.640136
720.125619	16565.637351
720.458357	16257.315341
720.791046	16097.311638
721.123686	15928.523725
721.456278	15718.665532
721.788821	15667.487738
722.121315	15420.675366
722.453761	15497.411810
722.786158	15426.999494
723.118506	15427.357416
723.450805	15305.011133
723.783056	15460.114833
724.115259	15374.712646
724.447412	15307.302337
724.779518	15549.701178
725.111574	15561.923456
725.443582	15759.955102
725.775542	15747.873977
726.107453	16209.431941
726.439315	16089.729743
726.771129	16487.166751
727.102895	16857.164758
727.434612	17039.082356
727.766281	17170.321235
728.097901	17425.688444
728.429473	17461.329402
728.760996	17439.697811
729.092471	17538.275054
729.423897	17408.573727
729.755276	17288.508566
730.086606	17403.066267
730.417887	17918.587262
730.749120	18436.654040
731.080305	18603.864072
731.411442	18939.226831
731.742530	19011.953037
732.073570	19109.002810
732.404562	19390.699967
732.735506	19209.793120
733.066401	18923.049768
733.397249	18419.612419
733.728048	17782.309750
734.058798	16971.359495
734.389501	16303.625901
734.720156	15851.048752
735.050762	15338.928016
735.381320	14990.362474
735.711831	14750.930352
736.042293	14414.355194
736.372707	14421.029682
736.703073	14215.761459
737.033391	14406.054935
737.363661	14377.985790
737.693883	14480.522859
738.024056	14645.915555
738.354182	14841.953425
738.684260	15114.268994
739.014290	15335.409290
739.344272	15517.694893
739.674207	15793.710669
740.004093	15909.901703
740.333931	15891.395627
740.663722	15930.036072
740.993464	15926.109013
741.323159	15754.813126
741.652806	15491.730430
741.982405	15282.666218
742.311956	14946.759014
742.641460	14825.708307
742.970915	14515.228683
743.300323	14189.809599
743.629683	13981.090707
743.958996	13711.736815
744.288260	13444.608594
744.617477	13148.556752
744.946647	13069.957602
745.275768	12809.050164
745.604842	12627.561063
745.933869	12465.087196
746.262847	12412.258424
746.591778	12341.324348
746.920662	12237.189233
747.249498	12244.849266
747.578286	12366.378883
747.907027	12504.146056
748.235720	12721.326525
748.564365	12744.765370
748.892963	12658.102894
749.221514	12708.446377
749.550017	12562.285683
749.878473	12516.469156
750.206881	12308.302270
750.535242	12221.803632
750.863555	12141.107361
751.191821	12036.447966
751.520039	12060.211966
751.848210	11975.938997
752.176334	12005.729695
752.504411	11914.620922
752.832440	11762.158786
753.160421	11821.825882
753.488356	11707.684077
753.816243	11606.606422
754.144082	11465.607869
754.471875	11415.524006
754.799620	11358.354801
755.127318	11324.853813
755.454969	11293.996910
755.782572	11253.531568
756.110129	11261.993145
756.437638	11178.138592
756.765100	11169.699700
757.092515	11170.473518
757.419882	11187.114366
757.747203	11194.867661
758.074477	11269.401121
758.401703	11229.351674
758.728882	11387.676672
759.056014	11427.857189
759.383099	11536.622604
759.710138	11642.189406
760.037129	11722.356355
760.364073	11744.227401
760.690970	11717.630274
761.017820	11723.972045
761.344623	11905.869479
761.671379	12220.790360
761.998088	12848.661030
762.324751	14393.694025
762.651366	17226.096561
762.977935	20848.878923
763.304456	23036.457387
763.630931	23500.026771
763.957359	22323.597904
764.283740	20433.497928
764.610074	18571.366273
764.936362	16476.373640
765.262602	14972.937726
765.588796	13527.510369
765.914943	12500.433246
766.241044	11672.940445
766.567097	11040.260514
766.893104	10496.589715
767.219064	10145.065017
767.544978	9766.151729
767.870845	9453.292680
768.196665	9271.773333
768.522438	9083.012368
768.848165	8914.340402
769.173846	8752.524404
769.499479	8631.826578
769.825066	8478.555337
770.150607	8298.538254
770.476101	8242.566323
770.801548	8128.641287
771.126949	7991.529464
771.452303	7895.737458
771.777611	7730.700164
772.102872	7717.220118
772.428087	7599.315092
772.753256	7475.970660
773.078378	7387.289202
773.403453	7250.457163
773.728482	7152.041237
774.053465	7083.189158
774.378401	6999.377455
774.703291	6909.715493
775.028135	6817.832902
775.352932	6778.635410
775.677683	6696.081475
776.002388	6608.234328
776.327046	6608.776252
776.651658	6519.192427
776.976224	6450.284896
777.300743	6429.275887
777.625216	6361.580752
777.949643	6326.897614
778.274024	6328.193191
778.598359	6261.387820
778.922647	6261.927223
779.246889	6222.034052
779.571086	6232.491926
779.895236	6245.399800
780.219339	6241.162711
780.543397	6235.614921
780.867409	6283.309277
781.191374	6286.991840
781.515294	6250.173773
781.839167	6298.762934
782.162995	6271.281084
782.486776	6224.060596
782.810511	6183.338155
783.134201	6107.027689
783.457844	6096.779023
783.781441	6052.590789
784.104993	6008.768039
784.428498	5976.297967
784.751958	5959.586542
785.075372	5937.561741
785.398739	5902.422378
785.722061	5918.334780
786.045337	5917.548360
786.368568	6029.096492
786.691752	6048.935953
787.014891	6298.752852
787.337983	6577.039668
787.661030	7011.440936
787.984031	7426.859739
788.306987	7687.668875
788.629897	7769.804394
788.952760	7690.393618
789.275579	7507.772779
789.598351	7217.848460
789.921078	6956.260466
790.243759	6678.392066
790.566395	6475.793134
790.888984	6285.895389
791.211529	6141.428523
791.534027	5982.798535
791.856480	5853.097208
792.178888	5784.431652
792.501249	5729.833435
792.823566	5617.393019
793.145836	5620.241271
793.468062	5596.361325
793.790241	5563.109874
794.112375	5602.589671
794.434464	5699.100040
794.756507	5731.098764
795.078505	5848.476991
795.400457	6056.485081
795.722364	6295.098016
796.044226	6490.790567
796.366042	6643.466952
796.687812	6594.787050
797.009538	6621.222861
797.331218	6526.116452
797.652852	6455.820082
797.974442	6341.577454
798.295986	6267.480054
798.617484	6142.686291
798.938938	6032.794178
799.260346	5969.076514
799.581709	5829.645760
799.903026	5781.679182
800.224299	5707.670002
800.545526	5591.650367
800.866708	5526.531262
801.187845	5480.109797
801.508936	5400.467128
801.829983	5373.358323
802.150984	5270.949803
802.471940	5243.286471
802.792851	5225.760900
803.113717	5203.736099
803.434538	5178.610988
803.755314	5149.541174
804.076045	5137.356706
804.396731	5104.720276
804.717372	5122.404643
805.037967	5117.928099
805.358518	5151.943284
805.679024	5204.565369
805.999485	5215.837389
806.319901	5239.999639
806.640272	5252.383233
806.960598	5298.953413
807.280879	5295.185150
807.601115	5329.157486
807.921306	5290.080982
808.241453	5283.136792
808.561554	5295.795130
808.881611	5262.941930
809.201623	5257.784830
809.521590	5210.145926
809.841513	5195.788720
810.161390	5208.394125
810.481223	5121.577894
810.801011	5108.274289
811.120755	5089.697637
811.440453	5031.673956
811.760107	5000.133977
812.079716	4972.664730
812.399281	4924.141104
812.718801	4918.588273
813.038276	4888.205238
813.357707	4854.321123
813.677093	4877.273496
813.996434	4813.427283
814.315731	4833.085262
814.634983	4829.069983
814.954191	4835.711703
815.273354	4896.442484
815.592473	4937.381694
815.911547	5010.707798
816.230577	5063.894491
816.549562	5149.019415
816.868502	5196.910377
817.187399	5252.335343
817.506250	5329.699410
817.825058	5359.164954
818.143821	5507.090052
818.462539	5675.245300
818.781213	5899.967336
819.099843	6262.270022
819.418429	6881.537963
819.736970	7494.219637
820.055466	8195.610495
820.373919	9099.812013
820.692327	10534.305108
821.010691	13188.422196
821.329011	19336.678962
821.647286	28779.493604
821.965517	38986.325358
822.283704	44379.510539
822.601847	45810.681513
822.919945	41278.285954
823.237999	36226.351600
823.556010	31086.144122
823.873976	26440.173888
824.191897	22299.798617
824.509775	19255.075284
824.827609	16539.456119
825.145398	15006.965514
825.463144	14273.129790
825.780845	14556.621597
826.098502	15799.490352
826.416116	18228.202328
826.733685	20489.212760
827.051210	21004.282572
827.368692	19591.531974
827.686129	17062.705203
828.003522	14604.714205
828.320872	12416.253538
828.638177	10789.992431
828.955439	9564.918950
829.272656	8514.556737
829.589830	7688.755243
829.906960	6965.876467
830.224046	6439.897598
830.541088	6036.300301
830.858086	5781.890910
831.175041	5580.932874
831.491952	5523.093195
831.808819	5561.645419
832.125642	5798.020082
832.442421	6336.841290
832.759157	7432.916686
833.075849	9186.005662
833.392497	11007.429999
833.709101	12108.352464
834.025662	11857.673528
834.342179	10820.690537
834.658653	9527.448053
834.975083	8426.938963
835.291469	7540.424333
835.607811	6814.873745
835.924110	6301.772503
836.240366	5820.097815
836.556578	5378.089446
836.872746	5027.315879
837.188871	4756.623561
837.504952	4542.215727
837.820990	4378.610120
838.136984	4264.768263
838.452935	4217.633474
838.768842	4246.897373
839.084706	4521.920041
839.400526	5253.094036
839.716303	6145.257279
840.032037	6702.362753
840.347727	6561.248253
840.663373	5971.471062
840.978977	5395.241972
841.294537	4963.227690
841.610054	4633.621928
841.925527	4395.319024
842.240957	4192.896533
842.556344	4016.801467
842.871687	3860.659288
843.186987	3710.931978
843.502244	3592.134667
843.817458	3508.620392
844.132629	3440.232099
844.447756	3391.441291
844.762840	3346.312882
845.077881	3309.502377
845.392879	3277.170936
845.707833	3248.668253
846.022745	3222.812174
846.337613	3212.371945
846.652438	3188.295394
846.967221	3180.879857
847.281960	3160.894202
847.596656	3149.130670
847.911309	3140.568270
848.225919	3126.785755
848.540485	3118.460290
848.855009	3107.684823
849.169490	3098.890531
849.483928	3091.648913
849.798323	3084.319075
850.112675	3074.035122
850.426984	3076.742221
850.741251	3071.943043
851.055474	3068.192424
851.369654	3066.639749
851.683792	3064.540108
851.997887	3066.601940
852.311938	3068.411714
852.625947	3066.269224
852.939914	3059.877041
853.253837	3068.671334
853.567718	3064.492217
853.881555	3055.614745
854.195350	3064.524985
854.509103	3061.114644
854.822812	3059.554407
855.136479	3055.145918
855.450103	3059.652710
855.763685	3053.653737
856.077224	3054.452759
856.390720	3061.596074
856.704173	3073.576377
857.017584	3078.670463
857.330953	3081.516194
857.644278	3091.170003
857.957561	3095.737289
858.270802	3094.542535
858.584000	3091.666557
858.897155	3089.982812
859.210268	3075.045873
859.523339	3060.837381
859.836367	3059.889644
860.149352	3053.923438
860.462295	3049.668704
860.775195	3043.820966
861.088054	3035.987013
861.400869	3040.244267
861.713642	3034.933412
862.026373	3045.187119
862.339062	3046.117212
862.651708	3058.092473
862.964312	3070.236612
863.276873	3079.769434
863.589392	3111.919393
863.901869	3138.592138
864.214303	3158.290446
864.526696	3175.725277
864.839045	3193.371836
865.151353	3206.062941
865.463619	3207.441696
865.775842	3208.898590
866.088023	3211.424208
866.400162	3206.216696
866.712258	3203.444061
867.024313	3202.014894
867.336325	3205.843651
867.648296	3204.215358
867.960224	3203.184442
868.272110	3205.878939
868.583954	3206.814073
868.895755	3214.189281
869.207515	3209.380020
869.519233	3230.023545
869.830909	3232.060171
870.142542	3244.736152
870.454134	3250.936772
870.765684	3266.100562
871.077191	3283.827780
871.388657	3293.799182
871.700081	3312.746359
872.011463	3331.706139
872.322803	3353.544417
872.634101	3367.667210
872.945357	3387.083214
873.256571	3415.074220
873.567744	3429.945624
873.878874	3437.963579
874.189963	3451.849438
874.501010	3451.920014
874.812015	3448.849951
875.122979	3464.543063
875.433900	3463.391159
875.744780	3465.667240
876.055618	3471.628405
876.366415	3471.454485
876.677169	3477.211483
876.987882	3490.260509
877.298554	3510.399919
877.609183	3548.289231
877.919771	3595.151797
878.230317	3660.848114
878.540822	3762.298815
878.851285	3914.009819
879.161707	4130.703818
879.472087	4496.429447
879.782425	5111.306543
880.092722	6278.699142
880.402977	8180.844955
880.713191	10515.332725
881.023363	12853.777801
881.333494	14174.106405
881.643583	14629.531805
881.953631	14226.065578
882.263637	13389.922157
882.573602	12367.714788
882.883526	11436.258272
883.193408	10487.936575
883.503248	9590.154966
883.813048	8775.368393
884.122806	8021.557097
884.432522	7264.617764
884.742197	6619.463498
885.051831	6064.165278
885.361424	5579.758285
885.670975	5190.135066
885.980485	4869.991550
886.289954	4609.225264
886.599382	4396.962440
886.908768	4222.097416
887.218113	4060.853590
887.527417	3932.689815
887.836680	3808.574087
888.145901	3711.352914
888.455082	3637.860453
888.764221	3570.462747
889.073319	3513.182636
889.382376	3480.808346
889.691392	3455.723564
890.000366	3449.570836
890.309300	3445.855506
890.618193	3445.384158
890.927044	3439.327212
891.235855	3447.556895
891.544625	3460.832774
891.853353	3488.420488
892.162041	3549.143707
892.470687	3638.861122
892.779293	3756.899739
893.087858	3927.482303
893.396381	4196.143036
893.704864	4605.078915
894.013306	5161.738246
894.321707	5722.382609
894.630068	6081.312763
894.938387	6114.312156
895.246665	5937.493685
895.554903	5626.237723
895.863100	5293.965191
896.171256	5029.367628
896.479371	4787.309065
896.787446	4573.337290
897.095480	4379.177249
897.403473	4229.684353
897.711425	4084.594904
898.019336	3968.923108
898.327207	3848.590766
898.635038	3749.985797
898.942827	3643.718274
899.250576	3561.741550
899.558284	3475.500011
899.865952	3426.285747
900.173579	3363.072198
900.481165	3318.102585
900.788711	3276.336625
901.096216	3244.693303
901.403681	3216.848489
901.711105	3209.180894
902.018489	3200.356355
902.325832	3231.833319
902.633135	3292.866569
902.940397	3458.486117
903.247619	3856.003783
903.554800	4595.621710
903.861941	5543.305701
904.169041	6236.469396
904.476101	6440.837773
904.783121	6169.621176
905.090100	5771.740547
905.397039	5362.797106
905.703938	5013.503117
906.010796	4696.462431
906.317614	4448.546047
906.624391	4211.876477
906.931129	4023.281870
907.237826	3844.507431
907.544483	3677.400743
907.851099	3507.647449
908.157675	3351.462421
908.464211	3216.919066
908.770707	3116.164044
909.077163	3036.970038
909.383578	2981.774444
909.689954	2938.102929
909.996289	2908.312230
910.302584	2889.826319
910.608839	2875.564895
910.915054	2863.624922
911.221229	2859.934797
911.527363	2867.012577
911.833458	2868.966024
912.139513	2881.054711
912.445527	2894.474263
912.751502	2928.330652
913.057436	2970.300778
913.363331	3026.686084
913.669186	3111.248919
913.975000	3225.695714
914.280775	3407.157088
914.586510	3671.709280
914.892205	4038.125548
915.197859	4527.876164
915.503475	5102.527374
915.809050	5583.213996
916.114585	5869.581781
916.420081	5933.758190
916.725536	5874.564962
917.030952	5634.802644
917.336328	5434.699083
917.641665	5227.694182
917.946961	5003.065408
918.252218	4805.769770
918.557435	4580.404987
918.862612	4387.772417
919.167750	4222.306624
919.472848	4035.499107
919.777906	3871.175135
920.082925	3715.267370
920.387904	3564.524267
920.692843	3454.475879
920.997743	3357.247145
921.302603	3267.277672
921.607423	3202.173691
921.912204	3140.603558
922.216946	3093.526743
922.521647	3047.624517
922.826310	3005.200686
923.130932	2968.548977
923.435516	2925.489962
923.740059	2902.764440
924.044564	2872.303268
924.349028	2846.416943
924.653454	2817.914259
924.957840	2793.978861
925.262186	2773.526900
925.566493	2751.723909
925.870761	2728.353120
926.174989	2720.430947
926.479178	2704.861343
926.783328	2685.629341
927.087438	2677.412260
927.391509	2666.334325
927.695541	2650.414361
927.999533	2641.872126
928.303486	2632.109931
928.607400	2629.218830
928.911275	2625.011987
929.215110	2618.110647
929.518906	2613.059411
929.822663	2614.854062
930.126381	2615.670729
930.430060	2617.155348
930.733699	2619.348250
931.037299	2624.724641
931.340861	2623.555093
931.644383	2627.136833
931.947866	2624.621297
932.251309	2616.520163
932.554714	2621.692387
932.858080	2620.172479
933.161407	2615.884978
933.464694	2611.327775
933.767943	2609.540686
934.071153	2606.757969
934.374323	2601.802514
934.677455	2596.153902
934.980548	2592.771287
935.283602	2591.599219
935.586617	2589.728951
935.889593	2592.962851
936.192530	2594.644076
936.495428	2598.064499
936.798287	2611.584873
937.101108	2624.457460
937.403890	2645.957981
937.706632	2670.490756
938.009336	2701.874459
938.312002	2731.161043
938.614628	2755.280443
938.917216	2772.148144
939.219765	2782.767335
939.522275	2792.963068
939.824747	2788.937707
940.127179	2787.107768
940.429573	2779.803136
940.731929	2778.147117
941.034246	2770.595469
941.336524	2768.715118
941.638763	2763.643717
941.940964	2755.096441
942.243126	2742.410377
942.545250	2729.326063
942.847335	2718.341388
943.149381	2703.351517
943.451389	2690.791483
943.753359	2677.180367
944.055290	2671.193997
944.357182	2659.440547
944.659036	2655.649599
944.960851	2651.079793
945.262628	2647.601397
945.564367	2648.990235
945.866067	2647.291366
946.167729	2644.150727
946.469352	2642.005716
946.770937	2643.969246
947.072484	2635.749644
947.373992	2633.783594
947.675462	2631.872997
947.976893	2626.559621
948.278286	2623.451750
948.579641	2618.216511
948.880958	2615.380862
949.182236	2616.079062
949.483476	2614.009668
949.784678	2612.174688
950.085841	2613.051849
950.386967	2617.966974
950.688054	2624.601133
950.989103	2631.300826
951.290114	2638.872639
951.591087	2651.314207
951.892021	2662.109838
952.192917	2673.318843
952.493776	2685.278981
952.794596	2687.618076
953.095378	2688.838036
953.396122	2686.153621
953.696828	2685.873837
953.997496	2680.205060
954.298126	2671.516631
954.598718	2665.379026
954.899272	2652.309835
955.199788	2641.972949
955.500266	2628.540794
955.800706	2612.832559
956.101108	2598.162801
956.401472	2587.936821
956.701798	2572.009295
957.002087	2559.998746
957.302337	2549.689587
957.602550	2541.139790
957.902724	2531.773326
958.202861	2524.050278
958.502960	2513.804133
958.803022	2505.110663
959.103045	2501.019767
959.403031	2491.076091
959.702979	2490.110710
960.002889	2484.877992
960.302762	2478.664770
960.602596	2474.815849
960.902393	2470.414922
961.202153	2468.121197
961.501875	2468.625312
961.801559	2464.173973
962.101205	2460.468725
962.400814	2462.018880
962.700385	2456.743313
962.999918	2453.985801
963.299414	2453.585030
963.598873	2451.717282
963.898293	2449.395831
964.197677	2452.917077
964.497022	2451.724844
964.796331	2448.967333
965.095601	2448.601849
965.394835	2444.984821
965.694030	2445.133535
965.993189	2446.529935
966.292309	2443.333843
966.591393	2445.257043
966.890439	2446.406427
967.189447	2447.243258
967.488419	2443.548092
967.787353	2444.180757
968.086249	2444.047167
968.385108	2445.604883
968.683930	2448.362394
968.982714	2448.571602
969.281462	2449.758794
969.580172	2450.489761
969.878844	2453.242231
970.177480	2457.481842
970.476078	2459.445371
970.774639	2461.976030
971.073162	2462.933849
971.371649	2463.899230
971.670098	2463.566514
971.968510	2466.419807
972.266885	2467.758234
972.565223	2471.662607
972.863524	2474.462968
973.161788	2472.280149
973.460014	2472.728811
973.758204	2474.069758
974.056356	2480.277939
974.354471	2477.749801
974.652550	2477.611169
974.950591	2477.399440
975.248595	2476.040849
975.546563	2475.229224
975.844493	2472.050776
976.142386	2470.467854
976.440243	2468.433748
976.738062	2465.981227
977.035845	2464.264714
977.333590	2461.567697
977.631299	2459.626853
977.928971	2458.578293
978.226606	2458.482511
978.524204	2452.891871
978.821765	2453.925308
979.119290	2455.450257
979.416777	2456.355144
979.714228	2453.015379
980.011642	2455.805658
980.309020	2459.750361
980.606360	2463.185907
980.903664	2473.008595
981.200931	2485.220791
981.498162	2501.869201
981.795356	2531.022194
982.092513	2569.967628
982.389633	2609.825511
982.686717	2652.309835
982.983764	2681.979546
983.280775	2700.218440
983.577749	2703.921168
983.874686	2692.792821
984.171587	2679.280008
984.468451	2661.658655
984.765279	2645.537045
985.062070	2628.069447
985.358824	2609.664194
985.655543	2588.256934
985.952224	2562.756257
986.248869	2539.035108
986.545478	2510.839934
986.842050	2495.580362
987.138586	2474.200828
987.435086	2463.080043
987.731549	2451.258537
988.027975	2449.821808
988.324366	2443.800150
988.620719	2438.632967
988.917037	2434.322781
989.213318	2433.659869
989.509563	2429.495876
989.805772	2429.669796
990.101944	2424.679053
990.398080	2428.575865
990.694180	2425.069743
990.990244	2424.580751
991.286271	2427.224836
991.582262	2426.506472
991.878217	2425.117634
992.174136	2427.313056
992.470019	2428.696853
992.765865	2431.300609
993.061676	2431.650969
993.357450	2436.266146
993.653188	2436.712288
993.948890	2445.151179
994.244556	2449.355502
994.540186	2459.578962
994.835780	2468.383337
995.131337	2483.471510
995.426859	2497.364930
995.722345	2521.501975
996.017795	2536.892618
996.313208	2549.377035
996.608586	2560.313818
996.903928	2560.011349
997.199234	2561.332131
997.494504	2555.761656
997.789738	2551.695966
998.084936	2544.829914
998.380099	2530.848274
998.675225	2523.891482
998.970316	2506.827176
999.265371	2494.254538
999.560390	2479.504122
999.855373	2470.813173
1000.150320	2463.644652
1000.445232	2452.107972
1000.740108	2444.977259
1001.034948	2439.842844
1001.329752	2435.948553
1001.624521	2434.945363
1001.919254	2423.522109
1002.213951	2422.355082
1002.508613	2417.807961
1002.803239	2420.688980
1003.097829	2416.381314
1003.392384	2419.340472
1003.686903	2416.479617
1003.981386	2416.608166
1004.275834	2414.684966
1004.570246	2416.998856
1004.864623	2410.493247
1005.158964	2413.616241
1005.453270	2411.393093
1005.747540	2410.518452
1006.041775	2408.990983
1006.335974	2408.073493
1006.630138	2411.955181
1006.924266	2410.026940
1007.218359	2410.548699
1007.512416	2406.624161
1007.806438	2410.354615
1008.100425	2405.699109
1008.394376	2409.563154
1008.688292	2408.438976
1008.982172	2409.598442
1009.276017	2409.757238
1009.569827	2405.542833
1009.863602	2407.261867
1010.157341	2406.107443
1010.451045	2404.267422
1010.744714	2409.679100
1011.038347	2406.672052
1011.331945	2407.942423
1011.625508	2405.562998
1011.919036	2403.768347
1012.212528	2406.535941
1012.505986	2404.078378
1012.799408	2408.252454
1013.092795	2402.634088
1013.386147	2406.861095
1013.679464	2402.891187
1013.972745	2404.138872
1014.265992	2402.744993
1014.559204	2404.413615
1014.852380	2404.640467
1015.145521	2403.430590
1015.438628	2406.346897
1015.731699	2403.574263
1016.024736	2404.411094
1016.317737	2403.009654
1016.610703	2405.673903
1016.903635	2404.791702
1017.196531	2401.951011
1017.489393	2407.171126
1017.782219	2401.741803
1018.075011	2409.573236
1018.367768	2406.611558
1018.660490	2405.250447
1018.953177	2405.250447
1019.245829	2405.250447
