Dividing Wavelength (nm)	Counts (n)	Blue Motor Position (mm): 10.000000	Red Motor Position (mm): 0.000000	
326.493990	1975.429067
326.888308	1975.429067
327.282561	1975.429067
327.676750	1950.825715
328.070874	1953.184975
328.464933	1959.325101
328.858929	1968.976390
329.252859	1979.504840
329.646726	1996.768271
330.040528	2010.281084
330.434265	2030.291944
330.827938	2050.365819
331.221547	2070.482543
331.615091	2089.775039
332.008571	2110.549634
332.401986	2131.709877
332.795338	2153.533032
333.188625	2171.880312
333.581847	2188.856397
333.975006	2205.630837
334.368100	2225.755123
334.761129	2241.561661
335.154095	2257.905081
335.546996	2284.562703
335.939833	2325.552325
336.332606	2336.839468
336.725315	2349.583505
337.117960	2357.561131
337.510540	2364.041534
337.903056	2373.869264
338.295508	2380.233721
338.687896	2386.474669
339.080220	2396.194014
339.472480	2400.562173
339.864676	2404.630385
340.256807	2405.409243
340.648875	2409.447207
341.040879	2411.125911
341.432818	2412.028278
341.824694	2412.837383
342.216506	2409.469892
342.608253	2412.764286
342.999937	2411.143555
343.391557	2409.636250
343.783113	2406.810684
344.174605	2406.629202
344.566033	2405.663821
344.957397	2403.793553
345.348697	2401.681310
345.739934	2399.516134
346.131106	2397.633263
346.522215	2395.669734
346.913260	2392.105638
347.304241	2394.674106
347.695159	2388.188661
348.086012	2388.909546
348.476802	2385.935266
348.867528	2384.052395
349.258191	2383.954092
349.648789	2386.146994
350.039324	2382.403937
350.429796	2385.738661
350.820203	2384.120450
351.210548	2379.142311
351.600828	2379.303628
351.991045	2383.029040
352.381198	2379.374204
352.771288	2377.435880
353.161314	2379.515356
353.551276	2376.709954
353.941175	2377.909749
354.331010	2380.858824
354.720782	2376.253730
355.110490	2379.477547
355.500135	2378.481920
355.889717	2379.207846
356.279235	2378.960829
356.668689	2380.563916
357.058080	2381.609956
357.447408	2379.759852
357.836672	2374.978318
358.225873	2378.794471
358.615010	2375.976466
359.004084	2383.392003
359.393095	2383.220604
359.782043	2382.545090
360.170927	2380.445449
360.559748	2382.784544
360.948505	2381.698176
361.337199	2385.002652
361.725830	2384.420399
362.114398	2387.619011
362.502903	2387.384597
362.891344	2388.395349
363.279722	2386.439381
363.668037	2387.061963
364.056289	2388.002139
364.444478	2390.384084
364.832603	2387.472817
365.220665	2390.232849
365.608665	2389.998436
365.996601	2387.185472
366.384474	2391.412479
366.772284	2389.338044
367.160031	2391.218395
367.547715	2391.730072
367.935336	2392.556821
368.322893	2391.180586
368.710388	2391.440206
369.097820	2395.125289
369.485189	2393.494476
369.872495	2392.854249
370.259738	2393.975906
370.646918	2394.258211
371.034035	2394.742161
371.421090	2395.876421
371.808081	2393.454147
372.195010	2395.057233
372.581875	2392.975237
372.968678	2392.524054
373.355418	2395.150495
373.742096	2395.392470
374.128710	2397.454302
374.515262	2392.642521
374.901751	2398.046638
375.288177	2397.431617
375.674540	2395.672254
376.060841	2398.283572
376.447079	2398.351627
376.833254	2395.785680
377.219367	2395.533623
377.605417	2395.533623
377.991404	2393.499517
378.377329	2396.057903
378.763191	2394.684188
379.148991	2399.813562
379.534727	2398.805331
379.920402	2400.486556
380.306013	2401.779612
380.691563	2400.635270
381.077049	2398.306257
381.462474	2396.627553
381.847835	2400.973028
382.233134	2399.984961
382.618371	2398.555794
383.003545	2400.262225
383.388657	2400.347924
383.773706	2400.700805
384.158693	2400.390774
384.543618	2405.285735
384.928480	2400.549571
385.313280	2400.554612
385.698017	2401.144427
386.082692	2399.720301
386.467305	2402.959242
386.851856	2402.674417
387.236344	2405.404202
387.620770	2403.705333
388.005133	2405.184912
388.389435	2405.628533
388.773674	2403.475960
389.157851	2404.736249
389.541965	2403.095353
389.926018	2405.517628
390.310008	2404.121228
390.693936	2409.288411
391.077802	2404.834551
391.461606	2404.196845
391.845348	2404.312792
392.229027	2402.777761
392.612645	2406.699778
392.996200	2408.383524
393.379694	2407.145920
393.763125	2407.269429
394.146494	2405.091650
394.529801	2404.743811
394.913047	2407.680283
395.296230	2408.489388
395.679351	2409.336302
396.062410	2406.707340
396.445408	2408.738925
396.828343	2411.095664
397.211217	2405.192473
397.594028	2406.218348
397.976778	2403.362534
398.359466	2409.248082
398.742092	2406.041908
399.124656	2406.795560
399.507158	2409.653894
399.889598	2409.091806
400.271977	2411.864440
400.654294	2411.163720
401.036549	2411.030129
401.418742	2410.339491
401.800874	2413.102044
402.182944	2413.119688
402.564952	2411.819070
402.946898	2410.284039
403.328783	2414.453073
403.710606	2409.757238
404.092367	2410.523493
404.474067	2410.382341
404.855705	2412.234965
405.237282	2413.245717
405.618797	2412.804616
406.000250	2416.451890
406.381642	2414.874009
406.762972	2414.614390
407.144240	2413.588515
407.525447	2412.827301
407.906593	2411.645150
408.287677	2413.689338
408.668700	2415.037847
409.049661	2414.881571
409.430560	2414.498443
409.811399	2415.254616
410.192176	2411.110788
410.572891	2414.473237
410.953545	2414.009451
411.334138	2416.552713
411.714669	2415.466345
412.095139	2416.174627
412.475547	2416.424164
412.855894	2416.182189
413.236180	2414.906777
413.616405	2419.748805
413.996568	2417.064391
414.376670	2416.333423
414.756711	2417.777714
415.136691	2418.685122
415.516609	2416.633372
415.896466	2418.004566
416.276262	2416.638413
416.655997	2415.610018
417.035670	2413.298649
417.415283	2415.005079
417.794834	2411.503998
418.174324	2420.348702
418.553753	2418.785945
418.933121	2415.292425
419.312428	2415.262178
419.691674	2416.630851
420.070859	2420.348702
420.449983	2418.727971
420.829045	2420.925914
421.208047	2418.463311
421.586988	2416.671181
421.965867	2417.260996
422.344686	2417.712179
422.723444	2421.230904
423.102141	2418.402817
423.480777	2422.045051
423.859352	2420.336099
424.237866	2418.816192
424.616319	2421.603950
424.994712	2416.900553
425.373044	2421.006573
425.751314	2418.604463
426.129524	2418.738054
426.507673	2419.796696
426.885762	2419.179155
427.263789	2420.341141
427.641756	2420.918353
428.019662	2418.032292
428.397508	2419.345513
428.775292	2423.764084
429.153016	2419.547159
429.530679	2421.926583
429.908282	2422.097983
430.285824	2420.898188
430.663305	2421.997160
431.040726	2421.324166
431.418086	2420.946079
431.795385	2423.532191
432.172624	2421.535894
432.549802	2419.774011
432.926920	2420.673857
433.303977	2422.498754
433.680974	2423.799372
434.057910	2421.119999
434.434786	2424.232911
434.811601	2425.616708
435.188355	2423.418765
435.565050	2421.825760
435.941683	2422.841553
436.318257	2423.965730
436.694770	2418.158321
437.071222	2419.045564
437.447614	2417.271078
437.823946	2420.993970
438.200218	2421.712334
438.576429	2421.261151
438.952580	2421.336768
439.328670	2422.927253
439.704700	2423.582602
440.080670	2422.886923
440.456580	2422.294588
440.832429	2421.435071
441.208218	2423.242325
441.583947	2424.608477
441.959616	2422.095462
442.335224	2423.426327
442.710773	2422.103024
443.086261	2423.864907
443.461689	2422.798703
443.837057	2427.076122
444.212365	2425.901533
444.587612	2423.068405
444.962800	2424.772315
445.337927	2425.157963
445.712995	2422.914650
446.088002	2425.699887
446.462949	2426.393046
446.837837	2428.129723
447.212664	2424.426996
447.587431	2426.695515
447.962139	2423.678384
448.336786	2428.497727
448.711374	2424.142171
449.085901	2426.635021
449.460369	2426.088056
449.834776	2428.812800
450.209124	2425.969589
450.583412	2428.558221
450.957640	2428.999322
451.331808	2426.947573
451.705917	2427.434044
452.079965	2430.932605
452.453954	2428.006215
452.827883	2430.604930
453.201752	2427.330700
453.575562	2429.657193
453.949311	2427.837336
454.323001	2430.713315
454.696632	2429.513520
455.070202	2430.836823
455.443713	2429.183324
455.817164	2429.402615
456.190556	2426.025042
456.563888	2430.055444
456.937160	2425.946904
457.310373	2428.805238
457.683526	2428.490166
458.056619	2431.487132
458.429653	2432.563418
458.802628	2431.464447
459.175542	2429.170722
459.548398	2435.048707
459.921194	2435.608275
460.293930	2438.111208
460.666607	2436.752617
461.039224	2434.947884
461.411782	2439.074068
461.784280	2435.550302
462.156719	2438.073399
462.529099	2437.750765
462.901419	2434.925199
463.273680	2435.487287
463.645882	2436.664397
464.018024	2436.041814
464.390106	2435.696495
464.762130	2437.599531
465.134094	2439.462237
465.505999	2441.609769
465.877845	2444.795778
466.249631	2447.364246
466.621358	2444.523556
466.993026	2446.179575
467.364634	2447.512960
467.736184	2447.273505
468.107674	2442.418874
468.479105	2446.106478
468.850477	2444.193360
469.221790	2442.958277
469.593043	2441.017433
469.964238	2441.992896
470.335373	2441.461055
470.706449	2442.265119
471.077467	2447.500357
471.448425	2448.589246
471.819324	2447.825511
472.190164	2448.783331
472.560945	2445.405757
472.931667	2445.103288
473.302330	2441.418205
473.672934	2443.447269
474.043479	2444.130346
474.413965	2440.354521
474.784393	2441.178750
475.154761	2442.784358
475.525070	2440.309151
475.895321	2445.234358
476.265513	2439.913420
476.635645	2445.463731
477.005719	2447.989349
477.375734	2445.544389
477.745691	2445.113371
478.115588	2446.807198
478.485427	2450.363732
478.855207	2451.001438
479.224928	2449.781479
479.594591	2453.479165
479.964194	2450.192333
480.333739	2453.597632
480.703226	2454.242900
481.072653	2451.901284
481.442022	2453.267437
481.811333	2453.375822
482.180584	2454.764660
482.549777	2452.334823
482.918912	2452.228959
483.287988	2453.211984
483.657005	2450.212498
484.025964	2453.350616
484.394864	2450.199895
484.763706	2451.182920
485.132489	2449.746191
485.501213	2451.618980
485.869879	2448.974894
486.238487	2452.740636
486.607036	2451.986984
486.975527	2450.000769
487.343959	2447.943978
487.712333	2450.676284
488.080648	2450.285594
488.448905	2452.183589
488.817104	2450.855245
489.185244	2453.464042
489.553326	2453.653085
489.921350	2454.547890
490.289315	2458.701801
490.657222	2460.199023
491.025070	2461.108952
491.392861	2460.546863
491.760593	2459.442850
492.128267	2455.800617
492.495883	2456.647531
492.863440	2454.994032
493.230939	2454.759618
493.598380	2454.207612
493.965763	2450.232662
494.333088	2453.121243
494.700354	2449.597477
495.067563	2453.118723
495.434713	2450.189813
495.801805	2453.700976
496.168839	2452.246603
496.535815	2453.766511
496.902733	2454.106789
497.269593	2455.236008
497.636395	2455.684670
498.003139	2456.748354
498.369825	2455.868672
498.736453	2460.831688
499.103023	2456.808848
499.469535	2459.044599
499.835989	2458.565690
500.202385	2458.606019
500.568723	2456.461008
500.935003	2462.747327
501.301226	2458.825309
501.667390	2461.413942
502.033497	2464.567183
502.399546	2462.079374
502.765537	2460.816565
503.131470	2464.103397
503.497345	2467.455764
503.863163	2467.191104
504.228923	2469.504993
504.594625	2469.053810
504.960269	2470.077164
505.325856	2471.133286
505.691385	2472.138996
506.056856	2473.225365
506.422270	2476.131590
506.787625	2475.403143
507.152924	2479.234420
507.518164	2479.849441
507.883347	2481.560913
508.248472	2483.597539
508.613540	2484.273054
508.978550	2487.801861
509.343503	2489.883858
509.708398	2490.771101
510.073236	2496.303767
510.438016	2495.469456
510.802738	2496.664210
511.167403	2497.155722
511.532010	2498.574807
511.896561	2504.987155
512.261053	2508.752897
512.625488	2507.066631
512.989866	2507.139728
513.354186	2511.649040
513.718449	2509.773730
514.082655	2519.183044
514.446803	2520.100534
514.810894	2526.230577
515.174927	2524.675381
515.538904	2524.672861
515.902822	2528.589837
516.266684	2533.772143
516.630488	2532.627801
516.994235	2535.574356
517.357925	2543.211704
517.721558	2541.946374
518.085133	2545.114739
518.448651	2550.138249
518.812112	2550.970040
519.175516	2555.350802
519.538863	2556.056564
519.902152	2557.780638
520.265385	2564.785322
520.628560	2567.084088
520.991678	2569.380333
521.354739	2569.327401
521.717743	2575.278483
522.080690	2578.272929
522.443580	2581.053125
522.806413	2585.494382
523.169189	2583.387179
523.531908	2589.524784
523.894569	2590.623756
524.257174	2593.686257
524.619722	2597.898141
524.982213	2598.303954
525.344647	2602.619181
525.707025	2605.442227
526.069345	2608.194697
526.431608	2611.746190
526.793815	2612.915738
527.155964	2614.430605
527.518057	2616.419340
527.880093	2615.426233
528.242072	2621.558796
528.603995	2626.216822
528.965860	2625.558952
529.327669	2631.290744
529.689421	2628.142543
530.051117	2630.509365
530.412755	2633.201341
530.774337	2636.626805
531.135862	2639.641415
531.497331	2640.629481
531.858743	2639.112094
532.220098	2645.501757
532.581396	2639.785088
532.942638	2644.919503
533.303824	2649.459062
533.664953	2652.456028
534.026025	2652.382932
534.387040	2655.253869
534.747999	2657.668581
535.108902	2662.782832
535.469748	2656.985505
535.830537	2664.280055
536.191270	2663.609581
536.551947	2668.476815
536.912567	2668.055879
537.273131	2668.451609
537.633638	2668.514624
537.994089	2668.786846
538.354483	2670.904131
538.714821	2677.931499
539.075103	2679.461489
539.435328	2677.712209
539.795497	2680.507529
540.155609	2679.466531
540.515665	2685.183199
540.875665	2682.292097
541.235609	2689.047243
541.595496	2687.108920
541.955328	2692.044209
542.315102	2690.814168
542.674821	2692.434899
543.034483	2689.500947
543.394090	2695.129396
543.753640	2694.700897
544.113134	2700.712473
544.472571	2695.633511
544.831953	2703.636343
545.191278	2701.768595
545.550548	2698.527133
545.909761	2704.130376
546.268918	2703.613657
546.628019	2709.237065
546.987064	2705.292362
547.346053	2703.396888
547.704986	2708.284287
548.063863	2705.577187
548.422684	2709.413505
548.781449	2705.617516
549.140158	2710.086499
549.498811	2707.659183
549.857408	2709.552137
550.215949	2713.917776
550.574434	2710.671273
550.932864	2711.245964
551.291237	2712.962477
551.649555	2713.756459
552.007817	2717.343240
552.366022	2715.472972
552.724173	2717.754094
553.082267	2722.074363
553.440305	2721.053529
553.798288	2720.307438
554.156215	2722.333982
554.514086	2722.795248
554.871902	2722.795248
555.229661	2723.876575
555.587365	2721.184599
555.945014	2722.447408
556.302606	2722.331462
556.660143	2724.910012
557.017625	2725.593088
557.375050	2725.600650
557.732421	2729.489900
558.089735	2728.388408
558.446994	2728.269941
558.804197	2731.529047
559.161345	2733.099366
559.518437	2727.843963
559.875474	2731.007287
560.232455	2733.237998
560.589381	2733.666496
560.946251	2733.381671
561.303065	2738.526168
561.659825	2739.627661
562.016528	2736.391240
562.373177	2739.007599
562.729770	2741.145048
563.086307	2740.451889
563.442789	2745.808115
563.799216	2745.200656
564.155587	2744.809967
564.511904	2748.704258
564.868164	2747.534710
565.224370	2752.472521
565.580520	2753.707603
565.936615	2758.093407
566.292654	2758.063160
566.648638	2762.942997
567.004567	2767.898451
567.360441	2767.943822
567.716260	2768.478184
568.072023	2774.119235
568.427732	2775.351797
568.783385	2778.920934
569.138982	2779.440173
569.494525	2786.948972
569.850013	2789.401493
570.205445	2796.310394
570.560823	2802.170736
570.916145	2805.591159
571.271412	2809.021664
571.626625	2813.878816
571.981782	2818.264619
572.336884	2823.714107
572.691931	2831.958914
573.046923	2834.555108
573.401860	2840.571725
573.756743	2843.137672
574.111570	2851.347192
574.466342	2857.053778
574.821059	2865.084336
575.175722	2867.332690
575.530330	2875.338043
575.884882	2881.095040
576.239380	2887.025958
576.593823	2896.135323
576.948211	2903.147568
577.302544	2908.113104
577.656823	2916.453693
578.011047	2928.721341
578.365216	2937.356838
578.719330	2942.140893
579.073389	2951.220011
579.427394	2964.130406
579.781344	2974.346304
580.135239	2982.727223
580.489080	2998.279182
580.842866	3005.014164
581.196597	3025.035106
581.550273	3036.218906
581.903895	3050.518139
582.257463	3073.236099
582.610975	3079.749269
582.964434	3097.521857
583.317837	3109.519803
583.671186	3124.865076
584.024481	3143.933240
584.377721	3152.659477
584.730906	3167.732527
585.084037	3183.584436
585.437113	3198.932229
585.790135	3213.019733
586.143103	3222.638255
586.496016	3242.528127
586.848874	3260.346085
587.201679	3281.045063
587.554428	3293.247176
587.907124	3318.324396
588.259765	3335.484483
588.612352	3366.036396
588.964884	3376.627861
589.317362	3404.840678
589.669786	3423.908843
590.022155	3444.234775
590.374470	3471.489773
590.726731	3480.301710
591.078937	3490.815036
591.431090	3510.420084
591.783188	3525.644368
592.135232	3540.495607
592.487222	3569.099114
592.839157	3594.975357
593.191038	3610.963377
593.542866	3630.883496
593.894639	3638.104949
594.246358	3666.224505
594.598022	3693.204760
594.949633	3703.282027
595.301190	3728.119792
595.652692	3746.938419
596.004141	3778.702730
596.355535	3773.953963
596.706876	3789.090027
597.058162	3810.320847
597.409395	3857.667363
597.760573	3883.467989
598.111698	3895.420565
598.462768	3916.555602
598.813785	3948.947536
599.164748	3959.405410
599.515657	4000.868900
599.866511	4012.536651
600.217312	4062.464238
600.568060	4054.831932
600.918753	4113.432824
601.269392	4141.267555
601.619978	4157.467303
601.970510	4198.383828
602.320988	4236.931011
602.671412	4284.002785
603.021783	4303.421310
603.372100	4323.928724
603.722363	4360.033468
604.072572	4395.704672
604.422728	4432.295888
604.772830	4451.021253
605.122878	4489.172706
605.472872	4525.022871
605.822813	4570.315118
606.172701	4602.853246
606.522534	4652.480885
606.872314	4703.918298
607.222041	4729.691197
607.571714	4792.705620
607.921333	4798.686949
608.270899	4853.761555
608.620411	4917.577521
608.969870	4943.758754
609.319276	4985.784333
609.668627	5031.885685
610.017926	5110.154639
610.367171	5158.857227
610.716362	5212.185073
611.065500	5257.870529
611.414585	5317.706505
611.763616	5389.578235
612.112594	5431.039205
612.461518	5491.767465
612.810389	5563.840842
613.159207	5607.235094
613.507971	5665.102499
613.856682	5751.354121
614.205340	5796.195184
614.553945	5907.352626
614.902496	5912.676085
615.250994	6011.288616
615.599439	6075.028965
615.947830	6155.024515
616.296169	6217.978444
616.644454	6294.931657
616.992686	6376.893257
617.340864	6488.867367
617.688990	6531.024016
618.037063	6663.946640
618.385082	6722.350928
618.733048	6817.369116
619.080961	6884.106431
619.428821	6953.439940
619.776628	7017.003849
620.124382	7053.269910
620.472083	7120.534026
620.819731	7186.757143
621.167326	7193.978596
621.514868	7240.566419
621.862357	7240.853765
622.209793	7285.473018
622.557176	7291.353524
622.904506	7297.506252
623.251783	7304.084958
623.599007	7325.038514
623.946179	7344.852769
624.293297	7387.783235
624.640363	7363.197528
624.987376	7409.364415
625.334336	7441.156452
625.681243	7445.048222
626.028097	7496.223496
626.374899	7534.138014
626.721647	7584.907474
627.068343	7633.574773
627.414987	7660.784401
627.761577	7687.792383
628.108115	7797.379506
628.454600	7784.290150
628.801032	7870.753500
629.147412	7925.497910
629.493739	7989.654155
629.840014	8009.231476
630.186236	8122.390256
630.532405	8137.707802
630.878521	8231.049807
631.224585	8285.469062
631.570597	8314.380080
631.916556	8400.518275
632.262462	8454.173796
632.608316	8526.925208
632.954117	8565.668996
633.299866	8632.348338
633.645562	8671.061879
633.991206	8641.140110
634.336797	8619.790824
634.682336	8668.672372
635.027823	8675.924072
635.373257	8692.017955
635.718639	8701.457516
636.063968	8726.007935
636.409245	8673.020367
636.754470	8733.746106
637.099642	8746.606090
637.444762	8709.261222
637.789829	8787.598232
638.134845	8783.928272
638.479808	8829.563317
638.824719	8869.428762
639.169577	8844.260802
639.514383	8921.037575
639.859137	8915.615814
640.203839	9016.890074
640.548489	8997.413576
640.893086	9072.367972
641.237632	9080.675793
641.582125	9164.409359
641.926566	9203.745482
642.270955	9260.075335
642.615292	9327.268875
642.959576	9381.695693
643.303809	9439.593344
643.647990	9529.151963
643.992118	9591.866438
644.336195	9650.270725
644.680219	9727.808713
645.024192	9866.586637
645.368112	10046.709584
645.711981	10129.268561
646.055797	10409.201313
646.399562	10478.116407
646.743274	10781.883735
647.086935	10972.794752
647.430544	11034.284226
647.774101	11134.436829
648.117606	11252.906465
648.461059	11395.863506
648.804460	11364.656243
649.147810	11265.519432
649.491108	11260.077507
649.834354	11222.803215
650.177548	11071.951727
650.520690	11010.008549
650.863781	11075.019269
651.206820	11093.870664
651.549807	11043.146574
651.892742	10982.453602
652.235626	10982.688016
652.578458	11015.926864
652.921238	10924.450086
653.263967	11067.583567
653.606644	11043.857377
653.949269	11095.892167
654.291843	11053.947246
654.634365	11224.902856
654.976836	11180.061792
655.319255	11241.894065
655.661622	11300.315997
656.003938	11304.260699
656.346203	11317.118162
656.688416	11445.365116
657.030577	11446.572472
657.372687	11462.363887
657.714746	11591.314082
658.056753	11695.020699
658.398708	11593.517066
658.740612	11670.140084
659.082465	11809.197792
659.424266	11822.503918
659.766016	11926.447469
660.107715	11957.140534
660.449362	12056.680637
660.790958	12117.928136
661.132503	12181.895337
661.473996	12261.288469
661.815438	12356.442768
662.156829	12484.697284
662.498168	12483.805000
662.839456	12545.831357
663.180693	12673.513701
663.521879	12788.807410
663.863013	12852.406607
664.204097	12910.889033
664.545129	13132.956901
664.886110	13197.977703
665.227040	13287.959779
665.567918	13389.818813
665.908746	13488.310356
666.249522	13618.760294
666.590248	13672.935054
666.930922	13789.725986
667.271545	13829.780474
667.612118	13932.040280
667.952639	13922.930915
668.293109	14005.205066
668.633528	14030.282286
668.973896	14061.444178
669.314213	14149.840811
669.654480	14116.370070
669.994695	14187.999825
670.334859	14217.160379
670.674973	14245.963012
671.015035	14368.697464
671.355047	14418.483899
671.695008	14457.381443
672.034918	14490.842101
672.374777	14584.663015
672.714585	14592.534777
673.054342	14745.334671
673.394049	14714.429877
673.733705	14894.436878
674.073310	14824.455580
674.412864	14916.345733
674.752368	14827.139995
675.091820	15000.412014
675.431223	14894.348658
675.770574	14845.706564
676.109875	14849.091699
676.449125	14791.640189
676.788324	14815.794878
677.127473	14661.843081
677.466571	14678.824207
677.805619	14601.722280
678.144616	14663.809131
678.483562	14691.210322
678.822458	14612.177633
679.161303	14648.239527
679.500098	14652.363191
679.838842	14673.702395
680.177535	14800.247960
680.516179	14976.955525
680.854771	15139.157171
681.193314	15584.754842
681.531805	16145.908362
681.870247	16567.568113
682.208638	16959.270808
682.546978	17130.884288
682.885268	17238.843118
683.223508	17059.012558
683.561697	16958.108822
683.899836	16934.279288
684.237925	16772.460770
684.575963	16756.387051
684.913951	16612.925895
685.251889	16745.866163
685.589776	16796.993545
685.927614	16857.189963
686.265401	16976.514075
686.603137	17083.373934
686.940824	17385.795273
687.278460	17638.228532
687.616046	17754.679186
687.953582	18110.483824
688.291068	18098.306917
688.628504	18297.460220
688.965889	18337.393720
689.303224	18202.794913
689.640510	18087.226461
689.977745	17786.158671
690.314930	17431.447963
690.652065	17245.603306
690.989150	16928.129080
691.326185	16541.303702
691.663170	16247.565749
692.000105	15916.409833
692.336990	15654.471479
692.673825	15466.791842
693.010610	15262.385656
693.347345	15026.686508
693.684030	14747.517490
694.020665	14638.197549
694.357251	14351.484444
694.693786	14371.954049
695.030272	14298.406135
695.366707	14057.209609
695.703093	13951.592395
696.039429	13988.284433
696.375716	13895.438982
696.711952	13913.070418
697.048139	13872.587432
697.384276	13819.244462
697.720363	13909.576898
698.056400	13851.112116
698.392388	13770.546916
698.728326	13787.144915
699.064214	13725.247108
699.400053	13734.517790
699.735842	13583.517588
700.071581	13474.394251
700.407270	13349.913039
700.742910	13288.567238
701.078501	13188.427237
701.414042	13064.349318
701.749533	12938.202005
702.084974	12776.796861
702.420366	12935.497426
702.755709	12715.496431
703.091002	12588.119076
703.426246	12642.457673
703.761440	12609.070111
704.096584	12497.194304
704.431679	12497.733708
704.766725	12480.281233
705.101721	12479.880462
705.436668	12563.770303
705.771565	12411.587950
706.106413	12643.831387
706.441212	12665.357114
706.775961	12780.101338
707.110661	12844.784383
707.445311	13080.044950
707.779913	13020.670240
708.114465	13193.982589
708.448967	13397.539340
708.783421	13828.426924
709.117825	14007.400488
709.452180	14161.851360
709.786485	14408.565429
710.120742	14902.177570
710.454949	14924.303194
710.789107	15206.375916
711.123216	15647.456713
711.457275	15734.235136
711.791286	16068.796352
712.125247	16141.509955
712.459159	15983.842827
712.793023	16422.448417
713.126837	15794.648323
713.460602	15987.175030
713.794318	15805.310364
714.127985	15620.010151
714.461602	15128.464884
714.795171	15159.256251
715.128691	14574.540378
715.462162	14298.136434
715.795584	14078.014451
716.128957	13959.239825
716.462281	13749.714348
716.795556	13635.940547
717.128782	13369.228220
717.461960	13048.741906
717.795088	13018.983974
718.128167	12808.465390
718.461198	12532.343750
718.794180	12464.555354
719.127113	12260.791915
719.459997	12157.549085
719.792833	11960.475257
720.125619	11963.424332
720.458357	11783.883638
720.791046	11689.669514
721.123686	11614.218564
721.456278	11470.638941
721.788821	11468.478807
722.121315	11322.708802
722.453761	11388.803370
722.786158	11358.430418
723.118506	11375.373736
723.450805	11304.633745
723.783056	11426.995152
724.115259	11378.932791
724.447412	11346.119920
724.779518	11526.951150
725.111574	11554.889225
725.443582	11698.466327
725.775542	11695.242509
726.107453	12022.131089
726.439315	11963.981380
726.771129	12238.973802
727.102895	12493.758758
727.434612	12642.699648
727.766281	12738.148855
728.097901	12934.970625
728.429473	12979.756236
728.760996	12990.128410
729.092471	13073.148652
729.423897	13017.690918
729.755276	12953.872431
730.086606	13062.466447
730.417887	13435.189198
730.749120	13803.165702
731.080305	13951.630203
731.411442	14199.811248
731.742530	14282.786120
732.073570	14371.775088
732.404562	14581.406430
732.735506	14477.946830
733.066401	14303.112053
733.397249	13973.556702
733.728048	13577.508533
734.058798	13032.247250
734.389501	12567.962022
734.720156	12271.975715
735.050762	11917.519585
735.381320	11685.238340
735.711831	11536.499095
736.042293	11301.316666
736.372707	11316.528347
736.703073	11172.371512
737.033391	11320.893987
737.363661	11307.534929
737.693883	11382.713656
738.024056	11506.988181
738.354182	11643.779890
738.684260	11843.152484
739.014290	11997.850372
739.344272	12136.280457
739.674207	12334.211280
740.004093	12428.206114
740.333931	12439.825974
740.663722	12480.664361
740.993464	12492.203562
741.323159	12388.927964
741.652806	12205.682022
741.982405	12071.667988
742.311956	11855.132786
742.641460	11788.433279
742.970915	11588.309554
743.300323	11357.318844
743.629683	11227.753628
743.958996	11036.129288
744.288260	10851.897800
744.617477	10650.939764
744.946647	10607.394277
745.275768	10429.179406
745.604842	10300.579572
745.933869	10190.662253
746.262847	10171.899078
746.591778	10121.406882
746.920662	10058.009331
747.249498	10070.347555
747.578286	10159.490278
747.907027	10268.061609
748.235720	10434.785169
748.564365	10458.521442
748.892963	10395.123891
749.221514	10448.832344
749.550017	10349.461120
749.878473	10333.778090
750.206881	10185.971459
750.535242	10124.658426
750.863555	10066.617101
751.191821	9999.620166
751.520039	10032.672492
751.848210	9966.527512
752.176334	10001.588737
752.504411	9929.149877
752.832440	9811.542278
753.160421	9862.054640
753.488356	9776.032390
753.816243	9712.085354
754.144082	9602.682233
754.471875	9563.888034
754.799620	9530.913846
755.127318	9516.138224
755.454969	9488.663936
755.782572	9462.245769
756.110129	9473.986617
756.437638	9413.147451
756.765100	9409.490094
757.092515	9423.065922
757.419882	9435.799876
757.747203	9442.098798
758.074477	9500.855967
758.401703	9466.369433
758.728882	9593.698897
759.056014	9626.519329
759.383099	9730.684691
759.710138	9805.843254
760.037129	9878.650118
760.364073	9901.713397
760.690970	9891.563034
761.017820	9898.078725
761.344623	10060.575278
761.671379	10322.475823
761.998088	10820.693058
762.324751	12048.269472
762.651366	14274.979893
762.977935	17107.455526
763.304456	18900.266274
763.630931	19305.950609
763.957359	18425.739942
764.283740	16926.415088
764.610074	15467.109434
764.936362	13835.459334
765.262602	12627.828245
765.588796	11461.285080
765.914943	10660.187761
766.241044	9988.887550
766.567097	9488.739553
766.893104	9053.990446
767.219064	8767.214327
767.544978	8463.036145
767.870845	8219.485400
768.196665	8071.214983
768.522438	7916.290243
768.848165	7784.721168
769.173846	7656.118813
769.499479	7562.066006
769.825066	7438.976152
770.150607	7288.873276
770.476101	7245.927687
770.801548	7161.271590
771.126949	7055.208234
771.452303	6979.616132
771.777611	6854.771957
772.102872	6840.006417
772.428087	6748.975782
772.753256	6660.284241
773.078378	6588.944353
773.403453	6473.943031
773.728482	6391.736935
774.053465	6342.305901
774.378401	6276.710407
774.703291	6197.770979
775.028135	6121.813393
775.352932	6095.170895
775.677683	6027.831162
776.002388	5961.245082
776.327046	5959.609227
776.651658	5892.234206
776.976224	5831.901677
777.300743	5818.250232
777.625216	5764.708137
777.949643	5728.734463
778.274024	5737.632100
778.598359	5680.364592
778.922647	5680.843502
779.246889	5649.701774
779.571086	5661.445142
779.895236	5670.299928
780.219339	5662.639895
780.543397	5662.125697
780.867409	5707.710331
781.191374	5707.821237
781.515294	5679.210168
781.839167	5728.179936
782.162995	5705.267892
782.486776	5667.378580
782.810511	5634.762314
783.134201	5574.278551
783.457844	5570.560700
783.781441	5535.307911
784.104993	5495.949102
784.428498	5476.608715
784.751958	5458.969718
785.075372	5449.562925
785.398739	5410.196555
785.722061	5436.481131
786.045337	5434.948620
786.368568	5530.022261
786.691752	5553.188883
787.014891	5753.562146
787.337983	5982.395242
787.661030	6350.865780
787.984031	6699.990890
788.306987	6928.614778
788.629897	7006.830801
788.952760	6947.035154
789.275579	6811.644886
789.598351	6567.292597
789.921078	6349.247570
790.243759	6119.043279
790.566395	5943.669099
790.888984	5778.631804
791.211529	5664.159803
791.534027	5526.369945
791.856480	5410.488942
792.178888	5360.069841
792.501249	5305.038085
792.823566	5214.982913
793.145836	5214.015012
793.468062	5199.882137
793.790241	5165.135984
794.112375	5197.290984
794.434464	5283.461947
794.756507	5315.407739
795.078505	5408.636318
795.400457	5589.858237
795.722364	5786.599348
796.044226	5957.043280
796.366042	6084.934832
796.687812	6045.114758
797.009538	6073.675415
797.331218	6003.547924
797.652852	5947.475170
797.974442	5849.717114
798.295986	5791.756448
798.617484	5681.297206
798.938938	5588.474440
799.260346	5531.267426
799.581709	5421.458492
799.903026	5371.949320
800.224299	5310.374147
800.545526	5207.937901
800.866708	5158.401002
801.187845	5115.644456
801.508936	5050.795053
801.829983	5026.433677
802.150984	4931.796096
802.471940	4904.210902
802.792851	4897.047422
803.113717	4875.950193
803.434538	4851.198128
803.755314	4823.189477
804.076045	4817.624043
804.396731	4780.029639
804.717372	4796.100837
805.037967	4798.553358
805.358518	4821.054549
805.679024	4872.330645
805.999485	4878.309453
806.319901	4894.463831
806.640272	4912.465791
806.960598	4950.385351
807.280879	4945.775215
807.601115	4979.326615
807.921306	4946.168425
808.241453	4947.897541
808.561554	4957.309375
808.881611	4929.431795
809.201623	4927.921969
809.521590	4885.152820
809.841513	4875.683012
810.161390	4889.581473
810.481223	4811.816634
810.801011	4801.215088
811.120755	4787.261174
811.440453	4739.902054
811.760107	4714.187128
812.079716	4692.411864
812.399281	4649.637674
812.718801	4649.977952
813.038276	4617.228096
813.357707	4592.218932
813.677093	4608.690902
813.996434	4556.867840
814.315731	4573.296961
814.634983	4574.947938
814.954191	4581.750976
815.273354	4633.163183
815.592473	4672.214481
815.911547	4737.293257
816.230577	4786.260505
816.549562	4864.332854
816.868502	4907.331376
817.187399	4956.470023
817.506250	5029.657495
817.825058	5055.969797
818.143821	5198.190830
818.462539	5348.742369
818.781213	5552.021856
819.099843	5870.494230
819.418429	6426.692296
819.736970	6964.137269
820.055466	7598.410205
820.373919	8423.142974
820.692327	9717.665911
821.010691	12028.674507
821.329011	17249.858039
821.647286	25129.947756
821.965517	33696.982905
822.283704	38359.548618
822.601847	39921.040981
822.919945	36231.405357
823.237999	32016.562161
823.556010	27593.521832
823.873976	23624.525627
824.191897	20008.077475
824.509775	17342.078387
824.827609	15000.906047
825.145398	13681.421837
825.463144	13029.613247
825.780845	13303.995689
826.098502	14369.390623
826.416116	16461.721527
826.733685	18477.126943
827.051210	18970.567685
827.368692	17723.272797
827.686129	15537.249528
828.003522	13369.848282
828.320872	11415.927298
828.638177	9958.282705
828.955439	8863.031538
829.272656	7922.223681
829.589830	7174.176944
829.906960	6534.331012
830.224046	6058.070523
830.541088	5696.743301
830.858086	5465.727385
831.175041	5285.254077
831.491952	5244.629939
831.808819	5276.570690
832.125642	5496.801057
832.442421	5991.134083
832.759157	6976.268806
833.075849	8537.589769
833.392497	10173.734058
833.709101	11161.795171
834.025662	10949.804570
834.342179	10020.435091
834.658653	8864.866518
834.975083	7881.528966
835.291469	7075.209012
835.607811	6418.313898
835.924110	5951.440037
836.240366	5515.453326
836.556578	5114.006081
836.872746	4790.789982
837.188871	4551.698137
837.504952	4349.716746
837.820990	4198.192265
838.136984	4099.574692
838.452935	4053.806057
838.768842	4081.577773
839.084706	4331.903829
839.400526	4994.281198
839.716303	5796.598476
840.032037	6310.213915
840.347727	6179.184245
840.663373	5645.867976
840.978977	5131.251868
841.294537	4733.222525
841.610054	4435.365950
841.925527	4218.782858
842.240957	4036.020866
842.556344	3874.504817
842.871687	3730.078280
843.186987	3595.106427
843.502244	3485.534428
843.817458	3408.379568
844.132629	3343.734332
844.447756	3300.992909
844.762840	3258.163266
845.077881	3224.511043
845.392879	3192.552648
845.707833	3170.565656
846.022745	3148.369456
846.337613	3135.877476
846.652438	3115.690176
846.967221	3109.595421
847.281960	3091.084304
847.596656	3083.467120
847.911309	3073.407498
848.225919	3057.684139
848.540485	3048.365566
848.855009	3043.818445
849.169490	3029.229346
849.483928	3025.733306
849.798323	3020.125022
850.112675	3010.103208
850.426984	3013.944568
850.741251	3007.670852
851.055474	3004.169770
851.369654	3004.668845
851.683792	3002.879235
851.997887	3005.621623
852.311938	3005.041890
852.625947	3007.973321
852.939914	3000.555263
853.253837	3003.108608
853.567718	3002.997702
853.881555	2994.730210
854.195350	3001.692043
854.509103	3000.494769
854.822812	2998.979903
855.136479	2995.531753
855.450103	2996.295488
855.763685	2991.821464
856.077224	2993.772391
856.390720	3004.288238
856.704173	3010.506501
857.017584	3013.989938
857.330953	3020.319107
857.644278	3028.354706
857.957561	3028.236239
858.270802	3028.654655
858.584000	3026.398738
858.897155	3023.295908
859.210268	3015.260309
859.523339	3000.956035
859.836367	2997.223060
860.149352	2994.216012
860.462295	2992.761639
860.775195	2981.441728
861.088054	2980.778817
861.400869	2981.643374
861.713642	2978.691779
862.026373	2985.951040
862.339062	2990.120075
862.651708	2997.283554
862.964312	3014.040350
863.276873	3019.648633
863.589392	3047.506049
863.901869	3070.160995
864.214303	3091.018769
864.526696	3107.621809
864.839045	3122.183182
865.151353	3134.385295
865.463619	3137.039462
865.775842	3138.874442
866.088023	3144.177736
866.400162	3136.646252
866.712258	3136.933598
867.024313	3140.177581
867.336325	3137.379740
867.648296	3137.238588
867.960224	3136.815131
868.272110	3138.917292
868.583954	3136.270686
868.895755	3146.602531
869.207515	3143.504742
869.519233	3157.592247
869.830909	3165.698422
870.142542	3177.260308
870.454134	3180.295083
870.765684	3193.492824
871.077191	3209.805997
871.388657	3225.037844
871.700081	3234.926067
872.011463	3255.236876
872.322803	3273.153137
872.634101	3286.348357
872.945357	3309.988848
873.256571	3330.231601
873.567744	3345.415557
873.878874	3350.338243
874.189963	3365.386088
874.501010	3366.938763
874.812015	3365.943135
875.122979	3382.901577
875.433900	3376.509393
875.744780	3383.075496
876.055618	3388.461969
876.366415	3386.226218
876.677169	3391.395921
876.987882	3408.147675
877.298554	3424.871703
877.609183	3455.552165
877.919771	3504.690812
878.230317	3567.773291
878.540822	3662.075635
878.851285	3801.680309
879.161707	4004.967358
879.472087	4351.783619
879.782425	4928.075724
880.092722	5996.777654
880.402977	7719.518885
880.713191	9776.954922
881.023363	11806.097482
881.333494	12987.980878
881.643583	13436.971246
881.953631	13137.919917
882.263637	12404.401786
882.573602	11528.027436
882.883526	10683.606441
883.193408	9835.893572
883.503248	9011.241461
883.813048	8259.759178
884.122806	7565.138589
884.432522	6882.140381
884.742197	6296.658253
885.051831	5786.634636
885.361424	5339.759033
885.670975	4978.804855
885.980485	4688.928427
886.289954	4443.845171
886.599382	4248.946602
886.908768	4091.158486
887.218113	3938.625774
887.527417	3820.559430
887.836680	3702.989640
888.145901	3615.225672
888.455082	3546.751679
888.764221	3482.650888
889.073319	3429.013011
889.382376	3395.766601
889.691392	3376.562326
890.000366	3369.784494
890.309300	3362.132023
890.618193	3369.033362
890.927044	3362.371478
891.235855	3366.895913
891.544625	3379.629868
891.853353	3405.899320
892.162041	3462.143474
892.470687	3546.018192
892.779293	3653.535921
893.087858	3813.930313
893.396381	4070.091504
893.704864	4447.487405
894.013306	4964.432526
894.321707	5491.495243
894.630068	5825.648125
894.938387	5862.897211
895.246665	5696.284556
895.554903	5402.846552
895.863100	5096.014203
896.171256	4845.957849
896.479371	4624.157162
896.787446	4418.858692
897.095480	4237.543512
897.403473	4104.197431
897.711425	3968.343376
898.019336	3858.902446
898.327207	3744.987493
898.635038	3651.053153
898.942827	3553.902556
899.250576	3477.387923
899.558284	3398.544277
899.865952	3350.980990
900.173579	3292.831281
900.481165	3249.104312
900.788711	3210.373127
901.096216	3179.274249
901.403681	3153.685352
901.711105	3146.602531
902.018489	3143.378713
902.325832	3168.491221
902.633135	3224.339644
902.940397	3382.684807
903.247619	3752.768514
903.554800	4443.003298
903.861941	5320.113656
904.169041	5965.540145
904.476101	6156.420914
904.783121	5909.376650
905.090100	5542.932656
905.397039	5158.854706
905.703938	4832.843287
906.010796	4532.017472
906.317614	4300.802431
906.624391	4085.663628
906.931129	3904.822317
907.237826	3739.779981
907.544483	3583.020261
907.851099	3429.643155
908.157675	3280.011627
908.464211	3151.018582
908.770707	3061.026424
909.077163	2986.389621
909.383578	2929.094387
909.689954	2892.077194
909.996289	2864.179449
910.302584	2844.133300
910.608839	2834.628205
910.915054	2824.596309
911.221229	2818.746050
911.527363	2823.361226
911.833458	2825.644869
912.139513	2839.739935
912.445527	2856.937831
912.751502	2882.841800
913.057436	2922.818150
913.363331	2976.035091
913.669186	3055.100548
913.975000	3166.250428
914.280775	3334.990450
914.586510	3584.966146
914.892205	3930.834670
915.197859	4389.504053
915.503475	4923.823511
915.809050	5375.397470
916.114585	5645.424355
916.420081	5709.021031
916.725536	5646.291433
917.030952	5428.190953
917.336328	5239.740020
917.641665	5048.811359
917.946961	4834.834543
918.252218	4650.892921
918.557435	4440.807876
918.862612	4257.216614
919.167750	4100.003191
919.472848	3924.200512
919.777906	3769.376595
920.082925	3625.426447
920.387904	3486.928307
920.692843	3383.335116
920.997743	3288.632000
921.302603	3205.110163
921.607423	3146.352994
921.912204	3087.066504
922.216946	3038.890718
922.521647	2995.040241
922.826310	2953.836370
923.130932	2921.820002
923.435516	2884.893550
923.740059	2858.566124
924.044564	2830.078563
924.349028	2810.622230
924.653454	2780.929834
924.957840	2755.913108
925.262186	2740.068762
925.566493	2719.851214
925.870761	2697.337421
926.174989	2686.793848
926.479178	2670.589059
926.783328	2658.828047
927.087438	2648.982673
927.391509	2636.543626
927.695541	2624.943931
927.999533	2616.154679
928.303486	2606.334512
928.607400	2603.035077
928.911275	2597.562904
929.215110	2589.607963
929.518906	2588.473704
929.822663	2589.081163
930.126381	2589.260124
930.430060	2592.093252
930.733699	2591.412696
931.037299	2597.706577
931.340861	2595.617019
931.644383	2597.363778
931.947866	2600.083481
932.251309	2595.559045
932.554714	2594.649117
932.858080	2594.616350
933.161407	2588.304825
933.464694	2583.389700
933.767943	2584.435739
934.071153	2581.501788
934.374323	2577.423494
934.677455	2572.319326
934.980548	2569.710529
935.283602	2566.436300
935.586617	2565.871690
935.889593	2568.866136
936.192530	2569.624829
936.495428	2575.568350
936.798287	2583.651840
937.101108	2599.677668
937.403890	2619.360853
937.706632	2645.393372
938.009336	2672.562670
938.312002	2702.343287
938.614628	2724.605022
938.917216	2743.862230
939.219765	2750.002355
939.522275	2762.186824
939.824747	2758.635331
940.127179	2753.248858
940.429573	2746.347519
940.731929	2746.473547
941.034246	2737.444841
941.336524	2737.480129
941.638763	2729.129458
941.940964	2724.811709
942.243126	2709.317723
942.545250	2700.886393
942.847335	2688.162521
943.149381	2676.396468
943.451389	2662.450116
943.753359	2652.098106
944.055290	2642.431694
944.357182	2634.746455
944.659036	2630.201855
944.960851	2625.190948
945.262628	2622.262037
945.564367	2622.390587
945.866067	2620.608539
946.167729	2620.371605
946.469352	2620.081738
946.770937	2617.941768
947.072484	2610.889194
947.373992	2611.652929
947.675462	2607.839296
947.976893	2603.529110
948.278286	2600.794284
948.579641	2595.453181
948.880958	2598.545929
949.182236	2596.060640
949.483476	2591.823550
949.784678	2588.614856
950.085841	2591.100145
950.386967	2594.853284
950.688054	2600.622884
950.989103	2609.636467
951.290114	2614.586881
951.591087	2627.030969
951.892021	2639.202835
952.192917	2649.759011
952.493776	2659.979950
952.794596	2661.981288
953.095378	2661.764519
953.396122	2663.614622
953.696828	2660.463901
953.997496	2655.044661
954.298126	2645.935296
954.598718	2640.480767
954.899272	2627.817389
955.199788	2618.884464
955.500266	2606.460541
955.800706	2591.692480
956.101108	2577.199163
956.401472	2567.802452
956.701798	2552.860472
957.002087	2540.348328
957.302337	2529.358613
957.602550	2525.063550
957.902724	2513.451252
958.202861	2504.225941
958.502960	2494.257059
958.803022	2487.567448
959.103045	2480.419092
959.403031	2475.425829
959.702979	2472.622947
960.002889	2467.730507
960.302762	2464.771350
960.602596	2459.246245
960.902393	2456.493775
961.202153	2456.181224
961.501875	2448.397682
961.801559	2452.188630
962.101205	2447.623865
962.400814	2444.853751
962.700385	2443.996755
962.999918	2439.295879
963.299414	2439.651280
963.598873	2439.121959
963.898293	2438.617844
964.197677	2438.295210
964.497022	2435.363779
964.796331	2436.891249
965.095601	2434.363110
965.394835	2432.656679
965.694030	2435.222627
965.993189	2435.091557
966.292309	2429.899168
966.591393	2433.238933
966.890439	2432.449992
967.189447	2431.053593
967.488419	2432.311360
967.787353	2432.412183
968.086249	2433.521237
968.385108	2434.660538
968.683930	2433.871598
968.982714	2436.046855
969.281462	2437.871753
969.580172	2439.787392
969.878844	2440.503235
970.177480	2442.529779
970.476078	2446.111519
970.774639	2450.262909
971.073162	2453.713579
971.371649	2451.424895
971.670098	2451.276181
971.968510	2453.262396
972.266885	2452.637293
972.565223	2458.336317
972.863524	2462.180197
973.161788	2459.778087
973.460014	2461.035855
973.758204	2462.649024
974.056356	2461.121555
974.354471	2461.537450
974.652550	2464.063068
974.950591	2463.173304
975.248595	2462.515434
975.546563	2459.069805
975.844493	2460.768674
976.142386	2458.366564
976.440243	2455.858590
976.738062	2456.760957
977.035845	2452.599484
977.333590	2449.915070
977.631299	2451.349278
977.928971	2447.949020
978.226606	2443.704368
978.524204	2444.604214
978.821765	2442.063473
979.119290	2440.878801
979.416777	2440.205807
979.714228	2440.994748
980.011642	2443.661518
980.309020	2448.553958
980.606360	2448.566561
980.903664	2457.852366
981.200931	2470.571198
981.498162	2489.120123
981.795356	2517.698424
982.092513	2552.797458
982.389633	2592.231884
982.686717	2631.991464
982.983764	2662.273675
983.280775	2678.354956
983.577749	2680.038702
983.874686	2672.996210
984.171587	2655.032058
984.468451	2640.311889
984.765279	2623.613067
985.062070	2606.387444
985.358824	2589.113930
985.655543	2569.135837
985.952224	2548.830070
986.248869	2520.612211
986.545478	2496.238232
986.842050	2482.249030
987.138586	2464.741103
987.435086	2454.255503
987.731549	2439.673966
988.027975	2439.815118
988.324366	2428.986719
988.620719	2426.977820
988.917037	2425.410021
989.213318	2422.773497
989.509563	2419.786614
989.805772	2419.526994
990.101944	2416.719072
990.398080	2416.164545
990.694180	2414.080027
990.990244	2418.304514
991.286271	2415.599935
991.582262	2416.479617
991.878217	2419.385842
992.174136	2417.744946
992.470019	2419.237128
992.765865	2421.954310
993.061676	2421.475400
993.357450	2425.669640
993.653188	2429.513520
993.948890	2434.151382
994.244556	2439.215221
994.540186	2446.242589
994.835780	2458.537963
995.131337	2471.226547
995.426859	2481.954123
995.722345	2502.118738
996.017795	2522.172448
996.313208	2534.404808
996.608586	2542.637012
996.903928	2545.326468
997.199234	2545.825542
997.494504	2540.970911
997.789738	2538.271373
998.084936	2524.297295
998.380099	2514.640964
998.675225	2506.106291
998.970316	2493.732779
999.265371	2480.542600
999.560390	2470.019191
999.855373	2462.200362
1000.150320	2450.280553
1000.445232	2440.964501
1000.740108	2435.250353
1001.034948	2428.719538
1001.329752	2425.473035
1001.624521	2423.625452
1001.919254	2412.151786
1002.213951	2410.891498
1002.508613	2409.646333
1002.803239	2411.196488
1003.097829	2405.676424
1003.392384	2410.725140
1003.686903	2406.901424
1003.981386	2408.247413
1004.275834	2405.817576
1004.570246	2407.365211
1004.864623	2403.531413
1005.158964	2404.854716
1005.453270	2408.174316
1005.747540	2407.080385
1006.041775	2402.853378
1006.335974	2403.334808
1006.630138	2402.543347
1006.924266	2403.206259
1007.218359	2401.056207
1007.512416	2401.530075
1007.806438	2403.697771
1008.100425	2403.849006
1008.394376	2402.424880
1008.688292	2399.616957
1008.982172	2399.715260
1009.276017	2401.083933
1009.569827	2399.914385
1009.863602	2401.136865
1010.157341	2398.913716
1010.451045	2399.387585
1010.744714	2399.990003
1011.038347	2399.483367
1011.331945	2400.010167
1011.625508	2400.209293
1011.919036	2399.445558
1012.212528	2400.743655
1012.505986	2400.330280
1012.799408	2400.118552
1013.092795	2397.174518
1013.386147	2398.742317
1013.679464	2397.618140
1013.972745	2397.325753
1014.265992	2399.521175
1014.559204	2398.732235
1014.852380	2397.524878
1015.145521	2399.027142
1015.438628	2398.928840
1015.731699	2395.228633
1016.024736	2397.431617
1016.317737	2399.785836
1016.610703	2401.688871
1016.903635	2400.146278
1017.196531	2396.688047
1017.489393	2396.509086
1017.782219	2396.309960
1018.075011	2400.846999
1018.367768	2398.049158
1018.660490	2401.235168
1018.953177	2401.235168
1019.245829	2401.235168
