Dividing Wavelength (nm)	Counts (n)	Blue Motor Position (mm): 18.400000	Red Motor Position (mm): 0.000000	
326.493990	1972.185084
326.888308	1972.185084
327.282561	1972.185084
327.676750	1946.734819
328.070874	1949.699017
328.464933	1955.715635
328.858929	1962.559001
329.252859	1978.191619
329.646726	1991.646459
330.040528	2007.304282
330.434265	2028.653569
330.827938	2046.995807
331.221547	2067.485577
331.615091	2084.355798
332.008571	2104.762389
332.401986	2124.788373
332.795338	2149.419451
333.188625	2168.706905
333.581847	2187.336489
333.975006	2205.935826
334.368100	2224.872921
334.761129	2239.086454
335.154095	2256.107910
335.546996	2290.324742
335.939833	2344.907835
336.332606	2362.831658
336.725315	2375.293390
337.117960	2384.508619
337.510540	2389.733775
337.903056	2400.244581
338.295508	2404.269942
338.687896	2411.592218
339.080220	2418.201171
339.472480	2425.462953
339.864676	2428.843047
340.256807	2432.092070
340.648875	2434.070723
341.040879	2436.137596
341.432818	2436.044335
341.824694	2436.684561
342.216506	2436.906372
342.608253	2436.172884
342.999937	2434.990734
343.391557	2433.538881
343.783113	2431.592996
344.174605	2432.394539
344.566033	2428.926226
344.957397	2430.226843
345.348697	2427.779363
345.739934	2425.044537
346.131106	2424.847932
346.522215	2422.604619
346.913260	2419.718558
347.304241	2420.656213
347.695159	2416.502302
348.086012	2418.564134
348.476802	2413.845614
348.867528	2413.248237
349.258191	2411.554409
349.648789	2409.505180
350.039324	2410.755387
350.429796	2406.901424
350.820203	2406.583832
351.210548	2406.573749
351.600828	2405.653739
351.991045	2407.942423
352.381198	2408.302865
352.771288	2405.169788
353.161314	2402.966804
353.551276	2405.825138
353.941175	2405.716753
354.331010	2405.084088
354.720782	2406.833369
355.110490	2407.965108
355.500135	2406.745149
355.889717	2405.268091
356.279235	2405.560477
356.668689	2404.993348
357.058080	2407.655077
357.447408	2402.429921
357.836672	2404.234654
358.225873	2402.180384
358.615010	2402.787843
359.004084	2405.900755
359.393095	2407.138359
359.782043	2408.796898
360.170927	2407.728174
360.559748	2408.640623
360.948505	2413.124729
361.337199	2412.363515
361.725830	2413.654050
362.114398	2413.898546
362.502903	2413.328896
362.891344	2413.906108
363.279722	2411.859399
363.668037	2414.879050
364.056289	2413.112126
364.444478	2416.338464
364.832603	2416.013310
365.220665	2414.800913
365.608665	2418.264185
365.996601	2415.821746
366.384474	2419.141346
366.772284	2416.250244
367.160031	2417.510533
367.547715	2418.279309
367.935336	2414.790830
368.322893	2418.029772
368.710388	2418.899371
369.097820	2420.504978
369.485189	2419.549679
369.872495	2421.132602
370.259738	2418.254103
370.646918	2420.920873
371.034035	2418.974988
371.421090	2424.931111
371.808081	2420.114289
372.195010	2421.949269
372.581875	2422.695359
372.968678	2421.934145
373.355418	2421.694690
373.742096	2421.281316
374.128710	2423.247366
374.515262	2421.820719
374.901751	2424.638724
375.288177	2424.454722
375.674540	2424.840370
376.060841	2426.448498
376.447079	2425.034455
376.833254	2421.508168
377.219367	2421.402303
377.605417	2424.222829
377.991404	2421.551018
378.377329	2424.971440
378.763191	2421.747623
379.148991	2426.166194
379.534727	2427.275248
379.920402	2426.077974
380.306013	2426.766091
380.691563	2427.572676
381.077049	2425.599064
381.462474	2427.562593
381.847835	2427.696184
382.233134	2431.507296
382.618371	2426.445978
383.003545	2430.632656
383.388657	2428.137285
383.773706	2434.108532
384.158693	2429.483273
384.543618	2430.042841
384.928480	2428.001174
385.313280	2431.701381
385.698017	2430.083170
386.082692	2433.117945
386.467305	2431.789601
386.851856	2432.301278
387.236344	2433.309509
387.620770	2432.061823
388.005133	2433.985023
388.389435	2433.264138
388.773674	2434.746238
389.157851	2437.413008
389.541965	2433.702719
389.926018	2434.484098
390.310008	2437.959973
390.693936	2433.853953
391.077802	2432.883531
391.461606	2435.797318
391.845348	2437.571804
392.229027	2434.075764
392.612645	2435.401588
392.996200	2436.016608
393.379694	2434.663059
393.763125	2439.061465
394.146494	2435.562905
394.529801	2436.823193
394.913047	2437.249171
395.296230	2439.227823
395.679351	2437.196238
396.062410	2436.162802
396.445408	2440.472988
396.828343	2440.689758
397.211217	2435.091557
397.594028	2437.271856
397.976778	2434.862184
398.359466	2437.599531
398.742092	2433.538881
399.124656	2440.447783
399.507158	2442.209666
399.889598	2437.685230
400.271977	2440.470468
400.654294	2440.097423
401.036549	2444.326951
401.418742	2443.853082
401.800874	2441.917279
402.182944	2443.185129
402.564952	2444.919286
402.946898	2444.261416
403.328783	2442.476847
403.710606	2444.248813
404.092367	2442.832248
404.474067	2446.277877
404.855705	2443.744697
405.237282	2446.093875
405.618797	2445.713268
406.000250	2445.372990
406.381642	2444.445418
406.762972	2445.935079
407.144240	2447.462548
407.525447	2445.826694
407.906593	2449.499174
408.287677	2444.004317
408.668700	2445.400716
409.049661	2446.114040
409.430560	2446.136725
409.811399	2446.396344
410.192176	2451.250975
410.572891	2445.405758
410.953545	2446.832404
411.334138	2445.120932
411.714669	2446.832404
412.095139	2449.799123
412.475547	2448.874071
412.855894	2445.246961
413.236180	2450.550255
413.616405	2451.543362
413.996568	2448.301900
414.376670	2449.738629
414.756711	2445.715788
415.136691	2449.168979
415.516609	2451.616459
415.896466	2449.879782
416.276262	2451.528239
416.655997	2448.987497
417.035670	2443.868206
417.415283	2452.226439
417.794834	2444.193360
418.174324	2452.468414
418.553753	2450.948506
418.933121	2451.074535
419.312428	2451.102261
419.691674	2450.943465
420.070859	2449.179061
420.449983	2453.174176
420.829045	2451.117385
421.208047	2452.428085
421.586988	2454.573096
421.965867	2451.772735
422.344686	2455.314145
422.723444	2454.013528
423.102141	2455.551080
423.480777	2452.808692
423.859352	2453.078394
424.237866	2456.524022
424.616319	2455.631738
424.994712	2456.087962
425.373044	2453.945472
425.751314	2456.718107
426.129524	2452.284412
426.507673	2457.028138
426.885762	2455.125102
427.263789	2458.646348
427.641756	2456.599640
428.019662	2459.553756
428.397508	2457.522171
428.775292	2457.375977
429.153016	2457.101234
429.530679	2458.769856
429.908282	2458.487552
430.285824	2460.814044
430.663305	2457.670885
431.040726	2457.759105
431.418086	2457.459156
431.795385	2460.607357
432.172624	2460.514096
432.549802	2461.832357
432.926920	2459.200875
433.303977	2460.224229
433.680974	2461.935701
434.057910	2460.332614
434.434786	2460.856894
434.811601	2463.629529
435.188355	2464.766309
435.565050	2464.524333
435.941683	2465.643470
436.318257	2464.501648
436.694770	2460.597275
437.071222	2462.452419
437.447614	2464.420990
437.823946	2462.449899
438.200218	2463.327059
438.576429	2463.538788
438.952580	2466.999540
439.328670	2466.608851
439.704700	2465.645990
440.080670	2464.874694
440.456580	2465.172122
440.832429	2467.975003
441.208218	2464.771350
441.583947	2468.448872
441.959616	2467.143213
442.335224	2467.475929
442.710773	2467.531382
443.086261	2467.211268
443.461689	2466.266052
443.837057	2471.120683
444.212365	2467.022225
444.587612	2470.596403
444.962800	2469.641105
445.337927	2470.805611
445.712995	2467.191104
446.088002	2470.510704
446.462949	2473.248050
446.837837	2470.498101
447.212664	2474.362145
447.587431	2474.490695
447.962139	2480.766931
448.336786	2482.548979
448.711374	2479.975470
449.085901	2477.439770
449.460369	2477.855665
449.834776	2479.214256
450.209124	2479.723412
450.583412	2481.187867
450.957640	2477.429687
451.331808	2482.135604
451.705917	2476.078658
452.079965	2479.783906
452.453954	2478.576550
452.827883	2481.094606
453.201752	2481.868423
453.575562	2479.846921
453.949311	2483.002683
454.323001	2483.128712
454.696632	2483.789103
455.070202	2486.821357
455.443713	2484.351192
455.817164	2485.719865
456.190556	2483.595018
456.563888	2487.723723
456.937160	2485.747591
457.310373	2492.548108
457.683526	2491.499548
458.056619	2488.666419
458.429653	2488.736995
458.802628	2490.955103
459.175542	2491.625577
459.548398	2492.777480
459.921194	2498.796618
460.293930	2499.706546
460.666607	2503.321053
461.039224	2505.408091
461.411782	2506.822135
461.784280	2505.871877
462.156719	2502.542195
462.529099	2507.258195
462.901419	2505.503873
463.273680	2502.396002
463.645882	2501.982627
464.018024	2507.999244
464.390106	2510.650891
464.762130	2513.695748
465.134094	2522.847963
465.505999	2530.230733
465.877845	2543.463762
466.249631	2548.126829
466.621358	2545.278577
466.993026	2545.006355
467.364634	2541.633823
467.736184	2538.752803
468.107674	2536.408667
468.479105	2535.332380
468.850477	2537.295910
469.221790	2537.472350
469.593043	2532.582431
469.964238	2531.269210
470.335373	2535.859181
470.706449	2539.277083
471.077467	2545.001313
471.448425	2562.201730
471.819324	2566.585014
472.190164	2565.428069
472.560945	2552.842828
472.931667	2552.384083
473.302330	2547.111036
473.672934	2549.387117
474.043479	2553.062118
474.413965	2550.523898
474.784393	2549.704710
475.154761	2554.781152
475.525070	2553.238559
475.895321	2556.386759
476.265513	2555.076059
476.635645	2565.765826
477.005719	2567.227761
477.375734	2570.801939
477.745691	2575.538103
478.115588	2577.473906
478.485427	2586.323652
478.855207	2600.670775
479.224928	2611.327775
479.594591	2622.138529
479.964194	2616.731892
480.333739	2621.954527
480.703226	2627.754374
481.072653	2631.860394
481.442022	2634.544809
481.811333	2640.195942
482.180584	2640.881539
482.549777	2640.137969
482.918912	2637.536733
483.287988	2641.725932
483.657005	2643.260964
484.025964	2643.119811
484.394864	2643.881026
484.763706	2648.067704
485.132489	2645.761376
485.501213	2650.328661
485.869879	2653.494506
486.238487	2657.345947
486.607036	2661.124292
486.975527	2664.595127
487.343959	2667.433296
487.712333	2672.918072
488.080648	2674.518638
488.448905	2683.491892
488.817104	2685.452901
489.185244	2696.346834
489.553326	2712.264277
489.921350	2731.987792
490.289315	2754.035278
490.657222	2766.960797
491.025070	2777.053187
491.392861	2777.053187
491.760593	2776.165944
492.128267	2771.003802
492.495883	2771.946498
492.863440	2767.238060
493.230939	2767.558173
493.598380	2767.003647
493.965763	2771.472629
494.333088	2777.040584
494.700354	2780.617282
495.067563	2790.399642
495.434713	2797.280817
495.801805	2810.970070
496.168839	2822.095896
496.535815	2829.032524
496.902733	2839.886128
497.269593	2851.246368
497.636395	2864.481918
498.003139	2882.304917
498.369825	2892.349416
498.736453	2911.347005
499.103023	2922.435023
499.469535	2937.349276
499.835989	2959.495065
500.202385	2972.279431
500.568723	2992.872545
500.935003	3016.964219
501.301226	3034.116745
501.667390	3070.140830
502.033497	3100.309615
502.399546	3113.582973
502.765537	3123.405662
503.131470	3158.260199
503.497345	3195.204295
503.863163	3199.902651
504.228923	3241.903024
504.594625	3282.449024
504.960269	3302.938794
505.325856	3351.291021
505.691385	3370.212992
506.056856	3410.806884
506.422270	3460.754636
506.787625	3495.296622
507.152924	3537.012170
507.518164	3585.094696
507.883347	3604.823251
508.248472	3664.931449
508.613540	3728.598702
508.978550	3788.346457
509.343503	3834.173066
509.708398	3894.616501
510.073236	3970.412769
510.438016	4029.966440
510.802738	4073.166608
511.167403	4162.805885
511.532010	4234.402873
511.896561	4313.798525
512.261053	4425.941513
512.625488	4481.164833
512.989866	4545.769740
513.354186	4611.879432
513.718449	4687.968087
514.082655	4810.639525
514.446803	4878.753075
514.810894	4995.836394
515.174927	5077.082150
515.538904	5159.222710
515.902822	5297.201612
516.266684	5354.960632
516.630488	5482.237164
516.994235	5567.702365
517.357925	5712.317946
517.721558	5835.334703
518.085133	5968.000228
518.448651	6089.648311
518.812112	6181.969482
519.175516	6302.836187
519.538863	6454.151461
519.902152	6564.043573
520.265385	6725.315126
520.628560	6861.088523
520.991678	6961.795653
521.354739	7117.176617
521.717743	7278.150742
522.080690	7400.184474
522.443580	7600.759382
522.806413	7748.984429
523.169189	7878.897484
523.531908	8044.416209
523.894569	8164.582193
524.257174	8333.803645
524.619722	8522.874641
524.982213	8672.228906
525.344647	8807.909041
525.707025	8967.799318
526.069345	9184.483233
526.431608	9335.198610
526.793815	9536.189414
527.155964	9627.462025
527.518057	9808.620929
527.880093	9942.289644
528.242072	10196.021000
528.603995	10304.415890
528.965860	10474.035593
529.327669	10659.391258
529.689421	10811.992026
530.051117	10974.843981
530.412755	11171.600215
530.774337	11365.765297
531.135862	11507.502378
531.497331	11728.632592
531.858743	11883.028011
532.220098	12141.016621
532.581396	12267.529418
532.942638	12371.120088
533.303824	12634.522897
533.664953	12831.251405
534.026025	12947.833129
534.387040	13269.355401
534.747999	13443.900312
535.108902	13681.361343
535.469748	13753.585954
535.830537	13981.357888
536.191270	14234.068409
536.551947	14335.844264
536.912567	14620.011586
537.273131	14856.252658
537.633638	14924.998873
537.994089	15224.818978
538.354483	15311.226875
538.714821	15703.121134
539.075103	16022.682397
539.435328	16164.016186
539.795497	16340.829616
540.155609	16550.685289
540.515665	16934.710307
540.875665	16951.910724
541.235609	17287.757434
541.595496	17496.171337
541.955328	17993.718098
542.315102	17971.728585
542.674821	18115.414072
543.034483	18359.221917
543.394090	18573.211336
543.753640	18778.383777
544.113134	19399.983252
544.472571	19239.397296
544.831953	19985.588888
545.191278	19889.766636
545.550548	19991.209775
545.909761	20415.039743
546.268918	20731.684698
546.628019	21086.213925
546.987064	21130.182869
547.346053	21043.371679
547.704986	21654.727529
548.063863	21678.294924
548.422684	22013.279597
548.781449	22164.347854
549.140158	22577.886307
549.498811	22739.004104
549.857408	22694.243699
550.215949	23331.132994
550.574434	23531.165979
550.932864	23638.383759
551.291237	24227.853440
551.649555	24261.477936
552.007817	24597.427990
552.366022	24655.862525
552.724173	24967.005061
553.082267	25409.189871
553.440305	25790.225484
553.798288	25652.138198
554.156215	26037.630192
554.514086	26381.356225
554.871902	26464.867980
555.229661	26692.735696
555.587365	26814.620713
555.945014	27085.053411
556.302606	27262.963292
556.660143	27604.330066
557.017625	27878.984731
557.375050	27974.582652
557.732421	28410.133303
558.089735	28617.937226
558.446994	28772.632593
558.804197	29284.528999
559.161345	29453.576532
559.518437	29197.143118
559.875474	29592.974518
560.232455	29911.908157
560.589381	30235.154503
560.946251	30246.902912
561.303065	30883.673740
561.659825	30965.499228
562.016528	30958.275255
562.373177	30974.079272
562.729770	31496.499087
563.086307	31357.481707
563.442789	31871.760058
563.799216	32100.320933
564.155587	32156.660868
564.511904	32353.094469
564.868164	32617.334109
565.224370	32975.886177
565.580520	32981.446569
565.936615	33326.014476
566.292654	33302.915909
566.648638	33667.257741
567.004567	33807.300995
567.360441	34021.744118
567.716260	34096.653144
568.072023	34496.177189
568.427732	34669.792007
568.783385	34501.586347
569.138982	34964.628931
569.494525	35103.411896
569.850013	35086.264411
570.205445	35225.332202
570.560823	35351.560173
570.916145	35424.276297
571.271412	35611.605574
571.626625	35577.219864
571.981782	35781.923477
572.336884	35691.646494
572.691931	36104.045646
573.046923	35929.107526
573.401860	35963.175643
573.756743	36084.433037
574.111570	36328.414801
574.466342	36352.166197
574.821059	36597.882118
575.175722	36342.000711
575.530330	36487.241394
575.884882	36411.036792
576.239380	36524.619029
576.593823	36635.998283
576.948211	36698.644701
577.302544	36428.396005
577.656823	36592.903979
578.011047	36896.593169
578.365216	36798.580535
578.719330	36749.494820
579.073389	36742.273367
579.427394	36941.769469
579.781344	37032.878243
580.135239	36867.331791
580.489080	37049.501447
580.842866	36712.759932
581.196597	37213.517908
581.550273	37264.297451
581.903895	37267.851464
582.257463	37729.880776
582.610975	37314.351067
582.964434	37661.719335
583.317837	37447.442570
583.671186	37409.873371
584.024481	37715.107675
584.377721	37410.652229
584.730906	37742.967612
585.084037	37861.018832
585.437113	37718.238231
585.790135	37852.403500
586.143103	37599.952598
586.496016	37802.470871
586.848874	37910.883405
587.201679	38013.460803
587.554428	37640.087744
587.907124	37895.207937
588.259765	37766.290510
588.612352	38081.798685
588.964884	37620.074363
589.317362	37965.542116
589.669786	37981.378900
590.022155	37867.809266
590.374470	38312.744025
590.726731	37966.162177
591.078937	37624.976885
591.431090	37782.734754
591.783188	37545.417395
592.135232	37327.142995
592.487222	37615.577654
592.839157	37781.814743
593.191038	37534.984727
593.542866	37406.584018
593.894639	36919.716942
594.246358	37242.668380
594.598022	37272.832124
594.949633	36997.257449
595.301190	37004.536876
595.652692	36920.702487
596.004141	37291.146636
596.355535	36457.317105
596.706876	36473.753787
597.058162	36379.532101
597.409395	36856.909206
597.760573	36978.096024
598.111698	36636.119270
598.462768	36725.191417
598.813785	36797.882335
599.164748	36354.520416
599.515657	36769.606503
599.866511	36339.749836
600.217312	36960.280586
600.568060	36048.023304
600.918753	36777.511033
601.269392	36795.964176
601.619978	36507.295104
601.970510	36751.357527
602.320988	36963.363252
602.671412	37279.511653
603.021783	37088.835050
603.372100	36824.570204
603.722363	36973.233831
604.072572	37068.236896
604.422728	37145.152300
604.772830	36991.848291
605.122878	37107.192412
605.472872	37083.337672
605.822813	37402.777947
606.172701	37275.801364
606.522534	37522.722121
606.872314	37817.687594
607.222041	37631.495097
607.571714	38032.503762
607.921333	37528.385857
608.270899	37853.820064
608.620411	38206.589928
608.969870	38054.964623
609.319276	38070.025070
609.668627	38160.329780
610.017926	38668.687295
610.367171	38825.391563
610.716362	38956.643044
611.065500	38937.111093
611.414585	39146.180346
611.763616	39469.703956
612.112594	39405.328422
612.461518	39653.310341
612.810389	39960.447680
613.159207	39860.090910
613.507971	39955.671187
613.856682	40444.887441
614.205340	40347.804901
614.553945	41039.249562
614.902496	40529.152848
615.250994	41009.731086
615.599439	41093.736873
615.947830	41335.001455
616.296169	41396.311968
616.644454	41546.629094
616.992686	41743.481110
617.340864	42274.246555
617.688990	42018.060158
618.037063	42614.184162
618.385082	42598.488529
618.733048	42903.614448
619.080961	42937.367493
619.428821	42957.746358
619.776628	43089.842233
620.124382	42923.963065
620.472083	43078.920573
620.819731	43214.288157
621.167326	42906.639140
621.514868	42925.540947
621.862357	42499.157634
622.209793	42535.343036
622.557176	42238.383786
622.904506	42012.247707
623.251783	41682.334435
623.599007	41478.225677
623.946179	41269.249686
624.293297	41244.406880
624.640363	40660.807622
624.987376	40683.107166
625.334336	40436.221698
625.681243	40113.892842
626.028097	40110.243046
626.374899	39961.266868
626.721647	39952.606165
627.068343	39842.209937
627.414987	39628.361671
627.761577	39428.613511
628.108115	39761.667422
628.454600	39229.886185
628.801032	39426.055126
629.147412	39383.023836
629.493739	39408.219523
629.840014	39096.124209
630.186236	39421.024054
630.532405	39047.678721
630.878521	39285.505236
631.224585	39148.307713
631.570597	38883.586643
631.916556	39038.657576
632.262462	39006.900827
632.608316	39027.561996
632.954117	38930.071122
633.299866	38929.569527
633.645562	38836.285496
633.991206	38368.859629
634.336797	37960.059861
634.682336	37945.561502
635.027823	37726.213337
635.373257	37546.619710
635.718639	37316.954823
636.063968	37187.329114
636.409245	36627.156099
636.754470	36691.824020
637.099642	36456.563452
637.444762	35979.745916
637.789829	36147.719683
638.134845	35793.515611
638.479808	35753.088077
638.824719	35653.006050
639.169577	35276.207526
639.514383	35361.211463
639.859137	35058.404474
640.203839	35308.927135
640.548489	34944.542453
640.893086	35028.144948
641.237632	34792.954957
641.582125	34907.127009
641.926566	34830.032643
642.270955	34807.072708
642.615292	34835.653530
642.959576	34804.826874
643.303809	34817.898586
643.647990	34969.975074
643.992118	34934.382008
644.336195	34941.691681
644.680219	35041.630035
645.024192	35336.351012
645.368112	35841.804823
645.711981	35859.819387
646.055797	36721.390387
646.399562	36662.441655
646.743274	37594.127544
647.086935	38039.914258
647.430544	37932.840151
647.774101	38058.122906
648.117606	38286.910632
648.461059	38590.781304
648.804460	38208.548416
649.147810	37616.837942
649.491108	37352.928497
649.834354	37006.427308
650.177548	36182.579262
650.520690	35738.680460
650.863781	35759.109736
651.206820	35613.589268
651.549807	35184.367786
651.892742	34712.137699
652.235626	34515.958677
652.578458	34384.729880
652.921238	33795.245076
653.263967	34128.117505
653.606644	33814.978672
653.949269	33772.970737
654.291843	33379.601941
654.634365	33783.569763
654.976836	33372.808986
655.319255	33380.038001
655.661622	33385.237951
656.003938	33146.004954
656.346203	33045.708678
656.688416	33253.278187
657.030577	33052.060532
657.372687	32893.808630
657.714746	33157.317303
658.056753	33274.846764
658.398708	32737.484970
658.740612	32798.820689
659.082465	33070.536361
659.424266	32905.133582
659.766016	33032.468087
660.107715	32914.071548
660.449362	33034.920609
660.790958	33021.664895
661.132503	33044.793708
661.473996	33069.785229
661.815438	33183.294369
662.156829	33374.447361
662.498168	33143.065962
662.839456	33170.431865
663.180693	33329.160156
663.521879	33488.493385
663.863013	33460.648572
664.204097	33455.181440
664.545129	33906.168104
664.886110	33885.083478
665.227040	33944.611944
665.567918	34065.211467
665.908746	34115.572594
666.249522	34301.926408
666.590248	34276.849188
666.930922	34404.569341
667.271545	34358.256261
667.612118	34449.619613
667.952639	34243.285186
668.293109	34281.691216
668.633528	34194.383473
668.973896	34116.361535
669.314213	34153.040970
669.654480	33884.763365
669.994695	33914.813683
670.334859	33807.215296
670.674973	33714.321954
671.015035	33875.059144
671.355047	33837.583206
671.695008	33775.390491
672.034918	33665.989891
672.374777	33754.371400
672.714585	33599.799541
673.054342	33838.185624
673.394049	33594.009776
673.733705	33867.255438
674.073310	33535.877710
674.412864	33618.852582
674.752368	33210.017526
675.091820	33511.095398
675.431223	33084.676797
675.770574	32810.753100
676.109875	32668.383354
676.449125	32391.029151
676.788324	32319.321258
677.127473	31786.902316
677.466571	31711.910111
677.805619	31377.671529
678.144616	31366.709540
678.483562	31286.000667
678.822458	30963.296244
679.161303	30896.798384
679.500098	30812.069191
679.838842	30698.345801
680.177535	30850.886075
680.516179	31130.193725
680.854771	31370.366897
681.193314	32229.419841
681.531805	33351.028681
681.870247	34140.589320
682.208638	34881.056682
682.546978	35100.193119
682.885268	35177.332855
683.223508	34663.170451
683.561697	34319.159592
683.899836	34117.364724
684.237925	33624.370125
684.575963	33460.023468
684.913951	33018.549462
685.251889	33166.958510
685.589776	33148.487722
685.927614	33144.192659
686.265401	33308.372958
686.603137	33399.176742
686.940824	33899.775921
687.278460	34284.950322
687.616046	34416.635343
687.953582	35034.282553
688.291068	34897.306842
688.628504	35169.216598
688.965889	35097.788489
689.303224	34706.113520
689.640510	34360.126529
689.977745	33628.700476
690.314930	32815.375838
690.652065	32288.819757
690.989150	31543.086910
691.326185	30657.504893
691.663170	29945.280595
692.000105	29199.630927
692.336990	28519.677576
692.673825	28063.309480
693.010610	27554.914156
693.347345	26967.942366
693.684030	26323.322462
694.020665	26040.309565
694.357251	25385.667847
694.693786	25339.062380
695.030272	25104.691576
695.366707	24560.914913
695.703093	24277.342448
696.039429	24268.328864
696.375716	23995.662935
696.711952	23960.964673
697.048139	23819.507376
697.384276	23648.692919
697.720363	23748.444751
698.056400	23558.821749
698.392388	23336.401000
698.728326	23303.540238
699.064214	23101.528601
699.400053	23025.419781
699.735842	22671.818127
700.071581	22402.103793
700.407270	22116.590483
700.742910	21937.747989
701.078501	21662.203561
701.414042	21369.778829
701.749533	21076.159344
702.084974	20723.704552
702.420366	20931.667272
702.755709	20496.650983
703.091002	20201.534275
703.426246	20226.157791
703.761440	20119.590319
704.096584	19850.289360
704.431679	19816.581685
704.766725	19706.815601
705.101721	19657.455143
705.436668	19742.118801
705.771565	19428.246481
706.106413	19768.766341
706.441212	19751.155070
706.775961	19883.084586
707.110661	19957.277768
707.445311	20308.202570
707.779913	20158.056843
708.114465	20401.557177
708.448967	20681.615958
708.783421	21386.016385
709.117825	21652.264926
709.452180	21877.929657
709.786485	22276.979834
710.120742	23067.742788
710.454949	23087.897321
710.789107	23555.592890
711.123216	24261.719912
711.457275	24371.087744
711.791286	24919.676188
712.125247	24991.968855
712.459159	24668.271325
712.793023	25319.240563
713.126837	24218.580238
713.460602	24472.777900
713.794318	24086.998561
714.127985	23689.894269
714.461602	22808.829126
714.795171	22749.129262
715.128691	21737.750292
715.462162	21204.466791
715.795584	20782.948192
716.128957	20518.766525
716.462281	20116.212746
716.795556	19882.494771
717.128782	19391.342714
717.461960	18848.438171
717.795088	18760.477598
718.128167	18365.140231
718.461198	17905.830622
718.794180	17766.009179
719.127113	17402.110968
719.459997	17204.477572
719.792833	16861.371601
720.125619	16834.860172
720.458357	16522.729570
720.791046	16349.518045
721.123686	16192.586926
721.456278	15958.594208
721.788821	15911.378761
722.121315	15647.093750
722.453761	15728.468056
722.786158	15657.244113
723.118506	15654.698331
723.450805	15510.523851
723.783056	15676.405539
724.115259	15590.350522
724.447412	15519.222362
724.779518	15761.979126
725.111574	15784.913855
725.443582	15976.349152
725.775542	15955.415761
726.107453	16420.147131
726.439315	16303.683874
726.771129	16705.715893
727.102895	17073.533601
727.434612	17279.452133
727.766281	17397.311789
728.097901	17661.334660
728.429473	17693.860185
728.760996	17669.108120
729.092471	17762.921472
729.423897	17627.674876
729.755276	17499.087644
730.086606	17613.388246
730.417887	18133.360580
730.749120	18652.541453
731.080305	18831.880501
731.411442	19153.680036
731.742530	19228.752899
732.073570	19322.379729
732.404562	19609.160889
732.735506	19425.335214
733.066401	19134.775709
733.397249	18606.427498
733.728048	17978.516499
734.058798	17145.942215
734.389501	16468.922815
734.720156	16005.655900
735.050762	15490.049205
735.381320	15134.736079
735.711831	14898.565583
736.042293	14548.112129
736.372707	14554.877358
736.703073	14345.888763
737.033391	14537.969328
737.363661	14504.491025
737.693883	14614.846924
738.024056	14780.736174
738.354182	14963.329287
738.684260	15244.318161
739.014290	15475.775178
739.344272	15666.368602
739.674207	15933.728717
740.004093	16044.326591
740.333931	16046.348094
740.663722	16072.168884
740.993464	16060.680094
741.323159	15889.225411
741.652806	15605.340393
741.982405	15396.187962
742.311956	15061.515840
742.641460	14932.190079
742.970915	14634.855264
743.300323	14296.165343
743.629683	14078.037136
743.958996	13812.494357
744.288260	13541.396227
744.617477	13235.846851
744.946647	13169.774968
745.275768	12896.995613
745.604842	12715.420813
745.933869	12538.239379
746.262847	12496.652380
746.591778	12428.894232
746.920662	12318.581182
747.249498	12325.248108
747.578286	12443.803444
747.907027	12587.952718
748.235720	12798.557002
748.564365	12832.544461
748.892963	12732.752300
749.221514	12790.649952
749.550017	12644.199392
749.878473	12598.060231
750.206881	12384.126265
750.535242	12291.051441
750.863555	12214.115872
751.191821	12116.541819
751.520039	12138.354891
751.848210	12043.104810
752.176334	12067.178840
752.504411	11977.166518
752.832440	11821.175574
753.160421	11888.512786
753.488356	11761.556368
753.816243	11672.879951
754.144082	11532.078003
754.471875	11466.916049
754.799620	11418.871332
755.127318	11385.942515
755.454969	11353.182577
755.782572	11305.818416
756.110129	11313.652369
756.437638	11229.278577
756.765100	11224.822197
757.092515	11226.435366
757.419882	11241.208468
757.747203	11246.930177
758.074477	11324.977321
758.401703	11273.739033
758.728882	11433.558734
759.056014	11476.726134
759.383099	11593.862385
759.710138	11689.888804
760.037129	11770.133891
760.364073	11790.001078
760.690970	11782.018411
761.017820	11768.855958
761.344623	11950.866818
761.671379	12279.555090
761.998088	12910.193354
762.324751	14449.522284
762.651366	17301.890309
762.977935	20938.034249
763.304456	23144.537205
763.630931	23603.672894
763.957359	22423.218666
764.283740	20517.314672
764.610074	18644.810844
764.936362	16531.544028
765.262602	15028.070305
765.588796	13574.098192
765.914943	12544.074515
766.241044	11708.805734
766.567097	11076.750906
766.893104	10530.932576
767.219064	10170.908492
767.544978	9798.619280
767.870845	9488.885747
768.196665	9298.975399
768.522438	9107.114125
768.848165	8949.580588
769.173846	8780.631358
769.499479	8661.269437
769.825066	8501.669027
770.150607	8320.736975
770.476101	8257.694825
770.801548	8148.609297
771.126949	8011.648709
771.452303	7915.740757
771.777611	7755.240501
772.102872	7730.616985
772.428087	7618.214378
772.753256	7497.080492
773.078378	7406.909373
773.403453	7263.196159
773.728482	7163.691344
774.053465	7105.181192
774.378401	7016.648448
774.703291	6924.591938
775.028135	6827.426218
775.352932	6793.161495
775.677683	6713.143260
776.002388	6629.381968
776.327046	6622.253777
776.651658	6540.191354
776.976224	6460.520958
777.300743	6444.490089
777.625216	6380.054061
777.949643	6338.769531
778.274024	6338.610735
778.598359	6278.139574
778.922647	6274.459532
779.246889	6237.649026
779.571086	6245.230922
779.895236	6251.219812
780.219339	6245.218319
780.543397	6250.869452
780.867409	6298.929292
781.191374	6294.903931
781.515294	6263.285814
781.839167	6313.583927
782.162995	6280.735768
782.486776	6235.955199
782.810511	6197.017326
783.134201	6114.569255
783.457844	6104.930569
783.781441	6060.439866
784.104993	6015.621488
784.428498	5988.787426
784.751958	5967.319672
785.075372	5946.088853
785.398739	5904.002780
785.722061	5928.379279
786.045337	5925.604124
786.368568	6034.828284
786.691752	6055.963321
787.014891	6307.012783
787.337983	6582.781542
787.661030	7017.505444
787.984031	7433.438445
788.306987	7696.329577
788.629897	7785.623535
788.952760	7696.107766
789.275579	7514.911053
789.598351	7222.987916
789.921078	6958.919675
790.243759	6681.005904
790.566395	6479.203475
790.888984	6289.094001
791.211529	6151.825903
791.534027	5985.150233
791.856480	5857.911510
792.178888	5794.428260
792.501249	5731.244958
792.823566	5628.037415
793.145836	5619.427124
793.468062	5606.839363
793.790241	5564.831428
794.112375	5604.200319
794.434464	5702.825453
794.756507	5731.809567
795.078505	5851.887331
795.400457	6064.283746
795.722364	6300.124046
796.044226	6492.885166
796.366042	6647.459546
796.687812	6594.920641
797.009538	6625.114632
797.331218	6533.342946
797.652852	6462.282842
797.974442	6341.078380
798.295986	6274.083966
798.617484	6142.857690
798.938938	6029.338467
799.260346	5965.640968
799.581709	5834.820505
799.903026	5777.815137
800.224299	5709.210074
800.545526	5591.426035
800.866708	5525.402043
801.187845	5484.036856
801.508936	5408.313684
801.829983	5376.486359
802.150984	5274.100524
802.471940	5248.282255
802.792851	5232.208536
803.113717	5208.489907
803.434538	5180.002347
803.755314	5151.766844
804.076045	5137.515502
804.396731	5104.138022
804.717372	5120.627637
805.037967	5120.287359
805.358518	5152.792719
805.679024	5206.324731
805.999485	5222.746290
806.319901	5234.224997
806.640272	5258.304069
806.960598	5303.929032
807.280879	5294.660870
807.601115	5333.104709
807.921306	5294.318072
808.241453	5290.282628
808.561554	5297.534328
808.881611	5260.842290
809.201623	5259.508904
809.521590	5211.640628
809.841513	5194.102454
810.161390	5209.498138
810.481223	5122.001351
810.801011	5110.857880
811.120755	5082.733283
811.440453	5027.865365
811.760107	5005.462477
812.079716	4977.859639
812.399281	4925.724026
812.718801	4918.696658
813.038276	4886.876894
813.357707	4852.309702
813.677093	4875.259555
813.996434	4812.124145
814.315731	4830.849511
814.634983	4832.591229
814.954191	4834.383359
815.273354	4895.814860
815.592473	4934.135191
815.911547	5007.340307
816.230577	5054.273449
816.549562	5141.293847
816.868502	5189.802350
817.187399	5246.779991
817.506250	5327.468699
817.825058	5352.072051
818.143821	5504.380432
818.462539	5674.471483
818.781213	5898.724692
819.099843	6253.115286
819.418429	6875.279371
819.736970	7482.108265
820.055466	8186.586830
820.373919	9073.986182
820.692327	10506.326704
821.010691	13154.948935
821.329011	19274.534138
821.647286	28698.809937
821.965517	38912.442207
822.283704	44290.720696
822.601847	45742.038642
822.919945	41190.209435
823.237999	36135.242827
823.556010	30998.410401
823.873976	26367.903906
824.191897	22222.726936
824.509775	19199.194094
824.827609	16487.189436
825.145398	14956.198574
825.463144	14223.897882
825.780845	14520.388304
826.098502	15755.090389
826.416116	18174.292229
826.733685	20418.828170
827.051210	20955.116199
827.368692	19540.669252
827.686129	17014.695774
828.003522	14571.669441
828.320872	12390.616750
828.638177	10769.510223
828.955439	9538.563797
829.272656	8498.049479
829.589830	7668.572984
829.906960	6953.145033
830.224046	6430.203459
830.541088	6028.335278
830.858086	5771.488489
831.175041	5572.194033
831.491952	5518.104973
831.808819	5548.367020
832.125642	5784.161950
832.442421	6331.911042
832.759157	7422.751199
833.075849	9167.696191
833.392497	10980.006122
833.709101	12080.689132
834.025662	11830.756287
834.342179	10791.948399
834.658653	9502.940484
834.975083	8412.843897
835.291469	7521.787187
835.607811	6803.503422
835.924110	6292.572397
836.240366	5814.214788
836.556578	5372.808837
836.872746	5022.534344
837.188871	4753.455196
837.504952	4535.962175
837.820990	4376.059296
838.136984	4262.361112
838.452935	4217.706571
838.768842	4244.747320
839.084706	4520.279146
839.400526	5247.793263
839.716303	6136.936855
840.032037	6694.145672
840.347727	6554.714918
840.663373	5963.480833
840.978977	5390.026898
841.294537	4953.551195
841.610054	4628.706803
841.925527	4393.501688
842.240957	4193.972819
842.556344	4014.442207
842.871687	3859.399000
843.186987	3710.548850
843.502244	3593.460490
843.817458	3509.666431
844.132629	3439.896862
844.447756	3392.872979
844.762840	3350.121474
845.077881	3308.620175
845.392879	3276.868467
845.707833	3252.436515
846.022745	3226.401476
846.337613	3213.319682
846.652438	3189.207843
846.967221	3185.116947
847.281960	3163.901251
847.596656	3153.544200
847.911309	3142.577170
848.225919	3133.578710
848.540485	3120.048253
848.855009	3113.935854
849.169490	3102.757096
849.483928	3097.652927
849.798323	3088.485589
850.112675	3077.999989
850.426984	3081.682552
850.741251	3069.656879
851.055474	3069.414904
851.369654	3072.704257
851.683792	3068.482291
851.997887	3071.595203
852.311938	3071.617888
852.625947	3073.004206
852.939914	3064.978689
853.253837	3069.195614
853.567718	3070.488670
853.881555	3062.074984
854.195350	3068.469688
854.509103	3064.691343
854.822812	3062.306877
855.136479	3057.505178
855.450103	3060.280333
855.763685	3057.180024
856.077224	3058.891495
856.390720	3066.526323
856.704173	3074.728280
857.017584	3082.957964
857.330953	3090.514653
857.644278	3097.663010
857.957561	3099.104780
858.270802	3095.591095
858.584000	3094.290478
858.897155	3090.108841
859.210268	3077.299269
859.523339	3061.875858
859.836367	3063.173956
860.149352	3056.050805
860.462295	3056.764128
860.775195	3043.450441
861.088054	3042.361552
861.400869	3045.552602
861.713642	3041.605379
862.026373	3046.848179
862.339062	3052.711041
862.651708	3060.822257
862.964312	3079.227510
863.276873	3085.286977
863.589392	3116.083386
863.901869	3142.670431
864.214303	3162.378822
864.526696	3180.153931
864.839045	3197.896272
865.151353	3210.650391
865.463619	3208.906152
865.775842	3208.404557
866.088023	3213.158365
866.400162	3209.062427
866.712258	3208.119732
867.024313	3207.822303
867.336325	3207.166953
867.648296	3208.903631
867.960224	3206.650235
868.272110	3210.877243
868.583954	3209.253991
868.895755	3215.404199
869.207515	3212.334136
869.519233	3232.786097
869.830909	3236.813979
870.142542	3249.442070
870.454134	3253.449787
870.765684	3267.943104
871.077191	3285.710651
871.388657	3296.624749
871.700081	3315.153510
872.011463	3332.583299
872.322803	3353.272195
872.634101	3368.950183
872.945357	3389.840725
873.256571	3421.083276
873.567744	3430.961417
873.878874	3436.375616
874.189963	3452.388841
874.501010	3456.651137
874.812015	3452.729119
875.122979	3464.124647
875.433900	3463.300419
875.744780	3467.524906
876.055618	3479.021257
876.366415	3472.422387
876.677169	3479.439673
876.987882	3494.865603
877.298554	3511.904703
877.609183	3550.560271
877.919771	3594.244390
878.230317	3661.937004
878.540822	3762.525667
878.851285	3910.453285
879.161707	4122.948002
879.472087	4493.303931
879.782425	5101.451087
880.092722	6256.114773
880.402977	8146.308010
880.713191	10477.796294
881.023363	12812.899085
881.333494	14124.652686
881.643583	14569.216920
881.953631	14168.656918
882.263637	13333.655318
882.573602	12306.676498
882.883526	11381.493697
883.193408	10449.275966
883.503248	9548.043687
883.813048	8734.540088
884.122806	7995.517017
884.432522	7243.684373
884.742197	6602.598318
885.051831	6046.538884
885.361424	5565.816974
885.670975	5180.887069
885.980485	4862.074417
886.289954	4604.935242
886.599382	4392.800968
886.908768	4217.507446
887.218113	4058.902663
887.527417	3928.026748
887.836680	3810.383861
888.145901	3711.141186
888.455082	3635.639825
888.764221	3570.109866
889.073319	3508.138962
889.382376	3481.178871
889.691392	3456.547793
890.000366	3449.381793
890.309300	3444.229734
890.618193	3449.454890
890.927044	3442.369548
891.235855	3447.461113
891.544625	3461.016776
891.853353	3492.801251
892.162041	3548.397616
892.470687	3639.808859
892.779293	3752.801281
893.087858	3923.512394
893.396381	4189.912169
893.704864	4603.395170
894.013306	5149.256349
894.321707	5712.443975
894.630068	6064.437501
894.938387	6095.886739
895.246665	5926.229227
895.554903	5618.126507
895.863100	5284.611330
896.171256	5017.475547
896.479371	4784.664980
896.787446	4566.496444
897.095480	4375.804718
897.403473	4226.972212
897.711425	4086.969287
898.019336	3968.718942
898.327207	3851.151672
898.635038	3750.689038
898.942827	3643.995537
899.250576	3561.502096
899.558284	3481.826659
899.865952	3428.052671
900.173579	3365.270141
900.481165	3321.459993
900.788711	3278.970628
901.096216	3246.465268
901.403681	3219.144735
901.711105	3209.311964
902.018489	3205.044628
902.325832	3237.945718
902.633135	3295.329172
902.940397	3461.644400
903.247619	3853.218545
903.554800	4590.976287
903.861941	5531.474113
904.169041	6217.194545
904.476101	6424.454023
904.783121	6149.418752
905.090100	5755.160192
905.397039	5355.610941
905.703938	5005.228063
906.010796	4688.131925
906.317614	4442.917599
906.624391	4211.702557
906.931129	4020.436139
907.237826	3843.902493
907.544483	3678.419056
907.851099	3515.221783
908.157675	3355.679346
908.464211	3218.464179
908.770707	3119.675208
909.077163	3043.528579
909.383578	2986.550938
909.689954	2942.793722
909.996289	2912.753487
910.302584	2892.190620
910.608839	2881.621841
910.915054	2870.954759
911.221229	2863.259438
911.527363	2870.821169
911.833458	2873.082126
912.139513	2888.230794
912.445527	2902.877866
912.751502	2929.089346
913.057436	2974.248002
913.363331	3030.819830
913.669186	3116.108592
913.975000	3230.623442
914.280775	3412.125145
914.586510	3671.981503
914.892205	4036.232594
915.197859	4517.619937
915.503475	5091.704016
915.809050	5574.384415
916.114585	5856.061407
916.420081	5920.096663
916.725536	5852.908165
917.030952	5623.049193
917.336328	5420.528399
917.641665	5216.583479
917.946961	4992.436135
918.252218	4799.493534
918.557435	4578.280141
918.862612	4385.135893
919.167750	4213.436714
919.472848	4031.582130
919.777906	3866.575082
920.082925	3716.003379
920.387904	3568.564752
920.692843	3457.437557
920.997743	3361.716128
921.302603	3270.534257
921.607423	3207.572766
921.912204	3144.349135
922.216946	3096.773246
922.521647	3048.668035
922.826310	3007.345697
923.130932	2973.559884
923.435516	2934.440530
923.740059	2908.589493
924.044564	2875.983310
924.349028	2851.437932
924.653454	2823.414158
924.957840	2797.910961
925.262186	2782.230452
925.566493	2762.096083
925.870761	2736.416446
926.174989	2723.921946
926.479178	2710.595656
926.783328	2696.122503
927.087438	2680.585667
927.391509	2670.967145
927.695541	2660.010197
927.999533	2653.706234
928.303486	2641.282311
928.607400	2634.640591
928.911275	2631.525158
929.215110	2624.709517
929.518906	2619.423868
929.822663	2619.108796
930.126381	2620.603498
930.430060	2625.075001
930.733699	2623.003087
931.037299	2632.485497
931.340861	2628.765126
931.644383	2631.799900
931.947866	2630.032976
932.251309	2627.593057
932.554714	2625.213633
932.858080	2624.255814
933.161407	2623.542490
933.464694	2617.382200
933.767943	2615.363218
934.071153	2610.233844
934.374323	2609.323916
934.677455	2604.663369
934.980548	2604.076075
935.283602	2599.720518
935.586617	2595.024683
935.889593	2600.093563
936.192530	2601.121959
936.495428	2608.429111
936.798287	2612.827518
937.101108	2630.847122
937.403890	2651.291522
937.706632	2678.914524
938.009336	2710.366283
938.312002	2738.763103
938.614628	2760.205651
938.917216	2778.918414
939.219765	2788.420989
939.522275	2796.559932
939.824747	2798.488173
940.127179	2791.854014
940.429573	2782.903446
940.731929	2782.132149
941.034246	2773.559667
941.336524	2775.848351
941.638763	2766.325611
941.940964	2761.105497
942.243126	2744.172261
942.545250	2735.360324
942.847335	2721.340875
943.149381	2707.805377
943.451389	2695.288192
943.753359	2683.060873
944.055290	2671.662824
944.357182	2666.777946
944.659036	2659.763181
944.960851	2659.150681
945.262628	2653.393683
945.564367	2652.486275
945.866067	2652.652633
946.167729	2649.567447
946.469352	2649.146511
946.770937	2650.779845
947.072484	2643.717188
947.373992	2640.286683
947.675462	2637.037659
947.976893	2633.632360
948.278286	2630.295116
948.579641	2625.178345
948.880958	2622.708179
949.182236	2622.199023
949.483476	2620.553086
949.784678	2619.691049
950.085841	2619.822119
950.386967	2622.960237
950.688054	2629.937194
950.989103	2638.930612
951.290114	2645.342960
951.591087	2656.511637
951.892021	2667.445899
952.192917	2682.324865
952.493776	2692.424817
952.794596	2696.034283
953.095378	2696.883717
953.396122	2694.957996
953.696828	2689.841225
953.997496	2686.559434
954.298126	2676.893022
954.598718	2668.093687
954.899272	2657.630773
955.199788	2649.239772
955.500266	2635.701753
955.800706	2618.667695
956.101108	2603.299737
956.401472	2595.511154
956.701798	2579.737384
957.002087	2569.483677
957.302337	2556.467418
957.602550	2549.061963
957.902724	2538.200797
958.202861	2528.015146
958.502960	2520.771007
958.803022	2513.307579
959.103045	2506.839779
959.403031	2499.767040
959.702979	2492.603560
960.002889	2489.818323
960.302762	2483.128712
960.602596	2480.161993
960.902393	2478.677373
961.202153	2473.921044
961.501875	2474.291569
961.801559	2471.085395
962.101205	2465.721608
962.400814	2468.557257
962.700385	2463.193469
962.999918	2463.760599
963.299414	2461.653396
963.598873	2462.951493
963.898293	2455.934207
964.197677	2456.977726
964.497022	2453.905143
964.796331	2454.542849
965.095601	2452.314659
965.394835	2455.122582
965.694030	2451.354319
965.993189	2454.600822
966.292309	2453.121243
966.591393	2454.721810
966.890439	2452.614608
967.189447	2451.563527
967.488419	2453.025462
967.787353	2451.465224
968.086249	2452.453291
968.385108	2451.518157
968.683930	2453.385904
968.982714	2455.291460
969.281462	2454.298353
969.580172	2456.156018
969.878844	2460.151133
970.177480	2461.373612
970.476078	2466.240846
970.774639	2470.263687
971.073162	2472.602783
971.371649	2472.045735
971.670098	2470.296455
971.968510	2475.763586
972.266885	2470.793008
972.565223	2478.521097
972.863524	2479.047898
973.161788	2478.316930
973.460014	2478.846252
973.758204	2479.501602
974.056356	2481.752477
974.354471	2483.413537
974.652550	2483.723568
974.950591	2483.146356
975.248595	2480.746767
975.546563	2481.013948
975.844493	2478.516056
976.142386	2476.791981
976.440243	2473.986579
976.738062	2475.647639
977.035845	2469.477267
977.333590	2467.513738
977.631299	2463.427882
977.928971	2467.077678
978.226606	2461.542491
978.524204	2463.238839
978.821765	2459.178190
979.119290	2458.553087
979.416777	2456.723148
979.714228	2460.690536
980.011642	2462.056689
980.309020	2468.849643
980.606360	2467.506176
980.903664	2477.429687
981.200931	2490.892089
981.498162	2509.251971
981.795356	2533.678882
982.092513	2573.536765
982.389633	2617.677108
982.686717	2656.514157
982.983764	2687.489527
983.280775	2706.081302
983.577749	2704.382433
983.874686	2696.135106
984.171587	2682.211439
984.468451	2668.600323
984.765279	2649.885040
985.062070	2629.523819
985.358824	2612.351129
985.655543	2592.403283
985.952224	2569.634912
986.248869	2544.109029
986.545478	2516.866634
986.842050	2498.640342
987.138586	2482.722899
987.435086	2469.295786
987.731549	2457.675926
988.027975	2451.871037
988.324366	2449.098403
988.620719	2444.319389
988.917037	2440.533482
989.213318	2435.237750
989.509563	2435.711619
989.805772	2433.705239
990.101944	2432.581062
990.398080	2431.131730
990.694180	2431.106525
990.990244	2428.722059
991.286271	2431.295568
991.582262	2430.821699
991.878217	2430.693150
992.174136	2432.858326
992.470019	2432.971752
992.765865	2434.539550
993.061676	2439.217741
993.357450	2437.120621
993.653188	2442.912907
993.948890	2450.537652
994.244556	2453.927828
994.540186	2460.425875
994.835780	2473.096816
995.131337	2485.951758
995.426859	2502.418687
995.722345	2520.176151
996.017795	2540.784388
996.313208	2551.461552
996.608586	2564.636608
996.903928	2566.559808
997.199234	2562.668037
997.494504	2559.855073
997.789738	2554.163611
998.084936	2544.756817
998.380099	2531.183511
998.675225	2519.588857
998.970316	2510.199708
999.265371	2497.301916
999.560390	2484.923362
999.855373	2475.261991
1000.150320	2463.001905
1000.445232	2454.731892
1000.740108	2449.370625
1001.034948	2443.185129
1001.329752	2439.409305
1001.624521	2436.881166
1001.919254	2426.221647
1002.213951	2426.947573
1002.508613	2423.091090
1002.803239	2423.224681
1003.097829	2420.371387
1003.392384	2419.557241
1003.686903	2418.019689
1003.981386	2418.884247
1004.275834	2416.502302
1004.570246	2415.443660
1004.864623	2416.499781
1005.158964	2413.943916
1005.453270	2415.342837
1005.747540	2416.386355
1006.041775	2415.718403
1006.335974	2414.216139
1006.630138	2414.299318
1006.924266	2412.650860
1007.218359	2411.325037
1007.512416	2412.303021
1007.806438	2413.228073
1008.100425	2413.389389
1008.394376	2410.110119
1008.688292	2413.275963
1008.982172	2407.037536
1009.276017	2412.073648
1009.569827	2408.045766
1009.863602	2410.069790
1010.157341	2409.739594
1010.451045	2410.392423
1010.744714	2410.256312
1011.038347	2409.545510
1011.331945	2408.023081
1011.625508	2410.102557
1011.919036	2408.108781
1012.212528	2406.543503
1012.505986	2405.880591
1012.799408	2407.617268
1013.092795	2408.139028
1013.386147	2408.761610
1013.679464	2406.634243
1013.972745	2405.376475
1014.265992	2406.699778
1014.559204	2407.511404
1014.852380	2404.922772
1015.145521	2405.005951
1015.438628	2406.893863
1015.731699	2406.039387
1016.024736	2409.976528
1016.317737	2409.487536
1016.610703	2410.019378
1016.903635	2406.044428
1017.196531	2406.278842
1017.489393	2408.872516
1017.782219	2404.988307
1018.075011	2409.275808
1018.367768	2409.666497
1018.660490	2409.986611
1018.953177	2409.986611
1019.245829	2409.986611
