Dividing Wavelength (nm)	Counts (n)	Blue Motor Position (mm): 38.800000	Red Motor Position (mm): 0.000000	
326.493990	1970.118211
326.888308	1970.118211
327.282561	1970.118211
327.676750	1947.122988
328.070874	1944.524273
328.464933	1954.840994
328.858929	1963.829372
329.252859	1974.695579
329.646726	1989.307363
330.040528	2005.265136
330.434265	2025.626356
330.827938	2043.857689
331.221547	2064.511296
331.615091	2085.399317
332.008571	2105.584097
332.401986	2126.951028
332.795338	2145.547844
333.188625	2166.571977
333.581847	2184.911694
333.975006	2203.410208
334.368100	2221.548280
334.761129	2235.378685
335.154095	2250.164390
335.546996	2293.682150
335.939833	2375.825232
336.332606	2390.437016
336.725315	2402.729870
337.117960	2410.490726
337.510540	2413.674215
337.903056	2427.799528
338.295508	2434.690785
338.687896	2443.273349
339.080220	2446.734102
339.472480	2452.390276
339.864676	2454.893209
340.256807	2458.132150
340.648875	2462.238170
341.040879	2461.560135
341.432818	2464.007615
341.824694	2464.922585
342.216506	2464.980558
342.608253	2463.042234
342.999937	2463.775722
343.391557	2463.506020
343.783113	2460.695577
344.174605	2459.503344
344.566033	2456.639969
344.957397	2459.389918
345.348697	2454.167283
345.739934	2455.629217
346.131106	2452.634772
346.522215	2450.419185
346.913260	2446.933227
347.304241	2449.448763
347.695159	2443.306117
348.086012	2444.752928
348.476802	2442.771755
348.867528	2439.676486
349.258191	2438.065838
349.648789	2442.239913
350.039324	2436.498039
350.429796	2439.709254
350.820203	2436.069541
351.210548	2433.962338
351.600828	2434.698347
351.991045	2436.482915
352.381198	2436.372010
352.771288	2434.446289
353.161314	2432.921340
353.551276	2433.072575
353.941175	2434.209355
354.331010	2435.202462
354.720782	2433.294385
355.110490	2436.835796
355.500135	2433.213727
355.889717	2433.233892
356.279235	2434.922678
356.668689	2436.815631
357.058080	2436.160281
357.447408	2432.573500
357.836672	2435.439396
358.225873	2433.004519
358.615010	2431.260280
359.004084	2438.562391
359.393095	2438.587597
359.782043	2442.433997
360.170927	2438.713626
360.559748	2441.380396
360.948505	2440.236054
361.337199	2444.324430
361.725830	2443.293514
362.114398	2446.156889
362.502903	2444.379883
362.891344	2446.282918
363.279722	2445.004986
363.668037	2445.564554
364.056289	2444.372321
364.444478	2447.903649
364.832603	2449.025306
365.220665	2446.106478
365.608665	2448.556479
365.996601	2452.208795
366.384474	2448.422888
366.772284	2450.721654
367.160031	2450.865327
367.547715	2451.117385
367.935336	2449.111006
368.322893	2453.884978
368.710388	2453.070832
369.097820	2454.144598
369.485189	2455.641820
369.872495	2457.244907
370.259738	2454.651234
370.646918	2459.218519
371.034035	2456.967644
371.421090	2457.098714
371.808081	2456.728189
372.195010	2458.535443
372.581875	2457.648200
372.968678	2460.410752
373.355418	2459.319342
373.742096	2462.654065
374.128710	2463.044755
374.515262	2462.253294
374.901751	2461.567697
375.288177	2464.284879
375.674540	2462.349076
376.060841	2464.310084
376.447079	2465.187245
376.833254	2465.668675
377.219367	2462.732203
377.605417	2467.969962
377.991404	2464.128603
378.377329	2465.487194
378.763191	2465.479632
379.148991	2468.675724
379.534727	2471.208903
379.920402	2470.309058
380.306013	2471.430714
380.691563	2474.576394
381.077049	2474.742752
381.462474	2477.154944
381.847835	2473.842906
382.233134	2476.149234
382.618371	2480.411530
383.003545	2479.531848
383.388657	2478.364821
383.773706	2481.573516
384.158693	2480.968577
384.543618	2484.608290
384.928480	2483.010245
385.313280	2485.402272
385.698017	2485.016624
386.082692	2487.154073
386.467305	2485.382108
386.851856	2488.961327
387.236344	2490.340082
387.620770	2491.212202
388.005133	2491.005515
388.389435	2494.493993
388.773674	2493.906699
389.157851	2496.036586
389.541965	2498.771412
389.926018	2500.293841
390.310008	2501.720487
390.693936	2503.900786
391.077802	2503.058913
391.461606	2505.516476
391.845348	2507.719460
392.229027	2509.221724
392.612645	2513.599966
392.996200	2516.208763
393.379694	2523.052130
393.763125	2522.706811
394.146494	2526.999353
394.529801	2533.159643
394.913047	2539.370345
395.296230	2544.298072
395.679351	2553.334341
396.062410	2562.486556
396.445408	2569.246743
396.828343	2581.494226
397.211217	2593.595516
397.594028	2607.940119
397.976778	2622.763632
398.359466	2647.982004
398.742092	2665.220230
399.124656	2694.277441
399.507158	2724.373129
399.889598	2757.233890
400.271977	2794.631690
400.654294	2833.050324
401.036549	2879.373486
401.418742	2925.003490
401.800874	2993.837926
402.182944	3049.915721
402.564952	3133.714821
402.946898	3177.968590
403.328783	3245.628437
403.710606	3332.306036
404.092367	3429.098710
404.474067	3550.376269
404.855705	3600.195472
405.237282	3675.570804
405.618797	3824.743588
406.000250	3957.641006
406.381642	4118.705871
406.762972	4208.695509
407.144240	4269.718676
407.525447	4433.231022
407.906593	4521.403323
408.287677	4690.211401
408.668700	4848.425493
409.049661	4960.954130
409.430560	5129.300942
409.811399	5242.500051
410.192176	5411.189662
410.572891	5561.405964
410.953545	5857.641808
411.334138	5815.331404
411.714669	6156.186501
412.095139	6049.409821
412.475547	6368.640888
412.855894	6445.553773
413.236180	6717.521502
413.616405	6729.804273
413.996568	6985.171483
414.376670	7114.441791
414.756711	7194.858277
415.136691	7470.543858
415.516609	7704.768468
415.896466	7889.302426
416.276262	8185.623969
416.655997	8562.949293
417.035670	8741.799350
417.415283	9250.519828
417.794834	9458.782497
418.174324	9459.117733
418.553753	9544.875322
418.933121	9995.209157
419.312428	10041.439058
419.691674	10120.058373
420.070859	10563.596732
420.449983	10479.396860
420.829045	10995.868113
421.208047	10957.704058
421.586988	11411.833881
421.965867	11731.672408
422.344686	11866.747604
422.723444	12426.711412
423.102141	11569.274157
423.480777	12592.474633
423.859352	12335.731188
424.237866	13342.638654
424.616319	13234.826017
424.994712	13871.223800
425.373044	13824.494824
425.751314	14490.385877
426.129524	13886.271644
426.507673	14884.523449
426.885762	14758.272792
427.263789	15013.072872
427.641756	15259.726448
428.019662	15405.446041
428.397508	15530.446491
428.775292	15864.367481
429.153016	15925.171358
429.530679	16059.508026
429.908282	16164.646330
430.285824	15998.084087
430.663305	16672.010739
431.040726	16395.387504
431.418086	16301.919470
431.795385	16923.871826
432.172624	17377.605919
432.549802	17022.350766
432.926920	17249.439624
433.303977	17179.483532
433.680974	17467.121688
434.057910	17776.797248
434.434786	17838.627000
434.811601	17797.344991
435.188355	18814.342327
435.565050	18524.034880
435.941683	18506.282457
436.318257	19363.434886
436.694770	19216.475169
437.071222	19792.840371
437.447614	18926.248381
437.823946	18963.094174
438.200218	19136.908118
438.576429	18931.718032
438.952580	19229.892200
439.328670	19202.120484
439.704700	19604.114694
440.080670	19199.496563
440.456580	19776.295304
440.832429	19955.478076
441.208218	19007.867182
441.583947	19422.587785
441.959616	19540.036588
442.335224	19769.139386
442.710773	19897.164529
443.086261	20419.337327
443.461689	19803.613317
443.837057	19936.334294
444.212365	20557.820343
444.587612	20558.742875
444.962800	20158.729838
445.337927	20574.456151
445.712995	19350.970633
446.088002	21140.852471
446.462949	21318.023823
446.837837	21486.219400
447.212664	21454.737395
447.587431	24184.819630
447.962139	27025.940841
448.336786	29351.183135
448.711374	27838.484101
449.085901	24293.375837
449.460369	24219.623757
449.834776	24123.715805
450.209124	26542.234568
450.583412	26111.268846
450.957640	26634.026418
451.331808	25329.022922
451.705917	24000.855324
452.079965	24015.265462
452.453954	24362.573236
452.827883	24254.367389
453.201752	24078.526902
453.575562	24221.438572
453.949311	25296.835154
454.323001	25374.753749
454.696632	25138.880681
455.070202	26640.837017
455.443713	26788.255479
455.817164	27343.160488
456.190556	27875.435758
456.563888	27336.445671
456.937160	27755.053004
457.310373	26143.249926
457.683526	26554.759315
458.056619	26531.514554
458.429653	26470.932488
458.802628	27029.877983
459.175542	27148.375345
459.548398	28427.588298
459.921194	29968.243051
460.293930	30650.817802
460.666607	32630.834319
461.039224	34363.526787
461.411782	34728.110595
461.784280	33506.601209
462.156719	33007.562267
462.529099	32443.212655
462.901419	31166.174960
463.273680	30144.900205
463.645882	30237.584339
464.018024	30225.936753
464.390106	31037.189477
464.762130	33699.594223
465.134094	37717.706390
465.505999	42961.479332
465.877845	47484.246287
466.249631	48594.943550
466.621358	46785.560008
466.993026	44627.247962
467.364634	42554.532188
467.736184	40619.109718
468.107674	39392.692769
468.479105	38636.068509
468.850477	37958.076167
469.221790	36562.437766
469.593043	34887.771499
469.964238	34016.443345
470.335373	33931.094090
470.706449	35566.000776
471.077467	38055.030158
471.448425	42577.713934
471.819324	45418.716678
472.190164	43633.387002
472.560945	40114.795208
472.931667	37059.636687
473.302330	35977.313559
473.672934	35169.574520
474.043479	35668.144635
474.413965	34905.896968
474.784393	34545.199889
475.154761	35416.177683
475.525070	35453.139423
475.895321	34992.720760
476.265513	35589.424497
476.635645	36521.763216
477.005719	36347.157811
477.375734	36806.825342
477.745691	37483.562437
478.115588	38770.717728
478.485427	40716.015819
478.855207	44010.203170
479.224928	46619.665717
479.594591	48233.500381
479.964194	47192.532358
480.333739	47290.315619
480.703226	47305.786921
481.072653	47951.772977
481.442022	48446.045509
481.811333	48712.896467
482.180584	47426.673790
482.549777	46914.036335
482.918912	46401.968530
483.287988	46106.670340
483.657005	45286.232634
484.025964	44661.187531
484.394864	44652.864586
484.763706	44217.775200
485.132489	43352.728323
485.501213	43210.086355
485.869879	43354.333931
486.238487	42945.902167
486.607036	43159.019466
486.975527	42634.893222
487.343959	42835.155579
487.712333	42925.152778
488.080648	42819.626304
488.448905	43254.259465
488.817104	43079.734719
489.185244	44008.988252
489.553326	45660.533266
489.921350	48379.426661
490.289315	51336.688495
490.657222	51959.185295
491.025070	52246.510900
491.392861	51331.763288
491.760593	50021.464059
492.128267	48335.198098
492.495883	46782.787374
492.863440	45423.699858
493.230939	44074.049383
493.598380	43016.740461
493.965763	42688.926829
494.333088	41900.558423
494.700354	41449.541512
495.067563	41174.856601
495.434713	41063.421895
495.801805	41130.761628
496.168839	40760.814032
496.535815	40433.307911
496.902733	40464.111882
497.269593	40070.233929
497.636395	40012.111945
498.003139	40383.224047
498.369825	39873.938960
498.736453	40173.315442
499.103023	39721.519673
499.469535	39589.910270
499.835989	39697.516219
500.202385	39351.335143
500.568723	39389.262264
500.935003	39579.923744
501.301226	39386.310669
501.667390	39997.742136
502.033497	40238.976471
502.399546	39682.831338
502.765537	39013.635809
503.131470	39371.446827
503.497345	39722.777441
503.863163	38418.157073
504.228923	39027.809013
504.594625	39435.550139
504.960269	38723.827436
505.325856	39387.757480
505.691385	38779.885067
506.056856	38912.664018
506.422270	39340.048000
506.787625	38916.707023
507.152924	39099.161504
507.518164	39204.312412
507.883347	38449.823080
508.248472	38675.160137
508.613540	39135.848502
508.978550	39425.636710
509.343503	39196.231442
509.708398	39377.211386
510.073236	39908.332232
510.438016	39903.686808
510.802738	39366.483811
511.167403	39963.507661
511.532010	40206.503879
511.896561	40502.008756
512.261053	41296.262709
512.625488	40859.955884
512.989866	40728.071738
513.354186	40581.696795
513.718449	40574.515671
514.082655	41230.931875
514.446803	40905.152349
514.810894	41432.083996
515.174927	41347.564011
515.538904	41253.412901
515.902822	41882.458160
516.266684	41362.052287
516.630488	41758.564243
516.994235	41634.982877
517.357925	42175.419775
517.721558	42345.760363
518.085133	42636.496308
518.448651	42771.705096
518.812112	42565.300093
519.175516	42649.633555
519.538863	42989.447654
519.902152	42947.429637
520.265385	43401.592228
520.628560	43442.050008
520.991678	43229.484715
521.354739	43473.239627
521.717743	43772.419505
522.080690	43660.722659
522.443580	44221.641765
522.806413	44269.741934
523.169189	44199.687540
523.531908	44390.437240
523.894569	44245.246968
524.257174	44416.961271
524.619722	44716.332712
524.982213	44687.076376
525.344647	44626.156553
525.707025	44660.083518
526.069345	45044.093412
526.431608	44974.671683
526.793815	45295.652030
527.155964	44848.050501
527.518057	44994.102810
527.880093	44806.576928
528.242072	45306.634184
528.603995	45008.210479
528.965860	45020.435277
529.327669	45098.921001
529.689421	45015.978897
530.051117	44964.417976
530.412755	45130.468542
530.774337	45177.850347
531.135862	44997.616494
531.497331	45208.485439
531.858743	45117.217869
532.220098	45438.651921
532.581396	45160.344940
532.942638	44822.398589
533.303824	45122.241379
533.664953	45100.466115
534.026025	44816.676880
534.387040	45285.279856
534.747999	45236.693215
535.108902	45401.964924
535.469748	44932.557883
535.830537	45049.613476
536.191270	45244.456592
536.551947	44892.500875
536.912567	45215.134721
537.273131	45317.243292
537.633638	44818.489175
537.994089	45176.038052
538.354483	44783.538855
538.714821	45336.750037
539.075103	45682.525300
539.435328	45449.611389
539.795497	45329.866341
540.155609	45333.664851
540.515665	45779.738911
540.875665	45252.837511
541.235609	45580.492346
541.595496	45539.984154
541.955328	46207.226236
542.315102	45597.047495
542.674821	45389.460342
543.034483	45406.045738
543.394090	45379.763682
543.753640	45351.513056
544.113134	46342.573655
544.472571	45381.505401
544.831953	46612.056096
545.191278	45834.032138
545.550548	45548.259208
545.909761	46006.288364
546.268918	46215.728142
546.628019	46516.647218
546.987064	46093.026457
547.346053	45388.270629
547.704986	46236.437202
548.063863	45798.739019
548.422684	46010.991761
548.781449	45862.134050
549.140158	46244.871053
549.498811	46115.988913
549.857408	45548.511266
550.215949	46383.802732
550.574434	46319.054152
550.932864	46084.650580
551.291237	46803.776218
551.649555	46399.820998
552.007817	46642.653379
552.366022	46304.664178
552.724173	46480.252608
553.082267	46866.765435
553.440305	47170.436981
553.798288	46500.744898
554.156215	46806.322000
554.514086	47011.706170
554.871902	46754.272087
555.229661	46770.199613
555.587365	46617.452651
555.945014	46704.304170
556.302606	46629.763149
556.660143	46848.584514
557.017625	46947.454143
557.375050	46734.551093
557.732421	47072.376456
558.089735	47056.698468
558.446994	46990.346801
558.804197	47447.115669
559.161345	47383.211482
559.518437	46651.258629
559.875474	46949.659648
560.232455	47101.368132
560.589381	47298.288204
560.946251	46992.212028
561.303065	47659.093667
561.659825	47456.666135
562.016528	47148.076943
562.373177	46877.361940
562.729770	47364.430663
563.086307	46864.544807
563.442789	47322.768047
563.799216	47362.497381
564.155587	47173.343206
564.511904	47190.286524
564.868164	47279.767005
565.224370	47525.470323
565.580520	47273.853732
565.936615	47472.608784
566.292654	47191.503963
566.648638	47429.096064
567.004567	47379.796100
567.360441	47426.328471
567.716260	47288.669683
568.072023	47567.135459
568.427732	47559.246054
568.783385	47124.388561
569.138982	47520.671144
569.494525	47476.321593
569.850013	47243.881551
570.205445	47212.190338
570.560823	47171.389759
570.916145	47054.878611
571.271412	47068.033502
571.626625	46845.025459
571.981782	46885.904176
572.336884	46576.117710
572.691931	46897.637461
573.046923	46498.889754
573.401860	46350.642022
573.756743	46340.652976
574.111570	46460.387941
574.466342	46305.281720
574.821059	46423.355625
575.175722	45945.371061
575.530330	45964.736654
575.884882	45689.671135
576.239380	45653.856258
576.593823	45618.696730
576.948211	45556.902267
577.302544	45075.464512
577.656823	45117.865658
578.011047	45330.088152
578.365216	45047.959977
578.719330	44865.366864
579.073389	44719.657353
579.427394	44808.437114
579.781344	44757.032468
580.135239	44422.723310
580.489080	44517.958267
580.842866	43996.927291
581.196597	44450.610973
581.550273	44403.544240
581.903895	44261.116520
582.257463	44682.609914
582.610975	44068.977983
582.964434	44364.520668
583.317837	44011.702913
583.671186	43854.489489
584.024481	44076.829580
584.377721	43618.109785
584.730906	43884.449067
585.084037	43910.234568
585.437113	43631.637722
585.790135	43666.824976
586.143103	43281.602684
586.496016	43399.608534
586.848874	43425.066361
587.201679	43436.630767
587.554428	42938.819346
587.907124	43131.930826
588.259765	42876.896332
588.612352	43120.013538
588.964884	42532.215000
589.317362	42808.112309
589.669786	42758.388888
590.022155	42537.780434
590.374470	42946.129019
590.726731	42471.882471
591.078937	42003.518949
591.431090	42083.010384
591.783188	41740.121181
592.135232	41438.037599
592.487222	41670.218022
592.839157	41771.640996
593.191038	41444.744854
593.542866	41203.787782
593.894639	40618.653494
594.246358	40893.547613
594.598022	40872.420137
594.949633	40483.860602
595.301190	40440.904930
595.652692	40275.444178
596.004141	40597.485689
596.355535	39629.170776
596.706876	39585.650495
597.058162	39423.292573
597.409395	39868.194565
597.760573	39953.876536
598.111698	39534.881034
598.462768	39550.546420
598.813785	39599.916960
599.164748	39058.761698
599.515657	39442.131365
599.866511	38903.234540
600.217312	39515.333960
600.568060	38508.958336
600.918753	39242.799101
601.269392	39200.201351
601.619978	38852.530614
601.970510	39065.194210
602.320988	39239.275334
602.671412	39543.156088
603.021783	39284.504567
603.372100	38940.849109
603.722363	39048.477744
604.072572	39120.712437
604.422728	39132.599478
604.772830	38958.266296
605.122878	39042.811487
605.472872	38990.476748
605.822813	39260.080176
606.172701	39090.306718
606.522534	39323.490330
606.872314	39586.056307
607.222041	39335.090025
607.571714	39731.279347
607.921333	39179.152013
608.270899	39486.097788
608.620411	39809.762551
608.969870	39603.934760
609.319276	39611.826686
609.668627	39656.105661
610.017926	40136.053754
610.367171	40268.764649
610.716362	40367.175534
611.065500	40324.149286
611.414585	40509.109221
611.763616	40790.370317
612.112594	40717.848278
612.461518	40949.811931
612.810389	41217.124155
613.159207	41087.488363
613.507971	41182.728362
613.856682	41638.778866
614.205340	41520.798222
614.553945	42216.008625
614.902496	41683.481297
615.250994	42136.590287
615.599439	42207.204250
615.947830	42413.833584
616.296169	42474.324910
616.644454	42590.031993
616.992686	42758.761933
617.340864	43281.443887
617.688990	42979.370387
618.037063	43592.213378
618.385082	43555.231473
618.733048	43865.927867
619.080961	43872.599834
619.428821	43878.586205
619.776628	43987.717103
620.124382	43803.417560
620.472083	43923.296198
620.819731	44053.420982
621.167326	43720.959406
621.514868	43702.334863
621.862357	43253.742747
622.209793	43258.221812
622.557176	42950.809730
622.904506	42689.418342
623.251783	42347.282792
623.599007	42122.102011
623.946179	41894.849316
624.293297	41863.705068
624.640363	41271.384614
624.987376	41254.307706
625.334336	41006.010714
625.681243	40678.353358
626.028097	40620.324636
626.374899	40492.866623
626.721647	40453.946395
627.068343	40341.964724
627.414987	40118.172781
627.761577	39887.900435
628.108115	40223.149769
628.454600	39682.836379
628.801032	39864.270027
629.147412	39828.571096
629.493739	39828.215694
629.840014	39492.817647
630.186236	39810.551491
630.532405	39439.409142
630.878521	39646.852623
631.224585	39521.181699
631.570597	39242.920089
631.916556	39401.456815
632.262462	39344.993372
632.608316	39365.389880
632.954117	39266.321125
633.299866	39251.401830
633.645562	39164.852780
633.991206	38669.032614
634.336797	38238.392047
634.682336	38237.275431
635.027823	37984.857297
635.373257	37798.591703
635.718639	37561.259221
636.063968	37424.303674
636.409245	36873.976032
636.754470	36903.401247
637.099642	36671.150248
637.444762	36195.615685
637.789829	36335.051480
638.134845	35991.138924
638.479808	35936.346623
638.824719	35840.715934
639.169577	35457.026153
639.514383	35521.963776
639.859137	35217.934308
640.203839	35452.307633
640.548489	35090.632571
640.893086	35155.290410
641.237632	34926.273312
641.582125	35015.589955
641.926566	34969.087831
642.270955	34923.969504
642.615292	34938.745126
642.959576	34918.404070
643.303809	34914.323256
643.647990	35052.793670
643.992118	35008.960837
644.336195	35023.529772
644.680219	35113.244667
645.024192	35410.735758
645.368112	35931.368483
645.711981	35930.763545
646.055797	36803.208314
646.399562	36727.401963
646.743274	37673.135028
647.086935	38101.151675
647.430544	37994.740479
647.774101	38106.243240
648.117606	38351.187864
648.461059	38651.779265
648.804460	38250.435363
649.147810	37642.341140
649.491108	37390.608602
649.834354	37025.193003
650.177548	36224.156178
650.520690	35764.299603
650.863781	35778.850894
651.206820	35621.647553
651.549807	35206.901743
651.892742	34716.042073
652.235626	34521.219121
652.578458	34380.906165
652.921238	33792.797596
653.263967	34115.907831
653.606644	33793.566372
653.949269	33750.993827
654.291843	33361.284909
654.634365	33747.270935
654.976836	33359.364229
655.319255	33361.244579
655.661622	33350.161603
656.003938	33126.112561
656.346203	32991.070132
656.688416	33204.678944
657.030577	33009.893800
657.372687	32846.620910
657.714746	33119.455717
658.056753	33226.429002
658.398708	32686.324820
658.740612	32751.035592
659.082465	33012.295910
659.424266	32839.202852
659.766016	32940.552729
660.107715	32831.772191
660.449362	32953.420274
660.790958	32938.296813
661.132503	32956.150059
661.473996	32999.970289
661.815438	33111.082361
662.156829	33290.834784
662.498168	33064.542429
662.839456	33100.090125
663.180693	33241.260077
663.521879	33405.435334
663.863013	33338.685416
664.204097	33344.202959
664.545129	33809.546829
664.886110	33763.006897
665.227040	33831.770756
665.567918	33950.620999
665.908746	34022.956516
666.249522	34181.384857
666.590248	34180.207748
666.930922	34292.312927
667.271545	34253.107874
667.612118	34339.714897
667.952639	34122.773882
668.293109	34162.803164
668.633528	34068.553752
668.973896	33986.254395
669.314213	34009.363044
669.654480	33758.865589
669.994695	33781.523055
670.334859	33674.249822
670.674973	33567.147988
671.015035	33733.606888
671.355047	33686.998900
671.695008	33618.056080
672.034918	33512.670759
672.374777	33608.261118
672.714585	33446.152734
673.054342	33677.163609
673.394049	33442.760037
673.733705	33697.885272
674.073310	33382.114956
674.412864	33451.168682
674.752368	33037.783984
675.091820	33338.299768
675.431223	32926.674433
675.770574	32654.641168
676.109875	32517.214273
676.449125	32238.325040
676.788324	32161.792762
677.127473	31624.236884
677.466571	31554.653837
677.805619	31215.220346
678.144616	31203.792050
678.483562	31131.282614
678.822458	30808.946196
679.161303	30738.407851
679.500098	30650.142288
679.838842	30536.270184
680.177535	30691.300788
680.516179	30948.465170
680.854771	31198.531606
681.193314	32066.923288
681.531805	33176.962680
681.870247	33970.677230
682.208638	34692.961150
682.546978	34915.775109
682.885268	34989.985934
683.223508	34477.146833
683.561697	34133.675378
683.899836	33936.689770
684.237925	33432.110600
684.575963	33285.037457
684.913951	32834.224712
685.251889	32989.940913
685.589776	32970.721514
685.927614	32973.476505
686.265401	33111.127731
686.603137	33222.136460
686.940824	33720.094075
687.278460	34099.720686
687.616046	34249.213582
687.953582	34845.622412
688.291068	34721.436107
688.628504	34995.677397
688.965889	34921.121252
689.303224	34531.581212
689.640510	34190.295097
689.977745	33455.982984
690.314930	32656.037568
690.652065	32123.999232
690.989150	31381.979195
691.326185	30504.578971
691.663170	29800.438163
692.000105	29048.832372
692.336990	28361.828967
692.673825	27914.098888
693.010610	27406.777329
693.347345	26831.495976
693.684030	26189.941093
694.020665	25905.882156
694.357251	25253.491314
694.693786	25204.430804
695.030272	24967.229392
695.366707	24435.823722
695.703093	24147.802438
696.039429	24133.742660
696.375716	23883.966089
696.711952	23846.079298
697.048139	23687.925699
697.384276	23509.615046
697.720363	23638.048523
698.056400	23428.603704
698.392388	23229.916707
698.728326	23179.926105
699.064214	22978.468994
699.400053	22920.195777
699.735842	22559.881826
700.071581	22293.318213
700.407270	22003.900530
700.742910	21809.548926
701.078501	21545.616796
701.414042	21261.981316
701.749533	20961.049637
702.084974	20627.458843
702.420366	20831.111376
702.755709	20390.038141
703.091002	20085.930535
703.426246	20109.487847
703.761440	20007.722074
704.096584	19743.825232
704.431679	19706.195539
704.766725	19621.002560
705.101721	19554.996212
705.436668	19638.626433
705.771565	19317.625921
706.106413	19667.318161
706.441212	19649.061622
706.775961	19778.601632
707.110661	19851.698363
707.445311	20199.336332
707.779913	20044.852693
708.114465	20284.874630
708.448967	20573.314330
708.783421	21264.355699
709.117825	21533.356709
709.452180	21744.359245
709.786485	22151.462665
710.120742	22960.832518
710.454949	22963.390903
710.789107	23443.404531
711.123216	24134.282063
711.457275	24271.192240
711.791286	24806.449352
712.125247	24863.820204
712.459159	24561.834924
712.793023	25213.509923
713.126837	24109.131747
713.460602	24365.550037
713.794318	23997.092102
714.127985	23596.030505
714.461602	22718.166495
714.795171	22667.283609
715.128691	21656.481851
715.462162	21112.221238
715.795584	20693.558452
716.128957	20443.907911
716.462281	20036.625530
716.795556	19796.001174
717.128782	19306.681576
717.461960	18773.748436
717.795088	18684.215023
718.128167	18287.506462
718.461198	17834.014344
718.794180	17680.823761
719.127113	17331.237386
719.459997	17138.236811
719.792833	16792.017927
720.125619	16764.339471
720.458357	16455.740197
720.791046	16282.082530
721.123686	16135.016949
721.456278	15895.647841
721.788821	15849.301993
722.121315	15592.175420
722.453761	15666.363561
722.786158	15593.806233
723.118506	15600.332007
723.450805	15470.383664
723.783056	15621.557785
724.115259	15527.620925
724.447412	15463.394104
724.779518	15710.032556
725.111574	15719.966150
725.443582	15927.530618
725.775542	15905.165539
726.107453	16367.023452
726.439315	16258.121926
726.771129	16666.132753
727.102895	17030.615738
727.434612	17231.727530
727.766281	17363.165534
728.097901	17607.507740
728.429473	17650.007188
728.760996	17622.104401
729.092471	17708.240076
729.423897	17583.221982
729.755276	17447.088143
730.086606	17565.623313
730.417887	18084.801666
730.749120	18598.782588
731.080305	18777.955278
731.411442	19112.246793
731.742530	19179.969654
732.073570	19277.052194
732.404562	19559.208096
732.735506	19372.380414
733.066401	19086.710828
733.397249	18568.465089
733.728048	17929.309796
734.058798	17104.947552
734.389501	16425.848676
734.720156	15977.153216
735.050762	15447.353153
735.381320	15101.570328
735.711831	14868.217837
736.042293	14518.891081
736.372707	14524.663202
736.703073	14319.054702
737.033391	14513.040822
737.363661	14468.567763
737.693883	14582.681842
738.024056	14757.209109
738.354182	14934.372899
738.684260	15226.202774
739.014290	15448.215190
739.344272	15639.864736
739.674207	15913.876653
740.004093	16025.112233
740.333931	16014.109915
740.663722	16049.390430
740.993464	16033.939293
741.323159	15856.909094
741.652806	15595.525267
741.982405	15380.192380
742.311956	15043.208890
742.641460	14919.554427
742.970915	14619.328510
743.300323	14280.104226
743.629683	14069.217637
743.958996	13802.079333
744.288260	13532.612016
744.617477	13237.815422
744.946647	13159.579235
745.275768	12888.960014
745.604842	12708.847149
745.933869	12537.049667
746.262847	12488.238695
746.591778	12414.645410
746.920662	12318.533292
747.249498	12312.168835
747.578286	12432.942278
747.907027	12580.645565
748.235720	12797.977269
748.564365	12820.090291
748.892963	12724.633522
749.221514	12787.879838
749.550017	12643.569248
749.878473	12600.240530
750.206881	12386.057027
750.535242	12288.145216
750.863555	12207.597660
751.191821	12114.797579
751.520039	12131.980352
751.848210	12039.132381
752.176334	12069.712020
752.504411	11982.512661
752.832440	11827.776965
753.160421	11884.522713
753.488356	11762.196594
753.816243	11668.547079
754.144082	11532.957685
754.471875	11480.882566
754.799620	11419.864439
755.127318	11391.296221
755.454969	11357.056704
755.782572	11312.462657
756.110129	11326.477064
756.437638	11245.523695
756.765100	11233.591284
757.092515	11235.937941
757.419882	11253.405539
757.747203	11260.322002
758.074477	11329.411016
758.401703	11289.815273
758.728882	11452.775612
759.056014	11494.556695
759.383099	11603.785896
759.710138	11700.354239
760.037129	11792.635081
760.364073	11811.511682
760.690970	11799.120526
761.017820	11789.741459
761.344623	11980.105510
761.671379	12296.848768
761.998088	12924.956373
762.324751	14472.825017
762.651366	17336.926328
762.977935	20981.423460
763.304456	23180.591537
763.630931	23646.426920
763.957359	22468.546201
764.283740	20559.010056
764.610074	18692.106949
764.936362	16570.789411
765.262602	15065.659668
765.588796	13595.550822
765.914943	12578.629104
766.241044	11740.653223
766.567097	11099.272261
766.893104	10562.238141
767.219064	10199.292708
767.544978	9825.561727
767.870845	9510.051031
768.196665	9333.252725
768.522438	9137.497159
768.848165	8976.656625
769.173846	8806.056417
769.499479	8688.670629
769.825066	8528.621556
770.150607	8343.202877
770.476101	8284.027292
770.801548	8172.327926
771.126949	8036.917492
771.452303	7949.309800
771.777611	7786.777959
772.102872	7766.376410
772.428087	7644.511557
772.753256	7522.228288
773.078378	7432.218486
773.403453	7289.853781
773.728482	7190.399377
774.053465	7125.055941
774.378401	7044.304218
774.703291	6948.426513
775.028135	6846.610329
775.352932	6816.870042
775.677683	6734.217804
776.002388	6649.276882
776.327046	6648.901316
776.651658	6561.417132
776.976224	6485.638507
777.300743	6471.545962
777.625216	6405.068266
777.949643	6365.903542
778.274024	6366.866402
778.598359	6299.491381
778.922647	6299.957688
779.246889	6262.970742
779.571086	6268.841166
779.895236	6283.218537
780.219339	6277.426251
780.543397	6276.647392
780.867409	6325.871739
781.191374	6320.618857
781.515294	6290.568539
781.839167	6341.890006
782.162995	6310.322300
782.486776	6265.254385
782.810511	6218.646397
783.134201	6146.510006
783.457844	6135.968953
783.781441	6083.598927
784.104993	6047.345469
784.428498	6013.640314
784.751958	5995.683724
785.075372	5976.401311
785.398739	5936.009065
785.722061	5962.797757
786.045337	5959.044618
786.368568	6067.999076
786.691752	6089.970945
787.014891	6339.692062
787.337983	6614.127437
787.661030	7056.881897
787.984031	7474.680125
788.306987	7745.410251
788.629897	7832.448292
788.952760	7741.223572
789.275579	7556.142650
789.598351	7264.038032
789.921078	7002.966756
790.243759	6723.281020
790.566395	6521.755854
790.888984	6325.836451
791.211529	6188.071799
791.534027	6024.219175
791.856480	5888.387806
792.178888	5832.594835
792.501249	5761.955667
792.823566	5659.025388
793.145836	5656.184698
793.468062	5634.883302
793.790241	5596.058856
794.112375	5640.113499
794.434464	5732.653960
794.756507	5767.969764
795.078505	5888.917127
795.400457	6100.746411
795.722364	6340.334810
796.044226	6533.161465
796.366042	6691.998140
796.687812	6638.856817
797.009538	6669.360839
797.331218	6570.072793
797.652852	6506.120716
797.974442	6384.638990
798.295986	6311.428833
798.617484	6187.245050
798.938938	6083.097332
799.260346	6014.404049
799.581709	5868.036668
799.903026	5821.549667
800.224299	5750.918061
800.545526	5635.354650
800.866708	5572.892233
801.187845	5522.281569
801.508936	5446.732317
801.829983	5415.945991
802.150984	5312.930012
802.471940	5284.558398
802.792851	5263.456128
803.113717	5244.226647
803.434538	5219.953491
803.755314	5185.638357
804.076045	5175.125030
804.396731	5140.943487
804.717372	5157.400333
805.037967	5155.766999
805.358518	5190.450138
805.679024	5247.107666
805.999485	5259.899594
806.319901	5274.604640
806.640272	5294.222290
806.960598	5345.052244
807.280879	5333.969267
807.601115	5374.739599
807.921306	5335.085883
808.241453	5327.723278
808.561554	5338.357592
808.881611	5307.634280
809.201623	5302.560358
809.521590	5249.655969
809.841513	5232.107713
810.161390	5251.947174
810.481223	5164.508360
810.801011	5145.110000
811.120755	5128.237258
811.440453	5072.323300
811.760107	5046.908323
812.079716	5022.153737
812.399281	4964.798009
812.718801	4957.778203
813.038276	4923.505918
813.357707	4887.708685
813.677093	4910.330863
813.996434	4853.635526
814.315731	4870.112537
814.634983	4873.323752
814.954191	4875.350296
815.273354	4934.876241
815.592473	4974.938290
815.911547	5048.340011
816.230577	5099.648875
816.549562	5188.741187
816.868502	5244.740844
817.187399	5296.962157
817.506250	5376.756061
817.825058	5405.601543
818.143821	5554.116456
818.462539	5723.597528
818.781213	5954.086643
819.099843	6318.604916
819.418429	6944.781759
819.736970	7565.090698
820.055466	8273.816435
820.373919	9195.941776
820.692327	10648.847685
821.010691	13338.943488
821.329011	19594.493652
821.647286	29238.974612
821.965517	39645.728446
822.283704	45157.723540
822.601847	46641.466187
822.919945	41988.382885
823.237999	36835.169230
823.556010	31587.862438
823.873976	26869.654990
824.191897	22638.987612
824.509775	19546.060767
824.827609	16773.584948
825.145398	15212.508480
825.463144	14455.448160
825.780845	14742.988014
826.098502	16010.369379
826.416116	18482.160535
826.733685	20775.565422
827.051210	21301.198972
827.368692	19876.561333
827.686129	17291.301365
828.003522	14816.518284
828.320872	12584.512130
828.638177	10933.022568
828.955439	9678.362555
829.272656	8624.000187
829.589830	7778.394520
829.906960	7042.713734
830.224046	6511.691191
830.541088	6104.013079
830.858086	5844.572617
831.175041	5640.395804
831.491952	5589.281024
831.808819	5618.441579
832.125642	5861.100040
832.442421	6411.278968
832.759157	7521.346086
833.075849	9299.141757
833.392497	11162.702579
833.709101	12281.788321
834.025662	12021.011953
834.342179	10959.506270
834.658653	9654.515377
834.975083	8544.148310
835.291469	7643.583984
835.607811	6897.404995
835.924110	6382.115893
836.240366	5893.965842
836.556578	5436.420637
836.872746	5082.030042
837.188871	4811.680523
837.504952	4587.714661
837.820990	4418.813322
838.136984	4309.619409
838.452935	4258.786934
838.768842	4290.268940
839.084706	4573.654883
839.400526	5313.282893
839.716303	6221.746707
840.032037	6786.340814
840.347727	6642.017620
840.663373	6039.675353
840.978977	5458.334533
841.294537	5012.930946
841.610054	4685.666800
841.925527	4443.943473
842.240957	4240.454778
842.556344	4055.429308
842.871687	3895.226480
843.186987	3748.864140
843.502244	3624.597177
843.817458	3538.953014
844.132629	3472.755103
844.447756	3422.799789
844.762840	3376.088457
845.077881	3336.868280
845.392879	3304.609937
845.707833	3280.097326
846.022745	3250.551123
846.337613	3237.955801
846.652438	3216.175495
846.967221	3205.793239
847.281960	3187.221628
847.596656	3179.123015
847.911309	3166.625994
848.225919	3150.753921
848.540485	3141.460554
848.855009	3134.327322
849.169490	3124.360960
849.483928	3118.430043
849.798323	3113.156996
850.112675	3099.873556
850.426984	3104.024946
850.741251	3095.853235
851.055474	3090.348295
851.369654	3092.284098
851.683792	3090.267637
851.997887	3091.701845
852.311938	3095.046651
852.625947	3095.482711
852.939914	3088.435177
853.253837	3093.241918
853.567718	3089.319900
853.881555	3084.109868
854.195350	3088.624221
854.509103	3089.229159
854.822812	3085.506267
855.136479	3078.521748
855.450103	3083.693972
855.763685	3077.286666
856.077224	3079.300607
856.390720	3088.309149
856.704173	3097.564707
857.017584	3103.019236
857.330953	3107.294134
857.644278	3117.094137
857.957561	3119.251751
858.270802	3120.953140
858.584000	3116.552213
858.897155	3110.490226
859.210268	3103.409925
859.523339	3086.706062
859.836367	3086.527101
860.149352	3080.538210
860.462295	3079.880339
860.775195	3066.296950
861.088054	3064.189748
861.400869	3066.155798
861.713642	3060.746640
862.026373	3067.965572
862.339062	3075.033270
862.651708	3082.400916
862.964312	3102.686519
863.276873	3108.317488
863.589392	3140.757313
863.901869	3165.869821
864.214303	3186.588963
864.526696	3207.091336
864.839045	3223.066753
865.151353	3232.864235
865.463619	3236.342631
865.775842	3236.708115
866.088023	3240.957808
866.400162	3238.419587
866.712258	3237.371027
867.024313	3236.249370
867.336325	3233.880028
867.648296	3238.976634
867.960224	3234.883217
868.272110	3236.297261
868.583954	3238.285996
868.895755	3245.716657
869.207515	3243.932088
869.519233	3263.398504
869.830909	3267.824637
870.142542	3280.684621
870.454134	3285.713172
870.765684	3299.896458
871.077191	3316.597801
871.388657	3325.833194
871.700081	3348.525948
872.011463	3368.657796
872.322803	3389.140004
872.634101	3400.757343
872.945357	3423.152669
873.256571	3455.690797
873.567744	3467.832416
873.878874	3476.767861
874.189963	3492.513905
874.501010	3492.327383
874.812015	3490.963750
875.122979	3505.086543
875.433900	3501.575379
875.744780	3505.779702
876.055618	3513.258253
876.366415	3513.459899
876.677169	3516.172040
876.987882	3532.908671
877.298554	3555.150242
877.609183	3594.156170
877.919771	3641.482522
878.230317	3711.804098
878.540822	3816.221517
878.851285	3971.179025
879.161707	4195.974157
879.472087	4575.331066
879.782425	5211.186924
880.092722	6409.043216
880.402977	8381.036736
880.713191	10789.836155
881.023363	13221.230026
881.333494	14592.945631
881.643583	15058.632300
881.953631	14652.330423
882.263637	13789.428558
882.573602	12734.206673
882.883526	11751.474060
883.193408	10779.809300
883.503248	9844.342546
883.813048	9005.920523
884.122806	8224.143426
884.432522	7446.648789
884.742197	6775.494771
885.051831	6199.525300
885.361424	5698.089289
885.670975	5296.357218
885.980485	4970.010563
886.289954	4695.983522
886.599382	4474.407166
886.908768	4291.340185
887.218113	4125.798775
887.527417	3988.518073
887.836680	3867.981564
888.145901	3768.532202
888.455082	3690.444729
888.764221	3621.022999
889.073319	3561.789441
889.382376	3526.680325
889.691392	3502.805421
890.000366	3498.706963
890.309300	3489.776559
890.618193	3494.608505
890.927044	3488.778410
891.235855	3495.652023
891.544625	3510.959487
891.853353	3538.305226
892.162041	3601.571707
892.470687	3689.945654
892.779293	3810.429231
893.087858	3989.846417
893.396381	4270.759674
893.704864	4688.439435
894.013306	5268.812354
894.321707	5849.918761
894.630068	6218.290996
894.938387	6259.328508
895.246665	6077.554583
895.554903	5753.153813
895.863100	5408.351492
896.171256	5135.526767
896.479371	4891.318151
896.787446	4666.013862
897.095480	4465.607832
897.403473	4312.530675
897.711425	4167.287471
898.019336	4038.183521
898.327207	3913.742638
898.635038	3811.245898
898.942827	3704.900237
899.250576	3617.244654
899.558284	3532.772560
899.865952	3476.480515
900.173579	3415.384251
900.481165	3362.835264
900.788711	3320.905467
901.096216	3288.901701
901.403681	3262.803648
901.711105	3250.732605
902.018489	3247.508787
902.325832	3278.453910
902.633135	3340.656707
902.940397	3513.399406
903.247619	3926.191768
903.554800	4694.153583
903.861941	5680.992216
904.169041	6399.969139
904.476101	6613.872858
904.783121	6329.561864
905.090100	5924.139669
905.397039	5496.632178
905.703938	5131.660202
906.010796	4801.872958
906.317614	4543.642373
906.624391	4298.879230
906.931129	4104.373871
907.237826	3920.298659
907.544483	3743.157554
907.851099	3566.918815
908.157675	3406.781522
908.464211	3260.300715
908.770707	3157.869510
909.077163	3078.236923
909.383578	3017.599404
909.689954	2971.119966
909.996289	2939.390943
910.302584	2922.087183
910.608839	2907.079668
910.915054	2896.286558
911.221229	2888.760115
911.527363	2893.455950
911.833458	2903.437434
912.139513	2912.597211
912.445527	2928.358378
912.751502	2963.432206
913.057436	3008.439628
913.363331	3066.511199
913.669186	3151.255516
913.975000	3272.218003
914.280775	3463.807055
914.586510	3739.374168
914.892205	4123.447077
915.197859	4633.672340
915.503475	5232.642075
915.809050	5737.959775
916.114585	6035.970105
916.420081	6103.022492
916.725536	6037.323655
917.030952	5794.894566
917.336328	5580.746351
917.641665	5364.511098
917.946961	5131.289677
918.252218	4922.598511
918.557435	4693.125187
918.862612	4487.511646
919.167750	4313.143175
919.472848	4123.961274
919.777906	3950.817804
920.082925	3789.783186
920.387904	3629.756798
920.692843	3515.620034
920.997743	3415.842996
921.302603	3319.451094
921.607423	3254.775610
921.912204	3185.510157
922.216946	3135.655666
922.521647	3087.346288
922.826310	3044.710730
923.130932	3005.853516
923.435516	2964.798359
923.740059	2936.378854
924.044564	2904.291910
924.349028	2878.544217
924.653454	2850.422140
924.957840	2825.486072
925.262186	2801.762402
925.566493	2783.515946
925.870761	2756.729775
926.174989	2744.804926
926.479178	2730.861094
926.783328	2711.810574
927.087438	2702.562577
927.391509	2687.081193
927.695541	2676.698937
927.999533	2664.816937
928.303486	2655.745381
928.607400	2651.977119
928.911275	2646.373876
929.215110	2637.135962
929.518906	2636.765437
929.822663	2635.119500
930.126381	2636.122690
930.430060	2638.628143
930.733699	2641.511683
931.037299	2644.337250
931.340861	2643.697023
931.644383	2647.969401
931.947866	2647.619041
932.251309	2643.676859
932.554714	2642.230048
932.858080	2642.983700
933.161407	2638.388688
933.464694	2632.543471
933.767943	2631.031124
934.071153	2625.627007
934.374323	2623.250103
934.677455	2617.359515
934.980548	2614.579319
935.283602	2613.152672
935.586617	2614.773403
935.889593	2616.784824
936.192530	2615.433794
936.495428	2621.286574
936.798287	2631.603295
937.101108	2646.416726
937.403890	2667.748368
937.706632	2693.516226
938.009336	2728.239694
938.312002	2759.724220
938.614628	2782.913528
938.917216	2802.906744
939.219765	2812.699186
939.522275	2826.325424
939.824747	2821.306956
940.127179	2815.572643
940.429573	2811.254895
940.731929	2808.293217
941.034246	2800.121507
941.336524	2799.075467
941.638763	2791.304529
941.940964	2787.662295
942.243126	2768.919285
942.545250	2756.969230
942.847335	2741.901221
943.149381	2729.789849
943.451389	2715.445246
943.753359	2704.226158
944.055290	2693.808613
944.357182	2685.425174
944.659036	2678.118022
944.960851	2675.995696
945.262628	2671.602331
945.564367	2671.511590
945.866067	2672.666014
946.167729	2669.434634
946.469352	2668.197031
946.770937	2664.234684
947.072484	2660.295022
947.373992	2659.780825
947.675462	2652.932417
947.976893	2649.247334
948.278286	2647.140132
948.579641	2643.578556
948.880958	2639.679224
949.182236	2638.877680
949.483476	2636.601599
949.784678	2634.058337
950.085841	2634.774181
950.386967	2640.125366
950.688054	2645.660553
950.989103	2656.068015
951.290114	2664.900117
951.591087	2672.797084
951.892021	2686.309897
952.192917	2700.851105
952.493776	2711.306458
952.794596	2714.434494
953.095378	2718.369115
953.396122	2714.114381
953.696828	2709.005172
953.997496	2704.526106
954.298126	2697.037472
954.598718	2688.893488
954.899272	2674.763134
955.199788	2666.485559
955.500266	2651.006697
955.800706	2636.866260
956.101108	2619.907818
956.401472	2609.543206
956.701798	2595.710280
957.002087	2580.405337
957.302337	2570.789336
957.602550	2559.585372
957.902724	2546.853938
958.202861	2537.358924
958.502960	2527.069929
958.803022	2519.838394
959.103045	2515.450070
959.403031	2506.219717
959.702979	2503.739469
960.002889	2497.155722
960.302762	2493.768067
960.602596	2488.429485
960.902393	2483.673156
961.202153	2484.439412
961.501875	2479.773824
961.801559	2480.043526
962.101205	2475.138483
962.400814	2472.123873
962.700385	2469.326033
962.999918	2469.384006
963.299414	2468.310240
963.598873	2464.110959
963.898293	2463.155660
964.197677	2465.734210
964.497022	2461.547532
964.796331	2462.021401
965.095601	2458.469908
965.394835	2460.612398
965.694030	2460.017542
965.993189	2458.026286
966.292309	2456.627366
966.591393	2456.166100
966.890439	2456.312294
967.189447	2455.914043
967.488419	2456.430761
967.787353	2457.005452
968.086249	2456.004783
968.385108	2460.138530
968.683930	2458.691718
968.982714	2460.221709
969.281462	2462.074333
969.580172	2464.042903
969.878844	2465.590538
970.177480	2467.324694
970.476078	2471.070272
970.774639	2475.922382
971.073162	2476.459265
971.371649	2474.657053
971.670098	2476.991107
971.968510	2480.532517
972.266885	2480.335913
972.565223	2486.009731
972.863524	2483.400934
973.161788	2487.295225
973.460014	2487.063332
973.758204	2489.616677
974.056356	2489.520895
974.354471	2491.103817
974.652550	2488.555514
974.950591	2488.694146
975.248595	2487.086018
975.546563	2486.697849
975.844493	2485.581233
976.142386	2484.862869
976.440243	2480.545120
976.738062	2481.238279
977.035845	2479.612507
977.333590	2474.886425
977.631299	2475.050263
977.928971	2470.939202
978.226606	2468.098512
978.524204	2468.239664
978.821765	2466.951649
979.119290	2468.627833
979.416777	2466.233285
979.714228	2465.222533
980.011642	2468.345528
980.309020	2470.992134
980.606360	2475.425829
980.903664	2483.138794
981.200931	2498.534478
981.498162	2520.566841
981.795356	2550.778476
982.092513	2586.280802
982.389633	2634.570014
982.686717	2677.805470
982.983764	2709.476519
983.280775	2728.708521
983.577749	2730.130127
983.874686	2721.045967
984.171587	2704.178267
984.468451	2685.762932
984.765279	2669.974038
985.062070	2649.685914
985.358824	2631.683954
985.655543	2604.426435
985.952224	2586.454722
986.248869	2553.515822
986.545478	2527.826102
986.842050	2506.441528
987.138586	2486.720534
987.435086	2475.375417
987.731549	2462.439816
988.027975	2455.689711
988.324366	2451.324072
988.620719	2447.112188
988.917037	2442.088678
989.213318	2440.503235
989.509563	2437.856630
989.805772	2435.774633
990.101944	2434.839499
990.398080	2433.909406
990.694180	2434.660538
990.990244	2438.416198
991.286271	2434.232040
991.582262	2433.906886
991.878217	2437.314706
992.174136	2434.002668
992.470019	2436.878646
992.765865	2438.622885
993.061676	2439.505087
993.357450	2439.212700
993.653188	2450.076387
993.948890	2451.666871
994.244556	2458.038889
994.540186	2467.647328
994.835780	2478.942033
995.131337	2494.990547
995.426859	2508.609224
995.722345	2533.802390
996.017795	2551.842159
996.313208	2565.329766
996.608586	2575.971642
996.903928	2580.491037
997.199234	2578.590522
997.494504	2573.491394
997.789738	2568.508214
998.084936	2557.919270
998.380099	2542.921838
998.675225	2533.404139
998.970316	2521.461646
999.265371	2503.731908
999.560390	2491.129023
999.855373	2482.415388
1000.150320	2469.711681
1000.445232	2460.846812
1000.740108	2452.302056
1001.034948	2448.743001
1001.329752	2441.297217
1001.624521	2438.496856
1001.919254	2428.764909
1002.213951	2430.176432
1002.508613	2425.619229
1002.803239	2426.204003
1003.097829	2420.988929
1003.392384	2425.062181
1003.686903	2422.841553
1003.981386	2421.240987
1004.275834	2422.934814
1004.570246	2421.001532
1004.864623	2417.823084
1005.158964	2419.912643
1005.453270	2416.577919
1005.747540	2416.482137
1006.041775	2413.628844
1006.335974	2416.333423
1006.630138	2414.327044
1006.924266	2415.388207
1007.218359	2412.174471
1007.512416	2414.503484
1007.806438	2412.963412
1008.100425	2413.444842
1008.394376	2413.578433
1008.688292	2411.294790
1008.982172	2414.019534
1009.276017	2413.971643
1009.569827	2411.100706
1009.863602	2413.772517
1010.157341	2412.010634
1010.451045	2411.561971
1010.744714	2411.788823
1011.038347	2408.653225
1011.331945	2410.866292
1011.625508	2408.887639
1011.919036	2408.373441
1012.212528	2407.680283
1012.505986	2406.780437
1012.799408	2408.423853
1013.092795	2408.454100
1013.386147	2410.921745
1013.679464	2405.966290
1013.972745	2404.741290
1014.265992	2409.661456
1014.559204	2407.902093
1014.852380	2408.030643
1015.145521	2407.453431
1015.438628	2406.253636
1015.731699	2411.612383
1016.024736	2408.670869
1016.317737	2408.567526
1016.610703	2408.597773
1016.903635	2404.708522
1017.196531	2403.322205
1017.489393	2407.362690
1017.782219	2404.267422
1018.075011	2409.663977
1018.367768	2409.583318
1018.660490	2410.730181
1018.953177	2410.730181
1019.245829	2410.730181
