Dividing Wavelength (nm)	Counts (n)	Blue Motor Position (mm): 15.800000	Red Motor Position (mm): 0.000000	
326.493990	1975.706330
326.888308	1975.706330
327.282561	1975.706330
327.676750	1950.523246
328.070874	1952.736313
328.464933	1957.101952
328.858929	1969.104939
329.252859	1977.455611
329.646726	1994.567807
330.040528	2009.555158
330.434265	2030.191121
330.827938	2051.575696
331.221547	2068.193859
331.615091	2088.076170
332.008571	2109.922010
332.401986	2131.561163
332.795338	2151.282157
333.188625	2172.271001
333.581847	2188.901768
333.975006	2207.289376
334.368100	2226.307129
334.761129	2241.866650
335.154095	2257.849629
335.546996	2287.002621
335.939833	2344.955726
336.332606	2359.323014
336.725315	2370.549664
337.117960	2378.905377
337.510540	2384.788403
337.903056	2396.763664
338.295508	2400.461350
338.687896	2411.264543
339.080220	2416.527508
339.472480	2423.431368
339.864676	2425.203333
340.256807	2427.408838
340.648875	2430.844385
341.040879	2431.736669
341.432818	2432.850764
341.824694	2431.913109
342.216506	2435.429314
342.608253	2431.529982
342.999937	2431.892945
343.391557	2431.446803
343.783113	2430.100814
344.174605	2427.819692
344.566033	2423.985895
344.957397	2422.481110
345.348697	2422.395411
345.739934	2419.418609
346.131106	2417.775193
346.522215	2416.673701
346.913260	2415.226890
347.304241	2415.231931
347.695159	2410.914183
348.086012	2411.856879
348.476802	2408.093657
348.867528	2409.658936
349.258191	2405.051321
349.648789	2405.779768
350.039324	2403.821279
350.429796	2402.588717
350.820203	2401.900600
351.210548	2400.738614
351.600828	2400.461350
351.991045	2401.278017
352.381198	2399.329611
352.771288	2400.446227
353.161314	2398.863305
353.551276	2400.539488
353.941175	2396.045300
354.331010	2402.180384
354.720782	2400.640311
355.110490	2403.738100
355.500135	2402.475291
355.889717	2399.198541
356.279235	2402.228275
356.668689	2404.622823
357.058080	2403.617113
357.447408	2400.355486
357.836672	2401.736762
358.225873	2399.992523
358.615010	2399.019580
359.004084	2404.007802
359.393095	2407.304717
359.782043	2404.159037
360.170927	2404.494273
360.559748	2404.945457
360.948505	2405.550395
361.337199	2405.951167
361.725830	2407.987793
362.114398	2408.708678
362.502903	2409.716909
362.891344	2406.742628
363.279722	2406.334295
363.668037	2408.219686
364.056289	2411.841755
364.444478	2412.056004
364.832603	2409.749676
365.220665	2415.846952
365.608665	2411.892167
365.996601	2412.900398
366.384474	2413.822929
366.772284	2413.079358
367.160031	2413.134811
367.547715	2413.570871
367.935336	2412.209759
368.322893	2412.754204
368.710388	2415.204205
369.097820	2418.458270
369.485189	2417.142528
369.872495	2417.777714
370.259738	2416.686304
370.646918	2414.574061
371.034035	2417.283681
371.421090	2417.596232
371.808081	2417.661767
372.195010	2414.868968
372.581875	2415.637744
372.968678	2415.504153
373.355418	2417.669329
373.742096	2417.447518
374.128710	2417.911304
374.515262	2419.456418
374.901751	2419.494227
375.288177	2420.305853
375.674540	2419.731161
376.060841	2420.948600
376.447079	2419.595050
376.833254	2419.559762
377.219367	2414.480799
377.605417	2417.855852
377.991404	2415.879719
378.377329	2417.508012
378.763191	2417.639082
379.148991	2421.939186
379.534727	2422.481110
379.920402	2423.512026
380.306013	2422.105544
380.691563	2425.843560
381.077049	2422.120668
381.462474	2422.970102
381.847835	2426.083015
382.233134	2426.529157
382.618371	2424.847932
383.003545	2423.663261
383.388657	2424.311049
383.773706	2423.438930
384.158693	2425.125196
384.543618	2425.669640
384.928480	2424.789959
385.313280	2426.534198
385.698017	2425.319280
386.082692	2427.673499
386.467305	2428.898499
386.851856	2427.353386
387.236344	2426.997984
387.620770	2429.200968
388.005133	2427.509661
388.389435	2428.908582
388.773674	2427.628128
389.157851	2429.574014
389.541965	2429.211051
389.926018	2430.110897
390.310008	2432.051741
390.693936	2428.260793
391.077802	2427.116451
391.461606	2429.200968
391.845348	2427.945721
392.229027	2431.381267
392.612645	2429.206010
392.996200	2433.075095
393.379694	2430.254570
393.763125	2431.335897
394.146494	2432.560898
394.529801	2430.345310
394.913047	2431.494693
395.296230	2433.312029
395.679351	2432.432348
396.062410	2433.904365
396.445408	2433.344797
396.828343	2433.112904
397.211217	2430.405804
397.594028	2431.310691
397.976778	2431.529982
398.359466	2434.179108
398.742092	2427.655855
399.124656	2432.828079
399.507158	2435.547781
399.889598	2436.755137
400.271977	2435.454520
400.654294	2433.667431
401.036549	2432.618871
401.418742	2437.586928
401.800874	2433.100301
402.182944	2437.536516
402.564952	2437.493667
402.946898	2435.981320
403.328783	2436.387133
403.710606	2435.774633
404.092367	2438.542227
404.474067	2439.086671
404.855705	2438.564912
405.237282	2439.247988
405.618797	2438.885025
406.000250	2441.539193
406.381642	2437.402926
406.762972	2439.704212
407.144240	2437.009716
407.525447	2440.455344
407.906593	2439.200097
408.287677	2437.544078
408.668700	2437.942329
409.049661	2440.407453
409.430560	2436.341763
409.811399	2440.694799
410.192176	2445.244441
410.572891	2442.799481
410.953545	2439.179933
411.334138	2441.685386
411.714669	2439.878132
412.095139	2443.371652
412.475547	2442.146652
412.855894	2439.860488
413.236180	2442.320571
413.616405	2446.305603
413.996568	2442.418874
414.376670	2442.897783
414.756711	2443.497681
415.136691	2440.742690
415.516609	2443.953905
415.896466	2443.212856
416.276262	2445.206632
416.655997	2441.360232
417.035670	2440.662032
417.415283	2444.316868
417.794834	2439.270673
418.174324	2443.170006
418.553753	2446.600511
418.933121	2444.243772
419.312428	2443.495160
419.691674	2445.297373
420.070859	2445.688062
420.449983	2445.385593
420.829045	2444.357198
421.208047	2444.160593
421.586988	2443.621189
421.965867	2441.955088
422.344686	2447.931376
422.723444	2443.646395
423.102141	2443.800150
423.480777	2446.368618
423.859352	2446.459359
424.237866	2448.188474
424.616319	2449.423557
424.994712	2447.865841
425.373044	2446.325768
425.751314	2446.565223
426.129524	2446.514811
426.507673	2448.092693
426.885762	2445.766200
427.263789	2445.098247
427.641756	2448.203598
428.019662	2447.558330
428.397508	2446.534976
428.775292	2449.128650
429.153016	2447.981787
429.530679	2451.997066
429.908282	2450.802313
430.285824	2446.121601
430.663305	2451.084617
431.040726	2449.350460
431.418086	2449.834411
431.795385	2451.286263
432.172624	2450.368773
432.549802	2451.283743
432.926920	2448.201077
433.303977	2452.324741
433.680974	2449.912549
434.057910	2450.882971
434.434786	2451.815585
434.811601	2449.665533
435.188355	2451.903805
435.565050	2450.983794
435.941683	2454.164762
436.318257	2447.714606
436.694770	2450.570420
437.071222	2451.863476
437.447614	2448.306942
437.823946	2451.767694
438.200218	2450.968671
438.576429	2453.630400
438.952580	2452.612087
439.328670	2452.304577
439.704700	2452.307097
440.080670	2449.990687
440.456580	2455.737602
440.832429	2453.179217
441.208218	2453.141408
441.583947	2456.387911
441.959616	2454.734413
442.335224	2456.443364
442.710773	2458.051492
443.086261	2455.853549
443.461689	2455.694752
443.837057	2455.757767
444.212365	2459.258848
444.587612	2456.539146
444.962800	2458.117027
445.337927	2456.692901
445.712995	2457.000411
446.088002	2458.774898
446.462949	2460.897223
446.837837	2460.879579
447.212664	2457.973354
447.587431	2462.306226
447.962139	2463.780763
448.336786	2465.335959
448.711374	2467.871660
449.085901	2464.902420
449.460369	2461.923098
449.834776	2465.734210
450.209124	2464.531895
450.583412	2465.613223
450.957640	2464.398305
451.331808	2465.129272
451.705917	2464.088274
452.079965	2464.035342
452.453954	2463.170784
452.827883	2466.865949
453.201752	2464.549539
453.575562	2465.048613
453.949311	2468.302678
454.323001	2467.743110
454.696632	2466.127420
455.070202	2469.436938
455.443713	2471.123204
455.817164	2466.891155
456.190556	2469.467185
456.563888	2466.195476
456.937160	2468.214458
457.310373	2469.189921
457.683526	2470.689665
458.056619	2471.516414
458.429653	2470.893831
458.802628	2472.862402
459.175542	2471.647484
459.548398	2474.266363
459.921194	2474.881384
460.293930	2477.323823
460.666607	2480.063690
461.039224	2481.089565
461.411782	2481.291211
461.784280	2480.078814
462.156719	2480.323310
462.529099	2479.589822
462.901419	2482.491006
463.273680	2478.392548
463.645882	2477.346508
464.018024	2480.023361
464.390106	2482.022178
464.762130	2483.799185
465.134094	2488.164824
465.505999	2495.552635
465.877845	2501.478512
466.249631	2502.902638
466.621358	2498.829385
466.993026	2501.541526
467.364634	2502.262411
467.736184	2495.255207
468.107674	2493.644559
468.479105	2495.250166
468.850477	2494.801503
469.221790	2493.009373
469.593043	2490.955103
469.964238	2489.306646
470.335373	2488.358909
470.706449	2492.994250
471.077467	2494.264621
471.448425	2501.869201
471.819324	2505.423215
472.190164	2505.082937
472.560945	2499.111690
472.931667	2497.896772
473.302330	2494.665392
473.672934	2497.085146
474.043479	2494.463746
474.413965	2496.134889
474.784393	2493.193375
475.154761	2496.079436
475.525070	2494.156236
475.895321	2495.345948
476.265513	2496.744868
476.635645	2504.082268
477.005719	2504.682165
477.375734	2507.147289
477.745691	2504.737618
478.115588	2510.045953
478.485427	2512.513598
478.855207	2524.440967
479.224928	2526.664116
479.594591	2532.272400
479.964194	2530.318953
480.333739	2532.015301
480.703226	2535.730632
481.072653	2539.980324
481.442022	2539.771116
481.811333	2542.707588
482.180584	2541.714481
482.549777	2541.616179
482.918912	2540.302958
483.287988	2544.403937
483.657005	2543.662887
484.025964	2542.510983
484.394864	2545.883515
484.763706	2546.518701
485.132489	2547.229503
485.501213	2548.220090
485.869879	2553.178065
486.238487	2556.903478
486.607036	2554.632438
486.975527	2557.768036
487.343959	2557.021945
487.712333	2560.248283
488.080648	2565.170970
488.448905	2566.983265
488.817104	2569.481157
489.185244	2573.355283
489.553326	2581.486664
489.921350	2595.231370
490.289315	2606.200921
490.657222	2610.465737
491.025070	2613.465224
491.392861	2614.964967
491.760593	2614.130656
492.128267	2610.697630
492.495883	2611.698299
492.863440	2606.833586
493.230939	2607.360387
493.598380	2604.318050
493.965763	2605.142279
494.333088	2607.703185
494.700354	2605.722012
495.067563	2609.253340
495.434713	2611.350460
495.801805	2616.868003
496.168839	2619.834722
496.535815	2622.801441
496.902733	2623.827316
497.269593	2625.415279
497.636395	2627.777060
498.003139	2637.173770
498.369825	2632.397277
498.736453	2639.898514
499.103023	2640.067393
499.469535	2642.827424
499.835989	2646.071407
500.202385	2647.493012
500.568723	2651.510812
500.935003	2654.820329
501.301226	2655.175731
501.667390	2662.167811
502.033497	2667.957576
502.399546	2668.842299
502.765537	2663.934736
503.131470	2672.131652
503.497345	2676.346056
503.863163	2673.752383
504.228923	2680.210101
504.594625	2685.949454
504.960269	2684.129598
505.325856	2691.703932
505.691385	2689.072449
506.056856	2694.342976
506.422270	2700.435210
506.787625	2698.219623
507.152924	2706.040973
507.518164	2709.010213
507.883347	2707.172712
508.248472	2711.858465
508.613540	2717.456666
508.978550	2725.477142
509.343503	2725.015876
509.708398	2729.769684
510.073236	2737.649008
510.438016	2742.599421
510.802738	2741.487846
511.167403	2748.457242
511.532010	2754.867069
511.896561	2761.239087
512.261053	2771.664193
512.625488	2771.616302
512.989866	2771.891045
513.354186	2774.383896
513.718449	2778.247940
514.082655	2792.290074
514.446803	2795.319808
514.810894	2803.680561
515.174927	2808.908238
515.538904	2811.900163
515.902822	2824.099755
516.266684	2825.002122
516.630488	2833.413287
516.994235	2838.169615
517.357925	2849.068590
517.721558	2855.639734
518.085133	2867.466281
518.448651	2877.394833
518.812112	2882.015051
519.175516	2887.976215
519.538863	2901.816703
519.902152	2907.314082
520.265385	2923.584406
520.628560	2934.649738
520.991678	2941.125100
521.354739	2955.419292
521.717743	2963.802731
522.080690	2977.842344
522.443580	2994.273985
522.806413	3007.628002
523.169189	3017.153262
523.531908	3030.272865
523.894569	3043.417674
524.257174	3062.503482
524.619722	3080.475196
524.982213	3094.492124
525.344647	3107.125255
525.707025	3127.773822
526.069345	3148.661842
526.431608	3163.944100
526.793815	3185.989066
527.155964	3201.598999
527.518057	3226.547669
527.880093	3238.454875
528.242072	3265.551077
528.603995	3280.833335
528.965860	3305.504742
529.327669	3330.085408
529.689421	3348.667101
530.051117	3380.630537
530.412755	3402.972931
530.774337	3431.702466
531.135862	3450.568985
531.497331	3484.077534
531.858743	3509.769775
532.220098	3549.305024
532.581396	3571.710432
532.942638	3596.195316
533.303824	3634.029176
533.664953	3671.232891
534.026025	3698.974361
534.387040	3749.534613
534.747999	3780.210035
535.108902	3828.136284
535.469748	3849.392309
535.830537	3889.015779
536.191270	3937.030248
536.551947	3967.501503
536.912567	4019.470758
537.273131	4069.206782
537.633638	4096.350875
537.994089	4156.459073
538.354483	4185.445707
538.714821	4258.552520
539.075103	4324.445442
539.435328	4363.877347
539.795497	4408.877207
540.155609	4465.247390
540.515665	4541.320922
540.875665	4566.398142
541.235609	4635.988750
541.595496	4691.877502
541.955328	4785.864774
542.315102	4815.479032
542.674821	4860.844376
543.034483	4927.191002
543.394090	4985.033201
543.753640	5044.775915
544.113134	5169.436088
544.472571	5174.648641
544.831953	5319.622143
545.191278	5339.945555
545.550548	5390.462958
545.909761	5492.579091
546.268918	5581.333645
546.628019	5678.050703
546.987064	5720.151899
547.346053	5746.421352
547.704986	5882.408997
548.063863	5928.278456
548.422684	6025.857550
548.781449	6093.035967
549.140158	6208.430499
549.498811	6277.196878
549.857408	6316.036448
550.215949	6471.959337
550.574434	6553.804990
550.932864	6618.024249
551.291237	6780.689680
551.649555	6834.952660
552.007817	6957.339273
552.366022	7010.412541
552.724173	7126.696836
553.082267	7265.983917
553.440305	7404.141779
553.798288	7431.875687
554.156215	7567.812921
554.514086	7700.216307
554.871902	7776.342771
555.229661	7889.309987
555.587365	7982.097465
555.945014	8100.249508
556.302606	8209.957619
556.660143	8350.981377
557.017625	8477.602559
557.375050	8572.192249
557.732421	8733.486487
558.089735	8858.338224
558.446994	8961.366805
558.804197	9158.599429
559.161345	9276.317933
559.518437	9281.159961
559.875474	9456.670253
560.232455	9612.005847
560.589381	9776.624726
560.946251	9850.465027
561.303065	10102.961300
561.659825	10214.307785
562.016528	10292.397779
562.373177	10379.072857
562.729770	10603.557959
563.086307	10668.591364
563.442789	10896.544779
563.799216	11048.386854
564.155587	11156.431383
564.511904	11317.730663
564.868164	11488.908083
565.224370	11692.399299
565.580520	11789.154164
565.936615	11989.913075
566.292654	12092.399733
566.648638	12310.863176
567.004567	12469.215901
567.360441	12650.314311
567.716260	12794.420735
568.072023	13032.605172
568.427732	13210.983880
568.783385	13276.599539
569.138982	13545.799675
569.494525	13713.652454
569.850013	13830.093025
570.205445	14003.788502
570.560823	14164.233305
570.916145	14317.318024
571.271412	14503.145037
571.626625	14621.143325
571.981782	14817.239169
572.336884	14907.763168
572.691931	15196.366705
573.046923	15259.832312
573.401860	15400.377160
573.756743	15576.721763
574.111570	15797.443643
574.466342	15939.306753
574.821059	16172.268555
575.175722	16207.158381
575.530330	16405.749595
575.884882	16492.825446
576.239380	16678.024835
576.593823	16859.405551
576.948211	17033.791665
577.302544	17057.646405
577.656823	17261.384638
578.011047	17548.165798
578.365216	17644.161970
578.719330	17773.412113
579.073389	17922.017767
579.427394	18144.468763
579.781344	18347.047530
580.135239	18417.043951
580.489080	18652.120517
580.842866	18648.458118
581.196597	19026.753865
581.550273	19208.878150
581.903895	19349.564151
582.257463	19746.663402
582.610975	19678.007927
582.964434	20002.784264
583.317837	20053.780576
583.671186	20188.293684
584.024481	20485.280660
584.377721	20480.783951
584.730906	20810.845937
585.084037	21015.529386
585.437113	21080.277966
585.790135	21298.643107
586.143103	21304.816000
586.496016	21564.742933
586.848874	21775.939553
587.201679	21982.281542
587.554428	21931.809509
587.907124	22223.735167
588.259765	22292.418367
588.612352	22614.651442
588.964884	22512.832737
589.317362	22854.043235
589.669786	23022.110263
590.022155	23100.414506
590.374470	23510.338452
590.726731	23441.690539
591.078937	23367.083983
591.431090	23623.759372
591.783188	23619.376089
592.135232	23628.566112
592.487222	23954.307830
592.839157	24192.119221
593.191038	24182.233518
593.542866	24234.283432
593.894639	24067.179264
594.246358	24392.278235
594.598022	24566.727363
594.949633	24508.340720
595.301190	24652.583255
595.652692	24735.787499
596.004141	25112.628872
596.355535	24687.052144
596.706876	24821.610623
597.058162	24900.149279
597.409395	25344.499264
597.760573	25571.247843
598.111698	25474.061959
598.462768	25637.836445
598.813785	25828.334087
599.164748	25656.413097
599.515657	26052.577213
599.866511	25883.600256
600.217312	26433.950583
600.568060	25939.516735
600.918753	26567.452940
601.269392	26704.468981
601.619978	26620.387576
601.970510	26914.997648
602.320988	27198.935597
602.671412	27547.022229
603.021783	27522.532304
603.372100	27435.753882
603.722363	27674.835644
604.072572	27866.689356
604.422728	28035.048771
604.772830	28031.361167
605.122878	28254.417102
605.472872	28348.033849
605.822813	28691.628813
606.172701	28712.494149
606.522534	29027.687252
606.872314	29351.173053
607.222041	29314.919595
607.571714	29738.759646
607.921333	29468.044643
608.270899	29827.491515
608.620411	30203.644771
608.969870	30191.359479
609.319276	30321.408646
609.668627	30477.230711
610.017926	30975.894088
610.367171	31224.624618
610.716362	31416.853897
611.065500	31509.686745
611.414585	31776.419236
611.763616	32130.875366
612.112594	32194.046065
612.461518	32474.392192
612.810389	32838.194621
613.159207	32843.757534
613.507971	33007.824407
613.856682	33513.719319
614.205340	33543.197466
614.553945	34201.788928
614.902496	33883.624064
615.250994	34359.740881
615.599439	34539.624373
615.947830	34817.023946
616.296169	34969.899457
616.644454	35184.682858
616.992686	35420.079537
617.340864	35958.694057
617.688990	35801.941899
618.037063	36406.706441
618.385082	36487.616960
618.733048	36826.475760
619.080961	36918.209637
619.428821	37039.351084
619.776628	37217.933959
620.124382	37163.431524
620.472083	37379.117292
620.819731	37575.820594
621.167326	37402.581342
621.514868	37480.671336
621.862357	37189.963117
622.209793	37303.971332
622.557176	37117.083156
622.904506	36989.529361
623.251783	36772.008613
623.599007	36663.621285
623.946179	36549.633235
624.293297	36594.096212
624.640363	36150.202451
624.987376	36218.762143
625.334336	36086.116783
625.681243	35839.127971
626.028097	35884.707563
626.374899	35815.764743
626.721647	35866.965222
627.068343	35846.934197
627.414987	35697.103543
627.761577	35563.908697
628.108115	35925.790446
628.454600	35487.157130
628.801032	35720.605403
629.147412	35736.593422
629.493739	35802.650181
629.840014	35539.055808
630.186236	35913.820227
630.532405	35621.738293
630.878521	35884.626905
631.224585	35799.355787
631.570597	35594.664777
631.916556	35782.397346
632.262462	35790.309437
632.608316	35861.992124
632.954117	35793.223224
633.299866	35838.293660
633.645562	35825.496691
633.991206	35431.306186
634.336797	35083.219554
634.682336	35132.764014
635.027823	34968.596319
635.373257	34848.158112
635.718639	34682.157957
636.063968	34605.043427
636.409245	34103.730924
636.754470	34209.161615
637.099642	34030.830798
637.444762	33624.317193
637.789829	33799.948472
638.134845	33508.080788
638.479808	33501.038296
638.824719	33447.269349
639.169577	33126.609115
639.514383	33216.777713
639.859137	32972.480877
640.203839	33243.410129
640.548489	32927.579320
640.893086	33025.216387
641.237632	32841.980527
641.582125	32983.435304
641.926566	32935.279682
642.270955	32943.378296
642.615292	32993.754546
642.959576	33013.959491
643.303809	33040.435631
643.647990	33192.862479
643.992118	33185.603218
644.336195	33222.998497
644.680219	33341.858822
645.024192	33653.755011
645.368112	34162.712424
645.711981	34208.612129
646.055797	35039.883275
646.399562	34996.975494
646.743274	35910.445174
647.086935	36356.337752
647.430544	36273.730885
647.774101	36408.178458
648.117606	36655.804976
648.461059	36966.478685
648.804460	36630.417725
649.147810	36083.288695
649.491108	35886.071195
649.834354	35564.498512
650.177548	34796.710617
650.520690	34387.164757
650.863781	34419.723050
651.206820	34311.386133
651.549807	33914.460803
651.892742	33470.078050
652.235626	33308.199038
652.578458	33191.697973
652.921238	32645.269663
653.263967	32989.464524
653.606644	32695.802189
653.949269	32676.701257
654.291843	32308.477737
654.634365	32710.482029
654.976836	32330.711746
655.319255	32353.157483
655.661622	32367.335728
656.003938	32172.757272
656.346203	32059.570765
656.688416	32293.865952
657.030577	32109.415174
657.372687	31986.743736
657.714746	32253.332555
658.056753	32375.968704
658.398708	31867.840561
658.740612	31939.825717
659.082465	32213.053735
659.424266	32061.141085
659.766016	32193.748637
660.107715	32089.300970
660.449362	32209.953426
660.790958	32209.275391
661.132503	32247.653695
661.473996	32278.815587
661.815438	32398.621129
662.156829	32602.099742
662.498168	32406.140010
662.839456	32434.854422
663.180693	32594.648917
663.521879	32757.029523
663.863013	32735.488673
664.204097	32728.567169
664.545129	33195.927501
664.886110	33164.982378
665.227040	33250.409771
665.567918	33364.082749
665.908746	33440.128555
666.249522	33611.920996
666.590248	33620.543889
666.930922	33744.679782
667.271545	33702.190417
667.612118	33781.454999
667.952639	33584.194649
668.293109	33667.537525
668.633528	33570.253338
668.973896	33490.013293
669.314213	33547.477405
669.654480	33302.530261
669.994695	33332.018490
670.334859	33225.113261
670.674973	33147.930675
671.015035	33317.056345
671.355047	33283.230203
671.695008	33221.183682
672.034918	33134.889210
672.374777	33228.334558
672.714585	33072.406629
673.054342	33298.693943
673.394049	33071.330342
673.733705	33358.650906
674.073310	33034.885321
674.412864	33091.671398
674.752368	32714.968656
675.091820	33018.168854
675.431223	32595.889041
675.770574	32329.080932
676.109875	32218.046998
676.449125	31934.809769
676.788324	31877.590153
677.127473	31355.863497
677.466571	31269.284200
677.805619	30942.080548
678.144616	30940.790013
678.483562	30873.730064
678.822458	30563.000902
679.161303	30506.562665
679.500098	30419.164180
679.838842	30297.261519
680.177535	30474.195936
680.516179	30738.700238
680.854771	30978.805354
681.193314	31834.284121
681.531805	32949.248720
681.870247	33710.321798
682.208638	34460.100171
682.546978	34689.394533
682.885268	34767.935710
683.223508	34241.172942
683.561697	33908.222375
683.899836	33724.948706
684.237925	33226.411358
684.575963	33094.998560
684.913951	32626.899699
685.251889	32789.108906
685.589776	32783.722433
685.927614	32768.886317
686.265401	32922.429781
686.603137	33027.817623
686.940824	33529.132647
687.278460	33919.670835
687.616046	34052.774941
687.953582	34651.099408
688.291068	34526.711458
688.628504	34782.544974
688.965889	34731.450359
689.303224	34349.966083
689.640510	34016.087943
689.977745	33296.710248
690.314930	32493.941787
690.652065	31969.853350
690.989150	31232.115773
691.326185	30358.168739
691.663170	29650.264711
692.000105	28908.723583
692.336990	28234.963289
692.673825	27806.618967
693.010610	27290.372046
693.347345	26722.861631
693.684030	26085.251451
694.020665	25814.339844
694.357251	25145.940817
694.693786	25103.529590
695.030272	24871.434867
695.366707	24334.912424
695.703093	24045.230080
696.039429	24041.799575
696.375716	23791.271873
696.711952	23753.284258
697.048139	23603.020065
697.384276	23424.379217
697.720363	23558.841913
698.056400	23354.692827
698.392388	23133.134115
698.728326	23100.913580
699.064214	22901.067118
699.400053	22850.874870
699.735842	22487.168223
700.071581	22222.469837
700.407270	21931.701125
700.742910	21743.991241
701.078501	21489.854072
701.414042	21200.600226
701.749533	20912.518449
702.084974	20566.065151
702.420366	20773.468302
702.755709	20336.813638
703.091002	20039.957732
703.426246	20069.985365
703.761440	19976.285439
704.096584	19700.529282
704.431679	19656.409104
704.766725	19571.717719
705.101721	19515.274440
705.436668	19607.008317
705.771565	19289.221540
706.106413	19631.694847
706.441212	19614.068453
706.775961	19745.508977
707.110661	19816.982457
707.445311	20177.855975
707.779913	20028.902482
708.114465	20259.978892
708.448967	20543.306862
708.783421	21229.339844
709.117825	21503.354282
709.452180	21722.001728
709.786485	22120.023509
710.120742	22908.223036
710.454949	22929.065687
710.789107	23409.414552
711.123216	24096.387710
711.457275	24226.709098
711.791286	24756.249542
712.125247	24837.276008
712.459159	24512.114023
712.793023	25177.243862
713.126837	24071.943155
713.460602	24316.973478
713.794318	23946.002529
714.127985	23551.426376
714.461602	22676.128313
714.795171	22633.767497
715.128691	21612.485181
715.462162	21087.832135
715.795584	20667.205820
716.128957	20414.558313
716.462281	20011.727271
716.795556	19770.727349
717.128782	19289.700449
717.461960	18750.133150
717.795088	18656.221495
718.128167	18277.222508
718.461198	17815.604050
718.794180	17669.476124
719.127113	17316.756672
719.459997	17119.420704
719.792833	16783.599200
720.125619	16755.633399
720.458357	16434.705983
720.791046	16270.301353
721.123686	16107.661127
721.456278	15873.386105
721.788821	15835.695918
722.121315	15573.381999
722.453761	15648.313709
722.786158	15581.324337
723.118506	15591.489823
723.450805	15450.115705
723.783056	15611.016733
724.115259	15517.145407
724.447412	15443.968018
724.779518	15697.230546
725.111574	15717.100254
725.443582	15922.108857
725.775542	15890.624331
726.107453	16352.545258
726.439315	16245.829072
726.771129	16639.870862
727.102895	17014.070671
727.434612	17211.883028
727.766281	17330.725709
728.097901	17592.162468
728.429473	17628.035319
728.760996	17599.038602
729.092471	17688.977828
729.423897	17564.955361
729.755276	17432.355370
730.086606	17550.817445
730.417887	18077.582733
730.749120	18587.187935
731.080305	18755.854860
731.411442	19093.085367
731.742530	19171.571091
732.073570	19258.367158
732.404562	19538.320075
732.735506	19359.389360
733.066401	19071.647860
733.397249	18549.951452
733.728048	17913.530984
734.058798	17088.967094
734.389501	16419.688386
734.720156	15963.915146
735.050762	15442.470795
735.381320	15092.410551
735.711831	14853.623697
736.042293	14513.499567
736.372707	14509.257436
736.703073	14309.370645
737.033391	14490.048119
737.363661	14471.416015
737.693883	14574.336212
738.024056	14753.516463
738.354182	14933.289051
738.684260	15217.804212
739.014290	15429.250369
739.344272	15621.729185
739.674207	15892.388735
740.004093	16007.624470
740.333931	15996.216339
740.663722	16030.818819
740.993464	16030.072728
741.323159	15857.524115
741.652806	15577.092288
741.982405	15369.540422
742.311956	15032.987950
742.641460	14907.193518
742.970915	14604.936016
743.300323	14271.493936
743.629683	14064.312595
743.958996	13789.637766
744.288260	13513.241383
744.617477	13220.035272
744.946647	13149.509530
745.275768	12874.983415
745.604842	12689.655476
745.933869	12523.299920
746.262847	12479.252838
746.591778	12400.850293
746.920662	12310.177579
747.249498	12298.633337
747.578286	12432.095364
747.907027	12564.919686
748.235720	12785.399590
748.564365	12818.504848
748.892963	12717.452398
749.221514	12770.145059
749.550017	12625.282462
749.878473	12584.570103
750.206881	12371.452804
750.535242	12279.900409
750.863555	12197.999303
751.191821	12102.144283
751.520039	12123.851492
751.848210	12032.367152
752.176334	12058.724825
752.504411	11969.219139
752.832440	11815.678195
753.160421	11877.576003
753.488356	11751.040521
753.816243	11656.632312
754.144082	11520.294306
754.471875	11467.515946
754.799620	11413.046279
755.127318	11384.455375
755.454969	11347.791063
755.782572	11299.292642
756.110129	11310.098356
756.437638	11225.117105
756.765100	11219.995292
757.092515	11219.821372
757.419882	11241.715104
757.747203	11243.378684
758.074477	11318.917854
758.401703	11276.209199
758.728882	11428.134452
759.056014	11473.368726
759.383099	11586.335942
759.710138	11691.696058
760.037129	11770.363263
760.364073	11786.671396
760.690970	11771.061463
761.017820	11777.125971
761.344623	11963.575567
761.671379	12281.067436
761.998088	12914.475814
762.324751	14452.362974
762.651366	17300.093138
762.977935	20937.096594
763.304456	23150.127845
763.630931	23612.565490
763.957359	22425.456938
764.283740	20528.012001
764.610074	18663.871446
764.936362	16553.241154
765.262602	15037.527509
765.588796	13582.136312
765.914943	12559.694530
766.241044	11709.798841
766.567097	11081.887842
766.893104	10541.662672
767.219064	10187.057828
767.544978	9804.484663
767.870845	9496.109720
768.196665	9306.642994
768.522438	9116.795661
768.848165	8952.995969
769.173846	8791.898337
769.499479	8667.386878
769.825066	8512.197477
770.150607	8327.202254
770.476101	8264.931402
770.801548	8156.576841
771.126949	8016.145418
771.452303	7925.908764
771.777611	7762.298116
772.102872	7736.721822
772.428087	7624.228474
772.753256	7501.549475
773.078378	7413.334323
773.403453	7279.645444
773.728482	7174.098806
774.053465	7109.980370
774.378401	7025.553646
774.703291	6931.490757
775.028135	6831.673390
775.352932	6797.438914
775.677683	6719.903447
776.002388	6628.910620
776.327046	6624.245033
776.651658	6545.298043
776.976224	6474.394214
777.300743	6450.229443
777.625216	6386.678137
777.949643	6343.674574
778.274024	6350.913671
778.598359	6283.329442
778.922647	6284.085615
779.246889	6243.285036
779.571086	6253.553867
779.895236	6265.897132
780.219339	6257.410349
780.543397	6260.669455
780.867409	6308.830119
781.191374	6305.114788
781.515294	6265.950064
781.839167	6325.768396
782.162995	6293.966277
782.486776	6246.531539
782.810511	6202.181988
783.134201	6130.307737
783.457844	6117.788032
783.781441	6066.554785
784.104993	6027.163209
784.428498	5996.326471
784.751958	5978.632021
785.075372	5957.683506
785.398739	5916.625829
785.722061	5940.263799
786.045337	5944.722700
786.368568	6045.331528
786.691752	6068.533438
787.014891	6321.208672
787.337983	6597.655467
787.661030	7028.853081
787.984031	7452.078111
788.306987	7716.252217
788.629897	7798.067623
788.952760	7707.082358
789.275579	7537.414764
789.598351	7243.810402
789.921078	6979.510267
790.243759	6698.123142
790.566395	6495.065465
790.888984	6304.663605
791.211529	6169.694273
791.534027	6004.215877
791.856480	5870.373242
792.178888	5805.879241
792.501249	5742.544704
792.823566	5640.577285
793.145836	5631.694772
793.468062	5617.811435
793.790241	5576.592440
794.112375	5616.810766
794.434464	5714.732658
794.756507	5743.764663
795.078505	5865.238827
795.400457	6078.335962
795.722364	6316.853115
796.044226	6510.677919
796.366042	6664.710374
796.687812	6610.739781
797.009538	6639.998638
797.331218	6550.031686
797.652852	6475.485624
797.974442	6355.531368
798.295986	6288.945287
798.617484	6160.065669
798.938938	6051.537188
799.260346	5987.151571
799.581709	5846.795766
799.903026	5802.640299
800.224299	5726.047528
800.545526	5610.169045
800.866708	5548.044386
801.187845	5496.992621
801.508936	5422.859933
801.829983	5396.351026
802.150984	5290.312875
802.471940	5264.512250
802.792851	5247.211010
803.113717	5218.390733
803.434538	5196.166806
803.755314	5165.723278
804.076045	5152.865815
804.396731	5120.181494
804.717372	5136.920646
805.037967	5137.066839
805.358518	5167.878372
805.679024	5222.826948
805.999485	5233.214246
806.319901	5254.026650
806.640272	5269.359319
806.960598	5316.078212
807.280879	5308.030010
807.601115	5346.189024
807.921306	5309.234846
808.241453	5302.472138
808.561554	5308.965144
808.881611	5276.096821
809.201623	5277.757881
809.521590	5223.487340
809.841513	5210.942428
810.161390	5224.510694
810.481223	5138.818640
810.801011	5128.086024
811.120755	5097.745839
811.440453	5048.085433
811.760107	5019.086195
812.079716	4989.855065
812.399281	4943.070636
812.718801	4932.935397
813.038276	4902.202002
813.357707	4869.114389
813.677093	4889.775558
813.996434	4832.255992
814.315731	4847.208055
814.634983	4846.567828
814.954191	4851.845916
815.273354	4909.884721
815.592473	4949.677068
815.911547	5026.884860
816.230577	5075.950411
816.549562	5162.196991
816.868502	5215.660948
817.187399	5270.841418
817.506250	5348.913768
817.825058	5375.538622
818.143821	5527.252147
818.462539	5696.511408
818.781213	5923.829638
819.099843	6285.774402
819.418429	6911.026192
819.736970	7524.711056
820.055466	8229.852532
820.373919	9136.141089
820.692327	10570.626621
821.010691	13248.737082
821.329011	19421.304812
821.647286	28919.168853
821.965517	39169.014253
822.283704	44590.326552
822.601847	46065.451346
822.919945	41484.310350
823.237999	36421.736641
823.556010	31244.769069
823.873976	26566.669041
824.191897	22402.222260
824.509775	19366.562922
824.827609	16613.009074
825.145398	15075.134517
825.463144	14335.317464
825.780845	14622.693480
826.098502	15877.013215
826.416116	18315.505030
826.733685	20580.003941
827.051210	21102.312850
827.368692	19691.069557
827.686129	17145.231412
828.003522	14683.814950
828.320872	12474.607415
828.638177	10843.867242
828.955439	9602.450340
829.272656	8559.458294
829.589830	7722.475521
829.906960	6995.120200
830.224046	6467.956660
830.541088	6057.160595
830.858086	5809.269417
831.175041	5606.972954
831.491952	5544.692019
831.808819	5578.160239
832.125642	5824.077806
832.442421	6367.488985
832.759157	7466.510935
833.075849	9224.230211
833.392497	11057.312217
833.709101	12159.815083
834.025662	11914.784759
834.342179	10869.675429
834.658653	9568.364578
834.975083	8470.857495
835.291469	7573.380876
835.607811	6843.510019
835.924110	6333.798954
836.240366	5846.223595
836.556578	5395.970418
836.872746	5048.861770
837.188871	4777.856901
837.504952	4558.317172
837.820990	4393.768869
838.136984	4281.285603
838.452935	4232.709045
838.768842	4260.589146
839.084706	4539.369995
839.400526	5272.421820
839.716303	6171.995559
840.032037	6734.406847
840.347727	6590.091215
840.663373	5996.780175
840.978977	5419.220220
841.294537	4982.631091
841.610054	4651.961646
841.925527	4416.209566
842.240957	4210.684244
842.556344	4028.617932
842.871687	3869.395608
843.186987	3723.560068
843.502244	3605.465998
843.817458	3518.420395
844.132629	3448.179478
844.447756	3402.919998
844.762840	3355.770087
845.077881	3321.316321
845.392879	3282.759055
845.707833	3259.254676
846.022745	3232.405490
846.337613	3221.080538
846.652438	3198.871735
846.967221	3188.875127
847.281960	3169.386026
847.596656	3162.351096
847.911309	3146.829383
848.225919	3134.798669
848.540485	3124.663430
848.855009	3121.172431
849.169490	3107.911675
849.483928	3100.113010
849.798323	3097.123606
850.112675	3086.322934
850.426984	3085.823860
850.741251	3079.267839
851.055474	3075.252560
851.369654	3076.850606
851.683792	3072.454720
851.997887	3078.186512
852.311938	3076.636357
852.625947	3078.615010
852.939914	3070.481108
853.253837	3077.740370
853.567718	3073.324319
853.881555	3068.807445
854.195350	3074.516552
854.509103	3070.816345
854.822812	3069.117476
855.136479	3062.672361
855.450103	3066.251580
855.763685	3062.372412
856.077224	3064.721590
856.390720	3071.822055
856.704173	3085.123139
857.017584	3087.820157
857.330953	3090.129005
857.644278	3103.475460
857.957561	3103.238526
858.270802	3101.060747
858.584000	3102.116869
858.897155	3094.729058
859.210268	3085.581884
859.523339	3069.498083
859.836367	3071.128896
860.149352	3066.044893
860.462295	3059.418296
860.775195	3051.607028
861.088054	3051.811195
861.400869	3047.737943
861.713642	3046.104609
862.026373	3053.661298
862.339062	3057.976526
862.651708	3065.732341
862.964312	3082.577357
863.276873	3087.797472
863.589392	3121.784931
863.901869	3148.331647
864.214303	3168.529030
864.526696	3188.507122
864.839045	3204.270811
865.151353	3215.552913
865.463619	3217.040053
865.775842	3217.788665
866.088023	3222.857545
866.400162	3213.647357
866.712258	3217.423181
867.024313	3217.725650
867.336325	3215.099209
867.648296	3214.428736
867.960224	3214.000238
868.272110	3217.607183
868.583954	3215.588201
868.895755	3223.530539
869.207515	3218.146587
869.519233	3236.367837
869.830909	3245.086513
870.142542	3255.892226
870.454134	3262.382712
870.765684	3275.421656
871.077191	3292.763225
871.388657	3305.477015
871.700081	3327.653051
872.011463	3339.537571
872.322803	3363.835933
872.634101	3376.552243
872.945357	3398.569483
873.256571	3427.833381
873.567744	3440.015329
873.878874	3447.982873
874.189963	3463.948207
874.501010	3470.844505
874.812015	3466.095738
875.122979	3480.889004
875.433900	3476.561174
875.744780	3479.951350
876.055618	3487.107268
876.366415	3486.088955
876.677169	3491.619100
876.987882	3507.667614
877.298554	3526.506406
877.609183	3564.597364
877.919771	3613.040332
878.230317	3676.919313
878.540822	3777.059313
878.851285	3928.891306
879.161707	4148.715860
879.472087	4518.214793
879.782425	5136.900481
880.092722	6311.877496
880.402977	8232.300013
880.713191	10584.457027
881.023363	12936.896346
881.333494	14264.456485
881.643583	14720.678387
881.953631	14313.280060
882.263637	13476.108243
882.573602	12448.532046
882.883526	11500.805206
883.193408	10556.856710
883.503248	9648.125714
883.813048	8829.230601
884.122806	8068.757420
884.432522	7311.182903
884.742197	6654.975906
885.051831	6101.157265
885.361424	5610.292554
885.670975	5218.877204
885.980485	4897.178492
886.289954	4628.908449
886.599382	4416.673352
886.908768	4244.094491
887.218113	4082.447372
887.527417	3947.495684
887.836680	3826.215605
888.145901	3732.099783
888.455082	3652.663801
888.764221	3587.277515
889.073319	3526.803834
889.382376	3495.967096
889.691392	3468.490287
890.000366	3464.043989
890.309300	3456.517546
890.618193	3460.152218
890.927044	3454.039819
891.235855	3461.720017
891.544625	3473.511276
891.853353	3500.494052
892.162041	3563.994946
892.470687	3654.579440
892.779293	3772.673510
893.087858	3943.722380
893.396381	4222.742684
893.704864	4628.185044
894.013306	5187.816135
894.321707	5755.976859
894.630068	6110.974912
894.938387	6149.973279
895.246665	5974.578933
895.554903	5658.793495
895.863100	5323.765972
896.171256	5057.585487
896.479371	4816.769568
896.787446	4594.616000
897.095480	4399.578799
897.403473	4255.762242
897.711425	4111.738997
898.019336	3991.721727
898.327207	3866.055843
898.635038	3768.988426
898.942827	3662.262158
899.250576	3576.239909
899.558284	3492.604646
899.865952	3440.988272
900.173579	3379.644991
900.481165	3334.418279
900.788711	3290.222484
901.096216	3258.861466
901.403681	3233.592682
901.711105	3217.317317
902.018489	3215.673901
902.325832	3246.724888
902.633135	3307.372489
902.940397	3476.518324
903.247619	3872.533726
903.554800	4616.303044
903.861941	5578.787863
904.169041	6270.446773
904.476101	6480.010059
904.783121	6203.222987
905.090100	5806.799251
905.397039	5395.085696
905.703938	5041.990678
906.010796	4721.932861
906.317614	4472.247032
906.624391	4234.904468
906.931129	4047.058472
907.237826	3864.205740
907.544483	3695.387580
907.851099	3524.005993
908.157675	3366.404401
908.464211	3229.524471
908.770707	3128.686270
909.077163	3052.408572
909.383578	2990.699807
909.689954	2947.371090
909.996289	2920.789086
910.302584	2898.723955
910.608839	2882.942623
910.915054	2872.583052
911.221229	2870.536344
911.527363	2874.322250
911.833458	2879.192005
912.139513	2891.966289
912.445527	2908.017323
912.751502	2939.567384
913.057436	2983.692603
913.363331	3038.497507
913.669186	3125.409520
913.975000	3241.529979
914.280775	3424.927156
914.586510	3691.896581
914.892205	4063.147315
915.197859	4555.272315
915.503475	5133.041478
915.809050	5620.964676
916.114585	5910.727679
916.420081	5972.653213
916.725536	5910.546197
917.030952	5676.571124
917.336328	5469.210822
917.641665	5259.513946
917.946961	5034.683525
918.252218	4834.330427
918.557435	4608.955562
918.862612	4415.849123
919.167750	4246.506683
919.472848	4058.872416
919.777906	3890.649112
920.082925	3731.043661
920.387904	3580.882812
920.692843	3473.740648
920.997743	3372.476470
921.302603	3284.284004
921.607423	3217.839076
921.912204	3152.805671
922.216946	3106.485029
922.521647	3058.160528
922.826310	3016.092099
923.130932	2977.277735
923.435516	2940.265584
923.740059	2910.666449
924.044564	2882.907335
924.349028	2858.608974
924.653454	2830.514623
924.957840	2803.337763
925.262186	2785.416461
925.566493	2763.144643
925.870761	2737.840572
926.174989	2727.947307
926.479178	2713.494319
926.783328	2697.642411
927.087438	2682.425688
927.391509	2674.594255
927.695541	2659.783345
927.999533	2649.723723
928.303486	2643.452527
928.607400	2633.234109
928.911275	2633.269397
929.215110	2625.140536
929.518906	2622.360340
929.822663	2621.286574
930.126381	2619.980915
930.430060	2625.916874
930.733699	2625.871503
931.037299	2633.408028
931.340861	2629.806124
931.644383	2633.997843
931.947866	2630.746299
932.251309	2630.474077
932.554714	2630.249746
932.858080	2625.432923
933.161407	2620.704321
933.464694	2617.331789
933.767943	2616.152159
934.071153	2609.707044
934.374323	2608.676128
934.677455	2605.374172
934.980548	2601.469798
935.283602	2600.638008
935.586617	2598.427462
935.889593	2601.071547
936.192530	2601.255549
936.495428	2606.599172
936.798287	2613.795419
937.101108	2630.159005
937.403890	2651.735143
937.706632	2680.696572
938.009336	2712.627241
938.312002	2741.152610
938.614628	2762.270003
938.917216	2781.479320
939.219765	2791.954837
939.522275	2801.051600
939.824747	2802.221147
940.127179	2796.118831
940.429573	2789.214970
940.731929	2788.395783
941.034246	2776.748197
941.336524	2778.804988
941.638763	2770.134203
941.940964	2764.112545
942.243126	2747.398599
942.545250	2738.763103
942.847335	2724.136195
943.149381	2712.549103
943.451389	2699.915971
943.753359	2684.416944
944.055290	2677.112312
944.357182	2668.852381
944.659036	2664.290137
944.960851	2661.308294
945.262628	2655.384939
945.564367	2657.237563
945.866067	2653.565082
946.167729	2655.543735
946.469352	2650.399237
946.770937	2650.179947
947.072484	2644.559061
947.373992	2643.356746
947.675462	2641.829276
947.976893	2632.974489
948.278286	2630.864766
948.579641	2630.592544
948.880958	2623.905453
949.182236	2625.811010
949.483476	2621.208436
949.784678	2621.077366
950.085841	2623.451750
950.386967	2625.256483
950.688054	2630.315281
950.989103	2637.062865
951.290114	2646.905718
951.591087	2657.514826
951.892021	2668.930519
952.192917	2684.676563
952.493776	2697.420600
952.794596	2695.104190
953.095378	2698.496886
953.396122	2698.118800
953.696828	2693.019673
953.997496	2689.798375
954.298126	2682.158507
954.598718	2671.085612
954.899272	2661.391473
955.199788	2649.932931
955.500266	2639.648977
955.800706	2621.694908
956.101108	2608.708895
956.401472	2595.644745
956.701798	2583.389700
957.002087	2568.175498
957.302337	2559.194682
957.602550	2547.300080
957.902724	2540.502084
958.202861	2529.003212
958.502960	2520.685308
958.803022	2512.679956
959.103045	2505.831548
959.403031	2498.915085
959.702979	2493.155567
960.002889	2490.100627
960.302762	2485.840853
960.602596	2481.903711
960.902393	2478.836169
961.202153	2475.458596
961.501875	2469.580611
961.801559	2470.132617
962.101205	2467.488532
962.400814	2465.716566
962.700385	2464.199179
962.999918	2464.937708
963.299414	2460.473766
963.598873	2459.500824
963.898293	2457.091152
964.197677	2456.796245
964.497022	2456.753395
964.796331	2454.794907
965.095601	2452.291974
965.394835	2451.583692
965.694030	2451.102261
965.993189	2452.977571
966.292309	2450.615790
966.591393	2450.648558
966.890439	2450.840121
967.189447	2452.102930
967.488419	2449.690738
967.787353	2452.705348
968.086249	2452.569237
968.385108	2451.606377
968.683930	2453.040585
968.982714	2453.769032
969.281462	2454.442026
969.580172	2452.395317
969.878844	2458.913529
970.177480	2461.202213
970.476078	2464.047944
970.774639	2466.568521
971.073162	2468.794191
971.371649	2469.840230
971.670098	2468.267390
971.968510	2471.816362
972.266885	2472.159161
972.565223	2477.520428
972.863524	2476.003041
973.161788	2483.095944
973.460014	2479.340285
973.758204	2484.184833
974.056356	2480.756849
974.354471	2483.826912
974.652550	2481.747436
974.950591	2482.294401
975.248595	2478.813484
975.546563	2477.848103
975.844493	2478.067393
976.142386	2475.559419
976.440243	2473.495067
976.738062	2472.348204
977.035845	2470.540951
977.333590	2467.985086
977.631299	2466.601289
977.928971	2465.391412
978.226606	2461.197172
978.524204	2460.383026
978.821765	2462.911164
979.119290	2460.584672
979.416777	2460.015021
979.714228	2458.674074
980.011642	2460.360340
980.309020	2466.258490
980.606360	2467.070116
980.903664	2477.525469
981.200931	2489.838488
981.498162	2508.377331
981.795356	2536.247350
982.092513	2573.970304
982.389633	2620.086779
982.686717	2662.704694
982.983764	2691.222501
983.280775	2708.906869
983.577749	2710.237734
983.874686	2702.774305
984.171587	2684.656398
984.468451	2671.798936
984.765279	2654.492654
985.062070	2634.040693
985.358824	2614.901953
985.655543	2592.652820
985.952224	2571.104408
986.248869	2546.813608
986.545478	2519.883764
986.842050	2500.319046
987.138586	2482.034781
987.435086	2468.819397
987.731549	2457.978395
988.027975	2449.980605
988.324366	2444.720161
988.620719	2441.007351
988.917037	2437.017278
989.213318	2434.307657
989.509563	2433.435538
989.805772	2434.146340
990.101944	2432.754982
990.398080	2428.981678
990.694180	2429.979827
990.990244	2430.153747
991.286271	2430.236926
991.582262	2429.879004
991.878217	2432.429827
992.174136	2432.996957
992.470019	2431.991247
992.765865	2434.829417
993.061676	2436.808070
993.357450	2439.532813
993.653188	2440.367124
993.948890	2448.385079
994.244556	2452.314659
994.540186	2462.470063
994.835780	2474.115129
995.131337	2487.428816
995.426859	2503.671414
995.722345	2521.859897
996.017795	2539.440921
996.313208	2555.156718
996.608586	2562.534447
996.903928	2568.697257
997.199234	2566.464026
997.494504	2558.935063
997.789738	2557.720145
998.084936	2546.433001
998.380099	2534.961856
998.675225	2522.711852
998.970316	2510.958402
999.265371	2499.192348
999.560390	2484.310862
999.855373	2472.570015
1000.150320	2466.674386
1000.445232	2455.956892
1000.740108	2446.953392
1001.034948	2443.127156
1001.329752	2438.270004
1001.624521	2434.557194
1001.919254	2424.915988
1002.213951	2425.783066
1002.508613	2425.135278
1002.803239	2421.704773
1003.097829	2419.161511
1003.392384	2420.441964
1003.686903	2418.569175
1003.981386	2420.555390
1004.275834	2416.494740
1004.570246	2416.056160
1004.864623	2415.088258
1005.158964	2418.622107
1005.453270	2417.979360
1005.747540	2416.575399
1006.041775	2413.974163
1006.335974	2412.771848
1006.630138	2414.841242
1006.924266	2412.628175
1007.218359	2413.197826
1007.512416	2410.800757
1007.806438	2412.340829
1008.100425	2411.425860
1008.394376	2413.550706
1008.688292	2411.682959
1008.982172	2411.541807
1009.276017	2411.405695
1009.569827	2410.712537
1009.863602	2411.728329
1010.157341	2410.629358
1010.451045	2410.591549
1010.744714	2409.742115
1011.038347	2413.182702
1011.331945	2408.081054
1011.625508	2408.799419
1011.919036	2407.702968
1012.212528	2406.903945
1012.505986	2409.117012
1012.799408	2407.387896
1013.092795	2406.425035
1013.386147	2409.394275
1013.679464	2408.176836
1013.972745	2408.685993
1014.265992	2406.006620
1014.559204	2410.016858
1014.852380	2406.225910
1015.145521	2408.580129
1015.438628	2407.876888
1015.731699	2408.398647
1016.024736	2406.281363
1016.317737	2408.103740
1016.610703	2408.990983
1016.903635	2404.085940
1017.196531	2403.849006
1017.489393	2407.697927
1017.782219	2403.541495
1018.075011	2409.318658
1018.367768	2410.634399
1018.660490	2409.079203
1018.953177	2409.079203
1019.245829	2409.079203
