Dividing Wavelength (nm)	Counts (n)	Blue Motor Position (mm): 30.000000	Red Motor Position (mm): 0.000000	
326.493990	1970.271966
326.888308	1970.271966
327.282561	1970.271966
327.676750	1947.105344
328.070874	1946.606270
328.464933	1951.526436
328.858929	1962.775771
329.252859	1978.925107
329.646726	1988.465491
330.040528	2004.808911
330.434265	2023.655265
330.827938	2044.787782
331.221547	2064.183621
331.615091	2084.436457
332.008571	2106.060486
332.401986	2123.790224
332.795338	2146.722433
333.188625	2165.316729
333.581847	2184.846159
333.975006	2203.816021
334.368100	2221.187837
334.761129	2239.951012
335.154095	2255.046747
335.546996	2291.766512
335.939833	2368.162678
336.332606	2382.991232
336.725315	2395.490773
337.117960	2403.178532
337.510540	2406.891342
337.903056	2421.815678
338.295508	2423.683426
338.687896	2434.801690
339.080220	2441.440890
339.472480	2447.391972
339.864676	2450.222580
340.256807	2453.020420
340.648875	2456.360185
341.040879	2456.922273
341.432818	2460.030145
341.824694	2459.349589
342.216506	2456.849177
342.608253	2459.329424
342.999937	2455.722479
343.391557	2455.818261
343.783113	2453.174176
344.174605	2451.742488
344.566033	2450.857765
344.957397	2449.567230
345.348697	2448.188474
345.739934	2444.596652
346.131106	2444.778134
346.522215	2440.896445
346.913260	2440.651949
347.304241	2441.211517
347.695159	2441.430808
348.086012	2437.060127
348.476802	2436.198090
348.867528	2433.329673
349.258191	2430.425969
349.648789	2433.974941
350.039324	2429.687440
350.429796	2430.667944
350.820203	2428.311205
351.210548	2427.365988
351.600828	2426.934970
351.991045	2427.449168
352.381198	2427.295412
352.771288	2427.852460
353.161314	2427.204672
353.551276	2424.444640
353.941175	2425.062181
354.331010	2425.601585
354.720782	2429.044693
355.110490	2430.342790
355.500135	2425.760381
355.889717	2424.227870
356.279235	2427.829775
356.668689	2428.774991
357.058080	2427.040834
357.447408	2429.574014
357.836672	2425.843560
358.225873	2426.357758
358.615010	2421.792993
359.004084	2432.422266
359.393095	2432.828079
359.782043	2433.594334
360.170927	2433.382606
360.559748	2433.874118
360.948505	2437.206321
361.337199	2435.552822
361.725830	2433.211206
362.114398	2434.980651
362.502903	2432.631474
362.891344	2437.957453
363.279722	2433.967379
363.668037	2437.133224
364.056289	2437.042483
364.444478	2438.096084
364.832603	2435.656166
365.220665	2438.693461
365.608665	2445.131015
365.996601	2439.000972
366.384474	2441.372834
366.772284	2441.579522
367.160031	2440.909048
367.547715	2441.577001
367.935336	2443.348967
368.322893	2442.030705
368.710388	2441.796291
369.097820	2444.301745
369.485189	2444.609255
369.872495	2447.467589
370.259738	2447.497836
370.646918	2446.141766
371.034035	2446.988680
371.421090	2447.190326
371.808081	2442.847372
372.195010	2447.344081
372.581875	2445.778803
372.968678	2448.049843
373.355418	2445.751077
373.742096	2449.368104
374.128710	2445.642692
374.515262	2446.575305
374.901751	2449.231993
375.288177	2451.182920
375.674540	2451.157714
376.060841	2453.118723
376.447079	2450.630913
376.833254	2452.473455
377.219367	2444.967177
377.605417	2451.089658
377.991404	2450.149483
378.377329	2450.010852
378.763191	2449.027827
379.148991	2454.941100
379.534727	2456.619804
379.920402	2452.576799
380.306013	2456.939917
380.691563	2458.159877
381.077049	2452.939762
381.462474	2455.465380
381.847835	2456.740792
382.233134	2457.507047
382.618371	2459.268931
383.003545	2459.480659
383.388657	2461.907975
383.773706	2462.825465
384.158693	2459.357151
384.543618	2464.877214
384.928480	2462.727162
385.313280	2460.839250
385.698017	2462.593572
386.082692	2461.555094
386.467305	2463.778243
386.851856	2461.885289
387.236344	2464.468881
387.620770	2463.427883
388.005133	2464.610033
388.389435	2466.636577
388.773674	2463.120372
389.157851	2469.588172
389.541965	2465.119190
389.926018	2468.443831
390.310008	2467.491052
390.693936	2469.847792
391.077802	2467.470888
391.461606	2467.753192
391.845348	2470.356948
392.229027	2471.473564
392.612645	2470.162864
392.996200	2471.657566
393.379694	2472.224696
393.763125	2474.253760
394.146494	2472.711167
394.529801	2474.674697
394.913047	2475.388020
395.296230	2478.480768
395.679351	2474.742752
396.062410	2476.746611
396.445408	2478.606797
396.828343	2473.003554
397.211217	2475.700572
397.594028	2474.841055
397.976778	2476.683597
398.359466	2477.681745
398.742092	2474.430201
399.124656	2477.359111
399.507158	2477.515387
399.889598	2480.464462
400.271977	2481.185347
400.654294	2480.041005
401.036549	2481.502940
401.418742	2481.911273
401.800874	2482.183495
402.182944	2484.595687
402.564952	2488.469814
402.946898	2484.709113
403.328783	2487.552324
403.710606	2485.709782
404.092367	2488.432006
404.474067	2488.568117
404.855705	2489.478045
405.237282	2489.901502
405.618797	2490.231697
406.000250	2488.661378
406.381642	2494.373005
406.762972	2492.361585
407.144240	2491.053406
407.525447	2492.119610
407.906593	2494.161277
408.287677	2494.272182
408.668700	2495.613129
409.049661	2499.847698
409.430560	2495.416524
409.811399	2498.844509
410.192176	2498.778974
410.572891	2497.823675
410.953545	2499.152019
411.334138	2498.970538
411.714669	2501.715446
412.095139	2499.774602
412.475547	2499.910713
412.855894	2501.982627
413.236180	2505.319871
413.616405	2504.488081
413.996568	2503.789881
414.376670	2507.525376
414.756711	2505.423215
415.136691	2503.595796
415.516609	2507.931189
415.896466	2510.081241
416.276262	2510.580315
416.655997	2509.614934
417.035670	2506.623009
417.415283	2515.883609
417.794834	2511.311282
418.174324	2517.295132
418.553753	2514.885460
418.933121	2519.838394
419.312428	2520.098013
419.691674	2522.522808
420.070859	2524.635052
420.449983	2525.434075
420.829045	2529.068747
421.208047	2527.992460
421.586988	2531.218799
421.965867	2532.065713
422.344686	2534.361958
422.723444	2539.317413
423.102141	2537.255581
423.480777	2543.839328
423.859352	2543.748587
424.237866	2556.152346
424.616319	2556.704352
424.994712	2560.931360
425.373044	2564.394632
425.751314	2571.860581
426.129524	2574.489543
426.507673	2588.224167
426.885762	2591.949579
427.263789	2599.891917
427.641756	2612.819956
428.019662	2621.828498
428.397508	2629.670013
428.775292	2648.347488
429.153016	2661.545229
429.530679	2677.311437
429.908282	2695.431865
430.285824	2708.569112
430.663305	2740.570356
431.040726	2756.787748
431.418086	2778.726850
431.795385	2819.093889
432.172624	2857.583099
432.549802	2886.158879
432.926920	2920.446287
433.303977	2960.576393
433.680974	3006.463495
434.057910	3061.162535
434.434786	3112.496605
434.811601	3164.014677
435.188355	3256.787031
435.565050	3308.161430
435.941683	3368.932539
436.318257	3478.733911
436.694770	3543.008623
437.071222	3658.473731
437.447614	3682.988862
437.823946	3764.040534
438.200218	3867.472408
438.576429	3943.674489
438.952580	4060.183116
439.328670	4157.399248
439.704700	4297.079538
440.080670	4361.961709
440.456580	4529.746433
440.832429	4665.819778
441.208218	4671.773380
441.583947	4834.897557
441.959616	4968.256241
442.335224	5132.300428
442.710773	5279.232419
443.086261	5491.313761
443.461689	5537.291605
443.837057	5688.869019
444.212365	5935.636020
444.587612	6093.182160
444.962800	6173.200395
445.337927	6401.330251
445.712995	6307.373225
446.088002	6835.812177
446.462949	7060.834161
446.837837	7272.809639
447.212664	7450.573327
447.587431	8343.185233
447.962139	9320.488523
448.336786	10166.247945
448.711374	9986.881171
449.085901	9181.791257
449.460369	9369.450730
449.834776	9568.104959
450.209124	10570.969420
450.583412	10679.213075
450.957640	11065.708258
451.331808	10859.187309
451.705917	10611.699422
452.079965	10835.624956
452.453954	11202.870493
452.827883	11393.534493
453.201752	11532.302335
453.575562	11819.819503
453.949311	12514.440092
454.323001	12803.661170
454.696632	12961.940798
455.070202	13876.340571
455.443713	14210.707703
455.817164	14721.553028
456.190556	15233.744341
456.563888	15235.299537
456.937160	15700.963520
457.310373	15131.330780
457.683526	15589.881695
458.056619	15825.676625
458.429653	16052.473096
458.802628	16609.543281
459.175542	16930.601766
459.548398	17935.351619
459.921194	19122.419841
460.293930	19796.369178
460.666607	21300.878859
461.039224	22659.449656
461.411782	23198.598539
461.784280	22714.867060
462.156719	22686.744983
462.529099	22599.860697
462.901419	22040.249770
463.273680	21586.545924
463.645882	21899.457905
464.018024	22144.868836
464.390106	22972.606133
464.762130	25124.745286
465.134094	28288.606207
465.505999	32458.913329
465.877845	36275.379342
466.249631	37550.506440
466.621358	36488.670561
466.993026	35137.384232
467.364634	33820.203828
467.736184	32561.747826
468.107674	31846.181244
468.479105	31483.434936
468.850477	31199.436493
469.221790	30295.792022
469.593043	29132.833118
469.964238	28613.256515
470.335373	28736.676564
470.706449	30319.450157
471.077467	32629.705101
471.448425	36737.849755
471.819324	39431.688615
472.190164	38089.864531
472.560945	35196.595104
472.931667	32712.685014
473.302330	31942.124484
473.672934	31374.150283
474.043479	31977.425163
474.413965	31439.503801
474.784393	31268.613727
475.154761	32177.251461
475.525070	32354.347195
475.895321	32063.896075
476.265513	32735.448344
476.635645	33725.795620
477.005719	33687.586194
477.375734	34232.295470
477.745691	34987.178012
478.115588	36299.909597
478.485427	38235.672344
478.855207	41454.723818
479.224928	44042.232141
479.594591	45746.958808
479.964194	44857.522829
480.333739	45077.664976
480.703226	45189.959199
481.072653	45902.314566
481.442022	46494.594691
481.811333	46851.218517
482.180584	45688.615014
482.549777	45263.373522
482.918912	44820.727447
483.287988	44609.281290
483.657005	43883.108120
484.025964	43316.573168
484.394864	43402.943257
484.763706	43044.444122
485.132489	42253.464398
485.501213	42134.011737
485.869879	42329.979031
486.238487	41996.549554
486.607036	42238.567788
486.975527	41758.445776
487.343959	41997.099040
487.712333	42117.779222
488.080648	42051.057030
488.448905	42516.814275
488.817104	42359.356355
489.185244	43304.023216
489.553326	44972.715715
489.921350	47672.354423
490.289315	50643.915489
490.657222	51330.586178
491.025070	51639.351810
491.392861	50726.683674
491.760593	49453.757039
492.128267	47775.110782
492.495883	46259.008968
492.863440	44922.909115
493.230939	43589.198768
493.598380	42567.722367
493.965763	42273.364353
494.333088	41485.956287
494.700354	41058.602552
495.067563	40782.866560
495.434713	40673.052585
495.801805	40753.476633
496.168839	40394.879195
496.535815	40093.982804
496.902733	40123.430705
497.269593	39735.844112
497.636395	39681.460144
498.003139	40069.722252
498.369825	39549.911234
498.736453	39852.783758
499.103023	39420.555227
499.469535	39299.537287
499.835989	39399.957072
500.202385	39073.983462
500.568723	39102.115621
500.935003	39294.891864
501.301226	39117.503743
501.667390	39715.911389
502.033497	39964.205860
502.399546	39407.483515
502.765537	38760.171635
503.131470	39132.465887
503.497345	39474.742589
503.863163	38169.660955
504.228923	38770.697564
504.594625	39176.306282
504.960269	38490.331272
505.325856	39147.417950
505.691385	38541.193994
506.056856	38671.991772
506.422270	39110.471333
506.787625	38699.390443
507.152924	38882.573371
507.518164	38990.391048
507.883347	38213.156031
508.248472	38464.994433
508.613540	38920.026623
508.978550	39218.450328
509.343503	38966.077563
509.708398	39159.249538
510.073236	39684.951143
510.438016	39693.155621
510.802738	39145.020881
511.167403	39759.666084
511.532010	39967.724586
511.896561	40265.722313
512.261053	41091.725453
512.625488	40657.576243
512.989866	40512.166681
513.354186	40367.972037
513.718449	40364.561696
514.082655	41017.542354
514.446803	40706.425023
514.810894	41210.585778
515.174927	41135.898564
515.538904	41048.426983
515.902822	41687.650332
516.266684	41156.146358
516.630488	41560.305744
516.994235	41409.345872
517.357925	41960.903555
517.721558	42120.750982
518.085133	42426.917899
518.448651	42558.895307
518.812112	42331.952643
519.175516	42426.360852
519.538863	42780.312866
519.902152	42721.810276
520.265385	43175.496478
520.628560	43224.889703
520.991678	43000.434849
521.354739	43247.640430
521.717743	43544.556830
522.080690	43448.953868
522.443580	43992.914533
522.806413	44031.023135
523.169189	43981.939941
523.531908	44150.450590
523.894569	44018.533677
524.257174	44177.030074
524.619722	44481.346888
524.982213	44461.330986
525.344647	44388.304832
525.707025	44429.155822
526.069345	44816.780223
526.431608	44750.610038
526.793815	45048.045677
527.155964	44602.634529
527.518057	44771.777843
527.880093	44552.598556
528.242072	45071.020735
528.603995	44768.831289
528.965860	44795.380525
529.327669	44872.933636
529.689421	44769.174087
530.051117	44745.581487
530.412755	44872.132093
530.774337	44952.392303
531.135862	44755.661274
531.497331	44967.127596
531.858743	44872.653852
532.220098	45206.332866
532.581396	44916.237148
532.942638	44583.548720
533.303824	44862.024579
533.664953	44856.630545
534.026025	44574.711578
534.387040	45030.709149
534.747999	44980.181664
535.108902	45144.634184
535.469748	44655.528835
535.830537	44795.882120
536.191270	44991.902346
536.551947	44635.744827
536.912567	44933.886227
537.273131	45063.569910
537.633638	44569.163788
537.994089	44882.227003
538.354483	44491.751829
538.714821	45061.702163
539.075103	45410.071099
539.435328	45172.080747
539.795497	45069.626856
540.155609	45062.937245
540.515665	45507.811510
540.875665	44979.382641
541.235609	45304.433720
541.595496	45266.219253
541.955328	45926.428926
542.315102	45322.440722
542.674821	45114.266274
543.034483	45148.810780
543.394090	45100.735817
543.753640	45065.248614
544.113134	46048.308902
544.472571	45099.606598
544.831953	46313.037535
545.191278	45547.210648
545.550548	45278.562519
545.909761	45723.893008
546.268918	45932.659792
546.628019	46214.498101
546.987064	45784.621268
547.346053	45082.746459
547.704986	45926.675942
548.063863	45512.464495
548.422684	45704.618157
548.781449	45568.897692
549.140158	45949.875332
549.498811	45792.898843
549.857408	45251.912459
550.215949	46073.106338
550.574434	45996.382497
550.932864	45774.513755
551.291237	46482.654718
551.649555	46099.534587
552.007817	46349.885849
552.366022	45988.137690
552.724173	46172.112079
553.082267	46558.879484
553.440305	46849.328084
553.798288	46185.977773
554.156215	46500.800351
554.514086	46699.666308
554.871902	46439.066381
555.229661	46472.466546
555.587365	46302.874569
555.945014	46389.045532
556.302606	46326.106726
556.660143	46546.831127
557.017625	46622.904659
557.375050	46425.810667
557.732421	46773.526774
558.089735	46764.485465
558.446994	46693.034671
558.804197	47139.159142
559.161345	47074.561797
559.518437	46358.475975
559.875474	46658.525452
560.232455	46828.548448
560.589381	46984.153743
560.946251	46688.628702
561.303065	47374.424751
561.659825	47180.115996
562.016528	46883.018115
562.373177	46591.553723
562.729770	47063.962771
563.086307	46596.536904
563.442789	47029.340126
563.799216	47089.586956
564.155587	46889.884167
564.511904	46921.734177
564.868164	47025.581946
565.224370	47252.050741
565.580520	47003.022782
565.936615	47197.268522
566.292654	46936.386290
566.648638	47170.956220
567.004567	47147.093918
567.360441	47177.615584
567.716260	47037.106023
568.072023	47320.378540
568.427732	47312.932756
568.783385	46887.396357
569.138982	47279.429248
569.494525	47254.256246
569.850013	47010.113165
570.205445	46975.931622
570.560823	46925.293231
570.916145	46793.968653
571.271412	46843.871035
571.626625	46595.662263
571.981782	46676.277875
572.336884	46347.468616
572.691931	46693.866461
573.046923	46285.747248
573.401860	46137.824671
573.756743	46137.870042
574.111570	46246.035559
574.466342	46103.360823
574.821059	46224.129225
575.175722	45747.629281
575.530330	45769.848167
575.884882	45504.907806
576.239380	45460.220498
576.593823	45419.377069
576.948211	45356.350043
577.302544	44890.413837
577.656823	44924.050936
578.011047	45157.007697
578.365216	44879.288011
578.719330	44677.014233
579.073389	44537.563315
579.427394	44618.955264
579.781344	44593.048775
580.135239	44255.230973
580.489080	44329.913147
580.842866	43833.621633
581.196597	44276.940702
581.550273	44221.311569
581.903895	44081.051546
582.257463	44511.056928
582.610975	43904.406995
582.964434	44189.365777
583.317837	43845.727964
583.671186	43679.838714
584.024481	43906.652829
584.377721	43424.912605
584.730906	43722.244900
585.084037	43750.797996
585.437113	43467.512876
585.790135	43485.658509
586.143103	43107.839152
586.496016	43242.175820
586.848874	43245.308897
587.201679	43276.090182
587.554428	42747.820109
587.907124	42941.357567
588.259765	42704.413254
588.612352	42946.736478
588.964884	42353.170859
589.317362	42640.292297
589.669786	42574.817791
590.022155	42354.715973
590.374470	42775.922021
590.726731	42315.969665
591.078937	41827.938081
591.431090	41919.392174
591.783188	41569.440315
592.135232	41259.399271
592.487222	41493.127328
592.839157	41594.043666
593.191038	41272.281940
593.542866	41035.693028
593.894639	40442.792842
594.246358	40712.587834
594.598022	40683.263442
594.949633	40302.716821
595.301190	40264.028485
595.652692	40101.748702
596.004141	40438.618767
596.355535	39450.383734
596.706876	39406.644163
597.058162	39258.124209
597.409395	39687.075989
597.760573	39768.838464
598.111698	39339.463226
598.462768	39372.520592
598.813785	39396.282071
599.164748	38872.470898
599.515657	39263.944221
599.866511	38745.524562
600.217312	39340.917599
600.568060	38323.988319
600.918753	39067.987009
601.269392	39025.764825
601.619978	38682.792444
601.970510	38888.680728
602.320988	39058.267664
602.671412	39357.268581
603.021783	39090.470555
603.372100	38763.082901
603.722363	38878.449707
604.072572	38955.876789
604.422728	38952.789082
604.772830	38780.041342
605.122878	38856.180410
605.472872	38804.304416
605.822813	39069.622863
606.172701	38919.600646
606.522534	39156.723920
606.872314	39392.367615
607.222041	39148.552209
607.571714	39550.488447
607.921333	38994.613015
608.270899	39297.989653
608.620411	39619.597625
608.969870	39414.195811
609.319276	39420.446842
609.668627	39473.245367
610.017926	39962.307866
610.367171	40114.417122
610.716362	40202.110513
611.065500	40136.850256
611.414585	40344.510507
611.763616	40622.620882
612.112594	40545.529037
612.461518	40765.673705
612.810389	41053.243805
613.159207	40903.788717
613.507971	40998.426298
613.856682	41474.049081
614.205340	41353.031142
614.553945	42050.184910
614.902496	41494.874088
615.250994	41950.163377
615.599439	42010.745443
615.947830	42240.133067
616.296169	42288.329018
616.644454	42419.895572
616.992686	42597.878549
617.340864	43118.493631
617.688990	42825.370699
618.037063	43416.811471
618.385082	43385.329465
618.733048	43689.454715
619.080961	43704.126993
619.428821	43704.870564
619.776628	43830.062578
620.124382	43639.882529
620.472083	43779.933344
620.819731	43891.884768
621.167326	43574.229062
621.514868	43544.821491
621.862357	43106.145324
622.209793	43127.542502
622.557176	42803.247595
622.904506	42540.953840
623.251783	42210.591905
623.599007	41972.848569
623.946179	41763.076075
624.293297	41724.425549
624.640363	41145.983392
624.987376	41119.429114
625.334336	40886.671479
625.681243	40523.423577
626.028097	40510.311536
626.374899	40355.631292
626.721647	40342.105876
627.068343	40227.633875
627.414987	39995.037557
627.761577	39760.255899
628.108115	40108.634918
628.454600	39564.444881
628.801032	39753.150393
629.147412	39712.135565
629.493739	39725.703831
629.840014	39359.968119
630.186236	39718.494981
630.532405	39331.079787
630.878521	39542.498218
631.224585	39429.576372
631.570597	39137.333121
631.916556	39301.205909
632.262462	39262.053788
632.608316	39254.928117
632.954117	39152.988425
633.299866	39152.960698
633.645562	39052.200636
633.991206	38585.949358
634.336797	38150.512132
634.682336	38146.980804
635.027823	37907.223527
635.373257	37709.333033
635.718639	37481.924062
636.063968	37326.979158
636.409245	36774.206556
636.754470	36817.157187
637.099642	36589.760819
637.444762	36114.188448
637.789829	36262.065655
638.134845	35917.039003
638.479808	35868.132249
638.824719	35769.255058
639.169577	35383.536212
639.514383	35429.962719
639.859137	35163.383983
640.203839	35387.095267
640.548489	35029.846338
640.893086	35084.537816
641.237632	34848.314388
641.582125	34974.794417
641.926566	34898.365484
642.270955	34863.883992
642.615292	34883.383175
642.959576	34849.715829
643.303809	34859.929206
643.647990	35008.517216
643.992118	34972.679653
644.336195	34973.473635
644.680219	35048.990120
645.024192	35356.969332
645.368112	35871.141818
645.711981	35881.335031
646.055797	36747.841322
646.399562	36669.063211
646.743274	37613.120091
647.086935	38056.444202
647.430544	37946.867161
647.774101	38059.118534
648.117606	38293.834657
648.461059	38594.607539
648.804460	38206.015236
649.147810	37593.968748
649.491108	37361.838737
649.834354	36989.110945
650.177548	36182.271751
650.520690	35736.525366
650.863781	35736.575778
651.206820	35597.182833
651.549807	35160.999517
651.892742	34681.719377
652.235626	34485.537834
652.578458	34373.936770
652.921238	33764.937659
653.263967	34099.892085
653.606644	33780.078764
653.949269	33730.231835
654.291843	33328.537573
654.634365	33729.246290
654.976836	33328.613191
655.319255	33333.724921
655.661622	33327.373067
656.003938	33103.182873
656.346203	32964.077274
656.688416	33188.262426
657.030577	33002.982378
657.372687	32829.264217
657.714746	33093.851697
658.056753	33222.010431
658.398708	32664.514268
658.740612	32732.698394
659.082465	33000.797038
659.424266	32831.321008
659.766016	32932.063426
660.107715	32832.644311
660.449362	32944.038687
660.790958	32940.106587
661.132503	32954.093268
661.473996	33000.650845
661.815438	33114.152424
662.156829	33288.586429
662.498168	33072.313367
662.839456	33100.674899
663.180693	33246.376848
663.521879	33399.489293
663.863013	33351.305945
664.204097	33350.085985
664.545129	33818.759538
664.886110	33784.807367
665.227040	33851.312789
665.567918	33965.993998
665.908746	34016.632388
666.249522	34193.768452
666.590248	34181.309240
666.930922	34298.478258
667.271545	34265.239411
667.612118	34353.275601
667.952639	34133.589678
668.293109	34176.026111
668.633528	34078.303344
668.973896	34006.156870
669.314213	34032.910274
669.654480	33774.185656
669.994695	33812.543795
670.334859	33703.095304
670.674973	33594.697893
671.015035	33758.036319
671.355047	33709.500090
671.695008	33667.560211
672.034918	33547.752148
672.374777	33643.282014
672.714585	33472.545695
673.054342	33712.633167
673.394049	33468.595951
673.733705	33733.717793
674.073310	33414.912703
674.412864	33490.905577
674.752368	33092.425051
675.091820	33381.303331
675.431223	32963.845381
675.770574	32691.973433
676.109875	32548.323234
676.449125	32264.465943
676.788324	32180.198015
677.127473	31663.608295
677.466571	31593.463160
677.805619	31245.452146
678.144616	31236.136093
678.483562	31160.261687
678.822458	30853.462105
679.161303	30773.640475
679.500098	30681.992298
679.838842	30573.904918
680.177535	30738.932131
680.516179	31001.735042
680.854771	31238.724726
681.193314	32109.886522
681.531805	33231.966710
681.870247	34014.936040
682.208638	34752.340901
682.546978	34970.393490
682.885268	35062.064352
683.223508	34513.823748
683.561697	34186.393244
683.899836	34007.366747
684.237925	33492.969929
684.575963	33351.419371
684.913951	32887.197157
685.251889	33044.324881
685.589776	33037.305074
685.927614	33026.564896
686.265401	33173.247350
686.603137	33280.230717
686.940824	33770.286323
687.278460	34151.906710
687.616046	34311.146678
687.953582	34918.673772
688.291068	34777.773522
688.628504	35068.002831
688.965889	34993.723950
689.303224	34599.135194
689.640510	34250.609982
689.977745	33521.288611
690.314930	32718.696590
690.652065	32199.301468
690.989150	31457.747737
691.326185	30559.698947
691.663170	29862.862771
692.000105	29104.060733
692.336990	28438.545246
692.673825	27975.548033
693.010610	27458.902860
693.347345	26885.627886
693.684030	26245.371100
694.020665	25968.478164
694.357251	25293.384485
694.693786	25254.396201
695.030272	25020.950448
695.366707	24468.689524
695.703093	24201.815881
696.039429	24184.751575
696.375716	23918.906327
696.711952	23886.831985
697.048139	23734.427822
697.384276	23564.102357
697.720363	23682.163660
698.056400	23481.218226
698.392388	23264.919959
698.728326	23235.537594
699.064214	23020.676055
699.400053	22972.863231
699.735842	22611.377212
700.071581	22338.786901
700.407270	22055.237120
700.742910	21858.977439
701.078501	21590.891398
701.414042	21311.566105
701.749533	21013.036536
702.084974	20664.516365
702.420366	20869.986234
702.755709	20428.083729
703.091002	20149.686008
703.426246	20151.762963
703.761440	20056.800227
704.096584	19787.857190
704.431679	19746.045860
704.766725	19652.739144
705.101721	19600.230485
705.436668	19686.958496
705.771565	19372.892091
706.106413	19711.329954
706.441212	19690.366316
706.775961	19822.313477
707.110661	19881.836901
707.445311	20247.393651
707.779913	20095.153326
708.114465	20341.033084
708.448967	20623.768718
708.783421	21320.284780
709.117825	21590.898960
709.452180	21810.640336
709.786485	22215.477757
710.120742	23014.921578
710.454949	23033.357077
710.789107	23493.682479
711.123216	24207.910636
711.457275	24319.458767
711.791286	24871.802871
712.125247	24930.267652
712.459159	24617.824499
712.793023	25273.441680
713.126837	24174.931407
713.460602	24414.416462
713.794318	24049.106728
714.127985	23655.072499
714.461602	22757.250561
714.795171	22721.765879
715.128691	21711.440510
715.462162	21163.149494
715.795584	20743.730536
716.128957	20487.249231
716.462281	20084.529094
716.795556	19842.195787
717.128782	19359.371716
717.461960	18809.091965
717.795088	18737.066480
718.128167	18333.713678
718.461198	17872.987505
718.794180	17732.130104
719.127113	17371.296915
719.459997	17171.873910
719.792833	16836.349833
720.125619	16803.627704
720.458357	16492.255795
720.791046	16322.905794
721.123686	16168.316290
721.456278	15927.913746
721.788821	15888.973353
722.121315	15624.895029
722.453761	15698.006883
722.786158	15629.041378
723.118506	15639.673172
723.450805	15505.185269
723.783056	15672.886814
724.115259	15564.128961
724.447412	15493.663712
724.779518	15739.813172
725.111574	15771.267452
725.443582	15962.995135
725.775542	15940.231805
726.107453	16408.428969
726.439315	16294.168696
726.771129	16693.997731
727.102895	17063.804174
727.434612	17265.578878
727.766281	17386.168319
728.097901	17650.130696
728.429473	17694.404630
728.760996	17661.677459
729.092471	17752.766068
729.423897	17629.978683
729.755276	17494.875760
730.086606	17604.626721
730.417887	18125.486298
730.749120	18641.927304
731.080305	18822.879521
731.411442	19150.786414
731.742530	19219.381394
732.073570	19311.914294
732.404562	19595.965669
732.735506	19410.458769
733.066401	19131.982910
733.397249	18615.872100
733.728048	17979.557497
734.058798	17134.778579
734.389501	16469.031200
734.720156	16003.178173
735.050762	15481.564943
735.381320	15138.060720
735.711831	14884.767945
736.042293	14546.546851
736.372707	14557.700404
736.703073	14353.682387
737.033391	14538.470923
737.363661	14502.900541
737.693883	14616.258447
738.024056	14782.334219
738.354182	14964.909688
738.684260	15252.373925
739.014290	15471.255783
739.344272	15666.844991
739.674207	15952.323013
740.004093	16049.932354
740.333931	16050.925461
740.663722	16081.767241
740.993464	16072.690643
741.323159	15900.631021
741.652806	15619.939575
741.982405	15397.357509
742.311956	15067.406428
742.641460	14955.339058
742.970915	14648.584846
743.300323	14311.755111
743.629683	14103.220220
743.958996	13822.007015
744.288260	13556.040779
744.617477	13256.024069
744.946647	13181.667050
745.275768	12908.113878
745.604842	12720.194786
745.933869	12558.545147
746.262847	12506.974143
746.591778	12430.083944
746.920662	12336.343688
747.249498	12344.124709
747.578286	12456.161833
747.907027	12595.068306
748.235720	12823.750168
748.564365	12839.100482
748.892963	12751.707039
749.221514	12810.736430
749.550017	12658.954849
749.878473	12627.818162
750.206881	12403.113771
750.535242	12308.665233
750.863555	12230.829817
751.191821	12126.944240
751.520039	12157.927171
751.848210	12061.373952
752.176334	12091.275556
752.504411	11999.657626
752.832440	11846.066271
753.160421	11909.771332
753.488356	11784.856581
753.816243	11688.855368
754.144082	11545.953779
754.471875	11494.183650
754.799620	11435.887747
755.127318	11415.513924
755.454969	11379.341124
755.782572	11323.648977
756.110129	11331.661891
756.437638	11262.575398
756.765100	11252.223389
757.092515	11249.886814
757.419882	11267.629155
757.747203	11276.037800
758.074477	11345.971206
758.401703	11309.435444
758.728882	11469.277829
759.056014	11510.438851
759.383099	11621.929009
759.710138	11727.319371
760.037129	11805.454735
760.364073	11824.265801
760.690970	11802.321658
761.017820	11803.496247
761.344623	12000.272646
761.671379	12314.661685
761.998088	12940.594032
762.324751	14481.894053
762.651366	17337.657295
762.977935	20995.334524
763.304456	23208.269992
763.630931	23683.212220
763.957359	22510.675123
764.283740	20591.996846
764.610074	18719.303974
764.936362	16600.877537
765.262602	15090.084059
765.588796	13622.533598
765.914943	12590.707708
766.241044	11750.853998
766.567097	11127.003648
766.893104	10582.586759
767.219064	10215.779802
767.544978	9837.378192
767.870845	9524.700624
768.196665	9331.758023
768.522438	9143.871698
768.848165	8980.132501
769.173846	8812.153693
769.499479	8689.066360
769.825066	8534.955766
770.150607	8354.336265
770.476101	8287.740102
770.801548	8183.312600
771.126949	8043.644912
771.452303	7955.520502
771.777611	7789.016232
772.102872	7770.608458
772.428087	7648.516753
772.753256	7524.867332
773.078378	7442.464631
773.403453	7298.784185
773.728482	7197.373813
774.053465	7132.438711
774.378401	7048.080042
774.703291	6953.054292
775.028135	6861.287648
775.352932	6820.822306
775.677683	6743.203660
776.002388	6651.124465
776.327046	6652.415000
776.651658	6563.594911
776.976224	6491.093036
777.300743	6473.280119
777.625216	6407.109933
777.949643	6365.568305
778.274024	6364.673500
778.598359	6303.854500
778.922647	6301.933820
779.246889	6265.919817
779.571086	6268.878974
779.895236	6282.979082
780.219339	6280.410614
780.543397	6274.913236
780.867409	6325.357542
781.191374	6327.081616
781.515294	6294.346884
781.839167	6344.584502
782.162995	6308.623431
782.486776	6268.112719
782.810511	6224.491615
783.134201	6149.912785
783.457844	6143.384491
783.781441	6091.349701
784.104993	6047.796652
784.428498	6019.488053
784.751958	5998.693293
785.075372	5975.924922
785.398739	5934.411020
785.722061	5956.019926
786.045337	5957.323064
786.368568	6069.289611
786.691752	6091.266522
787.014891	6332.238717
787.337983	6615.886799
787.661030	7055.397277
787.984031	7477.137687
788.306987	7742.138542
788.629897	7830.036100
788.952760	7739.638130
789.275579	7564.193373
789.598351	7267.004751
789.921078	6999.906776
790.243759	6719.535443
790.566395	6520.823241
790.888984	6323.613302
791.211529	6189.379978
791.534027	6024.622468
791.856480	5886.328494
792.178888	5832.191543
792.501249	5760.120687
792.823566	5657.228217
793.145836	5653.089429
793.468062	5634.071676
793.790241	5591.438638
794.112375	5635.021934
794.434464	5732.018775
794.756507	5767.135453
795.078505	5884.319594
795.400457	6104.537359
795.722364	6340.939748
796.044226	6531.946547
796.366042	6688.343304
796.687812	6640.590974
797.009538	6664.705333
797.331218	6572.764769
797.652852	6505.896384
797.974442	6386.968003
798.295986	6308.270551
798.617484	6182.324883
798.938938	6074.973512
799.260346	6009.793914
799.581709	5867.381318
799.903026	5821.075799
800.224299	5748.029480
800.545526	5634.059073
800.866708	5566.676491
801.187845	5515.516341
801.508936	5444.035300
801.829983	5412.507924
802.150984	5309.345751
802.471940	5280.832985
802.792851	5267.471407
803.113717	5241.292695
803.434538	5218.098346
803.755314	5184.488973
804.076045	5171.825595
804.396731	5140.509947
804.717372	5157.296990
805.037967	5157.791023
805.358518	5187.301937
805.679024	5243.067181
805.999485	5253.106639
806.319901	5275.849805
806.640272	5289.660046
806.960598	5337.997149
807.280879	5331.516746
807.601115	5366.971181
807.921306	5328.945757
808.241453	5321.905786
808.561554	5335.862221
808.881611	5299.175223
809.201623	5294.877640
809.521590	5248.022635
809.841513	5232.276591
810.161390	5251.553964
810.481223	5161.922248
810.801011	5145.389784
811.120755	5118.112101
811.440453	5069.031427
811.760107	5038.139236
812.079716	5012.711656
812.399281	4966.317917
812.718801	4950.700423
813.038276	4922.835445
813.357707	4886.965115
813.677093	4907.853136
813.996434	4845.766285
814.315731	4865.512484
814.634983	4865.373853
814.954191	4869.505078
815.273354	4931.526394
815.592473	4966.907732
815.911547	5041.962951
816.230577	5099.210294
816.549562	5186.664231
816.868502	5239.455194
817.187399	5290.917813
817.506250	5368.367581
817.825058	5395.796499
818.143821	5552.657042
818.462539	5718.793308
818.781213	5942.280261
819.099843	6304.421630
819.418429	6935.780778
819.736970	7550.988070
820.055466	8262.942666
820.373919	9171.345987
820.692327	10621.204518
821.010691	13296.653249
821.329011	19499.659466
821.647286	29075.734489
821.965517	39451.172675
822.283704	44957.539321
822.601847	46437.596885
822.919945	41847.903571
823.237999	36701.394651
823.556010	31492.750989
823.873976	26774.606555
824.191897	22569.943969
824.509775	19497.988323
824.827609	16727.884367
825.145398	15169.202448
825.463144	14417.916770
825.780845	14711.682448
826.098502	15957.885926
826.416116	18410.245955
826.733685	20711.162161
827.051210	21254.495202
827.368692	19823.278858
827.686129	17254.274090
828.003522	14781.593170
828.320872	12554.451730
828.638177	10910.075236
828.955439	9662.097272
829.272656	8603.623843
829.589830	7767.644260
829.906960	7033.347270
830.224046	6497.210476
830.541088	6092.146203
830.858086	5834.056770
831.175041	5626.928361
831.491952	5573.950876
831.808819	5604.527994
832.125642	5849.533112
832.442421	6390.413632
832.759157	7499.283476
833.075849	9271.362479
833.392497	11117.808583
833.709101	12241.612846
834.025662	11991.543888
834.342179	10939.008939
834.658653	9631.595771
834.975083	8529.501238
835.291469	7621.501210
835.607811	6886.732872
835.924110	6364.197111
836.240366	5877.526640
836.556578	5424.394964
836.872746	5073.094597
837.188871	4804.257424
837.504952	4579.590841
837.820990	4413.872991
838.136984	4297.530722
838.452935	4247.973659
838.768842	4278.326446
839.084706	4561.258685
839.400526	5298.114061
839.716303	6208.959820
840.032037	6769.931858
840.347727	6626.604293
840.663373	6031.296955
840.978977	5449.300785
841.294537	5005.442312
841.610054	4681.104556
841.925527	4437.389973
842.240957	4230.289291
842.556344	4052.518042
842.871687	3889.812281
843.186987	3740.861308
843.502244	3619.982001
843.817458	3534.486552
844.132629	3462.277064
844.447756	3415.374169
844.762840	3373.278014
845.077881	3332.691684
845.392879	3300.282106
845.707833	3276.049280
846.022745	3247.067686
846.337613	3235.989751
846.652438	3213.218859
846.967221	3202.566901
847.281960	3187.173737
847.596656	3173.968435
847.911309	3164.942249
848.225919	3148.596307
848.540485	3140.986686
848.855009	3136.217754
849.169490	3121.285857
849.483928	3114.923920
849.798323	3107.979731
850.112675	3094.565221
850.426984	3098.101590
850.741251	3089.491299
851.055474	3085.791092
851.369654	3090.552462
851.683792	3086.247317
851.997887	3088.944334
852.311938	3087.376535
852.625947	3088.936772
852.939914	3083.935948
853.253837	3088.712441
853.567718	3088.132708
853.881555	3079.164496
854.195350	3081.851431
854.509103	3080.623910
854.822812	3078.700709
855.136479	3075.318095
855.450103	3079.436718
855.763685	3072.512693
856.077224	3074.214082
856.390720	3085.498705
856.704173	3094.403904
857.017584	3097.468925
857.330953	3105.653238
857.644278	3114.276132
857.957561	3116.463993
858.270802	3112.375617
858.584000	3113.424177
858.897155	3110.515431
859.210268	3096.856425
859.523339	3088.450301
859.836367	3082.390834
860.149352	3077.437900
860.462295	3073.810790
860.775195	3063.133626
861.088054	3057.248079
861.400869	3059.267061
861.713642	3056.864952
862.026373	3064.971127
862.339062	3071.098649
862.651708	3079.214907
862.964312	3094.799634
863.276873	3105.232302
863.589392	3134.667599
863.901869	3161.312618
864.214303	3182.989580
864.526696	3199.897610
864.839045	3216.508212
865.151353	3229.809296
865.463619	3230.099162
865.775842	3233.658217
866.088023	3236.156109
866.400162	3229.232084
866.712258	3231.283833
867.024313	3233.023032
867.336325	3231.430027
867.648296	3230.567990
867.960224	3226.792165
868.272110	3233.874987
868.583954	3228.503637
868.895755	3239.379927
869.207515	3239.334556
869.519233	3254.047164
869.830909	3259.000097
870.142542	3273.342180
870.454134	3277.733025
870.765684	3292.125519
871.077191	3308.224444
871.388657	3321.840601
871.700081	3337.894155
872.011463	3364.024976
872.322803	3380.093654
872.634101	3396.371540
872.945357	3418.179571
873.256571	3445.285855
873.567744	3460.984008
873.878874	3466.607416
874.189963	3484.269098
874.501010	3481.849344
874.812015	3479.384220
875.122979	3491.760253
875.433900	3492.196313
875.744780	3495.581447
876.055618	3503.874145
876.366415	3502.563445
876.677169	3509.076616
876.987882	3525.480531
877.298554	3545.914848
877.609183	3583.826845
877.919771	3630.288640
878.230317	3697.845142
878.540822	3800.324238
878.851285	3955.435501
879.161707	4173.407432
879.472087	4549.661511
879.782425	5181.829765
880.092722	6361.351380
880.402977	8298.903737
880.713191	10695.087669
881.023363	13094.235798
881.333494	14454.752481
881.643583	14914.518314
881.953631	14512.856820
882.263637	13663.913909
882.573602	12615.079167
882.883526	11649.234419
883.193408	10691.079951
883.503248	9768.400083
883.813048	8936.564328
884.122806	8158.646234
884.432522	7391.909420
884.742197	6730.870478
885.051831	6161.762017
885.361424	5663.569988
885.670975	5267.625162
885.980485	4938.974699
886.289954	4671.541487
886.599382	4453.342705
886.908768	4275.097587
887.218113	4108.595837
887.527417	3977.944253
887.836680	3857.551417
888.145901	3754.696755
888.455082	3675.631298
888.764221	3608.175618
889.073319	3547.452400
889.382376	3514.357225
889.691392	3490.005931
890.000366	3486.119202
890.309300	3479.031339
890.618193	3486.220025
890.927044	3472.321563
891.235855	3485.060559
891.544625	3498.401973
891.853353	3524.565561
892.162041	3587.758945
892.470687	3682.608255
892.779293	3799.578148
893.087858	3973.477791
893.396381	4250.695882
893.704864	4666.573430
894.013306	5234.829936
894.321707	5816.289223
894.630068	6176.822464
894.938387	6219.831068
895.246665	6040.860024
895.554903	5719.063010
895.863100	5376.786307
896.171256	5104.327066
896.479371	4862.898646
896.787446	4640.631652
897.095480	4441.969862
897.403473	4290.047129
897.711425	4145.996158
898.019336	4024.156510
898.327207	3901.437182
898.635038	3798.088487
898.942827	3688.733257
899.250576	3599.411572
899.558284	3519.484078
899.865952	3463.675985
900.173579	3398.599730
900.481165	3354.981146
900.788711	3314.568736
901.096216	3280.397275
901.403681	3253.207812
901.711105	3239.531161
902.018489	3234.578227
902.325832	3269.205913
902.633135	3325.742454
902.940397	3496.950121
903.247619	3905.074374
903.554800	4656.644878
903.861941	5632.390452
904.169041	6345.451581
904.476101	6563.408388
904.783121	6282.646366
905.090100	5875.608481
905.397039	5457.076765
905.703938	5093.894398
906.010796	4771.129482
906.317614	4516.475595
906.624391	4276.935088
906.931129	4083.044749
907.237826	3896.307808
907.544483	3725.831108
907.851099	3551.399623
908.157675	3393.475397
908.464211	3249.300917
908.770707	3150.217038
909.077163	3067.847105
909.383578	3009.163033
909.689954	2965.584779
909.996289	2932.688729
910.302584	2913.471851
910.608839	2903.913823
910.915054	2887.265413
911.221229	2886.345402
911.527363	2888.719786
911.833458	2894.658265
912.139513	2906.704102
912.445527	2918.467634
912.751502	2958.469190
913.057436	2999.892351
913.363331	3058.886454
913.669186	3145.032212
913.975000	3260.809872
914.280775	3449.369190
914.586510	3721.929255
914.892205	4099.332717
915.197859	4596.710600
915.503475	5192.597669
915.809050	5692.354977
916.114585	5982.748123
916.420081	6053.180604
916.725536	5981.303833
917.030952	5746.769191
917.336328	5537.926790
917.641665	5320.401002
917.946961	5094.252320
918.252218	4890.877050
918.557435	4661.471782
918.862612	4461.711020
919.167750	4288.207108
919.472848	4097.490175
919.777906	3925.911984
920.082925	3768.083539
920.387904	3613.332719
920.692843	3498.069257
920.997743	3401.004360
921.302603	3306.086995
921.607423	3239.160636
921.912204	3174.333918
922.216946	3123.244345
922.521647	3077.662232
922.826310	3033.249666
923.130932	2997.845643
923.435516	2956.646813
923.740059	2930.218564
924.044564	2896.730179
924.349028	2874.176057
924.653454	2841.814370
924.957840	2817.584064
925.262186	2798.505817
925.566493	2774.683844
925.870761	2748.971439
926.174989	2741.513052
926.479178	2725.010835
926.783328	2706.512321
927.087438	2695.111752
927.391509	2684.500123
927.695541	2673.422187
927.999533	2665.663851
928.303486	2655.246307
928.607400	2645.526962
928.911275	2640.526138
929.215110	2634.365848
929.518906	2632.235960
929.822663	2634.144037
930.126381	2632.382154
930.430060	2638.338277
930.733699	2638.161837
931.037299	2641.557054
931.340861	2640.382465
931.644383	2643.712147
931.947866	2642.494708
932.251309	2641.567136
932.554714	2641.093267
932.858080	2639.238123
933.161407	2634.806949
933.464694	2631.016001
933.767943	2627.099024
934.071153	2623.658437
934.374323	2615.673249
934.677455	2615.912704
934.980548	2616.489916
935.283602	2610.070007
935.586617	2612.126797
935.889593	2612.492281
936.192530	2612.726695
936.495428	2619.756584
936.798287	2627.784621
937.101108	2641.693165
937.403890	2666.246105
937.706632	2690.660413
938.009336	2728.033007
938.312002	2754.975453
938.614628	2775.881118
938.917216	2798.727628
939.219765	2803.937660
939.522275	2817.763025
939.824747	2816.180102
940.127179	2809.510656
940.429573	2803.068061
940.731929	2801.396919
941.034246	2794.349386
941.336524	2793.187400
941.638763	2785.272788
941.940964	2778.449586
942.243126	2762.043151
942.545250	2752.943868
942.847335	2735.360324
943.149381	2726.641648
943.451389	2711.976932
943.753359	2696.790456
944.055290	2686.546831
944.357182	2678.811181
944.659036	2675.355470
944.960851	2669.356497
945.262628	2667.153512
945.564367	2666.571259
945.866067	2667.720642
946.167729	2663.423058
946.469352	2664.411125
946.770937	2662.114879
947.072484	2654.076759
947.373992	2654.764877
947.675462	2652.556851
947.976893	2644.186015
948.278286	2641.768782
948.579641	2639.356590
948.880958	2635.298461
949.182236	2635.449696
949.483476	2632.094808
949.784678	2633.551701
950.085841	2632.276289
950.386967	2636.563791
950.688054	2642.600572
950.989103	2646.222642
951.290114	2658.039106
951.591087	2670.379851
951.892021	2683.938034
952.192917	2694.655527
952.493776	2703.643904
952.794596	2710.981304
953.095378	2712.062631
953.396122	2711.666901
953.696828	2705.854450
953.997496	2700.135261
954.298126	2690.020186
954.598718	2683.895184
954.899272	2673.283555
955.199788	2660.663027
955.500266	2649.741367
955.800706	2634.675879
956.101108	2616.477313
956.401472	2603.793770
956.701798	2587.253744
957.002087	2576.294276
957.302337	2568.195662
957.602550	2556.744681
957.902724	2545.349153
958.202861	2535.148378
958.502960	2526.724610
958.803022	2522.091790
959.103045	2512.226252
959.403031	2505.445900
959.702979	2501.879283
960.002889	2497.324601
960.302762	2491.600371
960.602596	2489.493168
960.902393	2484.840183
961.202153	2480.056128
961.501875	2478.500932
961.801559	2476.928093
962.101205	2476.179481
962.400814	2472.179326
962.700385	2469.701598
962.999918	2466.613892
963.299414	2465.739252
963.598873	2465.804787
963.898293	2459.657099
964.197677	2461.499641
964.497022	2460.196503
964.796331	2460.705659
965.095601	2454.023610
965.394835	2459.667182
965.694030	2459.271451
965.993189	2457.063426
966.292309	2455.936728
966.591393	2454.331120
966.890439	2454.721810
967.189447	2455.253652
967.488419	2456.450926
967.787353	2456.680298
968.086249	2453.557303
968.385108	2459.042079
968.683930	2461.101390
968.982714	2458.873200
969.281462	2461.265228
969.580172	2463.054837
969.878844	2465.237657
970.177480	2467.382668
970.476078	2469.313430
970.774639	2475.912300
971.073162	2479.756180
971.371649	2476.794502
971.670098	2474.304172
971.968510	2478.695017
972.266885	2475.975314
972.565223	2483.070738
972.863524	2483.116109
973.161788	2484.184833
973.460014	2485.820688
973.758204	2486.501244
974.056356	2488.537870
974.354471	2486.072746
974.652550	2489.122644
974.950591	2489.362098
975.248595	2488.217757
975.546563	2485.225832
975.844493	2483.514360
976.142386	2482.589308
976.440243	2478.778196
976.738062	2480.961016
977.035845	2476.570171
977.333590	2472.401136
977.631299	2471.846609
977.928971	2471.319809
978.226606	2466.056844
978.524204	2466.442493
978.821765	2466.245888
979.119290	2465.048613
979.416777	2464.408387
979.714228	2465.898048
980.011642	2467.919551
980.309020	2470.606486
980.606360	2474.951960
980.903664	2483.121150
981.200931	2496.873418
981.498162	2516.183557
981.795356	2544.529966
982.092513	2584.397931
982.389633	2627.323356
982.686717	2672.232475
982.983764	2704.886549
983.280775	2723.395145
983.577749	2721.325752
983.874686	2712.786037
984.171587	2697.561752
984.468451	2681.997190
984.765279	2664.953049
985.062070	2645.698362
985.358824	2626.060547
985.655543	2600.832092
985.952224	2580.397775
986.248869	2550.062632
986.545478	2523.755371
986.842050	2504.609068
987.138586	2483.433702
987.435086	2474.846096
987.731549	2458.295988
988.027975	2459.447892
988.324366	2451.273661
988.620719	2446.416509
988.917037	2444.372321
989.213318	2440.785540
989.509563	2436.485436
989.805772	2433.579211
990.101944	2431.855136
990.398080	2434.408480
990.694180	2433.922009
990.990244	2430.398243
991.286271	2432.112235
991.582262	2435.134407
991.878217	2433.425455
992.174136	2434.123655
992.470019	2435.620878
992.765865	2439.558019
993.061676	2438.872422
993.357450	2445.826694
993.653188	2444.571447
993.948890	2451.361881
994.244556	2456.806327
994.540186	2464.252111
994.835780	2473.235447
995.131337	2491.285299
995.426859	2507.926148
995.722345	2526.961544
996.017795	2547.557178
996.313208	2564.187945
996.608586	2570.849830
996.903928	2576.261508
997.199234	2573.861919
997.494504	2571.921075
997.789738	2561.498489
998.084936	2554.597150
998.380099	2544.353525
998.675225	2529.716535
998.970316	2514.933351
999.265371	2505.697957
999.560390	2490.602222
999.855373	2478.803402
1000.150320	2466.855867
1000.445232	2458.578292
1000.740108	2453.126285
1001.034948	2445.297373
1001.329752	2439.439552
1001.624521	2437.390323
1001.919254	2431.552667
1002.213951	2429.334559
1002.508613	2428.064188
1002.803239	2426.360278
1003.097829	2421.820719
1003.392384	2422.128230
1003.686903	2421.866090
1003.981386	2419.821902
1004.275834	2421.394742
1004.570246	2418.455749
1004.864623	2417.155131
1005.158964	2415.415933
1005.453270	2416.870306
1005.747540	2414.843762
1006.041775	2414.238824
1006.335974	2414.531211
1006.630138	2413.976684
1006.924266	2415.940213
1007.218359	2414.715213
1007.512416	2413.712023
1007.806438	2411.468710
1008.100425	2413.142373
1008.394376	2411.095664
1008.688292	2410.858730
1008.982172	2411.304872
1009.276017	2412.076169
1009.569827	2413.051632
1009.863602	2415.768814
1010.157341	2412.426529
1010.451045	2411.851838
1010.744714	2410.435273
1011.038347	2409.351425
1011.331945	2411.587177
1011.625508	2409.822773
1011.919036	2408.696075
1012.212528	2408.030643
1012.505986	2408.585170
1012.799408	2408.043246
1013.092795	2406.621640
1013.386147	2409.129614
1013.679464	2408.202042
1013.972745	2407.899573
1014.265992	2410.205901
1014.559204	2407.130797
1014.852380	2406.515776
1015.145521	2407.619789
1015.438628	2407.909655
1015.731699	2409.306055
1016.024736	2406.546023
1016.317737	2406.513256
1016.610703	2411.125911
1016.903635	2404.519479
1017.196531	2406.319171
1017.489393	2407.302196
1017.782219	2407.224058
1018.075011	2412.023237
1018.367768	2411.884605
1018.660490	2410.173133
1018.953177	2410.173133
1019.245829	2410.173133
