Dividing Wavelength (nm)	Counts (n)	Blue Motor Position (mm): 32.800000	Red Motor Position (mm): 0.000000	
326.493990	1970.534106
326.888308	1970.534106
327.282561	1970.534106
327.676750	1946.959150
328.070874	1947.324634
328.464933	1953.931066
328.858929	1962.029680
329.252859	1976.303707
329.646726	1989.602271
330.040528	2005.925527
330.434265	2024.056037
330.827938	2041.858872
331.221547	2063.566080
331.615091	2083.864286
332.008571	2102.156113
332.401986	2126.388939
332.795338	2142.553399
333.188625	2165.102480
333.581847	2185.201561
333.975006	2201.834848
334.368100	2221.003835
334.761129	2239.467061
335.154095	2251.913670
335.546996	2294.029990
335.939833	2370.980683
336.332606	2387.508106
336.725315	2396.708211
337.117960	2405.598286
337.510540	2414.049781
337.903056	2425.175607
338.295508	2427.431523
338.687896	2439.689089
339.080220	2442.320571
339.472480	2448.584205
339.864676	2452.929680
340.256807	2455.117540
340.648875	2456.796245
341.040879	2456.070318
341.432818	2459.926801
341.824694	2461.744137
342.216506	2459.712552
342.608253	2462.505351
342.999937	2459.311780
343.391557	2458.265741
343.783113	2455.535956
344.174605	2454.628548
344.566033	2452.758280
344.957397	2454.212653
345.348697	2452.748198
345.739934	2448.992538
346.131106	2448.715275
346.522215	2448.639658
346.913260	2445.241920
347.304241	2441.501384
347.695159	2441.592125
348.086012	2438.154058
348.476802	2436.719849
348.867528	2435.903183
349.258191	2434.675662
349.648789	2433.758172
350.039324	2432.407142
350.429796	2434.380754
350.820203	2431.219951
351.210548	2430.473860
351.600828	2431.270362
351.991045	2430.042841
352.381198	2428.901020
352.771288	2429.271545
353.161314	2427.953283
353.551276	2426.597213
353.941175	2427.875145
354.331010	2429.836154
354.720782	2431.411514
355.110490	2433.954777
355.500135	2428.616195
355.889717	2432.185332
356.279235	2431.489652
356.668689	2428.903540
357.058080	2429.571493
357.447408	2428.654003
357.836672	2428.071750
358.225873	2429.959662
358.615010	2425.694846
359.004084	2432.903696
359.393095	2432.132399
359.782043	2433.004519
360.170927	2434.534509
360.559748	2433.463264
360.948505	2437.251691
361.337199	2440.445262
361.725830	2437.143306
362.114398	2440.488112
362.502903	2438.748914
362.891344	2440.566250
363.279722	2436.651794
363.668037	2439.908379
364.056289	2441.224120
364.444478	2443.888370
364.832603	2441.032557
365.220665	2441.813935
365.608665	2444.866354
365.996601	2443.485078
366.384474	2446.401385
366.772284	2445.191508
367.160031	2447.470110
367.547715	2445.698144
367.935336	2446.552620
368.322893	2445.861982
368.710388	2446.338371
369.097820	2448.226283
369.485189	2446.489606
369.872495	2448.662343
370.259738	2449.088320
370.646918	2448.695110
371.034035	2449.751232
371.421090	2448.836263
371.808081	2449.053032
372.195010	2447.777620
372.581875	2448.521191
372.968678	2450.668722
373.355418	2449.804164
373.742096	2450.792230
374.128710	2452.012190
374.515262	2456.178703
374.901751	2453.842128
375.288177	2455.956893
375.674540	2451.853393
376.060841	2455.861111
376.447079	2452.859103
376.833254	2455.183075
377.219367	2451.896243
377.605417	2456.886985
377.991404	2455.583847
378.377329	2456.524022
378.763191	2451.891202
379.148991	2459.621811
379.534727	2460.723303
379.920402	2459.503344
380.306013	2462.089456
380.691563	2459.158025
381.077049	2462.142388
381.462474	2461.401339
381.847835	2461.721452
382.233134	2465.822431
382.618371	2461.260186
383.003545	2465.257821
383.388657	2466.329067
383.773706	2465.237657
384.158693	2464.695733
384.543618	2466.855867
384.928480	2468.837041
385.313280	2467.440641
385.698017	2467.808645
386.082692	2469.257977
386.467305	2470.026753
386.851856	2471.092957
387.236344	2470.845940
387.620770	2471.153451
388.005133	2471.607155
388.389435	2474.228555
388.773674	2472.985910
389.157851	2472.527165
389.541965	2474.594038
389.926018	2475.924903
390.310008	2475.577063
390.693936	2477.540593
391.077802	2477.777527
391.461606	2476.716364
391.845348	2479.478916
392.229027	2479.652836
392.612645	2476.192084
392.996200	2477.522949
393.379694	2481.281129
393.763125	2480.310707
394.146494	2484.643578
394.529801	2483.037971
394.913047	2485.621562
395.296230	2486.218939
395.679351	2487.214567
396.062410	2484.620893
396.445408	2487.028044
396.828343	2485.863538
397.211217	2484.545276
397.594028	2484.273054
397.976778	2484.782210
398.359466	2488.570637
398.742092	2483.665595
399.124656	2492.288488
399.507158	2492.843015
399.889598	2492.220433
400.271977	2493.846205
400.654294	2493.087511
401.036549	2494.272182
401.418742	2497.785867
401.800874	2496.248315
402.182944	2496.001298
402.564952	2500.273676
402.946898	2498.998264
403.328783	2501.589417
403.710606	2502.406084
404.092367	2503.978924
404.474067	2504.488081
404.855705	2504.039418
405.237282	2505.413132
405.618797	2504.137720
406.000250	2508.838596
406.381642	2511.056704
406.762972	2510.073679
407.144240	2510.487054
407.525447	2513.393279
407.906593	2514.363701
408.287677	2515.485358
408.668700	2518.948630
409.049661	2521.416275
409.430560	2520.980215
409.811399	2521.633045
410.192176	2525.925587
410.572891	2526.288550
410.953545	2530.323994
411.334138	2526.810310
411.714669	2532.723583
412.095139	2531.818696
412.475547	2537.686599
412.855894	2537.338760
413.236180	2544.396375
413.616405	2545.765048
413.996568	2549.112374
414.376670	2553.414999
414.756711	2558.378015
415.136691	2567.038717
415.516609	2571.190108
415.896466	2579.913824
416.276262	2596.663058
416.655997	2603.496342
417.035670	2618.284567
417.415283	2639.245685
417.794834	2655.881492
418.174324	2672.429080
418.553753	2686.272088
418.933121	2711.520707
419.312428	2731.362689
419.691674	2755.976122
420.070859	2795.251752
420.449983	2820.039106
420.829045	2866.689943
421.208047	2898.141702
421.586988	2952.129939
421.965867	3008.104391
422.344686	3057.437123
422.723444	3131.811786
423.102141	3127.778863
423.480777	3243.664907
423.859352	3287.225518
424.237866	3417.499015
424.616319	3480.384889
424.994712	3606.227212
425.373044	3677.473840
425.751314	3825.701407
426.129524	3846.801156
426.507673	4044.409346
426.885762	4120.515646
427.263789	4249.969956
427.641756	4385.771079
428.019662	4506.978061
428.397508	4633.952124
428.775292	4800.708452
429.153016	4932.617804
429.530679	5076.502417
429.908282	5217.485846
430.285824	5307.125123
430.663305	5571.120268
431.040726	5655.040356
431.418086	5765.272746
431.795385	6050.168515
432.172624	6304.003214
432.549802	6369.891095
432.926920	6581.622077
433.303977	6718.640638
433.680974	6952.887934
434.057910	7202.929165
434.434786	7394.818165
434.811601	7555.570479
435.188355	8060.938591
435.565050	8152.395204
435.941683	8322.279568
436.318257	8809.847365
436.694770	8945.015823
437.071222	9362.214153
437.447614	9231.129030
437.823946	9437.496224
438.200218	9694.849649
438.576429	9817.420263
438.952580	10124.557603
439.328670	10311.985182
439.704700	10700.683349
440.080670	10713.286234
440.456580	11183.638491
440.832429	11476.108593
441.208218	11200.848990
441.583947	11612.275199
441.959616	11860.758714
442.335224	12186.450020
442.710773	12457.187708
443.086261	12981.124909
443.461689	12810.650730
443.837057	13092.378133
444.212365	13659.339062
444.587612	13865.930588
444.962800	13813.381600
445.337927	14258.112193
445.712995	13666.827696
446.088002	14992.199975
446.462949	15320.333720
446.837837	15629.311080
447.212664	15809.610468
447.587431	17930.065969
447.962139	20192.001453
448.336786	22090.036205
448.711374	21239.598593
449.085901	18815.209405
449.460369	18959.005798
449.834776	19096.851109
450.209124	21146.934623
450.583412	20997.282930
450.957640	21599.272317
451.331808	20750.614231
451.705917	19864.112204
452.079965	20057.889117
452.453954	20505.369658
452.827883	20585.289591
453.201752	20573.889021
453.575562	20850.464365
453.949311	21912.385944
454.323001	22115.219289
454.696632	22067.388822
455.070202	23509.962886
455.443713	23778.595892
455.817164	24411.391769
456.190556	25014.838049
456.563888	24661.284286
456.937160	25178.274778
457.310373	23847.558876
457.683526	24339.426778
458.056619	24436.836993
458.429653	24494.164995
458.802628	25110.035199
459.175542	25312.926518
459.548398	26579.004744
459.921194	28105.692981
460.293930	28833.519650
460.666607	30782.003749
461.039224	32491.617815
461.411782	32939.456278
461.784280	31906.665007
462.156719	31521.888858
462.529099	31073.432853
462.901419	29954.410125
463.273680	29028.239258
463.645882	29187.300265
464.018024	29237.444622
464.390106	30090.899365
464.762130	32687.328010
465.134094	36635.741184
465.505999	41792.758389
465.877845	46285.318750
466.249631	47459.509345
466.621358	45778.055165
466.993026	43707.023136
467.364634	41715.696791
467.736184	39865.101817
468.107674	38688.262096
468.479105	37972.428332
468.850477	37362.484004
469.221790	36013.685484
469.593043	34403.845936
469.964238	33559.137594
470.335373	33488.846266
470.706449	35131.196215
471.077467	37609.636654
471.448425	42099.106788
471.819324	44947.794771
472.190164	43198.254767
472.560945	39722.270805
472.931667	36723.797538
473.302330	35660.477040
473.672934	34879.299840
474.043479	35379.541098
474.413965	34633.581399
474.784393	34284.778923
475.154761	35147.093494
475.525070	35189.177046
475.895321	34755.733597
476.265513	35350.456161
476.635645	36287.102545
477.005719	36121.810672
477.375734	36577.702379
477.745691	37247.482682
478.115588	38555.341992
478.485427	40481.239202
478.855207	43768.595789
479.224928	46391.825728
479.594591	48015.528450
479.964194	46974.565469
480.333739	47075.388546
480.703226	47103.818133
481.072653	47739.414372
481.442022	48231.645236
481.811333	48521.645173
482.180584	47226.035867
482.549777	46729.774600
482.918912	46209.683799
483.287988	45908.245484
483.657005	45127.491741
484.025964	44471.400691
484.394864	44468.867511
484.763706	44048.425198
485.132489	43190.685474
485.501213	43024.052654
485.869879	43180.139380
486.238487	42790.770740
486.607036	42987.829443
486.975527	42448.977988
487.343959	42665.845906
487.712333	42749.324893
488.080648	42661.800380
488.448905	43092.395577
488.817104	42914.810851
489.185244	43852.830950
489.553326	45505.525347
489.921350	48188.129996
490.289315	51143.939977
490.657222	51776.743417
491.025070	52076.140064
491.392861	51146.268991
491.760593	49846.251196
492.128267	48138.761976
492.495883	46609.588451
492.863440	45249.192756
493.230939	43903.524793
493.598380	42846.722506
493.965763	42533.462686
494.333088	41741.247879
494.700354	41291.478654
495.067563	41013.176714
495.434713	40879.145037
495.801805	40955.173198
496.168839	40600.565834
496.535815	40269.949321
496.902733	40302.305967
497.269593	39892.785313
497.636395	39840.264052
498.003139	40217.750693
498.369825	39687.499446
498.736453	39982.689251
499.103023	39537.310870
499.469535	39420.456924
499.835989	39502.499182
500.202385	39173.601703
500.568723	39193.846977
500.935003	39386.061132
501.301226	39189.625010
501.667390	39782.061410
502.033497	40031.711952
502.399546	39483.057973
502.765537	38821.842590
503.131470	39187.389258
503.497345	39505.511272
503.863163	38226.898216
504.228923	38823.677570
504.594625	39220.023168
504.960269	38526.436016
505.325856	39178.831900
505.691385	38571.408149
506.056856	38694.465235
506.422270	39125.746029
506.787625	38718.030109
507.152924	38898.702542
507.518164	38999.114765
507.883347	38236.899865
508.248472	38475.265784
508.613540	38932.246380
508.978550	39229.722348
509.343503	38971.756423
509.708398	39169.425107
510.073236	39684.643633
510.438016	39691.769304
510.802738	39160.459415
511.167403	39758.269685
511.532010	39993.061425
511.896561	40277.707656
512.261053	41088.365524
512.625488	40656.777220
512.989866	40526.821315
513.354186	40384.441486
513.718449	40365.179237
514.082655	41028.718592
514.446803	40696.546882
514.810894	41213.353372
515.174927	41133.592236
515.538904	41046.070243
515.902822	41689.099663
516.266684	41145.580100
516.630488	41559.491598
516.994235	41415.990113
517.357925	41952.847791
517.721558	42127.730459
518.085133	42425.284565
518.448651	42568.208838
518.812112	42332.411388
519.175516	42448.526805
519.538863	42777.182309
519.902152	42741.546393
520.265385	43192.860732
520.628560	43221.378539
520.991678	43014.335830
521.354739	43241.643978
521.717743	43559.428234
522.080690	43455.497286
522.443580	43997.726314
522.806413	44056.251590
523.169189	43996.012322
523.531908	44175.323643
523.894569	44043.580649
524.257174	44192.695460
524.619722	44492.013969
524.982213	44485.616745
525.344647	44394.732303
525.707025	44446.719202
526.069345	44850.061921
526.431608	44750.804122
526.793815	45055.322582
527.155964	44607.963028
527.518057	44771.911434
527.880093	44569.672944
528.242072	45094.852790
528.603995	44792.814578
528.965860	44785.472138
529.327669	44890.194547
529.689421	44795.446060
530.051117	44767.291216
530.412755	44893.617490
530.774337	44970.976517
531.135862	44767.313901
531.497331	44972.503986
531.858743	44890.202109
532.220098	45209.428135
532.581396	44938.382937
532.942638	44599.468684
533.303824	44898.333490
533.664953	44875.055962
534.026025	44591.002066
534.387040	45051.108178
534.747999	45017.433270
535.108902	45159.959292
535.469748	44702.023397
535.830537	44813.337115
536.191270	45021.249423
536.551947	44654.185368
536.912567	44969.600282
537.273131	45083.550523
537.633638	44595.196306
537.994089	44945.064986
538.354483	44541.986927
538.714821	45104.677999
539.075103	45437.157219
539.435328	45200.878338
539.795497	45097.925373
540.155609	45094.487307
540.515665	45541.181428
540.875665	45004.250653
541.235609	45317.054249
541.595496	45280.586542
541.955328	45961.180120
542.315102	45342.867477
542.674821	45128.782276
543.034483	45166.089335
543.394090	45143.028577
543.753640	45096.266834
544.113134	46096.519977
544.472571	45121.661646
544.831953	46361.689711
545.191278	45569.210244
545.550548	45313.613661
545.909761	45751.657163
546.268918	45958.377238
546.628019	46263.125071
546.987064	45826.810685
547.346053	45138.897351
547.704986	45988.356980
548.063863	45572.330718
548.422684	45750.961484
548.781449	45621.791999
549.140158	46012.728438
549.498811	45877.587707
549.857408	45296.619932
550.215949	46125.642723
550.574434	46057.992959
550.932864	45845.215937
551.291237	46543.453554
551.649555	46161.392065
552.007817	46404.552121
552.366022	46070.542911
552.724173	46234.314876
553.082267	46632.906308
553.440305	46912.503824
553.798288	46260.337312
554.156215	46580.503514
554.514086	46773.418389
554.871902	46520.876746
555.229661	46545.134778
555.587365	46382.663431
555.945014	46485.283679
556.302606	46402.397028
556.660143	46626.476316
557.017625	46705.859366
557.375050	46508.840991
557.732421	46871.400776
558.089735	46833.077924
558.446994	46764.649302
558.804197	47224.084940
559.161345	47158.607913
559.518437	46443.873121
559.875474	46743.473935
560.232455	46923.518745
560.589381	47072.820078
560.946251	46786.601007
561.303065	47452.449209
561.659825	47255.806401
562.016528	46956.014023
562.373177	46673.432144
562.729770	47139.585119
563.086307	46663.435536
563.442789	47124.907800
563.799216	47165.970519
564.155587	46979.084863
564.511904	46986.177767
564.868164	47102.545242
565.224370	47330.370107
565.580520	47065.104592
565.936615	47271.050850
566.292654	47005.583688
566.648638	47227.122235
567.004567	47190.435238
567.360441	47236.244203
567.716260	47091.321112
568.072023	47381.225267
568.427732	47361.799181
568.783385	46927.919672
569.138982	47310.334041
569.494525	47285.748334
569.850013	47051.226295
570.205445	47013.697426
570.560823	46978.545460
570.916145	46857.434259
571.271412	46876.535191
571.626625	46645.902403
571.981782	46698.353088
572.336884	46396.761018
572.691931	46703.454736
573.046923	46308.384550
573.401860	46171.280289
573.756743	46142.991854
574.111570	46248.588903
574.466342	46116.384644
574.821059	46227.897488
575.175722	45760.774090
575.530330	45775.307736
575.884882	45512.950967
576.239380	45458.952647
576.593823	45438.135202
576.948211	45351.008941
577.302544	44886.504422
577.656823	44926.803406
578.011047	45149.844217
578.365216	44876.492691
578.719330	44654.732333
579.073389	44529.905802
579.427394	44600.270228
579.781344	44576.430611
580.135239	44231.202313
580.489080	44326.550697
580.842866	43814.755115
581.196597	44263.049803
581.550273	44205.003437
581.903895	44077.568109
582.257463	44483.814533
582.610975	43874.707037
582.964434	44156.860417
583.317837	43808.793950
583.671186	43644.964012
584.024481	43879.299528
584.377721	43414.195112
584.730906	43679.475751
585.084037	43713.165782
585.437113	43433.948874
585.790135	43475.906397
586.143103	43064.419694
586.496016	43204.790623
586.848874	43212.687590
587.201679	43247.365688
587.554428	42718.427661
587.907124	42914.011828
588.259765	42680.555993
588.612352	42919.594906
588.964884	42311.974550
589.317362	42606.551855
589.669786	42554.287692
590.022155	42326.624143
590.374470	42755.346552
590.726731	42271.047943
591.078937	41789.743779
591.431090	41879.241904
591.783188	41544.078270
592.135232	41232.053532
592.487222	41469.408699
592.839157	41556.255177
593.191038	41236.872875
593.542866	41002.928049
593.894639	40417.914748
594.246358	40691.667046
594.598022	40663.756697
594.949633	40268.436974
595.301190	40240.120813
595.652692	40067.194113
596.004141	40391.612527
596.355535	39421.465155
596.706876	39374.751303
597.058162	39207.337104
597.409395	39668.753916
597.760573	39736.396118
598.111698	39311.169750
598.462768	39327.288839
598.813785	39390.353674
599.164748	38829.283333
599.515657	39229.553469
599.866511	38710.080209
600.217312	39300.545518
600.568060	38298.802714
600.918753	39031.819251
601.269392	38994.502109
601.619978	38643.844489
601.970510	38862.320535
602.320988	39035.506855
602.671412	39338.525571
603.021783	39081.600645
603.372100	38733.919826
603.722363	38845.155406
604.072572	38915.512270
604.422728	38939.021691
604.772830	38746.285776
605.122878	38842.332360
605.472872	38783.272722
605.822813	39046.267198
606.172701	38888.703414
606.522534	39117.173547
606.872314	39365.319304
607.222041	39137.459150
607.571714	39518.119198
607.921333	38988.480451
608.270899	39254.025751
608.620411	39609.341397
608.969870	39406.397146
609.319276	39393.990867
609.668627	39443.283269
610.017926	39935.123444
610.367171	40075.207027
610.716362	40167.979381
611.065500	40124.035643
611.414585	40323.335140
611.763616	40600.160021
612.112594	40532.996728
612.461518	40744.478173
612.810389	41039.839377
613.159207	40908.804665
613.507971	40971.204067
613.856682	41446.741151
614.205340	41331.271002
614.553945	42025.989893
614.902496	41496.731753
615.250994	41950.942235
615.599439	42015.998326
615.947830	42234.187026
616.296169	42273.248406
616.644454	42415.678647
616.992686	42596.275462
617.340864	43092.390536
617.688990	42830.691637
618.037063	43417.280298
618.385082	43388.016400
618.733048	43689.139643
619.080961	43704.532806
619.428821	43706.055235
619.776628	43821.623687
620.124382	43631.186538
620.472083	43768.991520
620.819731	43894.889296
621.167326	43565.510386
621.514868	43557.605857
621.862357	43121.891368
622.209793	43141.327537
622.557176	42808.331599
622.904506	42553.410531
623.251783	42215.917884
623.599007	41989.323060
623.946179	41770.113526
624.293297	41737.489699
624.640363	41152.438589
624.987376	41139.379480
625.334336	40906.034551
625.681243	40550.605479
626.028097	40515.413184
626.374899	40364.055060
626.721647	40346.963028
627.068343	40236.783569
627.414987	40009.447696
627.761577	39773.446078
628.108115	40116.819231
628.454600	39582.008261
628.801032	39757.800857
629.147412	39723.258871
629.493739	39737.210264
629.840014	39378.292713
630.186236	39722.646371
630.532405	39343.796098
630.878521	39571.207589
631.224585	39444.621695
631.570597	39153.293414
631.916556	39332.723203
632.262462	39271.029563
632.608316	39297.109972
632.954117	39178.035397
633.299866	39163.811782
633.645562	39098.969941
633.991206	38604.783108
634.336797	38170.215482
634.682336	38167.614247
635.027823	37921.477390
635.373257	37755.419262
635.718639	37508.826180
636.063968	37370.890128
636.409245	36801.222100
636.754470	36851.870572
637.099642	36617.000694
637.444762	36148.390156
637.789829	36293.401467
638.134845	35936.200429
638.479808	35902.926293
638.824719	35807.477086
639.169577	35403.637813
639.514383	35485.672510
639.859137	35185.801994
640.203839	35427.290907
640.548489	35050.023556
640.893086	35117.149040
641.237632	34884.691354
641.582125	34994.623796
641.926566	34933.567861
642.270955	34908.551135
642.615292	34913.415849
642.959576	34889.508177
643.303809	34877.071650
643.647990	35034.610228
643.992118	34995.435422
644.336195	34999.957337
644.680219	35089.737766
645.024192	35392.118777
645.368112	35914.677223
645.711981	35922.201145
646.055797	36779.779552
646.399562	36712.160035
646.743274	37662.636825
647.086935	38110.883622
647.430544	37966.058834
647.774101	38099.921633
648.117606	38339.126904
648.461059	38633.137078
648.804460	38231.667148
649.147810	37640.196129
649.491108	37377.244503
649.834354	37029.694754
650.177548	36212.755608
650.520690	35766.467300
650.863781	35774.429802
651.206820	35633.138863
651.549807	35188.078075
651.892742	34713.221547
652.235626	34532.511305
652.578458	34397.788989
652.921238	33803.131961
653.263967	34134.058505
653.606644	33809.287210
653.949269	33758.976494
654.291843	33375.803432
654.634365	33779.695637
654.976836	33380.748804
655.319255	33376.708319
655.661622	33376.375603
656.003938	33144.399347
656.346203	33009.334232
656.688416	33235.767740
657.030577	33030.638148
657.372687	32874.876577
657.714746	33139.181753
658.056753	33258.586522
658.398708	32722.989132
658.740612	32770.801956
659.082465	33037.289951
659.424266	32865.293343
659.766016	32986.177692
660.107715	32860.864690
660.449362	32999.786287
660.790958	32978.557988
661.132503	32997.293436
661.473996	33030.733930
661.815438	33134.637152
662.156829	33334.634849
662.498168	33112.844244
662.839456	33135.955414
663.180693	33281.644760
663.521879	33444.138793
663.863013	33391.524270
664.204097	33402.947525
664.545129	33861.150601
664.886110	33824.932431
665.227040	33892.209149
665.567918	34005.393136
665.908746	34065.518978
666.249522	34229.855552
666.590248	34209.380905
666.930922	34335.659289
667.271545	34290.878719
667.612118	34387.847834
667.952639	34174.163405
668.293109	34234.110286
668.633528	34111.728714
668.973896	34033.893299
669.314213	34070.895368
669.654480	33815.593693
669.994695	33843.125955
670.334859	33731.613111
670.674973	33650.339629
671.015035	33803.411745
671.355047	33741.735748
671.695008	33699.223698
672.034918	33597.457925
672.374777	33679.222920
672.714585	33512.958104
673.054342	33747.948970
673.394049	33513.008516
673.733705	33773.527785
674.073310	33441.771971
674.412864	33514.740152
674.752368	33117.487147
675.091820	33411.719132
675.431223	32987.725326
675.770574	32716.518811
676.109875	32586.457042
676.449125	32305.090081
676.788324	32225.931363
677.127473	31700.023070
677.466571	31621.237397
677.805619	31278.093617
678.144616	31268.089447
678.483562	31208.997042
678.822458	30877.687370
679.161303	30813.437864
679.500098	30720.930170
679.838842	30609.520670
680.177535	30764.281573
680.516179	31035.911545
680.854771	31273.904418
681.193314	32134.852836
681.531805	33264.091462
681.870247	34035.508989
682.208638	34777.332421
682.546978	34991.397457
682.885268	35072.746557
683.223508	34541.729055
683.561697	34202.555183
683.899836	34022.911145
684.237925	33505.734131
684.575963	33373.045921
684.913951	32914.399223
685.251889	33066.097625
685.589776	33061.190061
685.927614	33048.630027
686.265401	33195.289795
686.603137	33311.768175
686.940824	33803.353772
687.278460	34186.965415
687.616046	34331.825491
687.953582	34946.407680
688.291068	34817.666693
688.628504	35079.627732
688.965889	35017.689595
689.303224	34627.055625
689.640510	34276.758447
689.977745	33552.014444
690.314930	32739.188880
690.652065	32223.811558
690.989150	31475.177526
691.326185	30594.162795
691.663170	29872.382990
692.000105	29134.191709
692.336990	28442.631101
692.673825	27994.593512
693.010610	27482.162744
693.347345	26910.833655
693.684030	26265.901199
694.020665	25981.267571
694.357251	25316.883823
694.693786	25276.330261
695.030272	25038.700351
695.366707	24499.178422
695.703093	24205.203536
696.039429	24195.055693
696.375716	23934.143214
696.711952	23915.057406
697.048139	23752.661676
697.384276	23578.046189
697.720363	23705.985632
698.056400	23497.349919
698.392388	23291.524648
698.728326	23248.652155
699.064214	23033.084855
699.400053	22978.663079
699.735842	22622.069500
700.071581	22352.450948
700.407270	22069.433009
700.742910	21873.926981
701.078501	21603.970672
701.414042	21312.967546
701.749533	21030.002539
702.084974	20680.005310
702.420366	20879.856813
702.755709	20441.092426
703.091002	20156.607512
703.426246	20167.274593
703.761440	20066.249870
704.096584	19790.957500
704.431679	19750.905533
704.766725	19664.316153
705.101721	19600.298541
705.436668	19692.352531
705.771565	19371.029384
706.106413	19712.958247
706.441212	19696.539209
706.775961	19822.565534
707.110661	19898.959180
707.445311	20251.406410
707.779913	20088.536811
708.114465	20335.586117
708.448967	20625.064295
708.783421	21321.146818
709.117825	21585.530131
709.452180	21806.269655
709.786485	22212.074978
710.120742	23015.627339
710.454949	23035.345813
710.789107	23494.715916
711.123216	24204.235634
711.457275	24315.904754
711.791286	24866.171902
712.125247	24928.775471
712.459159	24633.051304
712.793023	25280.862258
713.126837	24172.158772
713.460602	24430.540592
713.794318	24044.042889
714.127985	23654.147447
714.461602	22759.733329
714.795171	22720.760169
715.128691	21705.630580
715.462162	21164.596306
715.795584	20748.156669
716.128957	20487.397945
716.462281	20085.454146
716.795556	19837.930971
717.128782	19351.028607
717.461960	18809.772521
717.795088	18734.276201
718.128167	18326.454417
718.461198	17875.165283
718.794180	17731.603304
719.127113	17366.996811
719.459997	17169.055905
719.792833	16827.696693
720.125619	16802.543856
720.458357	16492.694376
720.791046	16313.267108
721.123686	16155.776420
721.456278	15921.599701
721.788821	15887.173661
722.121315	15620.559637
722.453761	15703.849581
722.786158	15623.992663
723.118506	15632.779394
723.450805	15503.798952
723.783056	15657.599515
724.115259	15563.024948
724.447412	15495.627242
724.779518	15735.681947
725.111574	15762.483241
725.443582	15956.895339
725.775542	15933.708552
726.107453	16401.356230
726.439315	16292.822708
726.771129	16682.030032
727.102895	17051.695323
727.434612	17260.678876
727.766281	17382.579017
728.097901	17643.887227
728.429473	17678.300664
728.760996	17655.786871
729.092471	17738.938183
729.423897	17614.751878
729.755276	17478.464284
730.086606	17595.025843
730.417887	18116.923898
730.749120	18635.066293
731.080305	18814.818716
731.411442	19136.603128
731.742530	19187.453247
732.073570	19298.252767
732.404562	19590.765719
732.735506	19398.896883
733.066401	19111.311659
733.397249	18599.989945
733.728048	17958.480433
734.058798	17121.817773
734.389501	16452.839013
734.720156	15995.797923
735.050762	15465.952490
735.381320	15119.279901
735.711831	14881.347522
736.042293	14536.018401
736.372707	14547.933168
736.703073	14332.922916
737.033391	14530.188307
737.363661	14487.038551
737.693883	14587.261730
738.024056	14759.510395
738.354182	14950.857472
738.684260	15235.662500
739.014290	15459.003259
739.344272	15654.600028
739.674207	15931.472800
740.004093	16040.767536
740.333931	16031.055753
740.663722	16057.075669
740.993464	16053.864454
741.323159	15890.359670
741.652806	15608.387771
741.982405	15389.800820
742.311956	15053.018975
742.641460	14930.539101
742.970915	14627.283451
743.300323	14296.664417
743.629683	14083.831943
743.958996	13817.699349
744.288260	13538.560578
744.617477	13241.092172
744.946647	13175.894929
745.275768	12896.642732
745.604842	12710.490565
745.933869	12546.128785
746.262847	12494.063748
746.591778	12419.520206
746.920662	12320.665700
747.249498	12320.443889
747.578286	12442.795213
747.907027	12584.925505
748.235720	12805.448259
748.564365	12828.065396
748.892963	12732.694327
749.221514	12796.553143
749.550017	12644.937921
749.878473	12607.940893
750.206881	12395.620096
750.535242	12298.812298
750.863555	12213.077394
751.191821	12116.292282
751.520039	12134.344653
751.848210	12046.633618
752.176334	12077.853483
752.504411	11982.124493
752.832440	11824.333857
753.160421	11890.569577
753.488356	11764.896132
753.816243	11673.366422
754.144082	11532.176306
754.471875	11477.066412
754.799620	11421.197825
755.127318	11395.525749
755.454969	11361.354287
755.782572	11312.606330
756.110129	11322.857516
756.437638	11242.960269
756.765100	11237.707386
757.092515	11237.457849
757.419882	11249.032338
757.747203	11252.334294
758.074477	11328.057466
758.401703	11284.322936
758.728882	11444.719848
759.056014	11482.588996
759.383099	11605.255393
759.710138	11696.013806
760.037129	11790.568208
760.364073	11808.302987
760.690970	11784.407918
761.017820	11790.648867
761.344623	11975.782721
761.671379	12284.853343
761.998088	12918.445723
762.324751	14456.456391
762.651366	17310.664437
762.977935	20956.767177
763.304456	23155.657990
763.630931	23631.731957
763.957359	22456.608748
764.283740	20561.034079
764.610074	18685.820630
764.936362	16561.150724
765.262602	15059.801848
765.588796	13596.528806
765.914943	12569.003020
766.241044	11732.448745
766.567097	11101.621438
766.893104	10557.650691
767.219064	10204.716990
767.544978	9816.724584
767.870845	9509.952729
768.196665	9324.345006
768.522438	9129.138926
768.848165	8960.761867
769.173846	8796.662227
769.499479	8675.919031
769.825066	8521.417748
770.150607	8341.546858
770.476101	8277.211652
770.801548	8163.851226
771.126949	8028.256790
771.452303	7939.915610
771.777611	7779.730426
772.102872	7753.350068
772.428087	7637.033005
772.753256	7512.811412
773.078378	7427.215141
773.403453	7284.028727
773.728482	7183.437543
774.053465	7117.768953
774.378401	7033.034718
774.703291	6942.004083
775.028135	6844.460277
775.352932	6811.561707
775.677683	6730.638584
776.002388	6639.958309
776.327046	6635.585108
776.651658	6557.023767
776.976224	6481.172045
777.300743	6462.280321
777.625216	6396.974694
777.949643	6357.406677
778.274024	6355.733014
778.598359	6299.125897
778.922647	6293.714219
779.246889	6256.427324
779.571086	6262.827069
779.895236	6279.916581
780.219339	6268.233707
780.543397	6269.347802
780.867409	6314.362785
781.191374	6313.964534
781.515294	6281.645697
781.839167	6331.298541
782.162995	6305.407175
782.486776	6261.198777
782.810511	6214.532815
783.134201	6142.068749
783.457844	6129.715402
783.781441	6078.666158
784.104993	6035.324837
784.428498	6011.298698
784.751958	5988.177446
785.075372	5964.123580
785.398739	5924.850471
785.722061	5954.152178
786.045337	5947.868380
786.368568	6060.666718
786.691752	6084.891983
787.014891	6323.971224
787.337983	6603.120077
787.661030	7043.739609
787.984031	7464.738969
788.306987	7728.187149
788.629897	7812.576064
788.952760	7730.611944
789.275579	7554.932773
789.598351	7254.628718
789.921078	6990.752041
790.243759	6712.371963
790.566395	6504.343709
790.888984	6316.482590
791.211529	6175.163924
791.534027	6011.868348
791.856480	5875.903388
792.178888	5818.545140
792.501249	5750.093832
792.823566	5652.451723
793.145836	5644.043079
793.468062	5624.629595
793.790241	5585.913534
794.112375	5627.029184
794.434464	5727.264967
794.756507	5754.386375
795.078505	5876.064705
795.400457	6094.424804
795.722364	6328.825855
796.044226	6520.084712
796.366042	6676.136150
796.687812	6626.201000
797.009538	6659.172667
797.331218	6563.035343
797.652852	6499.116032
797.974442	6370.581733
798.295986	6298.722605
798.617484	6175.786507
798.938938	6069.476134
799.260346	5996.354198
799.581709	5864.401996
799.903026	5805.607018
800.224299	5738.625207
800.545526	5622.892918
800.866708	5556.354728
801.187845	5511.599364
801.508936	5432.208753
801.829983	5403.585081
802.150984	5299.223114
802.471940	5268.280512
802.792851	5255.675107
803.113717	5234.333382
803.434538	5206.657447
803.755314	5177.307850
804.076045	5168.853835
804.396731	5135.748578
804.717372	5145.609074
805.037967	5152.487729
805.358518	5177.254918
805.679024	5235.444957
805.999485	5245.307974
806.319901	5262.868833
806.640272	5284.447493
806.960598	5328.862578
807.280879	5323.881918
807.601115	5359.631261
807.921306	5319.075178
808.241453	5316.080733
808.561554	5327.715716
808.881611	5294.620541
809.201623	5288.641732
809.521590	5239.119958
809.841513	5223.973811
810.161390	5240.294547
810.481223	5149.432790
810.801011	5136.575327
811.120755	5113.091112
811.440453	5059.196136
811.760107	5028.258575
812.079716	5004.749154
812.399281	4954.120846
812.718801	4944.048620
813.038276	4910.761881
813.357707	4877.996902
813.677093	4897.906939
813.996434	4842.156819
814.315731	4859.712637
814.634983	4857.247513
814.954191	4862.054253
815.273354	4916.972583
815.592473	4961.861537
815.911547	5039.328948
816.230577	5089.992545
816.549562	5173.365668
816.868502	5228.372218
817.187399	5280.500269
817.506250	5363.228124
817.825058	5387.894490
818.143821	5540.459970
818.462539	5708.910126
818.781213	5933.354898
819.099843	6293.802439
819.418429	6920.256545
819.736970	7534.178343
820.055466	8247.272240
820.373919	9144.801791
820.692327	10587.244785
821.010691	13271.790278
821.329011	19454.331931
821.647286	29019.056796
821.965517	39350.677273
822.283704	44831.291185
822.601847	46312.077195
822.919945	41708.099772
823.237999	36575.998469
823.556010	31399.293038
823.873976	26685.589860
824.191897	22505.049196
824.509775	19434.658828
824.827609	16684.288469
825.145398	15122.138236
825.463144	14376.680131
825.780845	14667.678216
826.098502	15914.405974
826.416116	18371.489564
826.733685	20647.008437
827.051210	21177.133655
827.368692	19756.115565
827.686129	17200.122016
828.003522	14732.136930
828.320872	12521.326308
828.638177	10881.665814
828.955439	9636.810845
829.272656	8582.203981
829.589830	7741.702482
829.906960	7015.846904
830.224046	6485.595658
830.541088	6083.132620
830.858086	5821.920192
831.175041	5618.683554
831.491952	5559.525614
831.808819	5592.419143
832.125642	5835.674980
832.442421	6384.039093
832.759157	7480.434602
833.075849	9249.161237
833.392497	11090.304048
833.709101	12206.778472
834.025662	11959.789660
834.342179	10899.778679
834.658653	9599.639897
834.975083	8505.008792
835.291469	7601.674352
835.607811	6869.787033
835.924110	6351.924422
836.240366	5864.177664
836.556578	5413.589251
836.872746	5065.479934
837.188871	4794.386845
837.504952	4572.482814
837.820990	4408.277310
838.136984	4293.192809
838.452935	4242.929984
838.768842	4278.334008
839.084706	4549.303589
839.400526	5292.190705
839.716303	6196.719898
840.032037	6756.431648
840.347727	6610.318845
840.663373	6014.973699
840.978977	5435.966933
841.294537	4997.769676
841.610054	4670.341693
841.925527	4428.313376
842.240957	4224.980956
842.556344	4042.019839
842.871687	3885.688617
843.186987	3735.951224
843.502244	3615.893625
843.817458	3529.526057
844.132629	3460.764718
844.447756	3415.477513
844.762840	3366.152343
845.077881	3328.651199
845.392879	3293.957979
845.707833	3268.384205
846.022745	3243.110380
846.337613	3234.127044
846.652438	3210.186605
846.967221	3202.403063
847.281960	3177.567819
847.596656	3170.737055
847.911309	3159.553255
848.225919	3145.826193
848.540485	3138.829072
848.855009	3129.717186
849.169490	3119.889457
849.483928	3110.696913
849.798323	3105.164247
850.112675	3097.257197
850.426984	3094.192175
850.741251	3087.863007
851.055474	3085.539035
851.369654	3086.491813
851.683792	3081.823704
851.997887	3084.954261
852.311938	3087.033737
852.625947	3084.898808
852.939914	3080.802871
853.253837	3085.753284
853.567718	3085.874271
853.881555	3078.622572
854.195350	3081.251533
854.509103	3081.795978
854.822812	3077.437900
855.136479	3071.627971
855.450103	3078.640216
855.763685	3071.587641
856.077224	3072.583269
856.390720	3080.208014
856.704173	3091.928697
857.017584	3096.818616
857.330953	3104.791201
857.644278	3112.877212
857.957561	3114.457614
858.270802	3109.204731
858.584000	3109.665997
858.897155	3104.937395
859.210268	3094.222422
859.523339	3083.648602
859.836367	3081.674990
860.149352	3073.334401
860.462295	3068.578072
860.775195	3062.437947
861.088054	3055.786145
861.400869	3057.570713
861.713642	3059.259500
862.026373	3063.942732
862.339062	3068.631005
862.651708	3076.946388
862.964312	3094.560179
863.276873	3101.544698
863.589392	3131.388329
863.901869	3159.883451
864.214303	3181.353725
864.526696	3200.263093
864.839045	3215.308417
865.151353	3231.039337
865.463619	3229.166549
865.775842	3228.503637
866.088023	3233.683423
866.400162	3226.474573
866.712258	3228.861559
867.024313	3227.334089
867.336325	3226.280488
867.648296	3227.991960
867.960224	3225.078173
868.272110	3228.191086
868.583954	3226.653534
868.895755	3234.389184
869.207515	3234.177456
869.519233	3252.590270
869.830909	3257.318872
870.142542	3271.618105
870.454134	3275.709002
870.765684	3288.813481
871.077191	3306.011378
871.388657	3320.802123
871.700081	3336.207889
872.011463	3357.665560
872.322803	3373.330946
872.634101	3394.367681
872.945357	3417.441042
873.256571	3442.422480
873.567744	3458.261785
873.878874	3462.967703
874.189963	3479.437152
874.501010	3478.751555
874.812015	3474.401039
875.122979	3491.155314
875.433900	3486.913183
875.744780	3492.133298
876.055618	3501.093949
876.366415	3498.701922
876.677169	3503.080164
876.987882	3519.733615
877.298554	3542.867470
877.609183	3578.011874
877.919771	3626.996766
878.230317	3695.024617
878.540822	3799.288281
878.851285	3952.468782
879.161707	4168.484745
879.472087	4543.314698
879.782425	5168.299308
880.092722	6351.846284
880.402977	8291.112634
880.713191	10667.590695
881.023363	13053.334397
881.333494	14410.191201
881.643583	14868.570718
881.953631	14460.874962
882.263637	13621.031334
882.573602	12583.115731
882.883526	11618.032197
883.193408	10659.093830
883.503248	9733.971523
883.813048	8901.934122
884.122806	8144.362125
884.432522	7373.161368
884.742197	6718.060906
885.051831	6151.079812
885.361424	5650.997350
885.670975	5261.215335
885.980485	4927.702679
886.289954	4665.156866
886.599382	4447.850368
886.908768	4270.495014
887.218113	4104.993933
887.527417	3972.300681
887.836680	3850.398020
888.145901	3747.770210
888.455082	3671.401770
888.764221	3603.729321
889.073319	3544.790671
889.382376	3512.481916
889.691392	3485.231958
890.000366	3480.273984
890.309300	3475.623519
890.618193	3479.817759
890.927044	3471.245277
891.235855	3477.198880
891.544625	3496.186386
891.853353	3524.578164
892.162041	3581.492791
892.470687	3670.794311
892.779293	3794.330307
893.087858	3967.526709
893.396381	4246.194132
893.704864	4657.464065
894.013306	5229.924893
894.321707	5808.142719
894.630068	6160.952912
894.938387	6205.093255
895.246665	6022.618609
895.554903	5704.952820
895.863100	5366.603177
896.171256	5094.728709
896.479371	4853.945557
896.787446	4626.897029
897.095480	4430.929735
897.403473	4282.908855
897.711425	4137.436278
898.019336	4016.320037
898.327207	3893.383938
898.635038	3793.571613
898.942827	3683.871064
899.250576	3598.504165
899.558284	3515.070548
899.865952	3462.705562
900.173579	3394.004718
900.481165	3353.307483
900.788711	3307.347283
901.096216	3275.865277
901.403681	3247.743201
901.711105	3239.090060
902.018489	3231.823237
902.325832	3265.586365
902.633135	3325.230777
902.940397	3497.703773
903.247619	3900.113879
903.554800	4651.233199
903.861941	5624.027177
904.169041	6327.736966
904.476101	6541.960799
904.783121	6265.841679
905.090100	5862.589701
905.397039	5449.046207
905.703938	5083.176905
906.010796	4763.025827
906.317614	4510.211961
906.624391	4272.019963
906.931129	4073.912699
907.237826	3891.072569
907.544483	3719.907752
907.851099	3549.471382
908.157675	3393.868607
908.464211	3246.185484
908.770707	3146.786533
909.077163	3068.320974
909.383578	3009.636902
909.689954	2964.626960
909.996289	2932.406425
910.302584	2915.059814
910.608839	2898.562638
910.915054	2886.907491
911.221229	2882.327603
911.527363	2888.026627
911.833458	2895.129613
912.139513	2905.244688
912.445527	2919.770773
912.751502	2952.424847
913.057436	2997.147443
913.363331	3054.208263
913.669186	3141.936943
913.975000	3259.539501
914.280775	3444.958180
914.586510	3715.400961
914.892205	4088.461469
915.197859	4591.377059
915.503475	5181.164333
915.809050	5674.962996
916.114585	5967.579291
916.420081	6032.912645
916.725536	5969.411751
917.030952	5732.361573
917.336328	5527.206777
917.641665	5308.221574
917.946961	5080.565587
918.252218	4883.068303
918.557435	4650.192201
918.862612	4452.866316
919.167750	4280.489101
919.472848	4088.796706
919.777906	3919.524842
920.082925	3764.350565
920.387904	3610.524796
920.692843	3497.527333
920.997743	3398.040162
921.302603	3302.396870
921.607423	3237.171901
921.912204	3173.653363
922.216946	3122.614201
922.521647	3074.821542
922.826310	3031.707073
923.130932	2995.761126
923.435516	2955.320990
923.740059	2927.587082
924.044564	2898.529871
924.349028	2873.651777
924.653454	2840.518793
924.957840	2814.738332
925.262186	2797.449695
925.566493	2775.573608
925.870761	2748.381624
926.174989	2738.563977
926.479178	2722.850701
926.783328	2708.758155
927.087438	2697.004705
927.391509	2683.096161
927.695541	2668.801970
927.999533	2658.979281
928.303486	2652.786224
928.607400	2645.794143
928.911275	2642.381282
929.215110	2634.179325
929.518906	2629.780918
929.822663	2632.387195
930.126381	2631.431896
930.430060	2634.028090
930.733699	2637.065386
931.037299	2643.452527
931.340861	2638.865077
931.644383	2643.422281
931.947866	2640.485808
932.251309	2639.633853
932.554714	2635.474902
932.858080	2636.795684
933.161407	2633.022380
933.464694	2629.717904
933.767943	2624.913684
934.071153	2619.076028
934.374323	2615.305245
934.677455	2614.342385
934.980548	2612.439349
935.283602	2608.671087
935.586617	2605.669079
935.889593	2613.177878
936.192530	2612.590584
936.495428	2617.147787
936.798287	2626.587347
937.101108	2640.276601
937.403890	2660.221926
937.706632	2688.278467
938.009336	2720.814074
938.312002	2754.809095
938.614628	2774.204935
938.917216	2794.460291
939.219765	2802.258956
939.522275	2814.859320
939.824747	2815.572643
940.127179	2808.502425
940.429573	2801.338945
940.731929	2805.213072
941.034246	2790.994498
941.336524	2791.181020
941.638763	2781.257509
941.940964	2777.751387
942.243126	2758.602564
942.545250	2749.911614
942.847335	2735.816548
943.149381	2723.256513
943.451389	2708.415357
943.753359	2699.971424
944.055290	2686.498940
944.357182	2680.701613
944.659036	2673.399502
944.960851	2668.585200
945.262628	2664.431289
945.564367	2670.838596
945.866067	2664.358192
946.167729	2663.193686
946.469352	2662.429951
946.770937	2661.656134
947.072484	2653.935607
947.373992	2654.500216
947.675462	2647.936634
947.976893	2648.339926
948.278286	2640.934471
948.579641	2637.536733
948.880958	2637.624954
949.182236	2634.007926
949.483476	2633.773512
949.784678	2631.459622
950.085841	2630.804273
950.386967	2635.018677
950.688054	2644.344812
950.989103	2651.614156
951.290114	2658.790238
951.591087	2668.239881
951.892021	2682.198836
952.192917	2694.416072
952.493776	2702.504604
952.794596	2707.994420
953.095378	2709.625233
953.396122	2706.449307
953.696828	2707.984338
953.997496	2697.692822
954.298126	2690.163859
954.598718	2681.793023
954.899272	2672.169460
955.199788	2657.640855
955.500266	2649.043167
955.800706	2634.658235
956.101108	2615.917745
956.401472	2602.243615
956.701798	2589.991091
957.002087	2576.518607
957.302337	2563.840105
957.602550	2554.967675
957.902724	2544.172044
958.202861	2535.019829
958.502960	2524.564476
958.803022	2523.213447
959.103045	2512.334637
959.403031	2506.310458
959.702979	2499.580517
960.002889	2499.230157
960.302762	2491.897799
960.602596	2488.167345
960.902393	2484.237766
961.202153	2482.029740
961.501875	2476.799543
961.801559	2476.575212
962.101205	2475.289718
962.400814	2467.982565
962.700385	2471.438276
962.999918	2467.264201
963.299414	2464.168932
963.598873	2465.449385
963.898293	2463.127934
964.197677	2462.293623
964.497022	2462.107100
964.796331	2457.592747
965.095601	2462.578448
965.394835	2457.801955
965.694030	2459.306739
965.993189	2455.702314
966.292309	2456.216512
966.591393	2455.871193
966.890439	2453.252313
967.189447	2455.858590
967.488419	2453.610235
967.787353	2456.435802
968.086249	2456.866821
968.385108	2458.147274
968.683930	2455.293981
968.982714	2462.175156
969.281462	2460.859415
969.580172	2461.207254
969.878844	2463.987451
970.177480	2465.507358
970.476078	2467.264201
970.774639	2471.501290
971.073162	2476.139152
971.371649	2475.468678
971.670098	2473.777371
971.968510	2477.470017
972.266885	2477.323823
972.565223	2484.517550
972.863524	2483.915132
973.161788	2486.642396
973.460014	2484.552838
973.758204	2486.665081
974.056356	2487.539721
974.354471	2488.064001
974.652550	2492.391832
974.950591	2488.736995
975.248595	2487.091059
975.546563	2487.012921
975.844493	2483.645430
976.142386	2480.066211
976.440243	2478.727784
976.738062	2476.093782
977.035845	2476.297948
977.333590	2474.321816
977.631299	2470.462813
977.928971	2469.759572
978.226606	2467.289406
978.524204	2466.293778
978.821765	2466.883593
979.119290	2464.678089
979.416777	2463.165742
979.714228	2466.422328
980.011642	2465.497276
980.309020	2468.796711
980.606360	2473.578246
980.903664	2481.565954
981.200931	2496.258397
981.498162	2515.059380
981.795356	2545.485264
982.092513	2581.973136
982.389633	2626.118520
982.686717	2670.558812
982.983764	2701.985365
983.280775	2720.115875
983.577749	2721.368601
983.874686	2711.702189
984.171587	2697.980168
984.468451	2678.773372
984.765279	2660.352996
985.062070	2642.426653
985.358824	2626.378139
985.655543	2602.626743
985.952224	2579.460121
986.248869	2552.494989
986.545478	2524.314939
986.842050	2505.226610
987.138586	2485.588795
987.435086	2470.445169
987.731549	2462.792697
988.027975	2456.642489
988.324366	2450.431788
988.620719	2444.914245
988.917037	2438.494336
989.213318	2440.772937
989.509563	2440.142793
989.805772	2434.458892
990.101944	2435.023501
990.398080	2434.819334
990.694180	2431.731628
990.990244	2435.550302
991.286271	2432.487801
991.582262	2433.833789
991.878217	2435.817483
992.174136	2434.776485
992.470019	2433.407811
992.765865	2437.755807
993.061676	2437.536516
993.357450	2442.779316
993.653188	2442.766713
993.948890	2450.893053
994.244556	2454.953703
994.540186	2463.984930
994.835780	2477.510346
995.131337	2491.214723
995.426859	2508.856240
995.722345	2531.047400
996.017795	2548.366284
996.313208	2561.926987
996.608586	2572.599110
996.903928	2574.113977
997.199234	2573.937537
997.494504	2570.335632
997.789738	2565.153326
998.084936	2554.398024
998.380099	2539.617361
998.675225	2530.815507
998.970316	2518.270595
999.265371	2501.448265
999.560390	2486.839001
999.855373	2477.883391
1000.150320	2465.663634
1000.445232	2458.311111
1000.740108	2452.198712
1001.034948	2445.630089
1001.329752	2441.491302
1001.624521	2436.510642
1001.919254	2427.547470
1002.213951	2428.253232
1002.508613	2423.307860
1002.803239	2426.924887
1003.097829	2420.346182
1003.392384	2422.196285
1003.686903	2421.742581
1003.981386	2419.703435
1004.275834	2419.161511
1004.570246	2420.625966
1004.864623	2417.518094
1005.158964	2415.552044
1005.453270	2416.620769
1005.747540	2414.468196
1006.041775	2415.557086
1006.335974	2416.267888
1006.630138	2414.795871
1006.924266	2416.376273
1007.218359	2415.831828
1007.512416	2411.360325
1007.806438	2414.432908
1008.100425	2412.973494
1008.394376	2412.857548
1008.688292	2414.899215
1008.982172	2411.410737
1009.276017	2411.816549
1009.569827	2412.058525
1009.863602	2412.406364
1010.157341	2411.808988
1010.451045	2410.742784
1010.744714	2412.509708
1011.038347	2409.663977
1011.331945	2409.931158
1011.625508	2409.222876
1011.919036	2408.852351
1012.212528	2410.558782
1012.505986	2406.031825
1012.799408	2409.419481
1013.092795	2409.212793
1013.386147	2409.074162
1013.679464	2407.294634
1013.972745	2407.092988
1014.265992	2411.226734
1014.559204	2410.347053
1014.852380	2407.801270
1015.145521	2409.512742
1015.438628	2406.787998
1015.731699	2407.783626
1016.024736	2406.704819
1016.317737	2408.630540
1016.610703	2409.275808
1016.903635	2405.683986
1017.196531	2404.718605
1017.489393	2407.138359
1017.782219	2404.947977
1018.075011	2410.054666
1018.367768	2411.264543
1018.660490	2408.242371
1018.953177	2408.242371
1019.245829	2408.242371
