Dividing Wavelength (nm)	Counts (n)	Blue Motor Position (mm): 41.000000	Red Motor Position (mm): 0.000000	
326.493990	1973.578963
326.888308	1973.578963
327.282561	1973.578963
327.676750	1944.075610
328.070874	1949.522577
328.464933	1955.695470
328.858929	1964.585545
329.252859	1976.283542
329.646726	1990.474390
330.040528	2005.945692
330.434265	2025.374298
330.827938	2042.471372
331.221547	2065.590103
331.615091	2085.520305
332.008571	2105.906731
332.401986	2124.400204
332.795338	2146.021713
333.188625	2167.179436
333.581847	2186.713907
333.975006	2203.863912
334.368100	2222.291850
334.761129	2239.240209
335.154095	2250.050964
335.546996	2293.866152
335.939833	2375.177443
336.332606	2394.359034
336.725315	2403.407905
337.117960	2413.200346
337.510540	2418.244021
337.903056	2430.433531
338.295508	2434.957966
338.687896	2445.854420
339.080220	2451.840790
339.472480	2455.165431
339.864676	2461.093828
340.256807	2461.131637
340.648875	2462.807821
341.040879	2465.709005
341.432818	2468.156485
341.824694	2469.159674
342.216506	2465.996350
342.608253	2469.227730
342.999937	2465.373768
343.391557	2467.188583
343.783113	2465.376288
344.174605	2463.400156
344.566033	2461.355968
344.957397	2459.750361
345.348697	2457.902778
345.739934	2454.333641
346.131106	2454.593260
346.522215	2452.995215
346.913260	2450.620831
347.304241	2451.402210
347.695159	2446.918104
348.086012	2447.397013
348.476802	2446.250151
348.867528	2444.894080
349.258191	2446.068669
349.648789	2441.735797
350.039324	2439.038780
350.429796	2441.965170
350.820203	2439.273194
351.210548	2437.566763
351.600828	2439.893256
351.991045	2439.300920
352.381198	2438.315375
352.771288	2439.759665
353.161314	2433.233892
353.551276	2436.576177
353.941175	2433.947215
354.331010	2436.722370
354.720782	2439.283276
355.110490	2440.994748
355.500135	2439.361414
355.889717	2437.770930
356.279235	2436.528286
356.668689	2440.853596
357.058080	2439.908379
357.447408	2438.176743
357.836672	2438.993410
358.225873	2441.019954
358.615010	2437.042483
359.004084	2443.134718
359.393095	2443.419543
359.782043	2443.699327
360.170927	2444.440377
360.559748	2441.629933
360.948505	2449.342899
361.337199	2444.503391
361.725830	2449.322734
362.114398	2446.648402
362.502903	2448.402723
362.891344	2450.368773
363.279722	2445.569595
363.668037	2450.923300
364.056289	2450.058742
364.444478	2450.056222
364.832603	2451.387087
365.220665	2453.171655
365.608665	2453.196861
365.996601	2456.176183
366.384474	2453.489248
366.772284	2456.496296
367.160031	2455.777932
367.547715	2454.988991
367.935336	2455.667026
368.322893	2457.081070
368.710388	2459.841102
369.097820	2460.153653
369.485189	2458.855556
369.872495	2460.902264
370.259738	2459.584003
370.646918	2463.488376
371.034035	2460.811524
371.421090	2462.107100
371.808081	2461.348407
372.195010	2466.404684
372.581875	2462.782615
372.968678	2466.490383
373.355418	2464.751185
373.742096	2467.450723
374.128710	2467.740590
374.515262	2470.205714
374.901751	2472.136476
375.288177	2472.219655
375.674540	2470.956846
376.060841	2474.563791
376.447079	2470.989613
376.833254	2473.878194
377.219367	2470.218317
377.605417	2476.532362
377.991404	2474.006744
378.377329	2473.681589
378.763191	2474.662094
379.148991	2480.918166
379.534727	2479.153762
379.920402	2485.578712
380.306013	2484.091572
380.691563	2484.681387
381.077049	2483.206850
381.462474	2485.097282
381.847835	2488.777325
382.233134	2489.604074
382.618371	2490.834115
383.003545	2490.793786
383.388657	2492.343941
383.773706	2493.180773
384.158693	2497.947183
384.543618	2496.462564
384.928480	2498.869715
385.313280	2501.912051
385.698017	2496.928870
386.082692	2504.054541
386.467305	2503.389109
386.851856	2510.242558
387.236344	2510.363545
387.620770	2513.862106
388.005133	2515.699607
388.389435	2518.956192
388.773674	2524.839219
389.157851	2535.052596
389.541965	2535.677699
389.926018	2543.834286
390.310008	2554.496327
390.693936	2565.473439
391.077802	2577.758731
391.461606	2596.723552
391.845348	2610.896756
392.229027	2632.220837
392.612645	2660.448778
392.996200	2685.402489
393.379694	2719.044629
393.763125	2760.210692
394.146494	2796.083542
394.529801	2839.820593
394.913047	2896.082391
395.296230	2935.479008
395.679351	2984.083293
396.062410	3055.844118
396.445408	3095.104624
396.828343	3165.630366
397.211217	3236.715677
397.594028	3282.683438
397.976778	3371.669886
398.359466	3467.587920
398.742092	3530.491438
399.124656	3631.206130
399.507158	3741.466247
399.889598	3829.005883
400.271977	3954.238227
400.654294	4049.899162
401.036549	4185.629709
401.418742	4282.820635
401.800874	4467.001711
402.182944	4588.007048
402.564952	4802.482938
402.946898	4856.158623
403.328783	4977.849557
403.710606	5154.506711
404.092367	5359.588411
404.474067	5619.835458
404.855705	5658.470861
405.237282	5763.052118
405.618797	6062.103447
406.000250	6297.366535
406.381642	6596.059941
406.762972	6709.254010
407.144240	6739.876499
407.525447	6998.263360
407.906593	7095.855057
408.287677	7368.289093
408.668700	7588.499296
409.049661	7710.364149
409.430560	7942.496681
409.811399	8051.609935
410.192176	8280.238865
410.572891	8458.589847
410.953545	8897.646621
411.334138	8693.525260
411.714669	9213.308551
412.095139	8878.601142
412.475547	9338.056944
412.855894	9356.583185
413.236180	9706.721566
413.616405	9599.738199
413.996568	9914.752341
414.376670	10008.076702
414.756711	10025.289722
415.136691	10343.910809
415.516609	10581.848230
415.896466	10740.541232
416.276262	11070.086500
416.655997	11520.349759
417.035670	11655.235913
417.415283	12287.764609
417.794834	12459.988068
418.174324	12330.571567
418.553753	12338.604646
418.933121	12861.687372
419.312428	12779.057819
419.691674	12781.384311
420.070859	13268.531172
420.449983	13024.199048
420.829045	13604.587090
421.208047	13436.888067
421.586988	13908.881219
421.965867	14201.288307
422.344686	14252.503909
422.723444	14830.499924
423.102141	13650.872444
423.480777	14815.709178
423.859352	14395.158481
424.237866	15473.431041
424.616319	15241.366565
424.994712	15893.795217
425.373044	15728.064763
425.751314	16412.179587
426.129524	15596.077273
426.507673	16662.125036
426.885762	16405.305974
427.263789	16615.960670
427.641756	16792.784182
428.019662	16871.985750
428.397508	16936.509999
428.775292	17225.743680
429.153016	17216.188173
429.530679	17307.261658
429.908282	17334.718303
430.285824	17073.556287
430.663305	17780.797404
431.040726	17389.586221
431.418086	17232.622334
431.795385	17862.595166
432.172624	18282.109907
432.549802	17861.145834
432.926920	18056.518272
433.303977	17934.073686
433.680974	18200.838945
434.057910	18492.449530
434.434786	18515.459877
434.811601	18437.495912
435.188355	19456.008115
435.565050	19118.845663
435.941683	19074.251616
436.318257	19942.214800
436.694770	19752.639689
437.071222	20337.980665
437.447614	19432.360062
437.823946	19450.072156
438.200218	19599.466750
438.576429	19385.512619
438.952580	19660.857922
439.328670	19629.688468
439.704700	20036.733914
440.080670	19617.761098
440.456580	20195.167297
440.832429	20368.709019
441.208218	19385.721827
441.583947	19822.557973
441.959616	19923.002963
442.335224	20151.788169
442.710773	20278.227869
443.086261	20808.824435
443.461689	20175.975625
443.837057	20311.973353
444.212365	20934.749937
444.587612	20937.693971
444.962800	20536.324863
445.337927	20943.667738
445.712995	19705.872905
446.088002	21523.279443
446.462949	21701.824509
446.837837	21872.810365
447.212664	21836.317453
447.587431	24602.050728
447.962139	27491.619948
448.336786	29866.517608
448.711374	28317.983531
449.085901	24700.539751
449.460369	24631.223886
449.834776	24538.106212
450.209124	26986.055232
450.583412	26554.658492
450.957640	27080.322288
451.331808	25739.158596
451.705917	24401.367435
452.079965	24423.578759
452.453954	24772.338385
452.827883	24664.979452
453.201752	24480.730320
453.575562	24623.979748
453.949311	25723.147891
454.323001	25787.309177
454.696632	25560.406842
455.070202	27083.515859
455.443713	27219.717754
455.817164	27794.850393
456.190556	28328.562392
456.563888	27765.394932
456.937160	28202.495737
457.310373	26569.209782
457.683526	26989.657137
458.056619	26969.507645
458.429653	26928.969206
458.802628	27483.869174
459.175542	27604.166229
459.548398	28894.978877
459.921194	30458.447372
460.293930	31131.499383
460.666607	33143.733914
461.039224	34883.892331
461.411782	35262.462820
461.784280	34053.057245
462.156719	33547.497570
462.529099	32968.664724
462.901419	31688.730886
463.273680	30630.007919
463.645882	30729.406870
464.018024	30707.066997
464.390106	31546.136808
464.762130	34245.039507
465.134094	38298.278434
465.505999	43601.015233
465.877845	48163.687962
466.249631	49289.228901
466.621358	47501.892846
466.993026	45313.371686
467.364634	43224.302409
467.736184	41279.841150
468.107674	40041.159074
468.479105	39282.533476
468.850477	38579.219417
469.221790	37168.898656
469.593043	35463.700641
469.964238	34582.184315
470.335373	34505.175648
470.706449	36166.707189
471.077467	38695.085297
471.448425	43267.414356
471.819324	46139.420196
472.190164	44313.597452
472.560945	40774.641917
472.931667	37683.837398
473.302330	36580.911074
473.672934	35768.264471
474.043479	36270.484382
474.413965	35496.337071
474.784393	35130.790402
475.154761	35993.437690
475.525070	36040.892592
475.895321	35595.604952
476.265513	36189.256270
476.635645	37139.118039
477.005719	36959.889897
477.375734	37422.962727
477.745691	38113.338664
478.115588	39422.589332
478.485427	41387.416853
478.855207	44726.107510
479.224928	47341.349740
479.594591	48972.962032
479.964194	47939.719578
480.333739	48055.968586
480.703226	48069.914938
481.072653	48713.672805
481.442022	49225.677595
481.811333	49475.141614
482.180584	48190.779122
482.549777	47652.877925
482.918912	47150.980648
483.287988	46854.338991
483.657005	46018.576177
484.025964	45395.071146
484.394864	45386.778448
484.763706	44935.050734
485.132489	44070.182818
485.501213	43906.715843
485.869879	44063.901541
486.238487	43669.287579
486.607036	43869.607910
486.975527	43341.703320
487.343959	43547.609249
487.712333	43620.685815
488.080648	43525.566804
488.448905	43967.250018
488.817104	43786.358295
489.185244	44718.845728
489.553326	46370.630197
489.921350	49117.126430
490.289315	52031.896378
490.657222	52668.321886
491.025070	52958.866268
491.392861	52026.779607
491.760593	50749.114288
492.128267	49045.567251
492.495883	47495.140221
492.863440	46103.988447
493.230939	44763.739723
493.598380	43687.894478
493.965763	43356.678068
494.333088	42553.350037
494.700354	42076.948396
495.067563	41812.900319
495.434713	41675.748167
495.801805	41738.349216
496.168839	41360.295445
496.535815	41035.380477
496.902733	41080.463515
497.269593	40677.869408
497.636395	40600.278488
498.003139	41001.745898
498.369825	40474.053037
498.736453	40760.214135
499.103023	40292.160644
499.469535	40181.540085
499.835989	40261.185275
500.202385	39930.160428
500.568723	39957.339809
500.935003	40146.287296
501.301226	39943.665679
501.667390	40548.707484
502.033497	40806.312966
502.399546	40222.388555
502.765537	39550.105319
503.131470	39924.501733
503.497345	40263.577302
503.863163	38973.029315
504.228923	39569.140716
504.594625	39960.349378
504.960269	39252.692365
505.325856	39935.032703
505.691385	39303.023245
506.056856	39438.806724
506.422270	39868.118947
506.787625	39449.428435
507.152924	39663.029686
507.518164	39738.054658
507.883347	38970.982606
508.248472	39214.177950
508.613540	39684.809991
508.978550	39977.559877
509.343503	39726.560827
509.708398	39922.959140
510.073236	40447.831475
510.438016	40438.626328
510.802738	39896.936703
511.167403	40531.519670
511.532010	40737.153377
511.896561	41057.657335
512.261053	41868.153886
512.625488	41419.347521
512.989866	41301.603811
513.354186	41148.014977
513.718449	41127.336164
514.082655	41813.986688
514.446803	41476.650317
514.810894	41994.727177
515.174927	41934.235851
515.538904	41843.555576
515.902822	42482.005108
516.266684	41941.626183
516.630488	42364.440359
516.994235	42195.697816
517.357925	42782.316725
517.721558	42934.912452
518.085133	43246.100358
518.448651	43397.269438
518.812112	43148.919515
519.175516	43257.798355
519.538863	43602.396509
519.902152	43561.865632
520.265385	44019.262123
520.628560	44065.507148
520.991678	43848.782903
521.354739	44096.217857
521.717743	44412.134366
522.080690	44303.368951
522.443580	44863.604981
522.806413	44911.654739
523.169189	44858.372263
523.531908	45033.625456
523.894569	44894.650927
524.257174	45078.017857
524.619722	45374.515841
524.982213	45366.926384
525.344647	45288.513756
525.707025	45331.194685
526.069345	45743.009064
526.431608	45661.276836
526.793815	45965.024000
527.155964	45519.806936
527.518057	45684.370362
527.880093	45485.736298
528.242072	45993.443504
528.603995	45704.557663
528.965860	45705.364247
529.327669	45811.946843
529.689421	45718.625002
530.051117	45685.910435
530.412755	45827.569378
530.774337	45888.426188
531.135862	45699.730758
531.497331	45918.557164
531.858743	45847.343304
532.220098	46174.637697
532.581396	45881.146761
532.942638	45552.773562
533.303824	45844.588314
533.664953	45816.872050
534.026025	45543.313836
534.387040	46017.578028
534.747999	45964.615666
535.108902	46138.369116
535.469748	45688.995621
535.830537	45789.556558
536.191270	45979.441700
536.551947	45629.537732
536.912567	45953.242823
537.273131	46067.011583
537.633638	45560.393266
537.994089	45907.998467
538.354483	45529.125509
538.714821	46085.250478
539.075103	46443.794983
539.435328	46193.282405
539.795497	46084.990858
540.155609	46070.288333
540.515665	46547.393215
540.875665	45985.793553
541.235609	46327.654360
541.595496	46278.417411
541.955328	46964.969632
542.315102	46348.688575
542.674821	46122.728936
543.034483	46161.838207
543.394090	46133.428785
543.753640	46098.629700
544.113134	47100.029706
544.472571	46130.522560
544.831953	47350.549846
545.191278	46565.435505
545.550548	46308.336659
545.909761	46762.010258
546.268918	46976.602095
546.628019	47251.700381
546.987064	46828.828232
547.346053	46117.413039
547.704986	46985.673651
548.063863	46559.025678
548.422684	46749.639267
548.781449	46591.959536
549.140158	46984.945205
549.498811	46843.026642
549.857408	46266.835360
550.215949	47106.046323
550.574434	47060.917914
550.932864	46813.082188
551.291237	47525.677010
551.649555	47131.307545
552.007817	47375.324597
552.366022	47013.798249
552.724173	47211.968527
553.082267	47598.201570
553.440305	47906.142973
553.798288	47207.053402
554.156215	47528.195067
554.514086	47740.465452
554.871902	47465.283987
555.229661	47487.538161
555.587365	47322.011874
555.945014	47400.961385
556.302606	47329.775251
556.660143	47565.207218
557.017625	47644.280237
557.375050	47429.317875
557.732421	47791.000499
558.089735	47773.686656
558.446994	47673.342489
558.804197	48155.508689
559.161345	48091.256663
559.518437	47342.000049
559.875474	47631.904204
560.232455	47791.378585
560.589381	47982.113162
560.946251	47679.341462
561.303065	48359.798928
561.659825	48150.611208
562.016528	47835.755863
562.373177	47562.898370
562.729770	48033.250626
563.086307	47554.046103
563.442789	48000.437756
563.799216	48048.495076
564.155587	47843.584775
564.511904	47872.314310
564.868164	47963.612127
565.224370	48207.147749
565.580520	47942.159497
565.936615	48146.981578
566.292654	47869.967653
566.648638	48101.427191
567.004567	48055.335921
567.360441	48090.412270
567.716260	47939.018858
568.072023	48246.861959
568.427732	48231.035256
568.783385	47778.851318
569.138982	48174.622224
569.494525	48144.831526
569.850013	47890.102022
570.205445	47850.460908
570.560823	47812.523705
570.916145	47688.413018
571.271412	47718.203717
571.626625	47479.946183
571.981782	47542.073363
572.336884	47201.646764
572.691931	47529.793112
573.046923	47126.112636
573.401860	46984.597365
573.756743	46958.794219
574.111570	47084.989423
574.466342	46936.724048
574.821059	47050.976758
575.175722	46571.999087
575.530330	46591.037005
575.884882	46308.344221
576.239380	46266.207736
576.593823	46241.173366
576.948211	46160.862744
577.302544	45688.854468
577.656823	45709.248456
578.011047	45928.737774
578.365216	45657.911866
578.719330	45450.894363
579.073389	45317.671790
579.427394	45392.724489
579.781344	45339.527713
580.135239	45002.380385
580.489080	45088.337099
580.842866	44587.816057
581.196597	45029.211926
581.550273	44988.948230
581.903895	44826.854969
582.257463	45258.367656
582.610975	44646.787475
582.964434	44919.531542
583.317837	44571.381895
583.671186	44397.164660
584.024481	44622.494154
584.377721	44168.167726
584.730906	44429.107931
585.084037	44471.879601
585.437113	44178.658367
585.790135	44217.245879
586.143103	43812.431143
586.496016	43949.222852
586.848874	43961.157784
587.201679	43975.651101
587.554428	43454.355464
587.907124	43656.450281
588.259765	43406.600614
588.612352	43671.964432
588.964884	43040.017989
589.317362	43318.456039
589.669786	43275.999441
590.022155	43034.641598
590.374470	43450.070484
590.726731	42983.171417
591.078937	42495.699402
591.431090	42590.682302
591.783188	42255.674944
592.135232	41936.262395
592.487222	42175.621421
592.839157	42258.203083
593.191038	41927.740325
593.542866	41690.818697
593.894639	41092.007758
594.246358	41372.777342
594.598022	41368.280632
594.949633	40961.807357
595.301190	40917.238516
595.652692	40739.464746
596.004141	41086.971645
596.355535	40102.184762
596.706876	40065.422147
597.058162	39886.511597
597.409395	40340.601092
597.760573	40440.385691
598.111698	40008.406697
598.462768	40026.678359
598.813785	40059.481147
599.164748	39511.971511
599.515657	39883.917924
599.866511	39374.597548
600.217312	39984.347791
600.568060	38962.551276
600.918753	39709.867046
601.269392	39652.249178
601.619978	39314.093619
601.970510	39518.545175
602.320988	39706.008043
602.671412	40020.447493
603.021783	39750.581925
603.372100	39403.838761
603.722363	39505.443216
604.072572	39586.199980
604.422728	39610.337025
604.772830	39409.920913
605.122878	39513.466213
605.472872	39448.997417
605.822813	39721.529755
606.172701	39554.339888
606.522534	39807.400770
606.872314	40062.853679
607.222041	39830.106127
607.571714	40210.141071
607.921333	39661.726547
608.270899	39951.406371
608.620411	40291.802722
608.969870	40091.527763
609.319276	40082.962842
609.668627	40145.516000
610.017926	40617.070572
610.367171	40778.188369
610.716362	40863.454445
611.065500	40818.870481
611.414585	41016.032528
611.763616	41299.647843
612.112594	41223.165978
612.461518	41447.870369
612.810389	41729.970818
613.159207	41598.333688
613.507971	41682.649507
613.856682	42154.960252
614.205340	42041.859445
614.553945	42746.572423
614.902496	42194.684544
615.250994	42660.625791
615.599439	42731.615320
615.947830	42944.470479
616.296169	42994.478725
616.644454	43116.724186
616.992686	43289.015701
617.340864	43808.456193
617.688990	43515.676060
618.037063	44117.562103
618.385082	44099.643321
618.733048	44408.640846
619.080961	44410.420374
619.428821	44423.320686
619.776628	44530.301533
620.124382	44357.175707
620.472083	44487.229914
620.819731	44603.771309
621.167326	44276.890291
621.514868	44263.246408
621.862357	43814.271164
622.209793	43834.544164
622.557176	43510.244217
622.904506	43261.276752
623.251783	42915.423351
623.599007	42696.012171
623.946179	42468.683859
624.293297	42415.043461
624.640363	41833.886643
624.987376	41809.442088
625.334336	41581.160998
625.681243	41238.919584
626.028097	41197.166227
626.374899	41039.267206
626.721647	41037.470035
627.068343	40921.490729
627.414987	40679.477536
627.761577	40456.575357
628.108115	40791.648250
628.454600	40262.395152
628.801032	40436.511564
629.147412	40402.791286
629.493739	40425.693248
629.840014	40063.753525
630.186236	40385.530375
630.532405	40013.785608
630.878521	40217.400333
631.224585	40112.471236
631.570597	39811.224485
631.916556	39981.345783
632.262462	39923.682545
632.608316	39927.838977
632.954117	39834.678453
633.299866	39823.466927
633.645562	39743.667982
633.991206	39238.672917
634.336797	38813.401178
634.682336	38824.829474
635.027823	38562.308867
635.373257	38389.241014
635.718639	38137.395050
636.063968	38000.235336
636.409245	37432.200642
636.754470	37481.460276
637.099642	37243.011179
637.444762	36762.659793
637.789829	36906.156238
638.134845	36553.204892
638.479808	36506.097830
638.824719	36406.280463
639.169577	36026.784922
639.514383	36079.853149
639.859137	35796.444521
640.203839	36033.777003
640.548489	35660.698851
640.893086	35732.220221
641.237632	35482.546994
641.582125	35587.405515
641.926566	35530.430394
642.270955	35492.906566
642.615292	35520.456471
642.959576	35501.602556
643.303809	35482.909958
643.647990	35634.333616
643.992118	35605.077280
644.336195	35608.482579
644.680219	35694.900559
645.024192	35988.923337
645.368112	36509.843407
645.711981	36529.234206
646.055797	37401.512618
646.399562	37335.803698
646.743274	38290.918349
647.086935	38726.799196
647.430544	38608.188408
647.774101	38741.000127
648.117606	38979.978545
648.461059	39277.812435
648.804460	38881.386179
649.147810	38266.108311
649.491108	38002.886983
649.834354	37655.448140
650.177548	36829.129928
650.520690	36371.463734
650.863781	36372.716461
651.206820	36222.280869
651.549807	35791.869674
651.892742	35304.730375
652.235626	35108.175786
652.578458	34985.680789
652.921238	34377.495824
653.263967	34704.127306
653.606644	34392.457969
653.949269	34331.006304
654.291843	33936.742702
654.634365	34354.669480
654.976836	33946.890545
655.319255	33939.928712
655.661622	33944.581697
656.003938	33724.424426
656.346203	33576.801797
656.688416	33797.067453
657.030577	33582.152982
657.372687	33443.352373
657.714746	33709.351376
658.056753	33851.665670
658.398708	33293.927532
658.740612	33328.615711
659.082465	33606.481591
659.424266	33435.016825
659.766016	33547.381623
660.107715	33430.021041
660.449362	33561.159097
660.790958	33539.542629
661.132503	33565.600353
661.473996	33594.723099
661.815438	33711.052765
662.156829	33905.893362
662.498168	33669.372505
662.839456	33702.155129
663.180693	33854.216493
663.521879	34016.818911
663.863013	33968.512054
664.204097	33974.432889
664.545129	34426.926858
664.886110	34398.393928
665.227040	34458.418947
665.567918	34580.573666
665.908746	34636.860669
666.249522	34825.069627
666.590248	34810.041948
666.930922	34911.928708
667.271545	34884.315788
667.612118	34972.404910
667.952639	34754.669914
668.293109	34801.509795
668.633528	34699.439032
668.973896	34627.589987
669.314213	34651.379192
669.654480	34388.780447
669.994695	34420.479223
670.334859	34313.475691
670.674973	34209.189342
671.015035	34360.328175
671.355047	34319.613296
671.695008	34259.313534
672.034918	34174.360010
672.374777	34238.697736
672.714585	34070.043413
673.054342	34301.046726
673.394049	34063.273143
673.733705	34357.981518
674.073310	34007.296171
674.412864	34086.878346
674.752368	33679.240564
675.091820	33969.913495
675.431223	33553.783889
675.770574	33277.871457
676.109875	33144.737104
676.449125	32865.255535
676.788324	32779.997020
677.127473	32246.095978
677.466571	32163.282423
677.805619	31799.588379
678.144616	31813.436429
678.483562	31735.842989
678.822458	31399.121638
679.161303	31339.245333
679.500098	31235.513511
679.838842	31133.258746
680.177535	31278.665788
680.516179	31557.434034
680.854771	31813.247386
681.193314	32693.634493
681.531805	33813.531861
681.870247	34620.368534
682.208638	35349.674782
682.546978	35566.799799
682.885268	35672.870717
683.223508	35137.177544
683.561697	34779.807628
683.899836	34591.467599
684.237925	34077.201852
684.575963	33929.808595
684.913951	33454.677325
685.251889	33614.519710
685.589776	33622.542707
685.927614	33598.186372
686.265401	33737.294492
686.603137	33833.315870
686.940824	34356.259964
687.278460	34746.442751
687.616046	34869.358685
687.953582	35490.149054
688.291068	35355.913210
688.628504	35632.067617
688.965889	35549.944701
689.303224	35154.889638
689.640510	34793.118794
689.977745	34066.166766
690.314930	33258.866307
690.652065	32719.293966
690.989150	31981.692500
691.326185	31072.709447
691.663170	30372.601563
692.000105	29608.687794
692.336990	28920.504759
692.673825	28459.955026
693.010610	27937.910778
693.347345	27355.309669
693.684030	26697.857508
694.020665	26422.544973
694.357251	25738.266312
694.693786	25697.609406
695.030272	25455.810462
695.366707	24898.619289
695.703093	24607.328817
696.039429	24599.099133
696.375716	24347.298539
696.711952	24299.694924
697.048139	24136.348936
697.384276	23967.394665
697.720363	24086.209620
698.056400	23879.638259
698.392388	23663.380321
698.728326	23625.548982
699.064214	23418.665069
699.400053	23351.070758
699.735842	23008.330269
700.071581	22720.180436
700.407270	22428.116147
700.742910	22225.759190
701.078501	21951.051594
701.414042	21673.720077
701.749533	21375.674458
702.084974	21012.938233
702.420366	21216.691589
702.755709	20779.552975
703.091002	20490.677215
703.426246	20507.950729
703.761440	20389.985208
704.096584	20124.268510
704.431679	20089.519836
704.766725	19989.931842
705.101721	19923.766698
705.436668	20023.216060
705.771565	19693.965700
706.106413	20048.578105
706.441212	20022.036430
706.775961	20160.325363
707.110661	20229.500076
707.445311	20594.078842
707.779913	20426.014335
708.114465	20673.028353
708.448967	20957.609049
708.783421	21657.923621
709.117825	21937.251435
709.452180	22158.981546
709.786485	22560.678328
710.120742	23383.543350
710.454949	23383.576117
710.789107	23858.541030
711.123216	24563.387599
711.457275	24691.816034
711.791286	25233.737552
712.125247	25293.865915
712.459159	24991.368958
712.793023	25649.267261
713.126837	24529.523648
713.460602	24788.520489
713.794318	24412.815895
714.127985	24014.557180
714.461602	23114.698615
714.795171	23069.497109
715.128691	22047.935009
715.462162	21495.416986
715.795584	21073.396791
716.128957	20803.947118
716.462281	20402.464585
716.795556	20163.284520
717.128782	19649.555655
717.461960	19105.327809
717.795088	19035.495226
718.128167	18640.621645
718.461198	18166.717895
718.794180	18018.334052
719.127113	17668.503181
719.459997	17449.969162
719.792833	17099.006552
720.125619	17071.179383
720.458357	16742.203765
720.791046	16577.060606
721.123686	16414.755617
721.456278	16172.709656
721.788821	16131.231042
722.121315	15873.638163
722.453761	15942.283555
722.786158	15869.282606
723.118506	15874.452309
723.450805	15737.365692
723.783056	15902.758388
724.115259	15803.303984
724.447412	15730.277830
724.779518	15969.016794
725.111574	15994.444374
725.443582	16190.862851
725.775542	16176.767785
726.107453	16654.200342
726.439315	16528.771393
726.771129	16927.566992
727.102895	17311.526474
727.434612	17521.006581
727.766281	17645.633987
728.097901	17913.593999
728.429473	17944.541642
728.760996	17922.400895
729.092471	18005.610180
729.423897	17877.711066
729.755276	17741.126043
730.086606	17860.208180
730.417887	18391.936484
730.749120	18906.045957
731.080305	19087.877855
731.411442	19424.934442
731.742530	19490.764350
732.073570	19587.602395
732.404562	19877.410768
732.735506	19691.775318
733.066401	19408.240662
733.397249	18879.907574
733.728048	18232.820025
734.058798	17390.786016
734.389501	16708.818723
734.720156	16234.521764
735.050762	15712.570777
735.381320	15354.268247
735.711831	15104.726090
736.042293	14753.352626
736.372707	14764.521302
736.703073	14549.884095
737.033391	14746.242078
737.363661	14699.687023
737.693883	14815.837728
738.024056	14986.483306
738.354182	15172.438869
738.684260	15457.710203
739.014290	15685.121694
739.344272	15873.161774
739.674207	16157.646688
740.004093	16274.079698
740.333931	16257.648057
740.663722	16296.653985
740.993464	16281.389371
741.323159	16110.186745
741.652806	15827.690566
741.982405	15614.606034
742.311956	15277.428459
742.641460	15151.881043
742.970915	14845.494836
743.300323	14502.580428
743.629683	14285.019351
743.958996	14010.155479
744.288260	13740.110950
744.617477	13442.317389
744.946647	13360.461654
745.275768	13089.290427
745.604842	12897.230027
745.933869	12731.527300
746.262847	12684.672295
746.591778	12613.644958
746.920662	12503.339471
747.249498	12499.127587
747.578286	12622.608130
747.907027	12760.105601
748.235720	12994.168895
748.564365	13016.186134
748.892963	12913.817943
749.221514	12975.027633
749.550017	12822.709170
749.878473	12804.901294
750.206881	12561.705950
750.535242	12472.800161
750.863555	12381.925801
751.191821	12282.524330
751.520039	12306.278247
751.848210	12208.734440
752.176334	12240.259296
752.504411	12148.291006
752.832440	11989.025832
753.160421	12050.979092
753.488356	11929.008375
753.816243	11833.009682
754.144082	11694.493898
754.471875	11640.971968
754.799620	11571.716596
755.127318	11549.878318
755.454969	11506.529436
755.782572	11463.362035
756.110129	11473.709004
756.437638	11391.903680
756.765100	11382.484284
757.092515	11383.038811
757.419882	11403.147973
757.747203	11399.563713
758.074477	11473.240176
758.401703	11437.079980
758.728882	11600.983015
759.056014	11636.341668
759.383099	11754.760892
759.710138	11854.427024
760.037129	11937.991711
760.364073	11947.685850
760.690970	11935.710589
761.017820	11942.990015
761.344623	12135.196608
761.671379	12455.955145
761.998088	13089.315632
762.324751	14661.953986
762.651366	17564.786482
762.977935	21237.751010
763.304456	23470.641886
763.630931	23952.044352
763.957359	22764.280450
764.283740	20827.920325
764.610074	18933.341284
764.936362	16785.827390
765.262602	15252.283184
765.588796	13768.606072
765.914943	12732.482598
766.241044	11881.621529
766.567097	11237.793086
766.893104	10694.918790
767.219064	10326.730557
767.544978	9944.235530
767.870845	9631.139547
768.196665	9435.600751
768.522438	9236.966686
768.848165	9070.822858
769.173846	8904.076612
769.499479	8783.318293
769.825066	8623.811144
770.150607	8438.644522
770.476101	8375.985500
770.801548	8265.657328
771.126949	8124.875545
771.452303	8038.419756
771.777611	7871.154272
772.102872	7849.205088
772.428087	7733.528251
772.753256	7600.565298
773.078378	7510.810074
773.403453	7368.694906
773.728482	7263.261694
774.053465	7203.869340
774.378401	7116.276771
774.703291	7023.509458
775.028135	6923.576145
775.352932	6888.661113
775.677683	6804.020140
776.002388	6714.073353
776.327046	6711.731737
776.651658	6630.281814
776.976224	6550.165277
777.300743	6531.618872
777.625216	6473.312886
777.949643	6420.821872
778.274024	6427.035094
778.598359	6360.433890
778.922647	6362.397419
779.246889	6322.297561
779.571086	6330.577656
779.895236	6341.887485
780.219339	6335.205436
780.543397	6332.934396
780.867409	6382.010028
781.191374	6382.236880
781.515294	6346.013669
781.839167	6398.338326
782.162995	6367.330188
782.486776	6323.313354
782.810511	6277.650582
783.134201	6204.009407
783.457844	6192.487850
783.781441	6138.502133
784.104993	6099.150886
784.428498	6070.958233
784.751958	6054.055244
785.075372	6031.102871
785.398739	5991.325647
785.722061	6012.506054
786.045337	6013.852043
786.368568	6121.793229
786.691752	6145.496734
787.014891	6390.234671
787.337983	6674.918711
787.661030	7121.091073
787.984031	7545.079838
788.306987	7808.391906
788.629897	7900.554281
788.952760	7810.567164
789.275579	7630.023280
789.598351	7327.463309
789.921078	7066.444966
790.243759	6782.254959
790.566395	6574.811478
790.888984	6380.651437
791.211529	6239.171455
791.534027	6079.190438
791.856480	5940.568789
792.178888	5877.604778
792.501249	5806.111134
792.823566	5704.463828
793.145836	5703.697573
793.468062	5681.095559
793.790241	5642.820599
794.112375	5682.912895
794.434464	5778.614160
794.756507	5814.179500
795.078505	5933.853972
795.400457	6151.105018
795.722364	6394.199538
796.044226	6589.095587
796.366042	6740.670481
796.687812	6690.465629
797.009538	6723.036524
797.331218	6627.128573
797.652852	6554.717439
797.974442	6437.180416
798.295986	6365.449838
798.617484	6236.910497
798.938938	6126.811697
799.260346	6057.571449
799.581709	5919.065747
799.903026	5866.317634
800.224299	5795.413805
800.545526	5674.035423
800.866708	5607.114106
801.187845	5560.201128
801.508936	5486.718749
801.829983	5453.726918
802.150984	5345.551318
802.471940	5317.036032
802.792851	5305.809382
803.113717	5283.787101
803.434538	5254.573615
803.755314	5225.062700
804.076045	5209.929156
804.396731	5173.751316
804.717372	5191.743194
805.037967	5195.955078
805.358518	5223.414243
805.679024	5280.591010
805.999485	5291.265653
806.319901	5309.222243
806.640272	5328.338298
806.960598	5377.597933
807.280879	5367.233321
807.601115	5403.522067
807.921306	5364.616962
808.241453	5358.744018
808.561554	5372.592067
808.881611	5332.971119
809.201623	5330.231252
809.521590	5282.310043
809.841513	5267.300008
810.161390	5277.941883
810.481223	5189.835117
810.801011	5182.550650
811.120755	5156.359335
811.440453	5100.026961
811.760107	5070.395059
812.079716	5046.623498
812.399281	4994.530735
812.718801	4988.415815
813.038276	4954.569508
813.357707	4923.006844
813.677093	4939.299853
813.996434	4881.407242
814.315731	4897.120519
814.634983	4896.497937
814.954191	4903.444647
815.273354	4962.743739
815.592473	5000.978371
815.911547	5081.067182
816.230577	5130.977125
816.549562	5221.440631
816.868502	5270.949803
817.187399	5331.859544
817.506250	5409.415176
817.825058	5441.035813
818.143821	5597.561120
818.462539	5762.381645
818.781213	5997.455690
819.099843	6361.981524
819.418429	6993.799418
819.736970	7613.916794
820.055466	8335.767175
820.373919	9254.293132
820.692327	10715.763961
821.010691	13437.830762
821.329011	19686.683753
821.647286	29307.294850
821.965517	39661.875261
822.283704	45137.687474
822.601847	46644.937022
822.919945	42047.394632
823.237999	36903.232368
823.556010	31699.201362
823.873976	26966.823230
824.191897	22725.962639
824.509775	19655.050513
824.827609	16868.272940
825.145398	15291.430264
825.463144	14540.910841
825.780845	14838.825389
826.098502	16102.171311
826.416116	18574.040605
826.733685	20879.824045
827.051210	21408.416753
827.368692	19969.502566
827.686129	17379.660189
828.003522	14888.843718
828.320872	12661.009119
828.638177	10988.255971
828.955439	9740.000743
829.272656	8669.612547
829.589830	7823.149884
829.906960	7081.908705
830.224046	6554.394805
830.541088	6132.064580
830.858086	5876.190734
831.175041	5674.421072
831.491952	5615.802535
831.808819	5643.617101
832.125642	5897.429115
832.442421	6455.938550
832.759157	7563.233033
833.075849	9355.758956
833.392497	11207.457943
833.709101	12328.381186
834.025662	12077.493041
834.342179	11019.589262
834.658653	9696.815699
834.975083	8587.066173
835.291469	7679.623193
835.607811	6937.477127
835.924110	6407.977012
836.240366	5916.280510
836.556578	5466.176047
836.872746	5105.567189
837.188871	4831.023430
837.504952	4609.142085
837.820990	4441.654790
838.136984	4323.787572
838.452935	4274.543060
838.768842	4307.292916
839.084706	4591.898818
839.400526	5335.831974
839.716303	6251.791983
840.032037	6816.580175
840.347727	6669.471744
840.663373	6061.112860
840.978977	5484.417463
841.294537	5033.879461
841.610054	4701.533832
841.925527	4463.621617
842.240957	4254.063373
842.556344	4069.882296
842.871687	3914.340015
843.186987	3755.208432
843.502244	3638.609064
843.817458	3550.315775
844.132629	3478.444045
844.447756	3432.347734
844.762840	3385.596073
845.077881	3346.368335
845.392879	3310.276194
845.707833	3287.689304
846.022745	3258.654778
846.337613	3247.556678
846.652438	3223.616238
846.967221	3215.933520
847.281960	3193.422247
847.596656	3189.137267
847.911309	3173.544978
848.225919	3162.870335
848.540485	3151.089158
848.855009	3144.780154
849.169490	3130.783390
849.483928	3123.665281
849.798323	3121.918521
850.112675	3108.025101
850.426984	3110.207921
850.741251	3101.753906
851.055474	3097.814244
851.369654	3100.871704
851.683792	3094.996239
851.997887	3099.339193
852.311938	3098.136878
852.625947	3099.026642
852.939914	3093.723348
853.253837	3098.426744
853.567718	3096.725355
853.881555	3088.319231
854.195350	3094.877772
854.509103	3090.749067
854.822812	3090.698656
855.136479	3085.637337
855.450103	3088.929211
855.763685	3083.956112
856.077224	3084.702203
856.390720	3095.228132
856.704173	3102.946139
857.017584	3108.246912
857.330953	3115.465844
857.644278	3124.940693
857.957561	3121.293418
858.270802	3120.590177
858.584000	3122.820888
858.897155	3116.726133
859.210268	3108.377982
859.523339	3095.286106
859.836367	3091.074222
860.149352	3085.939806
860.462295	3082.602563
860.775195	3073.873805
861.088054	3070.713001
861.400869	3070.186201
861.713642	3065.147567
862.026373	3076.122159
862.339062	3080.633992
862.651708	3086.751432
862.964312	3107.626850
863.276873	3112.909979
863.589392	3148.170330
863.901869	3171.457940
864.214303	3194.359902
864.526696	3211.759445
864.839045	3229.121178
865.151353	3242.795308
865.463619	3243.798498
865.775842	3245.525093
866.088023	3249.570619
866.400162	3240.972931
866.712258	3244.045514
867.024313	3241.436717
867.336325	3239.168198
867.648296	3244.673138
867.960224	3242.180288
868.272110	3242.984352
868.583954	3241.411512
868.895755	3251.584560
869.207515	3249.167327
869.519233	3264.825151
869.830909	3272.608692
870.142542	3286.028244
870.454134	3292.601908
870.765684	3304.889721
871.077191	3322.044767
871.388657	3332.792507
871.700081	3351.795137
872.011463	3372.768857
872.322803	3389.971795
872.634101	3411.999117
872.945357	3431.079884
873.256571	3458.017289
873.567744	3474.229640
873.878874	3478.625526
874.189963	3498.132271
874.501010	3497.439113
874.812015	3494.737054
875.122979	3511.214065
875.433900	3506.994620
875.744780	3506.372037
876.055618	3520.628420
876.366415	3519.403420
876.677169	3523.380890
876.987882	3539.414280
877.298554	3558.550500
877.609183	3596.759926
877.919771	3646.309427
878.230317	3715.761403
878.540822	3819.079851
878.851285	3974.617092
879.161707	4200.806103
879.472087	4577.546653
879.782425	5213.969641
880.092722	6405.935345
880.402977	8355.301646
880.713191	10744.193548
881.023363	13132.621664
881.333494	14482.095699
881.643583	14940.649135
881.953631	14546.410740
882.263637	13710.005179
882.573602	12664.951302
882.883526	11704.135105
883.193408	10738.739020
883.503248	9818.509153
883.813048	8972.832910
884.122806	8206.098616
884.432522	7427.610871
884.742197	6764.021105
885.051831	6193.422984
885.361424	5689.824317
885.670975	5297.690604
885.980485	4970.270182
886.289954	4693.420095
886.599382	4477.598217
886.908768	4295.015186
887.218113	4132.279178
887.527417	3994.592664
887.836680	3872.868963
888.145901	3771.375413
888.455082	3693.953372
888.764221	3623.987197
889.073319	3566.588620
889.382376	3530.864483
889.691392	3507.077799
890.000366	3500.259638
890.309300	3493.948113
890.618193	3497.471880
890.927044	3491.351919
891.235855	3494.588340
891.544625	3513.008716
891.853353	3543.164898
892.162041	3603.820062
892.470687	3693.809699
892.779293	3817.436435
893.087858	3991.101665
893.396381	4272.703039
893.704864	4689.551009
894.013306	5262.047125
894.321707	5838.006514
894.630068	6203.941351
894.938387	6247.907774
895.246665	6065.995217
895.554903	5748.982258
895.863100	5407.847377
896.171256	5131.871930
896.479371	4886.087954
896.787446	4661.779293
897.095480	4460.594405
897.403473	4309.674861
897.711425	4161.159948
898.019336	4038.962379
898.327207	3912.399171
898.635038	3808.879077
898.942827	3704.517110
899.250576	3614.371197
899.558284	3531.678629
899.865952	3478.199549
900.173579	3410.711102
900.481165	3362.817620
900.788711	3322.654747
901.096216	3289.922535
901.403681	3262.254162
901.711105	3254.934407
902.018489	3248.224631
902.325832	3281.488685
902.633135	3342.040504
902.940397	3513.601052
903.247619	3920.631375
903.554800	4685.140000
903.861941	5660.855327
904.169041	6377.183124
904.476101	6587.812614
904.783121	6306.977495
905.090100	5902.014044
905.397039	5484.593903
905.703938	5117.996154
906.010796	4797.852638
906.317614	4535.150549
906.624391	4293.439825
906.931129	4096.847428
907.237826	3912.678955
907.544483	3740.631936
907.851099	3565.766912
908.157675	3403.507293
908.464211	3262.511261
908.770707	3158.582833
909.077163	3076.003692
909.383578	3015.436749
909.689954	2971.190542
909.996289	2945.062242
910.302584	2922.936617
910.608839	2907.490522
910.915054	2898.035838
911.221229	2890.169117
911.527363	2895.298491
911.833458	2904.647311
912.139513	2917.091399
912.445527	2929.570776
912.751502	2964.276599
913.057436	3005.856036
913.363331	3067.708473
913.669186	3154.307935
913.975000	3274.244547
914.280775	3467.098928
914.586510	3734.270000
914.892205	4117.745532
915.197859	4625.422491
915.503475	5212.064085
915.809050	5717.893462
916.114585	6007.898440
916.420081	6069.400517
916.725536	6005.932390
917.030952	5770.024034
917.336328	5557.751128
917.641665	5344.381771
917.946961	5115.304178
918.252218	4909.259618
918.557435	4682.251419
918.862612	4479.874297
919.167750	4305.767967
919.472848	4110.045169
919.777906	3941.153912
920.082925	3785.352012
920.387904	3625.905357
920.692843	3511.176257
920.997743	3413.874426
921.302603	3317.777431
921.607423	3255.330137
921.912204	3186.848583
922.216946	3136.721870
922.521647	3084.606421
922.826310	3043.253836
923.130932	3005.427538
923.435516	2966.671148
923.740059	2938.435645
924.044564	2903.873494
924.349028	2879.683517
924.653454	2851.362315
924.957840	2822.922646
925.262186	2805.659214
925.566493	2782.144752
925.870761	2759.139447
926.174989	2747.454052
926.479178	2731.813872
926.783328	2716.866851
927.087438	2699.989068
927.391509	2693.269210
927.695541	2677.387055
927.999533	2667.009839
928.303486	2659.533808
928.607400	2654.749753
928.911275	2648.029895
929.215110	2639.729635
929.518906	2636.268883
929.822663	2639.596045
930.126381	2641.219296
930.430060	2641.930099
930.733699	2642.366159
931.037299	2648.276912
931.340861	2645.332878
931.644383	2649.484268
931.947866	2645.960502
932.251309	2645.569812
932.554714	2643.079482
932.858080	2638.983545
933.161407	2635.414408
933.464694	2633.178656
933.767943	2632.699746
934.071153	2626.592388
934.374323	2623.076184
934.677455	2622.125926
934.980548	2616.111830
935.283602	2614.319699
935.586617	2614.110492
935.889593	2615.741305
936.192530	2617.810698
936.495428	2622.514095
936.798287	2633.218985
937.101108	2649.070893
937.403890	2667.977741
937.706632	2698.307843
938.009336	2727.808675
938.312002	2759.361257
938.614628	2784.962757
938.917216	2802.972279
939.219765	2811.912766
939.522275	2822.743685
939.824747	2822.484065
940.127179	2815.393682
940.429573	2808.434369
940.731929	2809.757672
941.034246	2800.366003
941.336524	2798.306691
941.638763	2792.491720
941.940964	2784.385545
942.243126	2766.030704
942.545250	2758.284971
942.847335	2741.825604
943.149381	2731.055178
943.451389	2717.146635
943.753359	2704.412680
944.055290	2692.805424
944.357182	2685.793179
944.659036	2679.579957
944.960851	2675.892352
945.262628	2673.114677
945.564367	2672.355983
945.866067	2671.098215
946.167729	2669.283400
946.469352	2667.740807
946.770937	2666.626712
947.072484	2656.766215
947.373992	2661.187307
947.675462	2655.654640
947.976893	2650.613487
948.278286	2647.523259
948.579641	2642.078813
948.880958	2642.640902
949.182236	2640.715181
949.483476	2636.863739
949.784678	2637.985396
950.085841	2633.975158
950.386967	2639.717032
950.688054	2650.515184
950.989103	2654.734630
951.290114	2664.753923
951.591087	2676.262877
951.892021	2689.495906
952.192917	2699.593337
952.493776	2710.734287
952.794596	2714.742005
953.095378	2714.316027
953.396122	2715.346943
953.696828	2711.077086
953.997496	2704.397557
954.298126	2695.986392
954.598718	2686.992973
954.899272	2677.974349
955.199788	2667.617298
955.500266	2653.010555
955.800706	2635.245529
956.101108	2622.869496
956.401472	2609.399533
956.701798	2596.557194
957.002087	2580.218814
957.302337	2569.912175
957.602550	2559.202244
957.902724	2549.001469
958.202861	2541.545603
958.502960	2531.538912
958.803022	2522.164887
959.103045	2514.945954
959.403031	2512.057373
959.702979	2503.767196
960.002889	2499.247801
960.302762	2493.218581
960.602596	2492.732110
960.902393	2486.823877
961.202153	2484.600729
961.501875	2480.098978
961.801559	2479.332723
962.101205	2476.854996
962.400814	2474.248719
962.700385	2473.575725
962.999918	2470.457772
963.299414	2467.037349
963.598873	2471.428194
963.898293	2463.410238
964.197677	2463.435444
964.497022	2462.434775
964.796331	2461.398818
965.095601	2459.037037
965.394835	2459.783128
965.694030	2460.504013
965.993189	2460.816565
966.292309	2458.835391
966.591393	2458.036368
966.890439	2456.493775
967.189447	2460.627522
967.488419	2458.432099
967.787353	2457.338169
968.086249	2458.923612
968.385108	2459.266410
968.683930	2456.985288
968.982714	2459.581482
969.281462	2461.983592
969.580172	2464.741103
969.878844	2467.496094
970.177480	2469.651187
970.476078	2473.200159
970.774639	2475.985397
971.073162	2474.213431
971.371649	2478.387507
971.670098	2478.722743
971.968510	2482.642240
972.266885	2478.349698
972.565223	2486.508805
972.863524	2484.724237
973.161788	2488.578199
973.460014	2487.070894
973.758204	2489.687253
974.056356	2487.217088
974.354471	2492.994250
974.652550	2488.041316
974.950591	2492.273365
975.248595	2488.868065
975.546563	2486.415544
975.844493	2487.527118
976.142386	2482.554020
976.440243	2481.724750
976.738062	2482.894298
977.035845	2477.560757
977.333590	2476.280304
977.631299	2475.947588
977.928971	2472.358287
978.226606	2470.286372
978.524204	2465.855198
978.821765	2469.441979
979.119290	2466.316464
979.416777	2464.695733
979.714228	2468.043059
980.011642	2468.635394
980.309020	2473.903400
980.606360	2476.325675
980.903664	2485.445122
981.200931	2500.455157
981.498162	2520.481141
981.795356	2550.095399
982.092513	2588.367839
982.389633	2630.148922
982.686717	2674.843792
982.983764	2705.831765
983.280775	2725.731720
983.577749	2727.407904
983.874686	2717.807026
984.171587	2700.435210
984.468451	2684.873168
984.765279	2665.782318
985.062070	2649.045688
985.358824	2627.542646
985.655543	2606.647063
985.952224	2583.087231
986.248869	2556.260731
986.545478	2528.753675
986.842050	2507.608555
987.138586	2489.830926
987.435086	2474.689820
987.731549	2463.995012
988.027975	2462.477625
988.324366	2454.016048
988.620719	2448.654781
988.917037	2440.883843
989.213318	2442.998607
989.509563	2437.775971
989.805772	2440.793102
990.101944	2435.814962
990.398080	2434.965528
990.694180	2434.600044
990.990244	2435.429314
991.286271	2436.460230
991.582262	2436.505600
991.878217	2434.088367
992.174136	2438.327978
992.470019	2437.382761
992.765865	2442.000458
993.061676	2441.922320
993.357450	2442.446600
993.653188	2448.652261
993.948890	2451.767694
994.244556	2461.850001
994.540186	2466.934005
994.835780	2478.105202
995.131337	2494.332676
995.426859	2509.856909
995.722345	2534.906403
996.017795	2549.966850
996.313208	2564.278686
996.608586	2573.609862
996.903928	2576.949626
997.199234	2576.737897
997.494504	2575.336457
997.789738	2568.394788
998.084936	2559.787018
998.380099	2542.929399
998.675225	2530.737369
998.970316	2519.619104
999.265371	2505.743328
999.560390	2490.330000
999.855373	2480.799699
1000.150320	2469.351238
1000.445232	2459.740278
1000.740108	2454.658795
1001.034948	2446.494647
1001.329752	2442.688576
1001.624521	2441.851744
1001.919254	2430.609971
1002.213951	2430.287337
1002.508613	2427.486976
1002.803239	2429.087543
1003.097829	2421.515729
1003.392384	2425.730134
1003.686903	2423.491862
1003.981386	2421.424989
1004.275834	2421.477921
1004.570246	2422.720565
1004.864623	2417.331572
1005.158964	2417.782755
1005.453270	2417.485327
1005.747540	2415.809143
1006.041775	2417.271078
1006.335974	2416.605646
1006.630138	2414.596746
1006.924266	2414.571540
1007.218359	2414.730336
1007.512416	2417.308887
1007.806438	2414.004410
1008.100425	2416.736716
1008.394376	2413.578433
1008.688292	2415.499112
1008.982172	2413.646488
1009.276017	2412.640778
1009.569827	2413.543145
1009.863602	2410.470561
1010.157341	2413.144893
1010.451045	2413.558268
1010.744714	2411.534245
1011.038347	2413.044070
1011.331945	2413.583474
1011.625508	2410.089954
1011.919036	2411.070459
1012.212528	2411.294790
1012.505986	2411.745973
1012.799408	2408.151631
1013.092795	2407.445869
1013.386147	2409.880746
1013.679464	2409.616086
1013.972745	2410.624317
1014.265992	2411.377969
1014.559204	2409.520304
1014.852380	2411.264543
1015.145521	2410.042063
1015.438628	2410.100037
1015.731699	2412.272774
1016.024736	2412.403844
1016.317737	2412.020716
1016.610703	2411.088103
1016.903635	2406.273801
1017.196531	2406.757752
1017.489393	2409.318658
1017.782219	2408.184398
1018.075011	2414.599266
1018.367768	2410.541138
1018.660490	2408.703637
1018.953177	2408.703637
1019.245829	2408.703637
