Dividing Wavelength (nm)	Counts (n)	Blue Motor Position (mm): 37.000000	Red Motor Position (mm): 0.000000	
326.493990	1969.556122
326.888308	1969.556122
327.282561	1969.556122
327.676750	1945.799685
328.070874	1947.256578
328.464933	1955.115737
328.858929	1963.526902
329.252859	1975.308079
329.646726	1989.030100
330.040528	2006.144817
330.434265	2023.040244
330.827938	2043.149407
331.221547	2062.603220
331.615091	2084.469224
332.008571	2105.841196
332.401986	2124.576644
332.795338	2144.763945
333.188625	2166.314878
333.581847	2185.594771
333.975006	2202.041535
334.368100	2222.352344
334.761129	2236.543192
335.154095	2253.864597
335.546996	2295.146605
335.939833	2374.943030
336.332606	2390.552963
336.725315	2401.502349
337.117960	2408.441497
337.510540	2417.175296
337.903056	2426.188879
338.295508	2433.221289
338.687896	2438.713626
339.080220	2447.331478
339.472480	2454.061419
339.864676	2455.901440
340.256807	2459.894034
340.648875	2462.160032
341.040879	2463.548870
341.432818	2461.668520
341.824694	2467.044910
342.216506	2465.860239
342.608253	2464.277317
342.999937	2461.988633
343.391557	2463.488376
343.783113	2462.608695
344.174605	2456.876903
344.566033	2456.468570
344.957397	2456.173662
345.348697	2456.657613
345.739934	2452.239042
346.131106	2451.175358
346.522215	2451.185440
346.913260	2448.768207
347.304241	2447.618824
347.695159	2446.290480
348.086012	2445.287290
348.476802	2440.344439
348.867528	2441.279573
349.258191	2439.038780
349.648789	2438.476692
350.039324	2440.382248
350.429796	2437.508790
350.820203	2437.218924
351.210548	2437.072730
351.600828	2433.153233
351.991045	2435.545261
352.381198	2434.378233
352.771288	2434.126176
353.161314	2435.096598
353.551276	2433.357400
353.941175	2429.384971
354.331010	2432.286155
354.720782	2437.415529
355.110490	2435.842689
355.500135	2431.759354
355.889717	2435.182298
356.279235	2433.904365
356.668689	2432.429828
357.058080	2434.564756
357.447408	2435.285641
357.836672	2433.755651
358.225873	2434.290013
358.615010	2433.743048
359.004084	2437.208841
359.393095	2439.305961
359.782043	2438.418718
360.170927	2439.167330
360.559748	2440.694799
360.948505	2442.083637
361.337199	2441.874429
361.725830	2444.480706
362.114398	2446.045984
362.502903	2443.999276
362.891344	2444.881478
363.279722	2443.976590
363.668037	2446.189657
364.056289	2445.370469
364.444478	2448.100254
364.832603	2448.768207
365.220665	2446.703855
365.608665	2447.684359
365.996601	2448.291818
366.384474	2449.763835
366.772284	2448.385079
367.160031	2447.868361
367.547715	2451.155193
367.935336	2450.409103
368.322893	2448.228804
368.710388	2452.412961
369.097820	2454.242900
369.485189	2452.944803
369.872495	2453.020420
370.259738	2454.855400
370.646918	2455.273816
371.034035	2454.978909
371.421090	2452.412961
371.808081	2457.156687
372.195010	2456.899588
372.581875	2455.677108
372.968678	2457.965792
373.355418	2457.060905
373.742096	2459.132819
374.128710	2462.097018
374.515262	2462.263376
374.901751	2459.674743
375.288177	2460.703139
375.674540	2461.499641
376.060841	2464.196658
376.447079	2465.096504
376.833254	2463.231278
377.219367	2456.516461
377.605417	2464.420990
377.991404	2460.594754
378.377329	2466.568521
378.763191	2460.236832
379.148991	2470.246043
379.534727	2466.497945
379.920402	2469.189921
380.306013	2469.981382
380.691563	2469.731845
381.077049	2469.598255
381.462474	2471.287041
381.847835	2471.823924
382.233134	2474.286528
382.618371	2472.159161
383.003545	2476.784420
383.388657	2475.682927
383.773706	2477.795171
384.158693	2475.456076
384.543618	2478.972280
384.928480	2482.861531
385.313280	2480.058649
385.698017	2481.117291
386.082692	2480.590491
386.467305	2480.373721
386.851856	2484.416727
387.236344	2483.973105
387.620770	2484.368836
388.005133	2485.762715
388.389435	2488.197592
388.773674	2486.012252
389.157851	2491.002994
389.541965	2487.970740
389.926018	2489.089876
390.310008	2491.166832
390.693936	2493.793273
391.077802	2494.181442
391.461606	2491.938128
391.845348	2496.671772
392.229027	2496.283603
392.612645	2495.892913
392.996200	2499.789725
393.379694	2500.901300
393.763125	2507.273318
394.146494	2503.454644
394.529801	2506.076044
394.913047	2505.874398
395.296230	2510.003103
395.679351	2508.246261
396.062410	2512.342198
396.445408	2513.206756
396.828343	2517.305214
397.211217	2512.027126
397.594028	2517.443846
397.976778	2513.277332
398.359466	2524.093128
398.742092	2516.203722
399.124656	2525.204702
399.507158	2533.300795
399.889598	2536.179294
400.271977	2541.457382
400.654294	2551.302756
401.036549	2555.958261
401.418742	2564.744992
401.800874	2576.327043
402.182944	2587.697366
402.564952	2603.715632
402.946898	2613.331633
403.328783	2630.663120
403.710606	2651.818322
404.092367	2676.628361
404.474067	2704.745397
404.855705	2723.833726
405.237282	2751.108888
405.618797	2796.370888
406.000250	2839.916375
406.381642	2897.756054
406.762972	2937.936571
407.144240	2972.218937
407.525447	3035.394677
407.906593	3083.530135
408.287677	3162.000736
408.668700	3239.758013
409.049661	3303.836120
409.430560	3390.178482
409.811399	3464.903506
410.192176	3563.369843
410.572891	3651.080879
410.953545	3798.421203
411.334138	3820.814008
411.714669	3999.621215
412.095139	3998.365967
412.475547	4172.890713
412.855894	4250.900049
413.236180	4417.500101
413.616405	4473.456909
413.996568	4643.000995
414.376670	4755.259929
414.756711	4844.271583
415.136691	5034.338206
415.516609	5204.913208
415.896466	5355.621023
416.276262	5563.760183
416.655997	5827.621737
417.035670	5988.381613
417.415283	6340.740622
417.794834	6523.973962
418.174324	6596.901814
418.553753	6709.851387
418.933121	7050.106586
419.312428	7148.875393
419.691674	7265.560460
420.070859	7624.876262
420.449983	7647.422823
420.829045	8053.084473
421.208047	8106.843337
421.586988	8480.171027
421.965867	8781.500957
422.344686	8952.020506
422.723444	9408.988499
423.102141	8902.191221
423.480777	9694.106079
423.859352	9595.541439
424.237866	10389.908818
424.616319	10410.512013
424.994712	10950.429673
425.373044	10999.757363
425.751314	11586.706467
426.129524	11229.127343
426.507673	12074.861559
426.885762	12065.132132
427.263789	12357.690454
427.641756	12652.119044
428.019662	12861.881456
428.397508	13071.134711
428.775292	13425.084205
429.153016	13566.007140
429.530679	13781.755922
429.908282	13948.242548
430.285824	13890.102921
430.663305	14558.229725
431.040726	14401.628802
431.418086	14409.931582
431.795385	15028.090469
432.172624	15491.022148
432.549802	15283.646722
432.926920	15553.645881
433.303977	15570.795887
433.680974	15901.155301
434.057910	16261.474293
434.434786	16392.261988
434.811601	16428.931341
435.188355	17428.715657
435.565050	17231.546048
435.941683	17287.512938
436.318257	18173.546138
436.694770	18089.686544
437.071222	18716.801041
437.447614	17964.875136
437.823946	18070.998987
438.200218	18287.211554
438.576429	18145.053537
438.952580	18478.898909
439.328670	18506.277415
439.704700	18953.256362
440.080670	18618.609447
440.456580	19212.679180
440.832429	19418.330531
441.208218	18551.113438
441.583947	18986.913626
441.959616	19133.696902
442.335224	19393.253311
442.710773	19546.953051
443.086261	20103.877043
443.461689	19522.687457
443.837057	19676.291414
444.212365	20309.475461
444.587612	20347.442911
444.962800	19967.455858
445.337927	20385.382635
445.712995	19191.458443
446.088002	20984.377576
446.462949	21178.575425
446.837837	21359.850276
447.212664	21348.802588
447.587431	24060.169540
447.962139	26914.392710
448.336786	29230.283663
448.711374	27730.626093
449.085901	24199.507032
449.460369	24138.052846
449.834776	24070.680346
450.209124	26477.027243
450.583412	26043.578753
450.957640	26556.150673
451.331808	25262.416677
451.705917	23950.847077
452.079965	23974.495130
452.453954	24340.440050
452.827883	24233.529779
453.201752	24046.931470
453.575562	24199.179357
453.949311	25286.425172
454.323001	25346.467835
454.696632	25134.812470
455.070202	26629.628011
455.443713	26781.568388
455.817164	27342.784922
456.190556	27870.702115
456.563888	27325.881933
456.937160	27737.696312
457.310373	26133.732228
457.683526	26544.810598
458.056619	26545.009723
458.429653	26480.407337
458.802628	27051.128967
459.175542	27164.842274
459.548398	28442.437017
459.921194	29984.508334
460.293930	30679.494406
460.666607	32653.181754
461.039224	34382.559663
461.411782	34730.358950
461.784280	33537.518606
462.156719	33022.521891
462.529099	32452.102730
462.901419	31186.120285
463.273680	30167.960964
463.645882	30258.880694
464.018024	30247.575906
464.390106	31073.246330
464.762130	33726.826536
465.134094	37766.063658
465.505999	43018.318342
465.877845	47551.434786
466.249631	48638.483995
466.621358	46828.472830
466.993026	44673.248491
467.364634	42596.754372
467.736184	40655.789154
468.107674	39446.376017
468.479105	38672.763068
468.850477	38006.715740
469.221790	36620.612681
469.593043	34925.320533
469.964238	34056.056732
470.335373	33972.224864
470.706449	35625.105784
471.077467	38122.790828
471.448425	42638.842966
471.819324	45492.730899
472.190164	43684.126216
472.560945	40186.006547
472.931667	37115.394369
473.302330	36037.172220
473.672934	35224.066872
474.043479	35719.957614
474.413965	34960.727078
474.784393	34598.411789
475.154761	35469.997042
475.525070	35496.334550
475.895321	35054.593362
476.265513	35627.802801
476.635645	36565.764927
477.005719	36401.438435
477.375734	36870.348922
477.745691	37545.908908
478.115588	38834.364816
478.485427	40792.288476
478.855207	44093.205768
479.224928	46690.052828
479.594591	48319.855346
479.964194	47274.811551
480.333739	47363.263636
480.703226	47393.906290
481.072653	48036.431594
481.442022	48534.053973
481.811333	48810.233586
482.180584	47501.169441
482.549777	46994.737646
482.918912	46481.099522
483.287988	46180.210693
483.657005	45373.026180
484.025964	44719.503598
484.394864	44737.172843
484.763706	44296.361747
485.132489	43437.767548
485.501213	43275.812919
485.869879	43422.087039
486.238487	43024.408056
486.607036	43223.773088
486.975527	42690.655945
487.343959	42892.246646
487.712333	42982.470697
488.080648	42898.795105
488.448905	43334.539840
488.817104	43127.177018
489.185244	44085.865848
489.553326	45724.296301
489.921350	48457.582190
490.289315	51389.963409
490.657222	52021.410778
491.025070	52307.314777
491.392861	51370.955738
491.760593	50061.508465
492.128267	48361.084423
492.495883	46834.615476
492.863440	45453.235979
493.230939	44124.264317
493.598380	43048.721541
493.965763	42743.532608
494.333088	41936.416150
494.700354	41484.678354
495.067563	41202.308204
495.434713	41076.826323
495.801805	41152.650318
496.168839	40774.117637
496.535815	40463.796809
496.902733	40488.228762
497.269593	40095.653947
497.636395	40023.517556
498.003139	40410.867215
498.369825	39881.752748
498.736453	40185.590652
499.103023	39719.936751
499.469535	39602.545922
499.835989	39690.730826
500.202385	39358.042398
500.568723	39388.664888
500.935003	39589.020506
501.301226	39373.410356
501.667390	39971.865894
502.033497	40236.909598
502.399546	39676.529896
502.765537	38999.202985
503.131470	39368.298626
503.497345	39708.127848
503.863163	38418.318389
504.228923	39010.107001
504.594625	39416.595400
504.960269	38696.887510
505.325856	39370.191579
505.691385	38751.405068
506.056856	38880.892146
506.422270	39310.615223
506.787625	38885.908094
507.152924	39063.810413
507.518164	39181.730563
507.883347	38401.135617
508.248472	38656.268413
508.613540	39114.670614
508.978550	39403.281713
509.343503	39165.503089
509.708398	39344.960604
510.073236	39869.099452
510.438016	39869.205316
510.802738	39339.977424
511.167403	39927.470972
511.532010	40163.921252
511.896561	40455.373041
512.261053	41269.857145
512.625488	40824.950112
512.989866	40698.923787
513.354186	40556.329709
513.718449	40546.650693
514.082655	41189.470906
514.446803	40873.836702
514.810894	41390.706205
515.174927	41292.106277
515.538904	41221.668755
515.902822	41862.906045
516.266684	41316.213075
516.630488	41731.243709
516.994235	41587.664086
517.357925	42135.967705
517.721558	42303.744867
518.085133	42597.150103
518.448651	42747.711724
518.812112	42505.711134
519.175516	42612.591157
519.538863	42937.422946
519.902152	42917.596088
520.265385	43352.680433
520.628560	43388.276020
520.991678	43191.050958
521.354739	43421.088890
521.717743	43726.038369
522.080690	43625.497596
522.443580	44180.082493
522.806413	44227.030758
523.169189	44169.196121
523.531908	44341.346484
523.894569	44207.400505
524.257174	44376.879057
524.619722	44663.100648
524.982213	44655.664947
525.344647	44581.991004
525.707025	44618.322599
526.069345	45011.489750
526.431608	44938.846723
526.793815	45229.128964
527.155964	44800.819930
527.518057	44950.191839
527.880093	44749.705151
528.242072	45255.227018
528.603995	44969.640611
528.965860	44971.833513
529.327669	45056.784517
529.689421	44971.715046
530.051117	44931.552173
530.412755	45082.481799
530.774337	45156.561554
531.135862	44957.146111
531.497331	45153.062994
531.858743	45072.729687
532.220098	45414.038487
532.581396	45117.094361
532.942638	44790.152849
533.303824	45079.522641
533.664953	45047.203804
534.026025	44805.346887
534.387040	45245.331232
534.747999	45213.277056
535.108902	45358.815167
535.469748	44897.854580
535.830537	45020.084917
536.191270	45208.924019
536.551947	44870.539088
536.912567	45174.051838
537.273131	45282.439166
537.633638	44790.619156
537.994089	45149.539227
538.354483	44753.022230
538.714821	45323.474158
539.075103	45656.848183
539.435328	45432.269820
539.795497	45312.060986
540.155609	45320.313355
540.515665	45779.847295
540.875665	45252.840031
541.235609	45560.799078
541.595496	45538.542384
541.955328	46206.646503
542.315102	45587.481906
542.674821	45387.315331
543.034483	45422.157265
543.394090	45391.154169
543.753640	45358.961361
544.113134	46365.798251
544.472571	45389.825825
544.831953	46605.905888
545.191278	45846.546802
545.550548	45575.380616
545.909761	46019.022319
546.268918	46234.151039
546.628019	46524.329937
546.987064	46113.942205
547.346053	45411.507828
547.704986	46260.370080
548.063863	45837.611357
548.422684	46047.961063
548.781449	45880.909827
549.140158	46282.876311
549.498811	46117.866743
549.857408	45572.434062
550.215949	46390.154586
550.574434	46333.272726
550.932864	46119.863040
551.291237	46819.338260
551.649555	46432.865762
552.007817	46678.218719
552.366022	46323.881057
552.724173	46498.277253
553.082267	46905.988132
553.440305	47207.648258
553.798288	46529.086265
554.156215	46840.929522
554.514086	47042.104327
554.871902	46786.202755
555.229661	46809.374419
555.587365	46631.404044
555.945014	46730.992038
556.302606	46648.576735
556.660143	46880.434524
557.017625	46968.884088
557.375050	46755.799557
557.732421	47103.515664
558.089735	47092.137779
558.446994	47019.030966
558.804197	47477.188672
559.161345	47415.101821
559.518437	46670.911567
559.875474	46970.424161
560.232455	47127.511556
560.589381	47301.270047
560.946251	47002.679984
561.303065	47666.027774
561.659825	47485.972882
562.016528	47172.029986
562.373177	46893.536482
562.729770	47354.817183
563.086307	46877.087198
563.442789	47346.529526
563.799216	47366.691621
564.155587	47180.365533
564.511904	47197.835652
564.868164	47290.328222
565.224370	47539.847694
565.580520	47267.330478
565.936615	47491.760127
566.292654	47185.746965
566.648638	47432.158565
567.004567	47394.027278
567.360441	47425.095909
567.716260	47282.521996
568.072023	47587.073223
568.427732	47560.309737
568.783385	47120.590052
569.138982	47516.313067
569.494525	47469.808423
569.850013	47229.433604
570.205445	47204.220273
570.560823	47160.326947
570.916145	47021.811163
571.271412	47062.609221
571.626625	46820.565781
571.981782	46879.879997
572.336884	46568.908860
572.691931	46884.429638
573.046923	46502.438726
573.401860	46334.996801
573.756743	46314.358317
574.111570	46441.211392
574.466342	46282.392361
574.821059	46414.654593
575.175722	45924.069666
575.530330	45952.385827
575.884882	45683.163006
576.239380	45655.048491
576.593823	45602.005470
576.948211	45532.908895
577.302544	45078.146406
577.656823	45085.998003
578.011047	45311.443445
578.365216	45029.703438
578.719330	44821.506305
579.073389	44692.752715
579.427394	44776.690447
579.781344	44737.364406
580.135239	44409.787709
580.489080	44464.895082
580.842866	43970.264628
581.196597	44424.313794
581.550273	44379.765117
581.903895	44226.902209
582.257463	44655.760728
582.610975	44048.097523
582.964434	44332.970607
583.317837	43978.438859
583.671186	43815.980115
584.024481	44038.047983
584.377721	43582.020165
584.730906	43840.195298
585.084037	43893.142536
585.437113	43599.593627
585.790135	43634.143175
586.143103	43232.847164
586.496016	43355.458108
586.848874	43380.585740
587.201679	43408.561623
587.554428	42881.637538
587.907124	43082.477107
588.259765	42834.679190
588.612352	43081.733537
588.964884	42475.111330
589.317362	42758.482149
589.669786	42706.424674
590.022155	42468.850217
590.374470	42886.401428
590.726731	42413.831064
591.078937	41949.651700
591.431090	42037.871892
591.783188	41685.714528
592.135232	41373.664585
592.487222	41627.547175
592.839157	41718.368602
593.191038	41382.221943
593.542866	41161.444611
593.894639	40557.796685
594.246358	40835.859169
594.598022	40812.458133
594.949633	40421.181415
595.301190	40371.931863
595.652692	40218.184232
596.004141	40532.280884
596.355535	39568.331611
596.706876	39512.490749
597.058162	39348.086120
597.409395	39820.951392
597.760573	39895.983925
598.111698	39464.188934
598.462768	39478.354576
598.813785	39525.101196
599.164748	38969.654262
599.515657	39364.628666
599.866511	38844.923513
600.217312	39458.442018
600.568060	38433.981254
600.918753	39164.353706
601.269392	39129.151329
601.619978	38785.949575
601.970510	38985.589349
602.320988	39172.016260
602.671412	39476.408691
603.021783	39205.154285
603.372100	38867.495279
603.722363	38985.801078
604.072572	39049.790964
604.422728	39081.214997
604.772830	38884.463803
605.122878	38968.888007
605.472872	38906.160929
605.822813	39186.673415
606.172701	39036.124396
606.522534	39254.910473
606.872314	39503.396508
607.222041	39270.157443
607.571714	39674.541160
607.921333	39121.927355
608.270899	39401.587885
608.620411	39743.199155
608.969870	39528.698059
609.319276	39539.574348
609.668627	39588.685269
610.017926	40065.467518
610.367171	40206.576976
610.716362	40318.505714
611.065500	40266.952355
611.414585	40451.350201
611.763616	40735.063818
612.112594	40667.603098
612.461518	40887.417570
612.810389	41165.964005
613.159207	41045.790459
613.507971	41106.347320
613.856682	41569.931828
614.205340	41472.229225
614.553945	42159.167095
614.902496	41624.033491
615.250994	42079.463932
615.599439	42161.906962
615.947830	42358.897610
616.296169	42409.223449
616.644454	42528.106460
616.992686	42707.294273
617.340864	43220.597161
617.688990	42955.462715
618.037063	43533.768761
618.385082	43518.892316
618.733048	43819.876927
619.080961	43820.572606
619.428821	43834.201366
619.776628	43939.503508
620.124382	43751.329838
620.472083	43891.050458
620.819731	44006.288714
621.167326	43692.136609
621.514868	43661.937577
621.862357	43208.770614
622.209793	43261.120476
622.557176	42914.717589
622.904506	42676.838142
623.251783	42333.157479
623.599007	42105.733385
623.946179	41877.124619
624.293297	41830.244409
624.640363	41254.547161
624.987376	41244.457291
625.334336	41001.889571
625.681243	40659.438949
626.028097	40613.279624
626.374899	40466.977778
626.721647	40442.896186
627.068343	40332.583137
627.414987	40125.018668
627.761577	39888.883460
628.108115	40217.009643
628.454600	39687.622955
628.801032	39844.770843
629.147412	39827.547741
629.493739	39836.798259
629.840014	39496.222946
630.186236	39820.023819
630.532405	39435.872773
630.878521	39665.298205
631.224585	39548.547602
631.570597	39256.881564
631.916556	39431.489489
632.262462	39358.261689
632.608316	39380.200790
632.954117	39284.645719
633.299866	39267.997308
633.645562	39176.197897
633.991206	38683.662043
634.336797	38253.535673
634.682336	38264.999257
635.027823	38007.066100
635.373257	37842.777417
635.718639	37594.979499
636.063968	37445.852086
636.409245	36898.239106
636.754470	36942.379449
637.099642	36695.680503
637.444762	36220.173666
637.789829	36364.073403
638.134845	36016.455598
638.479808	35977.086707
638.824719	35883.543057
639.169577	35487.721739
639.514383	35568.470941
639.859137	35266.291577
640.203839	35498.512329
640.548489	35138.798275
640.893086	35221.642077
641.237632	34956.230368
641.582125	35073.815282
641.926566	35004.441443
642.270955	34980.687526
642.615292	34993.504660
642.959576	34963.028364
643.303809	34969.602029
643.647990	35116.796159
643.992118	35080.893062
644.336195	35068.759004
644.680219	35170.091238
645.024192	35485.276779
645.368112	35986.871587
645.711981	35994.771075
646.055797	36853.841664
646.399562	36799.024157
646.743274	37741.084741
647.086935	38191.831950
647.430544	38068.880728
647.774101	38181.202677
648.117606	38423.977085
648.461059	38717.790654
648.804460	38327.635593
649.147810	37729.595951
649.491108	37460.161401
649.834354	37108.944213
650.177548	36282.026103
650.520690	35834.729564
650.863781	35843.929670
651.206820	35697.398451
651.549807	35264.133963
651.892742	34795.150379
652.235626	34592.140593
652.578458	34476.070547
652.921238	33867.986405
653.263967	34195.469841
653.606644	33891.941968
653.949269	33828.589788
654.291843	33441.419090
654.634365	33839.211499
654.976836	33456.802171
655.319255	33435.347020
655.661622	33444.678196
656.003938	33214.935171
656.346203	33080.326281
656.688416	33299.505568
657.030577	33101.715897
657.372687	32939.516772
657.714746	33210.448544
658.056753	33329.908767
658.398708	32797.825061
658.740612	32842.643439
659.082465	33118.719709
659.424266	32940.398974
659.766016	33052.743608
660.107715	32928.635442
660.449362	33063.511513
660.790958	33054.767631
661.132503	33070.619540
661.473996	33106.341156
661.815438	33210.476271
662.156829	33391.514188
662.498168	33180.292362
662.839456	33190.460369
663.180693	33364.097872
663.521879	33506.555839
663.863013	33462.097903
664.204097	33476.414780
664.545129	33924.646454
664.886110	33893.577823
665.227040	33975.824248
665.567918	34078.744445
665.908746	34142.399094
666.249522	34307.212058
666.590248	34295.120850
666.930922	34417.550312
667.271545	34382.786515
667.612118	34473.015607
667.952639	34247.817183
668.293109	34311.774302
668.633528	34197.498906
668.973896	34125.516270
669.314213	34156.950385
669.654480	33884.145824
669.994695	33920.469858
670.334859	33806.907785
670.674973	33710.440265
671.015035	33867.449522
671.355047	33815.535720
671.695008	33756.065228
672.034918	33669.107845
672.374777	33751.606327
672.714585	33571.012032
673.054342	33809.234278
673.394049	33577.794905
673.733705	33856.316134
674.073310	33528.855383
674.412864	33609.922178
674.752368	33179.682383
675.091820	33483.830317
675.431223	33068.061154
675.770574	32800.683395
676.109875	32663.720286
676.449125	32388.498492
676.788324	32304.102015
677.127473	31771.836827
677.466571	31701.600951
677.805619	31370.621475
678.144616	31338.259788
678.483562	31276.087238
678.822458	30952.021704
679.161303	30882.272299
679.500098	30779.180703
679.838842	30684.659068
680.177535	30836.765803
680.516179	31105.136669
680.854771	31345.478720
681.193314	32208.612479
681.531805	33336.711804
681.870247	34127.043740
682.208638	34862.724526
682.546978	35082.914564
682.885268	35162.700906
683.223508	34631.128877
683.561697	34285.945950
683.899836	34097.028710
684.237925	33597.876341
684.575963	33450.291521
684.913951	32987.662312
685.251889	33146.861950
685.589776	33125.500061
685.927614	33133.800321
686.265401	33279.774492
686.603137	33387.466141
686.940824	33894.394490
687.278460	34275.616626
687.616046	34417.953605
687.953582	35021.717477
688.291068	34902.514353
688.628504	35175.404614
688.965889	35096.324034
689.303224	34713.765992
689.640510	34344.080536
689.977745	33621.847027
690.314930	32823.650892
690.652065	32287.148615
690.989150	31556.531667
691.326185	30658.288793
691.663170	29947.919639
692.000105	29201.450784
692.336990	28497.935079
692.673825	28066.142608
693.010610	27549.053814
693.347345	26976.091392
693.684030	26322.921691
694.020665	26042.467179
694.357251	25389.403342
694.693786	25328.508724
695.030272	25103.211997
695.366707	24561.293000
695.703093	24267.131590
696.039429	24266.201497
696.375716	24006.541745
696.711952	23963.328974
697.048139	23822.393436
697.384276	23633.761021
697.720363	23763.716926
698.056400	23553.213465
698.392388	23348.814841
698.728326	23316.470798
699.064214	23095.620369
699.400053	23040.588613
699.735842	22683.929499
700.071581	22403.326273
700.407270	22119.214404
700.742910	21928.182399
701.078501	21654.881285
701.414042	21372.165815
701.749533	21080.870302
702.084974	20738.480174
702.420366	20939.206317
702.755709	20494.175776
703.091002	20203.707012
703.426246	20223.317101
703.761440	20124.268510
704.096584	19850.987560
704.431679	19809.042639
704.766725	19715.743484
705.101721	19654.251490
705.436668	19747.961499
705.771565	19427.835627
706.106413	19773.830180
706.441212	19749.957796
706.775961	19886.631038
707.110661	19959.533684
707.445311	20311.890174
707.779913	20159.465846
708.114465	20397.902341
708.448967	20685.084272
708.783421	21382.169985
709.117825	21655.869351
709.452180	21870.788863
709.786485	22274.328187
710.120742	23080.943049
710.454949	23095.206994
710.789107	23567.979005
711.123216	24271.575368
711.457275	24405.511263
711.791286	24951.934532
712.125247	25005.806822
712.459159	24687.140364
712.793023	25359.053075
713.126837	24240.259720
713.460602	24494.364121
713.794318	24116.577531
714.127985	23729.517738
714.461602	22826.382424
714.795171	22783.772071
715.128691	21772.438472
715.462162	21229.700287
715.795584	20801.184566
716.128957	20544.166378
716.462281	20122.715834
716.795556	19898.896165
717.128782	19406.864427
717.461960	18864.617754
717.795088	18780.488458
718.128167	18398.915962
718.461198	17934.547555
718.794180	17790.662942
719.127113	17421.978155
719.459997	17229.436325
719.792833	16882.935136
720.125619	16850.515476
720.458357	16536.927980
720.791046	16370.524533
721.123686	16210.215841
721.456278	15972.081815
721.788821	15931.261072
722.121315	15672.191135
722.453761	15745.633184
722.786158	15672.980075
723.118506	15683.379976
723.450805	15548.582042
723.783056	15704.048706
724.115259	15602.333345
724.447412	15544.546599
724.779518	15780.311282
725.111574	15809.343287
725.443582	16005.986095
725.775542	15976.986858
726.107453	16448.669979
726.439315	16337.918350
726.771129	16743.375833
727.102895	17109.502234
727.434612	17314.838512
727.766281	17450.342207
728.097901	17700.391000
728.429473	17733.692862
728.760996	17719.796922
729.092471	17796.843396
729.423897	17669.851690
729.755276	17534.085855
730.086606	17655.202097
730.417887	18178.131068
730.749120	18695.292958
731.080305	18875.420947
731.411442	19200.807263
731.742530	19275.489437
732.073570	19361.100832
732.404562	19653.407097
732.735506	19462.778384
733.066401	19183.692546
733.397249	18652.221340
733.728048	18011.178134
734.058798	17180.804314
734.389501	16511.011408
734.720156	16051.623661
735.050762	15523.492220
735.381320	15167.864022
735.711831	14934.468681
736.042293	14585.978757
736.372707	14599.539460
736.703073	14381.151635
737.033391	14572.332353
737.363661	14542.609710
737.693883	14644.052849
738.024056	14827.417258
738.354182	15006.594989
738.684260	15288.370284
739.014290	15519.025757
739.344272	15709.893924
739.674207	15983.638660
740.004093	16089.618838
740.333931	16082.777992
740.663722	16119.338960
740.993464	16117.173785
741.323159	15942.661641
741.652806	15661.962633
741.982405	15439.927533
742.311956	15112.514673
742.641460	14982.800743
742.970915	14674.390513
743.300323	14349.321789
743.629683	14133.857833
743.958996	13860.793652
744.288260	13585.198813
744.617477	13283.934418
744.946647	13226.077095
745.275768	12943.573354
745.604842	12764.652722
745.933869	12591.625198
746.262847	12544.248434
746.591778	12471.812095
746.920662	12372.254347
747.249498	12365.784027
747.578286	12486.655772
747.907027	12638.719657
748.235720	12854.428110
748.564365	12875.366542
748.892963	12780.159311
749.221514	12830.722084
749.550017	12693.625385
749.878473	12655.637770
750.206881	12439.221035
750.535242	12343.726458
750.863555	12257.437028
751.191821	12161.975218
751.520039	12187.332222
751.848210	12090.284969
752.176334	12119.942077
752.504411	12028.437573
752.832440	11880.177238
753.160421	11930.981987
753.488356	11807.733337
753.816243	11716.559028
754.144082	11578.950652
754.471875	11521.736076
754.799620	11462.764659
755.127318	11434.390524
755.454969	11399.672098
755.782572	11352.544871
756.110129	11366.788651
756.437638	11292.812239
756.765100	11278.828078
757.092515	11274.076791
757.419882	11292.774430
757.747203	11301.946810
758.074477	11372.792665
758.401703	11327.102167
758.728882	11492.935964
759.056014	11536.622604
759.383099	11648.750468
759.710138	11753.079667
760.037129	11831.978766
760.364073	11853.615399
760.690970	11833.833911
761.017820	11842.615601
761.344623	12026.915144
761.671379	12337.833349
761.998088	12971.496305
762.324751	14533.429769
762.651366	17403.265392
762.977935	21066.160215
763.304456	23281.248256
763.630931	23733.628799
763.957359	22549.544940
764.283740	20634.531582
764.610074	18743.582171
764.936362	16627.610776
765.262602	15104.254742
765.588796	13642.282318
765.914943	12622.288017
766.241044	11765.738005
766.567097	11139.273816
766.893104	10594.095713
767.219064	10232.806299
767.544978	9858.719916
767.870845	9544.048573
768.196665	9359.527218
768.522438	9163.144029
768.848165	8994.235128
769.173846	8832.141868
769.499479	8712.457314
769.825066	8551.914208
770.150607	8370.057103
770.476101	8307.544275
770.801548	8198.494035
771.126949	8055.945328
771.452303	7966.248077
771.777611	7805.011813
772.102872	7789.580841
772.428087	7666.470823
772.753256	7539.857203
773.078378	7451.062319
773.403453	7312.115516
773.728482	7212.787141
774.053465	7139.645040
774.378401	7057.270066
774.703291	6968.991900
775.028135	6869.474482
775.352932	6830.173647
775.677683	6752.708756
776.002388	6663.553430
776.327046	6667.334295
776.651658	6578.481438
776.976224	6504.242886
777.300743	6488.562377
777.625216	6419.004536
777.949643	6379.156735
778.274024	6380.903495
778.598359	6314.735830
778.922647	6318.572148
779.246889	6279.109996
779.571086	6280.380367
779.895236	6296.053314
780.219339	6290.603827
780.543397	6293.162212
780.867409	6336.816084
781.191374	6337.899932
781.515294	6299.814015
781.839167	6357.535227
782.162995	6323.391492
782.486776	6277.348113
782.810511	6234.357153
783.134201	6157.613147
783.457844	6149.572507
783.781441	6102.185661
784.104993	6059.219907
784.428498	6028.688158
784.751958	6008.682339
785.075372	5985.533361
785.398739	5948.808555
785.722061	5974.031968
786.045337	5968.433767
786.368568	6079.946611
786.691752	6105.885868
787.014891	6355.503642
787.337983	6633.402288
787.661030	7071.425626
787.984031	7498.363465
788.306987	7760.271572
788.629897	7840.136052
788.952760	7758.885255
789.275579	7579.329437
789.598351	7283.774149
789.921078	7014.354723
790.243759	6733.736373
790.566395	6527.117121
790.888984	6343.220870
791.211529	6200.846083
791.534027	6037.651330
791.856480	5898.346605
792.178888	5842.909036
792.501249	5770.167707
792.823566	5669.954609
793.145836	5667.492006
793.468062	5648.358306
793.790241	5604.021358
794.112375	5648.184387
794.434464	5749.176342
794.756507	5775.274396
795.078505	5893.935595
795.400457	6116.154698
795.722364	6352.065575
796.044226	6547.541356
796.366042	6705.904163
796.687812	6648.964330
797.009538	6680.695873
797.331218	6585.153405
797.652852	6516.064392
797.974442	6394.633078
798.295986	6322.075750
798.617484	6199.449683
798.938938	6088.410708
799.260346	6017.030490
799.581709	5880.107710
799.903026	5831.982335
800.224299	5757.612713
800.545526	5643.546525
800.866708	5580.259880
801.187845	5527.337847
801.508936	5449.941012
801.829983	5425.153658
802.150984	5318.830682
802.471940	5291.757166
802.792851	5275.731338
803.113717	5252.630250
803.434538	5231.165017
803.755314	5191.450807
804.076045	5186.386968
804.396731	5149.705012
804.717372	5167.464997
805.037967	5165.793854
805.358518	5194.883833
805.679024	5253.472123
805.999485	5263.128453
806.319901	5285.785919
806.640272	5300.324607
806.960598	5346.204148
807.280879	5339.035627
807.601115	5374.686667
807.921306	5344.366647
808.241453	5333.308876
808.561554	5345.508468
808.881611	5308.944980
809.201623	5308.995391
809.521590	5254.941619
809.841513	5236.067539
810.161390	5254.949181
810.481223	5170.799720
810.801011	5153.458151
811.120755	5127.430674
811.440453	5077.989557
811.760107	5048.221544
812.079716	5020.323798
812.399281	4968.450325
812.718801	4961.755673
813.038276	4930.833235
813.357707	4893.770672
813.677093	4918.638684
813.996434	4856.236761
814.315731	4873.590933
814.634983	4873.348958
814.954191	4880.877921
815.273354	4936.827167
815.592473	4979.823168
815.911547	5053.885280
816.230577	5107.445019
816.549562	5191.261764
816.868502	5245.086163
817.187399	5303.687056
817.506250	5375.881420
817.825058	5407.524743
818.143821	5561.947888
818.462539	5733.639506
818.781213	5958.651408
819.099843	6325.541544
819.418429	6953.525640
819.736970	7570.194867
820.055466	8288.115668
820.373919	9195.341879
820.692327	10655.305403
821.010691	13350.898585
821.329011	19609.337330
821.647286	29211.626353
821.965517	39565.148122
822.283704	45033.292740
822.601847	46492.258116
822.919945	41878.775597
823.237999	36736.092913
823.556010	31525.997398
823.873976	26796.303681
824.191897	22591.875509
824.509775	19522.122848
824.827609	16744.038745
825.145398	15190.657599
825.463144	14450.792654
825.780845	14739.822169
826.098502	16007.044738
826.416116	18476.642993
826.733685	20766.128382
827.051210	21283.018051
827.368692	19849.523105
827.686129	17276.482893
828.003522	14791.166321
828.320872	12576.836973
828.638177	10921.916907
828.955439	9676.336011
829.272656	8612.771017
829.589830	7775.939478
829.906960	7038.237189
830.224046	6509.087435
830.541088	6097.661225
830.858086	5843.483728
831.175041	5638.878417
831.491952	5581.000929
831.808819	5614.587617
832.125642	5861.820925
832.442421	6411.052116
832.759157	7532.113990
833.075849	9303.250298
833.392497	11156.562453
833.709101	12268.983790
834.025662	12010.571724
834.342179	10946.384147
834.658653	9641.340321
834.975083	8532.319243
835.291469	7638.820094
835.607811	6897.432721
835.924110	6371.332865
836.240366	5884.160798
836.556578	5435.019196
836.872746	5080.522737
837.188871	4808.791942
837.504952	4589.100978
837.820990	4418.989762
838.136984	4305.614212
838.452935	4256.193260
838.768842	4289.545534
839.084706	4574.098504
839.400526	5314.248273
839.716303	6224.234516
840.032037	6784.722603
840.347727	6632.751980
840.663373	6032.350557
840.978977	5457.356549
841.294537	5012.845247
841.610054	4682.488353
841.925527	4443.053710
842.240957	4236.588213
842.556344	4053.019637
842.871687	3894.639186
843.186987	3743.258377
843.502244	3629.212353
843.817458	3541.317316
844.132629	3465.989874
844.447756	3419.533121
844.762840	3377.484857
845.077881	3337.233764
845.392879	3303.795790
845.707833	3276.465175
846.022745	3249.031216
846.337613	3238.933784
846.652438	3217.713047
846.967221	3207.507231
847.281960	3184.955630
847.596656	3175.329546
847.911309	3169.146571
848.225919	3153.778614
848.540485	3142.597334
848.855009	3135.136427
849.169490	3123.483800
849.483928	3116.053139
849.798323	3110.555761
850.112675	3099.167794
850.426984	3099.238370
850.741251	3095.245776
851.055474	3090.766711
851.369654	3093.294850
851.683792	3089.249324
851.997887	3091.714448
852.311938	3088.359560
852.625947	3092.309304
852.939914	3085.113057
853.253837	3090.930549
853.567718	3090.275199
853.881555	3084.011565
854.195350	3088.697318
854.509103	3084.694641
854.822812	3085.193716
855.136479	3079.376224
855.450103	3082.922676
855.763685	3075.681058
856.077224	3080.248344
856.390720	3087.421906
856.704173	3098.489759
857.017584	3101.758947
857.330953	3108.418311
857.644278	3114.203035
857.957561	3119.453397
858.270802	3115.710340
858.584000	3114.669342
858.897155	3111.460648
859.210268	3101.388422
859.523339	3089.864345
859.836367	3085.657502
860.149352	3080.205494
860.462295	3078.735997
860.775195	3068.946077
861.088054	3065.732341
861.400869	3062.264027
861.713642	3062.997515
862.026373	3071.201993
862.339062	3073.074782
862.651708	3082.574836
862.964312	3100.541508
863.276873	3106.613578
863.589392	3136.608444
863.901869	3163.908812
864.214303	3186.745239
864.526696	3204.636294
864.839045	3219.956361
865.151353	3233.968248
865.463619	3236.332549
865.775842	3233.983371
866.088023	3242.545771
866.400162	3232.617219
866.712258	3235.646952
867.024313	3232.357599
867.336325	3233.953124
867.648296	3240.902355
867.960224	3231.334245
868.272110	3235.531006
868.583954	3233.965727
868.895755	3243.135586
869.207515	3239.942015
869.519233	3257.712082
869.830909	3263.295160
870.142542	3277.677572
870.454134	3281.592028
870.765684	3294.560397
871.077191	3315.851710
871.388657	3325.258503
871.700081	3346.333047
872.011463	3361.872403
872.322803	3383.811505
872.634101	3398.889596
872.945357	3422.552772
873.256571	3449.626289
873.567744	3464.401911
873.878874	3470.456337
874.189963	3488.488544
874.501010	3487.442504
874.812015	3483.689365
875.122979	3501.681243
875.433900	3497.779390
875.744780	3498.379288
876.055618	3508.864888
876.366415	3507.173581
876.677169	3515.786392
876.987882	3530.569576
877.298554	3551.472720
877.609183	3590.193823
877.919771	3638.893889
878.230317	3706.876370
878.540822	3809.594920
878.851285	3961.515133
879.161707	4190.499464
879.472087	4567.721444
879.782425	5193.205128
880.092722	6388.303909
880.402977	8339.573246
880.713191	10725.581608
881.023363	13121.957103
881.333494	14470.427949
881.643583	14925.666826
881.953631	14514.212890
882.263637	13676.521835
882.573602	12627.949232
882.883526	11662.860658
883.193408	10699.135715
883.503248	9782.177557
883.813048	8942.102036
884.122806	8172.040580
884.432522	7401.986686
884.742197	6740.078145
885.051831	6175.776425
885.361424	5671.353530
885.670975	5275.817037
885.980485	4950.776040
886.289954	4678.873846
886.599382	4459.434939
886.908768	4285.653763
887.218113	4114.690592
887.527417	3982.529182
887.836680	3865.090462
888.145901	3759.374946
888.455082	3681.436187
888.764221	3612.163171
889.073319	3553.342988
889.382376	3517.893594
889.691392	3495.994822
890.000366	3490.575582
890.309300	3482.177019
890.618193	3485.763800
890.927044	3479.822800
891.235855	3488.775890
891.544625	3504.799197
891.853353	3534.189124
892.162041	3593.732713
892.470687	3682.923327
892.779293	3805.592244
893.087858	3979.549861
893.396381	4261.148714
893.704864	4675.823947
894.013306	5251.533799
894.321707	5825.766593
894.630068	6190.930133
894.938387	6225.603189
895.246665	6042.064860
895.554903	5728.754628
895.863100	5387.763420
896.171256	5113.275114
896.479371	4871.962641
896.787446	4642.136437
897.095480	4446.065799
897.403473	4297.318993
897.711425	4153.522600
898.019336	4028.219680
898.327207	3904.978592
898.635038	3800.714928
898.942827	3692.791386
899.250576	3607.686627
899.558284	3519.463914
899.865952	3469.380050
900.173579	3401.866397
900.481165	3354.361084
900.788711	3313.399188
901.096216	3280.253602
901.403681	3257.102103
901.711105	3245.225144
902.018489	3242.402098
902.325832	3272.699433
902.633135	3332.182528
902.940397	3503.886748
903.247619	3912.799942
903.554800	4673.099204
903.861941	5647.113141
904.169041	6359.639908
904.476101	6570.831487
904.783121	6291.158354
905.090100	5884.798504
905.397039	5467.320389
905.703938	5102.545018
906.010796	4780.470740
906.317614	4520.014485
906.624391	4280.224441
906.931129	4082.790171
907.237826	3901.369126
907.544483	3729.029720
907.851099	3555.656878
908.157675	3398.110738
908.464211	3253.744694
908.770707	3153.385404
909.077163	3073.954463
909.383578	3012.142355
909.689954	2965.675520
909.996289	2937.324070
910.302584	2917.214908
910.608839	2903.059348
910.915054	2893.697925
911.221229	2886.826832
911.527363	2891.946124
911.833458	2897.977865
912.139513	2911.606624
912.445527	2921.852769
912.751502	2958.590178
913.057436	3001.923936
913.363331	3064.252762
913.669186	3152.067142
913.975000	3268.694236
914.280775	3456.951085
914.586510	3730.353023
914.892205	4107.789253
915.197859	4611.410604
915.503475	5201.157549
915.809050	5698.021233
916.114585	5990.801367
916.420081	6057.044649
916.725536	5990.861860
917.030952	5743.384056
917.336328	5545.087749
917.641665	5326.336960
917.946961	5096.661991
918.252218	4897.634717
918.557435	4669.746837
918.862612	4467.215960
919.167750	4293.316317
919.472848	4100.492183
919.777906	3930.411213
920.082925	3772.489508
920.387904	3616.334726
920.692843	3502.308867
920.997743	3406.143816
921.302603	3310.712253
921.607423	3246.840834
921.912204	3179.506142
922.216946	3131.017804
922.521647	3076.807756
922.826310	3037.128834
923.130932	2997.580982
923.435516	2961.083028
923.740059	2933.172680
924.044564	2903.137486
924.349028	2874.934750
924.653454	2848.335102
924.957840	2818.970381
925.262186	2801.475057
925.566493	2779.815739
925.870761	2751.451687
926.174989	2743.095974
926.479178	2727.266751
926.783328	2711.278732
927.087438	2697.783563
927.391509	2687.325689
927.695541	2674.286745
927.999533	2665.613440
928.303486	2656.720844
928.607400	2651.044505
928.911275	2643.412198
929.215110	2637.768627
929.518906	2635.363996
929.822663	2635.079171
930.126381	2631.915847
930.430060	2637.040180
930.733699	2639.535551
931.037299	2644.690131
931.340861	2641.131076
931.644383	2644.589308
931.947866	2643.686941
932.251309	2642.275418
932.554714	2638.824748
932.858080	2639.838020
933.161407	2634.975827
933.464694	2628.210599
933.767943	2625.969806
934.071153	2624.172635
934.374323	2620.149794
934.677455	2618.322376
934.980548	2613.873557
935.283602	2612.560337
935.586617	2610.717795
935.889593	2612.555296
936.192530	2614.818774
936.495428	2620.905967
936.798287	2629.279323
937.101108	2643.523104
937.403890	2666.382216
937.706632	2691.038499
938.009336	2727.196175
938.312002	2756.031575
938.614628	2779.556120
938.917216	2799.670323
939.219765	2808.232723
939.522275	2820.255875
939.824747	2818.075576
940.127179	2811.605255
940.429573	2808.855306
940.731929	2803.294913
941.034246	2794.780404
941.336524	2796.459108
941.638763	2786.785134
941.940964	2781.252468
942.243126	2768.306785
942.545250	2754.191554
942.847335	2740.729153
943.149381	2725.656103
943.451389	2713.065821
943.753359	2699.563090
944.055290	2689.858869
944.357182	2683.849814
944.659036	2677.971828
944.960851	2673.805315
945.262628	2667.662669
945.564367	2671.073009
945.866067	2665.005981
946.167729	2670.316836
946.469352	2666.034376
946.770937	2664.743841
947.072484	2652.007366
947.373992	2659.133037
947.675462	2653.181954
947.976893	2647.674494
948.278286	2641.670480
948.579641	2640.105201
948.880958	2638.900366
949.182236	2636.369706
949.483476	2634.368368
949.784678	2635.124541
950.085841	2635.565642
950.386967	2640.218627
950.688054	2640.818525
950.989103	2651.029382
951.290114	2659.541370
951.591087	2672.025787
951.892021	2684.853003
952.192917	2698.653162
952.493776	2709.773947
952.794596	2710.842672
953.095378	2713.307796
953.396122	2710.981304
953.696828	2707.104657
953.997496	2701.705581
954.298126	2690.012624
954.598718	2683.892664
954.899272	2673.258350
955.199788	2663.201248
955.500266	2651.397386
955.800706	2634.156640
956.101108	2616.696603
956.401472	2606.347115
956.701798	2593.333376
957.002087	2578.981211
957.302337	2570.643143
957.602550	2557.198385
957.902724	2544.245140
958.202861	2536.176774
958.502960	2529.320804
958.803022	2521.804444
959.103045	2513.035357
959.403031	2506.585201
959.702979	2505.090498
960.002889	2498.605054
960.302762	2492.611122
960.602596	2490.559373
960.902393	2484.913280
961.202153	2482.543938
961.501875	2479.763742
961.801559	2475.365335
962.101205	2473.648822
962.400814	2472.915334
962.700385	2470.523307
962.999918	2469.310909
963.299414	2468.048100
963.598873	2467.380147
963.898293	2464.799076
964.197677	2461.040896
964.497022	2462.228088
964.796331	2460.219188
965.095601	2458.293467
965.394835	2458.416976
965.694030	2457.464197
965.993189	2457.441512
966.292309	2456.864300
966.591393	2456.975206
966.890439	2456.095524
967.189447	2455.523353
967.488419	2456.912191
967.787353	2456.508899
968.086249	2456.350103
968.385108	2456.418158
968.683930	2457.040741
968.982714	2458.175000
969.281462	2459.939404
969.580172	2463.105249
969.878844	2462.601133
970.177480	2468.292596
970.476078	2472.459110
970.774639	2474.888946
971.073162	2478.508494
971.371649	2476.504636
971.670098	2476.003041
971.968510	2478.669811
972.266885	2479.705768
972.565223	2484.104175
972.863524	2485.021665
973.161788	2483.559730
973.460014	2487.839670
973.758204	2486.917139
974.056356	2487.741367
974.354471	2488.540390
974.652550	2491.393683
974.950591	2490.924856
975.248595	2488.547952
975.546563	2486.564258
975.844493	2486.879330
976.142386	2484.230204
976.440243	2484.729278
976.738062	2481.981849
977.035845	2475.657722
977.333590	2472.083544
977.631299	2474.347022
977.928971	2470.324181
978.226606	2466.651700
978.524204	2469.096660
978.821765	2465.638428
979.119290	2465.920733
979.416777	2466.419807
979.714228	2465.444344
980.011642	2467.407873
980.309020	2471.808801
980.606360	2474.573874
980.903664	2485.571151
981.200931	2495.431648
981.498162	2515.916376
981.795356	2548.769576
982.092513	2585.748960
982.389633	2631.051289
982.686717	2671.622495
982.983764	2708.082640
983.280775	2726.238356
983.577749	2724.610063
983.874686	2712.511294
984.171587	2698.023018
984.468451	2682.276974
984.765279	2667.473626
985.062070	2645.831952
985.358824	2626.756226
985.655543	2605.348966
985.952224	2581.373238
986.248869	2553.775442
986.545478	2524.801410
986.842050	2505.922289
987.138586	2486.559217
987.435086	2474.435242
987.731549	2459.372274
988.027975	2455.515792
988.324366	2450.109154
988.620719	2448.816098
988.917037	2443.371652
989.213318	2438.189346
989.509563	2436.157761
989.805772	2435.920827
990.101944	2436.702205
990.398080	2433.649787
990.694180	2434.468974
990.990244	2433.448141
991.286271	2434.690785
991.582262	2434.680703
991.878217	2434.531989
992.174136	2436.563574
992.470019	2436.356886
992.765865	2437.675148
993.061676	2440.019285
993.357450	2443.628751
993.653188	2446.252671
993.948890	2451.276181
994.244556	2459.246245
994.540186	2468.567339
994.835780	2478.097640
995.131337	2495.703870
995.426859	2509.098216
995.722345	2530.061854
996.017795	2548.308310
996.313208	2563.482183
996.608586	2574.476940
996.903928	2578.784606
997.199234	2574.275294
997.494504	2572.236147
997.789738	2566.050651
998.084936	2553.793086
998.380099	2545.661705
998.675225	2529.270393
998.970316	2519.253620
999.265371	2501.937257
999.560390	2491.199599
999.855373	2477.064204
1000.150320	2468.837041
1000.445232	2460.713221
1000.740108	2454.043775
1001.034948	2445.940120
1001.329752	2441.861826
1001.624521	2435.714139
1001.919254	2428.661565
1002.213951	2430.078129
1002.508613	2422.874320
1002.803239	2427.340783
1003.097829	2418.601943
1003.392384	2424.187541
1003.686903	2421.432550
1003.981386	2421.747623
1004.275834	2419.784093
1004.570246	2420.454567
1004.864623	2416.504822
1005.158964	2419.224525
1005.453270	2416.398958
1005.747540	2415.274781
1006.041775	2413.074317
1006.335974	2415.811664
1006.630138	2413.240675
1006.924266	2416.313259
1007.218359	2412.224883
1007.512416	2414.395100
1007.806438	2413.651529
1008.100425	2415.972981
1008.394376	2414.982394
1008.688292	2414.301838
1008.982172	2413.054153
1009.276017	2410.982238
1009.569827	2410.576426
1009.863602	2413.908628
1010.157341	2411.219173
1010.451045	2413.195305
1010.744714	2412.285377
1011.038347	2412.106416
1011.331945	2412.902918
1011.625508	2409.883267
1011.919036	2409.729512
1012.212528	2409.308575
1012.505986	2409.651374
1012.799408	2408.791857
1013.092795	2410.173133
1013.386147	2408.837228
1013.679464	2408.146589
1013.972745	2406.586352
1014.265992	2405.028636
1014.559204	2407.607186
1014.852380	2406.659449
1015.145521	2409.706827
1015.438628	2406.470406
1015.731699	2408.827145
1016.024736	2409.263205
1016.317737	2409.900911
1016.610703	2412.247568
1016.903635	2405.983934
1017.196531	2406.974521
1017.489393	2408.824625
1017.782219	2405.094171
1018.075011	2413.076838
1018.367768	2412.784451
1018.660490	2413.391910
1018.953177	2413.391910
1019.245829	2413.391910
