Dividing Wavelength (nm)	Counts (n)	Blue Motor Position (mm): 49.200000	Red Motor Position (mm): 0.000000	
326.493990	1976.417133
326.888308	1976.417133
327.282561	1976.417133
327.676750	1951.385283
328.070874	1949.242793
328.464933	1958.901644
328.858929	1966.102932
329.252859	1979.709006
329.646726	1992.047230
330.040528	2010.898625
330.434265	2028.731707
330.827938	2046.206867
331.221547	2066.142110
331.615091	2085.900912
332.008571	2109.697679
332.401986	2130.366410
332.795338	2149.951292
333.188625	2171.207318
333.581847	2189.471418
333.975006	2209.323482
334.368100	2224.434340
334.761129	2239.893039
335.154095	2257.083373
335.546996	2300.288582
335.939833	2382.363608
336.332606	2400.776423
336.725315	2411.410737
337.117960	2420.149577
337.510540	2427.353386
337.903056	2438.186825
338.295508	2443.931220
338.687896	2451.407251
339.080220	2458.104424
339.472480	2461.240022
339.864676	2465.343521
340.256807	2467.203707
340.648875	2469.996506
341.040879	2473.774851
341.432818	2474.220993
341.824694	2473.953812
342.216506	2472.194449
342.608253	2473.535396
342.999937	2473.908441
343.391557	2470.830817
343.783113	2474.082361
344.174605	2468.642956
344.566033	2468.040538
344.957397	2467.327215
345.348697	2465.139354
345.739934	2463.170784
346.131106	2460.904785
346.522215	2461.960907
346.913260	2455.019238
347.304241	2458.779939
347.695159	2454.835236
348.086012	2455.059567
348.476802	2450.220059
348.867528	2453.549742
349.258191	2451.170317
349.648789	2448.299380
350.039324	2444.944492
350.429796	2447.938937
350.820203	2447.346602
351.210548	2445.846858
351.600828	2446.809719
351.991045	2447.553289
352.381198	2446.091354
352.771288	2445.677980
353.161314	2444.004317
353.551276	2445.907352
353.941175	2442.706220
354.331010	2446.441715
354.720782	2449.466407
355.110490	2448.329627
355.500135	2446.905501
355.889717	2447.644030
356.279235	2444.599173
356.668689	2449.940275
357.058080	2448.543876
357.447408	2448.201077
357.836672	2443.313679
358.225873	2447.207970
358.615010	2446.734102
359.004084	2452.738116
359.393095	2451.129988
359.782043	2456.287088
360.170927	2453.953034
360.559748	2455.021758
360.948505	2458.537963
361.337199	2457.706173
361.725830	2460.032665
362.114398	2459.737758
362.502903	2460.640124
362.891344	2461.234981
363.279722	2461.842440
363.668037	2462.888479
364.056289	2463.637090
364.444478	2463.579117
364.832603	2465.855198
365.220665	2466.006433
365.608665	2467.213789
365.996601	2467.924592
366.384474	2468.101032
366.772284	2468.723615
367.160031	2469.182360
367.547715	2469.240333
367.935336	2472.091105
368.322893	2469.615899
368.710388	2473.542958
369.097820	2476.517238
369.485189	2478.087558
369.872495	2477.462455
370.259738	2478.458083
370.646918	2482.007055
371.034035	2481.250882
371.421090	2483.068218
371.808081	2485.452684
372.195010	2489.281440
372.581875	2491.350834
372.968678	2494.683036
373.355418	2499.275527
373.742096	2506.456651
374.128710	2513.499143
374.515262	2517.771521
374.901751	2528.539426
375.288177	2542.458051
375.674540	2553.351985
376.060841	2568.190621
376.447079	2582.941037
376.833254	2606.296703
377.219367	2624.442336
377.605417	2648.662560
377.991404	2671.819100
378.377329	2703.275900
378.763191	2731.881928
379.148991	2772.042280
379.534727	2814.055256
379.920402	2848.456090
380.306013	2894.673388
380.691563	2950.088272
381.077049	2993.527895
381.462474	3045.935730
381.847835	3111.236316
382.233134	3175.737880
382.618371	3230.288206
383.003545	3308.847027
383.388657	3380.685989
383.773706	3465.024493
384.158693	3536.626522
384.543618	3625.897795
384.928480	3699.347406
385.313280	3798.698466
385.698017	3896.708579
386.082692	4011.901465
386.467305	4074.782298
386.851856	4194.905432
387.236344	4338.648893
387.620770	4407.163215
388.005133	4526.941030
388.389435	4669.341024
388.773674	4752.023508
389.157851	4882.823807
389.541965	5018.415722
389.926018	5047.467891
390.310008	5221.231423
390.693936	5346.761195
391.077802	5470.703004
391.461606	5604.964054
391.845348	5721.785233
392.229027	5841.401731
392.612645	6061.664866
392.996200	6190.189083
393.379694	6363.191401
393.763125	6590.066009
394.146494	6692.000661
394.529801	6830.312278
394.913047	7074.760349
395.296230	7085.066988
395.679351	7146.294322
396.062410	7409.203098
396.445408	7324.040365
396.828343	7478.181206
397.211217	7623.661344
397.594028	7518.893564
397.976778	7725.038948
398.359466	7891.162611
398.742092	7875.633337
399.124656	8034.172584
399.507158	8220.488589
399.889598	8251.032940
400.271977	8459.920712
400.654294	8493.812389
401.036549	8698.145478
401.418742	8722.300167
401.800874	9028.620839
402.182944	9114.161658
402.564952	9478.039704
402.946898	9302.373137
403.328783	9363.658444
403.710606	9560.006345
404.092367	9814.176281
404.474067	10166.971351
404.855705	9970.925919
405.237282	9925.666439
405.618797	10345.196304
406.000250	10591.391134
406.381642	10949.267687
406.762972	10900.983515
407.144240	10709.051665
407.525447	10959.478544
407.906593	10898.830942
408.287677	11158.185705
408.668700	11309.261524
409.049661	11288.219748
409.430560	11438.526791
409.811399	11413.784808
410.192176	11571.421689
410.572891	11647.419603
410.953545	12125.114301
411.334138	11606.513161
411.714669	12188.239629
412.095139	11518.635767
412.475547	12010.730520
412.855894	11863.760721
413.236180	12177.491889
413.616405	11871.619880
413.996568	12149.019452
414.376670	12119.296809
414.756711	12000.159220
415.136691	12277.382353
415.516609	12443.528701
415.896466	12510.896161
416.276262	12793.470478
416.655997	13236.978590
417.035670	13277.166669
417.415283	13919.548300
417.794834	14003.506197
418.174324	13750.478083
418.553753	13657.604905
418.933121	14134.273728
419.312428	13948.905460
419.691674	13852.440460
420.070859	14313.121263
420.449983	13969.463285
420.829045	14515.959650
421.208047	14274.833700
421.586988	14709.660946
421.965867	14954.305621
422.344686	14948.735146
422.723444	15513.142731
423.102141	14212.519997
423.480777	15375.514190
423.859352	14894.179779
424.237866	15991.873385
424.616319	15699.065526
424.994712	16353.813108
425.373044	16141.265459
425.751314	16801.228115
426.129524	15941.716425
426.507673	17006.738313
426.885762	16714.474898
427.263789	16906.048827
427.641756	17068.799958
428.019662	17128.267929
428.397508	17172.446081
428.775292	17454.304554
429.153016	17432.710772
429.530679	17497.809712
429.908282	17526.075462
430.285824	17251.919871
430.663305	17952.128579
431.040726	17548.874080
431.418086	17378.415024
431.795385	18019.468312
432.172624	18431.416281
432.549802	17995.974014
432.926920	18190.449127
433.303977	18062.239982
433.680974	18321.511565
434.057910	18611.945041
434.434786	18626.430797
434.811601	18545.348878
435.188355	19572.642771
435.565050	19228.992354
435.941683	19174.260547
436.318257	20045.235820
436.694770	19859.638180
437.071222	20447.482089
437.447614	19530.279434
437.823946	19548.281395
438.200218	19708.950530
438.576429	19484.689760
438.952580	19763.389950
439.328670	19710.218380
439.704700	20124.087028
440.080670	19708.133863
440.456580	20280.438415
440.832429	20451.056267
441.208218	19460.613209
441.583947	19897.996319
441.959616	20002.975828
442.335224	20229.873121
442.710773	20371.433762
443.086261	20900.064278
443.461689	20263.890827
443.837057	20394.993595
444.212365	21026.740913
444.587612	21018.097854
444.962800	20600.652507
445.337927	21023.635562
445.712995	19768.131155
446.088002	21593.575813
446.462949	21788.973456
446.837837	21958.820012
447.212664	21907.889234
447.587431	24675.270967
447.962139	27568.409324
448.336786	29944.327817
448.711374	28435.959134
449.085901	24804.125380
449.460369	24738.131635
449.834776	24628.572239
450.209124	27072.833654
450.583412	26633.318136
450.957640	27172.451896
451.331808	25840.818504
451.705917	24494.003678
452.079965	24507.314845
452.453954	24858.607651
452.827883	24747.296453
453.201752	24558.636312
453.575562	24707.955288
453.949311	25808.875233
454.323001	25877.616407
454.696632	25641.965150
455.070202	27162.089804
455.443713	27307.423749
455.817164	27889.417398
456.190556	28410.823941
456.563888	27863.342030
456.937160	28309.469022
457.310373	26665.347107
457.683526	27090.757477
458.056619	27070.401298
458.429653	27011.397113
458.802628	27572.989213
459.175542	27676.446292
459.548398	28976.569952
459.921194	30522.417093
460.293930	31197.840968
460.666607	33194.619321
461.039224	34956.000996
461.411782	35342.599523
461.784280	34167.042775
462.156719	33664.157432
462.529099	33099.084415
462.901419	31815.054639
463.273680	30762.086150
463.645882	30856.701046
464.018024	30820.283751
464.390106	31646.715389
464.762130	34302.430523
465.134094	38320.545211
465.505999	43596.878966
465.877845	48186.733596
466.249631	49361.796311
466.621358	47641.288312
466.993026	45504.469225
467.364634	43420.307511
467.736184	41469.015489
468.107674	40230.217467
468.479105	39438.693298
468.850477	38748.944985
469.221790	37337.371497
469.593043	35619.071523
469.964238	34743.531485
470.335373	34653.836755
470.706449	36310.130536
471.077467	38798.794435
471.448425	43354.028941
471.819324	46238.932573
472.190164	44448.357577
472.560945	40914.546539
472.931667	37831.298709
473.302330	36731.901193
473.672934	35913.227891
474.043479	36407.805412
474.413965	35624.997399
474.784393	35257.338488
475.154761	36128.802753
475.525070	36160.438514
475.895321	35699.823246
476.265513	36293.000695
476.635645	37271.438245
477.005719	37082.626869
477.375734	37543.100985
477.745691	38225.925273
478.115588	39540.935460
478.485427	41493.734787
478.855207	44795.967820
479.224928	47424.122966
479.594591	49067.715560
479.964194	48065.821521
480.333739	48191.754586
480.703226	48216.289881
481.072653	48844.619297
481.442022	49335.652887
481.811333	49619.164859
482.180584	48320.606478
482.549777	47802.143969
482.918912	47276.137374
483.287988	46994.977101
483.657005	46174.478901
484.025964	45530.957968
484.394864	45539.230502
484.763706	45103.258914
485.132489	44235.363786
485.501213	44076.295217
485.869879	44214.639602
486.238487	43817.058922
486.607036	44006.160164
486.975527	43491.458357
487.343959	43685.159652
487.712333	43761.520530
488.080648	43680.010113
488.448905	44115.711999
488.817104	43930.172332
489.185244	44869.556063
489.553326	46513.294851
489.921350	49222.191637
490.289315	52145.130775
490.657222	52787.857726
491.025070	53077.028393
491.392861	52170.555835
491.760593	50913.856675
492.128267	49226.380836
492.495883	47671.694031
492.863440	46304.656617
493.230939	44945.453155
493.598380	43873.471954
493.965763	43538.928382
494.333088	42743.620828
494.700354	42264.073506
495.067563	41983.568583
495.434713	41856.839016
495.801805	41923.412494
496.168839	41547.246635
496.535815	41227.188819
496.902733	41256.021698
497.269593	40858.420853
497.636395	40793.147993
498.003139	41179.917919
498.369825	40635.042285
498.736453	40956.556995
499.103023	40475.603192
499.469535	40358.179595
499.835989	40449.651332
500.202385	40130.001849
500.568723	40136.930915
500.935003	40331.582467
501.301226	40128.265171
501.667390	40742.746537
502.033497	41001.841680
502.399546	40446.707298
502.765537	39757.190878
503.131470	40146.763685
503.497345	40488.437969
503.863163	39164.225157
504.228923	39783.036873
504.594625	40180.536895
504.960269	39471.354934
505.325856	40148.129838
505.691385	39537.842712
506.056856	39659.914253
506.422270	40105.524526
506.787625	39677.979227
507.152924	39886.294828
507.518164	39969.622580
507.883347	39196.884272
508.248472	39456.289446
508.613540	39918.913614
508.978550	40212.114683
509.343503	39972.768260
509.708398	40171.210761
510.073236	40696.007479
510.438016	40697.413961
510.802738	40156.092340
511.167403	40782.417897
511.532010	40995.026040
511.896561	41309.276447
512.261053	42134.445276
512.625488	41699.328164
512.989866	41561.573594
513.354186	41418.162850
513.718449	41396.329612
514.082655	42076.676174
514.446803	41757.301434
514.810894	42276.378963
515.174927	42204.885319
515.538904	42102.801954
515.902822	42751.341355
516.266684	42206.042264
516.630488	42641.461845
516.994235	42484.014007
517.357925	43059.915423
517.721558	43220.541708
518.085133	43548.559506
518.448651	43666.656097
518.812112	43446.856748
519.175516	43532.521075
519.538863	43882.288932
519.902152	43848.384652
520.265385	44298.030369
520.628560	44341.744735
520.991678	44127.631807
521.354739	44372.503335
521.717743	44681.526066
522.080690	44587.611890
522.443580	45127.789169
522.806413	45175.377661
523.169189	45119.453621
523.531908	45312.562581
523.894569	45172.458833
524.257174	45333.697618
524.619722	45628.312731
524.982213	45617.199508
525.344647	45525.110230
525.707025	45588.800168
526.069345	45983.519993
526.431608	45896.759215
526.793815	46217.064048
527.155964	45768.522343
527.518057	45932.874041
527.880093	45724.863430
528.242072	46232.663898
528.603995	45933.199195
528.965860	45938.968796
529.327669	46028.320727
529.689421	45941.141533
530.051117	45896.817188
530.412755	46051.086578
530.774337	46113.934643
531.135862	45901.182827
531.497331	46117.902031
531.858743	46018.682041
532.220098	46357.639143
532.581396	46083.367607
532.942638	45756.380724
533.303824	46028.320727
533.664953	46002.464649
534.026025	45725.937196
534.387040	46212.640435
534.747999	46145.714077
535.108902	46337.683736
535.469748	45841.162850
535.830537	45949.116639
536.191270	46148.832031
536.551947	45808.090360
536.912567	46140.347769
537.273131	46232.673981
537.633638	45723.525004
537.994089	46068.990236
538.354483	45678.091605
538.714821	46235.388642
539.075103	46599.407841
539.435328	46352.986158
539.795497	46238.068015
540.155609	46245.468429
540.515665	46689.722632
540.875665	46163.776531
541.235609	46493.558733
541.595496	46445.650128
541.955328	47102.071373
542.315102	46476.020559
542.674821	46282.611651
543.034483	46309.362534
543.394090	46296.076573
543.753640	46242.385764
544.113134	47236.261847
544.472571	46251.364059
544.831953	47498.109460
545.191278	46728.141266
545.550548	46437.324662
545.909761	46893.050011
546.268918	47095.306145
546.628019	47392.693892
546.987064	46956.742469
547.346053	46245.967503
547.704986	47104.901981
548.063863	46677.001281
548.422684	46868.270219
548.781449	46711.906230
549.140158	47111.120244
549.498811	46963.232955
549.857408	46406.145126
550.215949	47229.305055
550.574434	47153.826379
550.932864	46928.476720
551.291237	47645.280906
551.649555	47267.363246
552.007817	47487.596134
552.366022	47151.331008
552.724173	47334.778596
553.082267	47713.354127
553.440305	48021.136734
553.798288	47334.040067
554.156215	47633.799678
554.514086	47845.460084
554.871902	47584.744210
555.229661	47625.055797
555.587365	47413.113086
555.945014	47526.155920
556.302606	47453.225547
556.660143	47671.774690
557.017625	47759.251312
557.375050	47556.387719
557.732421	47897.459586
558.089735	47890.230571
558.446994	47782.649827
558.804197	48267.467675
559.161345	48199.187767
559.518437	47449.311091
559.875474	47762.301210
560.232455	47902.624248
560.589381	48077.922811
560.946251	47781.356772
561.303065	48470.507708
561.659825	48260.021891
562.016528	47953.492011
562.373177	47665.866457
562.729770	48140.566709
563.086307	47656.459664
563.442789	48108.893140
563.799216	48163.919855
564.155587	47961.031056
564.511904	47975.103437
564.868164	48076.760825
565.224370	48321.607147
565.580520	48059.247857
565.936615	48269.295093
566.292654	47978.627204
566.648638	48212.806444
567.004567	48170.226338
567.360441	48224.668279
567.716260	48070.771934
568.072023	48352.002784
568.427732	48336.483592
568.783385	47900.847241
569.138982	48297.412129
569.494525	48249.773225
569.850013	48020.705715
570.205445	47979.562338
570.560823	47945.521947
570.916145	47819.747679
571.271412	47838.830967
571.626625	47601.682487
571.981782	47668.127415
572.336884	47341.750512
572.691931	47671.497426
573.046923	47268.714275
573.401860	47119.042417
573.756743	47100.188502
574.111570	47229.395796
574.466342	47068.033502
574.821059	47187.705453
575.175722	46713.915130
575.530330	46734.914056
575.884882	46458.852910
576.239380	46411.834068
576.593823	46410.740137
576.948211	46307.081412
577.302544	45841.810638
577.656823	45854.436208
578.011047	46075.490804
578.365216	45801.143650
578.719330	45594.970540
579.073389	45463.945910
579.427394	45528.291198
579.781344	45507.209093
580.135239	45153.950237
580.489080	45238.931488
580.842866	44742.798770
581.196597	45192.401638
581.550273	45126.281864
581.903895	44991.584754
582.257463	45407.550522
582.610975	44799.804138
582.964434	45068.608543
583.317837	44723.670112
583.671186	44544.872988
584.024481	44788.968178
584.377721	44304.823324
584.730906	44611.406136
585.084037	44618.209173
585.437113	44329.620760
585.790135	44367.038724
586.143103	43973.788395
586.496016	44096.154843
586.848874	44124.082835
587.201679	44139.435669
587.554428	43617.414106
587.907124	43812.718488
588.259765	43554.644179
588.612352	43820.955734
588.964884	43198.768964
589.317362	43494.702339
589.669786	43438.559009
590.022155	43216.186151
590.374470	43639.285152
590.726731	43162.334025
591.078937	42669.835979
591.431090	42761.194290
591.783188	42423.217692
592.135232	42103.411933
592.487222	42345.621732
592.839157	42439.528345
593.191038	42110.910650
593.542866	41871.528939
593.894639	41265.453697
594.246358	41537.872610
594.598022	41521.264528
594.949633	41131.469910
595.301190	41096.012954
595.652692	40919.290265
596.004141	41256.735021
596.355535	40284.878698
596.706876	40220.480478
597.058162	40059.934851
597.409395	40527.141428
597.760573	40608.364499
598.111698	40195.894771
598.462768	40188.965705
598.813785	40236.014793
599.164748	39692.928769
599.515657	40073.596378
599.866511	39543.274555
600.217312	40166.134319
600.568060	39130.295671
600.918753	39855.127894
601.269392	39825.979943
601.619978	39470.823092
601.970510	39693.440446
602.320988	39879.857274
602.671412	40191.894615
603.021783	39929.520201
603.372100	39575.482487
603.722363	39686.909631
604.072572	39758.262123
604.422728	39778.741810
604.772830	39589.214590
605.122878	39681.392088
605.472872	39610.455492
605.822813	39879.645546
606.172701	39719.281401
606.522534	39956.366866
606.872314	40227.838042
607.222041	39980.450979
607.571714	40371.773067
607.921333	39827.658647
608.270899	40105.191810
608.620411	40447.534047
608.969870	40245.797153
609.319276	40250.939129
609.668627	40276.593561
610.017926	40768.600094
610.367171	40928.008941
610.716362	41024.489064
611.065500	40956.945164
611.414585	41149.176963
611.763616	41447.610750
612.112594	41356.824610
612.461518	41581.072778
612.810389	41866.533155
613.159207	41739.874165
613.507971	41820.625888
613.856682	42288.601240
614.205340	42153.042093
614.553945	42871.812329
614.902496	42320.090808
615.250994	42787.604895
615.599439	42864.127090
615.947830	43079.308742
616.296169	43117.339206
616.644454	43246.612035
616.992686	43421.356071
617.340864	43911.570474
617.688990	43658.176876
618.037063	44240.558695
618.385082	44225.246190
618.733048	44533.701791
619.080961	44532.043251
619.428821	44559.386470
619.776628	44662.833467
620.124382	44489.921890
620.472083	44632.805834
620.819731	44746.509059
621.167326	44419.398669
621.514868	44404.572635
621.862357	43967.300430
622.209793	43982.045805
622.557176	43665.005119
622.904506	43411.924073
623.251783	43082.807302
623.599007	42852.202240
623.946179	42629.058086
624.293297	42564.662387
624.640363	41986.308450
624.987376	41953.467853
625.334336	41727.344377
625.681243	41389.551781
626.028097	41332.385097
626.374899	41186.103415
626.721647	41149.033290
627.068343	41034.858717
627.414987	40817.166571
627.761577	40581.900962
628.108115	40920.285893
628.454600	40375.420341
628.801032	40550.877701
629.147412	40505.585454
629.493739	40510.992092
629.840014	40160.415130
630.186236	40502.248210
630.532405	40118.145055
630.878521	40342.451195
631.224585	40207.892717
631.570597	39908.294423
631.916556	40083.056103
632.262462	40012.338797
632.608316	40039.606398
632.954117	39948.076689
633.299866	39937.008835
633.645562	39847.046924
633.991206	39346.707364
634.336797	38910.191332
634.682336	38920.533259
635.027823	38689.570275
635.373257	38499.536419
635.718639	38251.133563
636.063968	38122.868965
636.409245	37539.425984
636.754470	37593.845240
637.099642	37340.416353
637.444762	36867.283900
637.789829	37027.471605
638.134845	36653.261714
638.479808	36613.809644
638.824719	36517.889089
639.169577	36109.868179
639.514383	36178.644641
639.859137	35870.907404
640.203839	36119.474098
640.548489	35748.447695
640.893086	35814.726265
641.237632	35559.142286
641.582125	35665.538358
641.926566	35605.629286
642.270955	35564.659829
642.615292	35593.795178
642.959576	35551.832613
643.303809	35550.489145
643.647990	35703.205860
643.992118	35670.899626
644.336195	35644.620091
644.680219	35737.470583
645.024192	36041.316048
645.368112	36552.448719
645.711981	36562.334422
646.055797	37431.262987
646.399562	37339.203956
646.743274	38312.227307
647.086935	38752.224256
647.430544	38650.198863
647.774101	38765.946276
648.117606	39017.083958
648.461059	39316.203342
648.804460	38939.044376
649.147810	38342.746452
649.491108	38077.246523
649.834354	37716.065494
650.177548	36886.457929
650.520690	36438.768179
650.863781	36447.527184
651.206820	36300.212066
651.549807	35861.402309
651.892742	35372.498606
652.235626	35182.857960
652.578458	35047.555911
652.921238	34412.184004
653.263967	34751.476343
653.606644	34441.168118
653.949269	34385.753234
654.291843	33979.027901
654.634365	34377.914240
654.976836	33972.938187
655.319255	33985.291535
655.661622	33985.384796
656.003938	33754.147069
656.346203	33592.142028
656.688416	33826.124664
657.030577	33623.934065
657.372687	33480.354442
657.714746	33724.875609
658.056753	33861.785786
658.398708	33323.551872
658.740612	33357.078066
659.082465	33635.579131
659.424266	33452.711275
659.766016	33566.595981
660.107715	33452.781851
660.449362	33572.027825
660.790958	33553.980494
661.132503	33574.283741
661.473996	33612.533496
661.815438	33720.396544
662.156829	33903.072836
662.498168	33676.934236
662.839456	33707.576890
663.180693	33867.162177
663.521879	34014.636091
663.863013	33962.182885
664.204097	33965.157166
664.545129	34424.073565
664.886110	34387.994027
665.227040	34441.825989
665.567918	34568.613528
665.908746	34636.459897
666.249522	34797.255061
666.590248	34806.016587
666.930922	34905.065177
667.271545	34870.611411
667.612118	34967.061287
667.952639	34749.638842
668.293109	34806.946679
668.633528	34695.030543
668.973896	34624.293073
669.314213	34646.310312
669.654480	34396.417795
669.994695	34421.492495
670.334859	34310.556863
670.674973	34218.578491
671.015035	34373.399887
671.355047	34322.900128
671.695008	34249.064868
672.034918	34161.550438
672.374777	34229.792537
672.714585	34058.320210
673.054342	34291.415602
673.394049	34050.879467
673.733705	34335.114844
674.073310	33991.592977
674.412864	34065.221549
674.752368	33673.861653
675.091820	33971.438444
675.431223	33550.171902
675.770574	33290.923004
676.109875	33137.061947
676.449125	32859.927035
676.788324	32779.906280
677.127473	32236.671541
677.466571	32175.431604
677.805619	31807.838228
678.144616	31814.129587
678.483562	31726.693295
678.822458	31387.552190
679.161303	31322.218836
679.500098	31225.158981
679.838842	31101.128952
680.177535	31250.266447
680.516179	31530.340352
680.854771	31766.173091
681.193314	32621.155304
681.531805	33747.344032
681.870247	34533.688415
682.208638	35247.031848
682.546978	35491.164847
682.885268	35592.381134
683.223508	35064.272377
683.561697	34738.686936
683.899836	34548.005292
684.237925	34038.188362
684.575963	33873.110738
684.913951	33417.120729
685.251889	33564.786207
685.589776	33550.474371
685.927614	33535.605488
686.265401	33669.947197
686.603137	33756.599590
686.940824	34264.868886
687.278460	34653.425901
687.616046	34784.016991
687.953582	35408.716776
688.291068	35269.394407
688.628504	35575.021921
688.965889	35493.292214
689.303224	35122.991737
689.640510	34775.961227
689.977745	34054.501536
690.314930	33258.442850
690.652065	32730.646645
690.989150	32001.436179
691.326185	31102.840424
691.663170	30397.782126
692.000105	29634.422885
692.336990	28941.201216
692.673825	28470.382653
693.010610	27958.887019
693.347345	27378.236837
693.684030	26716.560189
694.020665	26420.105054
694.357251	25741.709420
694.693786	25693.500865
695.030272	25454.419103
695.366707	24899.821604
695.703093	24606.456697
696.039429	24601.327323
696.375716	24325.336753
696.711952	24288.725373
697.048139	24140.767507
697.384276	23952.608961
697.720363	24077.349792
698.056400	23865.933882
698.392388	23660.211955
698.728326	23620.437252
699.064214	23411.536877
699.400053	23358.665256
699.735842	23008.136185
700.071581	22724.215880
700.407270	22423.977359
700.742910	22229.310683
701.078501	21954.451852
701.414042	21674.955159
701.749533	21370.310671
702.084974	21018.412926
702.420366	21225.453115
702.755709	20776.061976
703.091002	20488.096145
703.426246	20495.988071
703.761440	20397.315046
704.096584	20126.728593
704.431679	20072.105170
704.766725	19974.639502
705.101721	19913.223125
705.436668	20004.639408
705.771565	19672.583646
706.106413	20014.497385
706.441212	19994.403346
706.775961	20125.208685
707.110661	20197.299706
707.445311	20555.042668
707.779913	20382.370546
708.114465	20620.504571
708.448967	20896.409442
708.783421	21599.617636
709.117825	21861.555989
709.452180	22076.828382
709.786485	22484.002378
710.120742	23289.120018
710.454949	23306.935456
710.789107	23773.078349
711.123216	24468.838238
711.457275	24602.189360
711.791286	25160.108980
712.125247	25228.701440
712.459159	24936.241420
712.793023	25619.910102
713.126837	24507.831563
713.460602	24787.159377
713.794318	24414.945783
714.127985	24022.706205
714.461602	23115.822793
714.795171	23081.858019
715.128691	22068.288667
715.462162	21515.372393
715.795584	21101.559197
716.128957	20826.634831
716.462281	20419.289436
716.795556	20167.808956
717.128782	19672.225724
717.461960	19123.556622
717.795088	19040.528818
718.128167	18646.988622
718.461198	18173.231066
718.794180	18022.114918
719.127113	17660.994382
719.459997	17455.151468
719.792833	17107.629445
720.125619	17076.170125
720.458357	16750.720794
720.791046	16582.684013
721.123686	16409.074236
721.456278	16170.423493
721.788821	16119.051614
722.121315	15865.312697
722.453761	15942.404542
722.786158	15857.357757
723.118506	15862.174579
723.450805	15726.386059
723.783056	15882.291303
724.115259	15793.685463
724.447412	15717.616972
724.779518	15960.777028
725.111574	15974.476363
725.443582	16171.101528
725.775542	16146.828372
726.107453	16628.114892
726.439315	16496.253430
726.771129	16891.578194
727.102895	17268.790093
727.434612	17466.090772
727.766281	17598.476513
728.097901	17872.347278
728.429473	17914.148526
728.760996	17903.627638
729.092471	17987.182242
729.423897	17859.615844
729.755276	17722.153661
730.086606	17838.740426
730.417887	18365.152834
730.749120	18881.329179
731.080305	19054.679337
731.411442	19392.119052
731.742530	19464.013467
732.073570	19556.082580
732.404562	19865.034735
732.735506	19674.491723
733.066401	19406.751001
733.397249	18889.311846
733.728048	18252.044465
734.058798	17401.059887
734.389501	16715.694857
734.720156	16252.054897
735.050762	15719.081427
735.381320	15354.542990
735.711831	15114.926865
736.042293	14744.669238
736.372707	14760.581641
736.703073	14544.744639
737.033391	14729.603750
737.363661	14680.303786
737.693883	14776.509166
738.024056	14951.142297
738.354182	15127.900274
738.684260	15418.850469
739.014290	15635.236956
739.344272	15829.495299
739.674207	16106.965448
740.004093	16225.447687
740.333931	16225.253602
740.663722	16267.836229
740.993464	16266.129798
741.323159	16098.332472
741.652806	15826.205946
741.982405	15619.054852
742.311956	15288.375325
742.641460	15162.464946
742.970915	14855.604870
743.300323	14515.994938
743.629683	14303.686744
743.958996	14028.918654
744.288260	13745.434408
744.617477	13444.684211
744.946647	13378.801371
745.275768	13102.730143
745.604842	12912.368612
745.933869	12733.488309
746.262847	12684.863859
746.591778	12614.310391
746.920662	12507.185871
747.249498	12500.607166
747.578286	12614.012963
747.907027	12755.014036
748.235720	12982.307060
748.564365	13005.425791
748.892963	12905.958785
749.221514	12970.432622
749.550017	12820.077688
749.878473	12788.562914
750.206881	12559.765106
750.535242	12468.759676
750.863555	12381.847663
751.191821	12275.514605
751.520039	12296.402626
751.848210	12201.548275
752.176334	12235.399623
752.504411	12135.814150
752.832440	11983.528454
753.160421	12045.721169
753.488356	11914.963720
753.816243	11829.727891
754.144082	11688.464678
754.471875	11625.840944
754.799620	11575.406721
755.127318	11545.573172
755.454969	11501.566420
755.782572	11460.612086
756.110129	11465.033178
756.437638	11393.413505
756.765100	11379.320960
757.092515	11378.985723
757.419882	11391.349153
757.747203	11394.988866
758.074477	11468.529218
758.401703	11423.289903
758.728882	11578.436454
759.056014	11624.580656
759.383099	11736.796741
759.710138	11840.054695
760.037129	11921.033270
760.364073	11943.647886
760.690970	11926.182808
761.017820	11928.136255
761.344623	12120.713373
761.671379	12429.310127
761.998088	13059.703895
762.324751	14598.707670
762.651366	17464.457438
762.977935	21121.484358
763.304456	23369.208829
763.630931	23885.894331
763.957359	22734.744329
764.283740	20830.723207
764.610074	18959.545202
764.936362	16819.124211
765.262602	15292.342713
765.588796	13812.917814
765.914943	12783.499075
766.241044	11911.487845
766.567097	11277.477049
766.893104	10723.287883
767.219064	10344.112456
767.544978	9958.292787
767.870845	9645.380806
768.196665	9460.945152
768.522438	9257.232125
768.848165	9087.254499
769.173846	8921.738295
769.499479	8797.428482
769.825066	8640.762024
770.150607	8452.893343
770.476101	8390.443529
770.801548	8277.589739
771.126949	8145.566961
771.452303	8051.491468
771.777611	7883.605922
772.102872	7862.533899
772.428087	7746.093327
772.753256	7620.029193
773.078378	7529.744648
773.403453	7383.611680
773.728482	7282.302132
774.053465	7216.958696
774.378401	7126.633822
774.703291	7036.936572
775.028135	6938.364370
775.352932	6902.027733
775.677683	6815.793755
776.002388	6727.636577
776.327046	6726.154478
776.651658	6637.798175
776.976224	6556.290279
777.300743	6548.663013
777.625216	6480.531819
777.949643	6434.954747
778.274024	6441.987156
778.598359	6371.529470
778.922647	6373.961826
779.246889	6331.520352
779.571086	6334.839952
779.895236	6346.454770
780.219339	6338.507391
780.543397	6333.864489
780.867409	6386.587396
781.191374	6385.369957
781.515294	6351.027097
781.839167	6401.965436
782.162995	6376.026179
782.486776	6325.536502
782.810511	6290.712212
783.134201	6214.116920
783.457844	6203.132246
783.781441	6155.170708
784.104993	6108.373677
784.428498	6083.329225
784.751958	6066.915228
785.075372	6043.289860
785.398739	6000.223283
785.722061	6022.028794
786.045337	6021.441500
786.368568	6128.288755
786.691752	6147.611498
787.014891	6401.415950
787.337983	6671.624317
787.661030	7105.377797
787.984031	7539.141359
788.306987	7801.392264
788.629897	7886.192034
788.952760	7809.536248
789.275579	7638.585680
789.598351	7338.808426
789.921078	7077.709424
790.243759	6796.304654
790.566395	6592.468119
790.888984	6392.586369
791.211529	6253.344659
791.534027	6093.106543
791.856480	5953.088495
792.178888	5889.874946
792.501249	5817.171425
792.823566	5712.857349
793.145836	5707.115475
793.468062	5692.496129
793.790241	5648.368389
794.112375	5689.826838
794.434464	5790.909534
794.756507	5814.328214
795.078505	5928.182674
795.400457	6147.228370
795.722364	6389.203755
796.044226	6578.088228
796.366042	6744.158959
796.687812	6689.101997
797.009538	6723.515434
797.331218	6630.291897
797.652852	6567.436270
797.974442	6443.128978
798.295986	6376.270675
798.617484	6242.566672
798.938938	6136.420137
799.260346	6070.605353
799.581709	5927.023209
799.903026	5880.626949
800.224299	5800.656605
800.545526	5683.827865
800.866708	5617.793791
801.187845	5572.932562
801.508936	5494.514894
801.829983	5467.025482
802.150984	5357.319892
802.471940	5327.481302
802.792851	5313.151822
803.113717	5293.730777
803.434538	5265.301190
803.755314	5231.895984
804.076045	5223.467175
804.396731	5182.096946
804.717372	5197.502712
805.037967	5199.514133
805.358518	5225.642433
805.679024	5286.791629
805.999485	5292.586435
806.319901	5308.778622
806.640272	5326.783103
806.960598	5372.110637
807.280879	5365.642837
807.601115	5405.331841
807.921306	5368.367581
808.241453	5360.062280
808.561554	5375.369743
808.881611	5338.140822
809.201623	5338.256769
809.521590	5294.063493
809.841513	5275.212099
810.161390	5296.296725
810.481223	5207.474114
810.801011	5190.021640
811.120755	5166.925593
811.440453	5114.517758
811.760107	5086.299899
812.079716	5060.302669
812.399281	5005.396942
812.718801	4998.389738
813.038276	4968.604081
813.357707	4934.747691
813.677093	4953.906597
813.996434	4892.611207
814.315731	4910.618208
814.634983	4908.185852
814.954191	4919.281431
815.273354	4976.238908
815.592473	5014.937326
815.911547	5090.960446
816.230577	5141.732427
816.549562	5230.381118
816.868502	5285.695178
817.187399	5340.928580
817.506250	5423.623668
817.825058	5454.140293
818.143821	5605.455567
818.462539	5779.025014
818.781213	6004.120095
819.099843	6367.347832
819.418429	6990.562997
819.736970	7609.800692
820.055466	8333.319695
820.373919	9251.911187
820.692327	10710.354803
821.010691	13417.976178
821.329011	19660.452109
821.647286	29253.939278
821.965517	39654.646247
822.283704	45188.741760
822.601847	46761.546472
822.919945	42216.994171
823.237999	37113.975284
823.556010	31906.964956
823.873976	27185.490840
824.191897	22923.346498
824.509775	19819.140070
824.827609	17001.361922
825.145398	15404.498304
825.463144	14638.230316
825.780845	14918.775569
826.098502	16155.181564
826.416116	18605.772148
826.733685	20866.129751
827.051210	21397.069115
827.368692	19972.232351
827.686129	17416.518586
828.003522	14935.570173
828.320872	12709.686501
828.638177	11047.398787
828.955439	9790.187950
829.272656	8715.996204
829.589830	7868.774847
829.906960	7126.502752
830.224046	6585.765905
830.541088	6171.839283
830.858086	5904.484210
831.175041	5700.624989
831.491952	5638.157532
831.808819	5670.804044
832.125642	5914.077526
832.442421	6464.231248
832.759157	7568.768220
833.075849	9332.587292
833.392497	11186.050683
833.709101	12317.945997
834.025662	12071.637741
834.342179	11031.597291
834.658653	9730.808199
834.975083	8615.392417
835.291469	7710.840538
835.607811	6962.408153
835.924110	6433.951557
836.240366	5943.175066
836.556578	5490.441642
836.872746	5131.173730
837.188871	4854.454713
837.504952	4628.724447
837.820990	4461.050629
838.136984	4344.698278
838.452935	4294.604332
838.768842	4322.202129
839.084706	4600.985498
839.400526	5338.803734
839.716303	6246.942393
840.032037	6823.274828
840.347727	6688.539909
840.663373	6084.095480
840.978977	5505.081152
841.294537	5060.610179
841.610054	4722.414291
841.925527	4479.957477
842.240957	4267.903861
842.556344	4087.569185
842.871687	3927.257972
843.186987	3772.794497
843.502244	3653.460303
843.817458	3564.400759
844.132629	3493.224708
844.447756	3443.241668
844.762840	3396.197620
845.077881	3354.943337
845.392879	3323.615087
845.707833	3297.832105
846.022745	3269.722632
846.337613	3257.795262
846.652438	3233.292733
846.967221	3227.686970
847.281960	3202.576983
847.596656	3191.355374
847.911309	3181.993952
848.225919	3169.953156
848.540485	3160.193482
848.855009	3153.231648
849.169490	3139.297899
849.483928	3134.531488
849.798323	3130.100314
850.112675	3112.521811
850.426984	3116.895012
850.741251	3108.708178
851.055474	3105.282714
851.369654	3106.270780
851.683792	3104.811366
851.997887	3105.731376
852.311938	3107.609206
852.625947	3108.196501
852.939914	3100.188628
853.253837	3106.512755
853.567718	3104.687857
853.881555	3097.529419
854.195350	3105.499483
854.509103	3097.955397
854.822812	3098.152002
855.136479	3093.471290
855.450103	3096.742999
855.763685	3088.495671
856.077224	3094.305601
856.390720	3099.656786
856.704173	3109.673559
857.017584	3117.119343
857.330953	3119.544138
857.644278	3132.772126
857.957561	3135.446458
858.270802	3131.194244
858.584000	3127.335241
858.897155	3125.364150
859.210268	3116.519446
859.523339	3101.774071
859.836367	3099.626539
860.149352	3095.225612
860.462295	3092.778132
860.775195	3081.508632
861.088054	3077.432859
861.400869	3077.274063
861.713642	3073.543609
862.026373	3084.757656
862.339062	3084.775300
862.651708	3096.012032
862.964312	3114.261009
863.276873	3120.847276
863.589392	3150.186792
863.901869	3178.223169
864.214303	3196.222608
864.526696	3219.784962
864.839045	3237.103846
865.151353	3249.764703
865.463619	3248.073396
865.775842	3248.418715
866.088023	3258.788369
866.400162	3247.130701
866.712258	3250.493150
867.024313	3249.119436
867.336325	3246.964342
867.648296	3252.386103
867.960224	3246.712285
868.272110	3249.424426
868.583954	3250.409971
868.895755	3259.237032
869.207515	3253.807709
869.519233	3271.310595
869.830909	3279.560443
870.142542	3291.260961
870.454134	3298.147178
870.765684	3311.327274
871.077191	3331.703618
871.388657	3341.463292
871.700081	3357.519367
872.011463	3379.075341
872.322803	3399.953279
872.634101	3416.432811
872.945357	3437.915688
873.256571	3463.378557
873.567744	3481.428408
873.878874	3487.742453
874.189963	3505.361286
874.501010	3502.092098
874.812015	3505.247860
875.122979	3520.630941
875.433900	3515.478882
875.744780	3518.501053
876.055618	3526.108154
876.366415	3529.145450
876.677169	3533.034700
876.987882	3549.110939
877.298554	3568.932756
877.609183	3608.652007
877.919771	3655.277639
878.230317	3724.502764
878.540822	3828.595029
878.851285	3984.003720
879.161707	4209.658369
879.472087	4587.346656
879.782425	5221.133121
880.092722	6416.262148
880.402977	8369.242957
880.713191	10764.562330
881.023363	13171.461234
881.333494	14544.333785
881.643583	15020.629562
881.953631	14626.998625
882.263637	13788.264051
882.573602	12764.337650
882.883526	11787.011674
883.193408	10825.015847
883.503248	9890.108661
883.813048	9045.937202
884.122806	8271.532793
884.432522	7498.000502
884.742197	6815.599671
885.051831	6243.146405
885.361424	5731.819649
885.670975	5327.317465
885.980485	4999.060212
886.289954	4724.072831
886.599382	4502.980426
886.908768	4320.374710
887.218113	4150.011437
887.527417	4015.904142
887.836680	3886.893453
888.145901	3785.760345
888.455082	3707.675392
888.764221	3636.713590
889.073319	3576.242429
889.382376	3545.410733
889.691392	3516.746732
890.000366	3511.221627
890.309300	3502.074453
890.618193	3509.280783
890.927044	3498.608660
891.235855	3507.483612
891.544625	3523.958102
891.853353	3549.932648
892.162041	3613.839355
892.470687	3707.690516
892.779293	3827.223835
893.087858	4001.738499
893.396381	4285.850368
893.704864	4702.852094
894.013306	5272.300832
894.321707	5845.767370
894.630068	6211.374533
894.938387	6250.433392
895.246665	6071.951341
895.554903	5750.083750
895.863100	5416.384571
896.171256	5143.176718
896.479371	4897.841404
896.787446	4675.418135
897.095480	4475.836333
897.403473	4324.241275
897.711425	4180.155016
898.019336	4050.647774
898.327207	3927.938527
898.635038	3823.563958
898.942827	3717.162844
899.250576	3631.241418
899.558284	3543.883263
899.865952	3489.771518
900.173579	3425.262392
900.481165	3377.976369
900.788711	3336.356603
901.096216	3302.648928
901.403681	3272.462499
901.711105	3259.491610
902.018489	3257.984305
902.325832	3292.831281
902.633135	3349.085517
902.940397	3521.747556
903.247619	3930.411213
903.554800	4691.713664
903.861941	5667.696172
904.169041	6381.815944
904.476101	6610.278516
904.783121	6333.763666
905.090100	5929.316934
905.397039	5515.884345
905.703938	5153.170805
906.010796	4818.959949
906.317614	4563.890168
906.624391	4318.867405
906.931129	4117.420377
907.237826	3931.290895
907.544483	3755.258844
907.851099	3583.123604
908.157675	3420.521187
908.464211	3276.923920
908.770707	3170.079185
909.077163	3092.473142
909.383578	3026.681043
909.689954	2986.520691
909.996289	2952.961730
910.302584	2930.299223
910.608839	2919.443098
910.915054	2904.392733
911.221229	2900.969789
911.527363	2904.939698
911.833458	2911.437745
912.139513	2923.546597
912.445527	2938.755758
912.751502	2968.929584
913.057436	3018.161493
913.363331	3074.163671
913.669186	3166.174811
913.975000	3285.400620
914.280775	3475.389106
914.586510	3750.915890
914.892205	4131.018890
915.197859	4637.307012
915.503475	5227.996652
915.809050	5723.146344
916.114585	6016.667527
916.420081	6080.372588
916.725536	6018.731879
917.030952	5781.996774
917.336328	5573.928190
917.641665	5358.965829
917.946961	5133.275892
918.252218	4932.370787
918.557435	4698.544428
918.862612	4498.168645
919.167750	4325.279753
919.472848	4129.393118
919.777906	3963.997901
920.082925	3799.676450
920.387904	3643.564518
920.692843	3528.623690
920.997743	3425.085952
921.302603	3330.793690
921.607423	3264.565531
921.912204	3197.994574
922.216946	3146.821821
922.521647	3095.480190
922.826310	3054.046947
923.130932	3014.804084
923.435516	2974.021150
923.740059	2948.434773
924.044564	2912.904721
924.349028	2890.017883
924.653454	2860.562421
924.957840	2832.962103
925.262186	2809.545944
925.566493	2788.975516
925.870761	2767.038935
926.174989	2752.666605
926.479178	2740.673700
926.783328	2721.177037
927.087438	2710.923331
927.391509	2695.368850
927.695541	2686.413241
927.999533	2672.333298
928.303486	2664.922802
928.607400	2658.938952
928.911275	2652.619866
929.215110	2647.861017
929.518906	2644.894297
929.822663	2642.593011
930.126381	2642.061169
930.430060	2646.595687
930.733699	2648.075266
931.037299	2653.887716
931.340861	2649.307828
931.644383	2654.464928
931.947866	2654.293529
932.251309	2648.387817
932.554714	2648.677683
932.858080	2644.740542
933.161407	2642.867754
933.464694	2637.892135
933.767943	2637.246867
934.071153	2633.418111
934.374323	2628.175311
934.677455	2627.141874
934.980548	2620.606018
935.283602	2617.261213
935.586617	2615.206942
935.889593	2621.165586
936.192530	2622.377984
936.495428	2628.991978
936.798287	2636.863739
937.101108	2649.955616
937.403890	2672.267763
937.706632	2697.768440
938.009336	2728.005280
938.312002	2760.780342
938.614628	2785.240021
938.917216	2803.458751
939.219765	2815.479382
939.522275	2826.428768
939.824747	2825.405414
940.127179	2819.580361
940.429573	2810.788588
940.731929	2811.065852
941.034246	2806.140644
941.336524	2805.505459
941.638763	2797.868111
941.940964	2788.398303
942.243126	2773.852054
942.545250	2763.111876
942.847335	2745.482961
943.149381	2734.273955
943.451389	2722.868345
943.753359	2710.666232
944.055290	2701.592155
944.357182	2691.988757
944.659036	2685.883919
944.960851	2679.675738
945.262628	2676.129287
945.564367	2679.572395
945.866067	2677.944102
946.167729	2673.633916
946.469352	2674.440500
946.770937	2671.133503
947.072484	2663.511279
947.373992	2664.484221
947.675462	2660.569765
947.976893	2657.414003
948.278286	2653.865031
948.579641	2649.627941
948.880958	2644.564102
949.182236	2645.811787
949.483476	2639.638895
949.784678	2643.369348
950.085841	2640.006899
950.386967	2648.377735
950.688054	2652.151038
950.989103	2660.753768
951.290114	2667.748368
951.591087	2680.404185
951.892021	2690.478931
952.192917	2705.234388
952.493776	2713.937941
952.794596	2717.892726
953.095378	2719.636965
953.396122	2718.981615
953.696828	2717.595298
953.997496	2710.023485
954.298126	2700.488142
954.598718	2695.386494
954.899272	2680.575584
955.199788	2674.576611
955.500266	2659.753098
955.800706	2644.465799
956.101108	2625.959724
956.401472	2613.218207
956.701798	2599.781012
957.002087	2584.546645
957.302337	2577.194122
957.602550	2565.435631
957.902724	2554.869372
958.202861	2539.982845
958.502960	2536.297761
958.803022	2528.002543
959.103045	2521.479290
959.403031	2515.092148
959.702979	2510.413957
960.002889	2505.455982
960.302762	2499.988851
960.602596	2496.540702
960.902393	2492.253200
961.202153	2489.183138
961.501875	2486.677684
961.801559	2481.644092
962.101205	2482.861531
962.400814	2476.991107
962.700385	2477.812815
962.999918	2474.838534
963.299414	2472.479274
963.598873	2470.765282
963.898293	2470.719912
964.197677	2468.935343
964.497022	2467.362503
964.796331	2465.761937
965.095601	2465.416618
965.394835	2465.751854
965.694030	2464.970476
965.993189	2463.120372
966.292309	2464.020218
966.591393	2460.670371
966.890439	2461.539970
967.189447	2462.003757
967.488419	2462.507872
967.787353	2462.006277
968.086249	2461.245063
968.385108	2460.367902
968.683930	2462.744806
968.982714	2467.647328
969.281462	2467.503655
969.580172	2465.721608
969.878844	2471.707978
970.177480	2473.114460
970.476078	2478.100161
970.774639	2478.594194
971.073162	2482.233907
971.371649	2484.494864
971.670098	2483.847076
971.968510	2484.474700
972.266885	2484.956130
972.565223	2488.648775
972.863524	2492.414517
973.161788	2493.011894
973.460014	2495.882831
973.758204	2491.852428
974.056356	2494.768736
974.354471	2492.898468
974.652550	2492.868221
974.950591	2494.294868
975.248595	2496.452481
975.546563	2492.245638
975.844493	2492.369147
976.142386	2489.289002
976.440243	2487.998466
976.738062	2486.181130
977.035845	2483.113588
977.333590	2482.460759
977.631299	2477.001189
977.928971	2477.089409
978.226606	2474.324337
978.524204	2471.584469
978.821765	2472.592700
979.119290	2470.319140
979.416777	2472.670838
979.714228	2468.632874
980.011642	2473.769810
980.309020	2476.182002
980.606360	2479.544451
980.903664	2492.664054
981.200931	2500.838285
981.498162	2524.004908
981.795356	2552.593291
982.092513	2594.165166
982.389633	2637.718215
982.686717	2679.211952
982.983764	2713.958105
983.280775	2731.203892
983.577749	2734.916702
983.874686	2723.102758
984.171587	2707.855788
984.468451	2691.915660
984.765279	2673.974193
985.062070	2654.235556
985.358824	2635.429531
985.655543	2611.451283
985.952224	2589.910432
986.248869	2561.201061
986.545478	2531.433048
986.842050	2512.790861
987.138586	2490.786224
987.435086	2480.242651
987.731549	2467.715384
988.027975	2461.718931
988.324366	2457.305401
988.620719	2453.872375
988.917037	2447.081941
989.213318	2445.226797
989.509563	2442.862495
989.805772	2442.098761
990.101944	2439.636157
990.398080	2435.946032
990.694180	2438.948039
990.990244	2439.419387
991.286271	2439.053904
991.582262	2438.418718
991.878217	2441.234203
992.174136	2440.924172
992.470019	2442.519697
992.765865	2442.693617
993.061676	2445.534307
993.357450	2448.276695
993.653188	2452.344906
993.948890	2456.471090
994.244556	2461.814713
994.540186	2473.764768
994.835780	2484.124340
995.131337	2500.321567
995.426859	2512.876561
995.722345	2536.365817
996.017795	2556.016235
996.313208	2574.484502
996.608586	2584.559248
996.903928	2582.885585
997.199234	2581.085893
997.494504	2580.702765
997.789738	2570.869994
998.084936	2563.209961
998.380099	2550.153373
998.675225	2536.406146
998.970316	2524.647655
999.265371	2512.276663
999.560390	2496.094559
999.855373	2487.002838
1000.150320	2476.434059
1000.445232	2467.153295
1000.740108	2459.803293
1001.034948	2453.958075
1001.329752	2446.222424
1001.624521	2446.287959
1001.919254	2434.380754
1002.213951	2433.894283
1002.508613	2431.540064
1002.803239	2432.003850
1003.097829	2427.305495
1003.392384	2427.053437
1003.686903	2428.442275
1003.981386	2426.735844
1004.275834	2424.651327
1004.570246	2426.468663
1004.864623	2426.821544
1005.158964	2419.222004
1005.453270	2420.991449
1005.747540	2422.886923
1006.041775	2419.463980
1006.335974	2418.627148
1006.630138	2420.121850
1006.924266	2421.654361
1007.218359	2418.163362
1007.512416	2420.633528
1007.806438	2417.450039
1008.100425	2418.402817
1008.394376	2417.150090
1008.688292	2418.995152
1008.982172	2417.699576
1009.276017	2419.186716
1009.569827	2416.950965
1009.863602	2415.771335
1010.157341	2416.666139
1010.451045	2416.416602
1010.744714	2412.991138
1011.038347	2415.728485
1011.331945	2413.543145
1011.625508	2413.911149
1011.919036	2413.621282
1012.212528	2414.105233
1012.505986	2414.737898
1012.799408	2413.442322
1013.092795	2413.344019
1013.386147	2411.423339
1013.679464	2411.128432
1013.972745	2413.641447
1014.265992	2413.764955
1014.559204	2413.434760
1014.852380	2412.222362
1015.145521	2413.989287
1015.438628	2411.332599
1015.731699	2409.878226
1016.024736	2411.660274
1016.317737	2415.320151
1016.610703	2414.541293
1016.903635	2410.276477
1017.196531	2411.841755
1017.489393	2413.941396
1017.782219	2408.728843
1018.075011	2416.388876
1018.367768	2413.714544
1018.660490	2416.898033
1018.953177	2416.898033
1019.245829	2416.898033
