Dividing Wavelength (nm)	Counts (n)	Blue Motor Position (mm): 44.600000	Red Motor Position (mm): 0.000000	
326.493990	1973.415126
326.888308	1973.415126
327.282561	1973.415126
327.676750	1948.670622
328.070874	1950.586261
328.464933	1957.021293
328.858929	1965.732407
329.252859	1978.864613
329.646726	1994.955976
330.040528	2008.811587
330.434265	2028.706501
330.827938	2045.586805
331.221547	2065.287634
331.615091	2089.137333
332.008571	2108.107195
332.401986	2127.293826
332.795338	2147.327372
333.188625	2169.949550
333.581847	2187.719617
333.975006	2205.693851
334.368100	2225.162787
334.761129	2239.514952
335.154095	2256.985071
335.546996	2299.182049
335.939833	2381.625079
336.332606	2397.227450
336.725315	2409.550551
337.117960	2416.840059
337.510540	2422.155956
337.903056	2436.326639
338.295508	2440.321754
338.687896	2449.413475
339.080220	2453.882458
339.472480	2462.444857
339.864676	2465.986268
340.256807	2467.622122
340.648875	2468.456433
341.040879	2469.005919
341.432818	2474.021867
341.824694	2471.982721
342.216506	2471.796198
342.608253	2470.997175
342.999937	2471.569346
343.391557	2471.619758
343.783113	2468.776547
344.174605	2468.864767
344.566033	2464.887297
344.957397	2466.427369
345.348697	2462.696915
345.739934	2462.051648
346.131106	2461.035855
346.522215	2462.006277
346.913260	2457.648200
347.304241	2456.277006
347.695159	2453.426233
348.086012	2452.130657
348.476802	2450.361212
348.867528	2450.058742
349.258191	2449.342899
349.648789	2447.530604
350.039324	2447.805347
350.429796	2447.432301
350.820203	2444.337033
351.210548	2444.798298
351.600828	2439.479881
351.991045	2443.658998
352.381198	2442.295366
352.771288	2444.009358
353.161314	2441.680345
353.551276	2445.211673
353.941175	2439.810077
354.331010	2443.676642
354.720782	2447.598659
355.110490	2447.157558
355.500135	2444.478185
355.889717	2443.674121
356.279235	2444.208483
356.668689	2444.740325
357.058080	2445.546910
357.447408	2442.565067
357.836672	2441.733277
358.225873	2445.425922
358.615010	2442.262598
359.004084	2449.209308
359.393095	2446.711416
359.782043	2449.796603
360.170927	2450.078907
360.559748	2452.055039
360.948505	2451.621500
361.337199	2454.666357
361.725830	2455.044444
362.114398	2456.203909
362.502903	2456.544187
362.891344	2455.909002
363.279722	2453.789196
363.668037	2459.495782
364.056289	2456.609722
364.444478	2457.902778
364.832603	2458.999229
365.220665	2459.528550
365.608665	2462.520475
365.996601	2462.366720
366.384474	2464.128603
366.772284	2464.610033
367.160031	2465.184725
367.547715	2467.110445
367.935336	2463.410238
368.322893	2465.530044
368.710388	2465.666155
369.097820	2468.683285
369.485189	2466.061885
369.872495	2471.511373
370.259738	2472.000365
370.646918	2472.781743
371.034035	2472.164202
371.421090	2473.001034
371.808081	2473.502628
372.195010	2473.479943
372.581875	2473.830303
372.968678	2474.505818
373.355418	2475.158648
373.742096	2480.141828
374.128710	2477.943885
374.515262	2479.597383
374.901751	2480.905563
375.288177	2483.607621
375.674540	2481.326499
376.060841	2485.427478
376.447079	2484.961171
376.833254	2485.205667
377.219367	2481.767600
377.605417	2490.113230
377.991404	2483.844556
378.377329	2491.250011
378.763191	2487.748929
379.148991	2498.048007
379.534727	2499.527585
379.920402	2503.036228
380.306013	2504.747700
380.691563	2510.166940
381.077049	2514.918228
381.462474	2520.198837
381.847835	2526.742254
382.233134	2538.115097
382.618371	2544.719009
383.003545	2560.898592
383.388657	2574.837382
383.773706	2590.858169
384.158693	2610.843824
384.543618	2634.259983
384.928480	2658.686894
385.313280	2686.080524
385.698017	2718.109495
386.082692	2757.485948
386.467305	2789.668674
386.851856	2835.553257
387.236344	2893.460991
387.620770	2934.594286
388.005133	2992.156701
388.389435	3060.366033
388.773674	3115.307048
389.157851	3188.759180
389.541965	3263.658123
389.926018	3312.879950
390.310008	3409.937285
390.693936	3495.830984
391.077802	3583.484047
391.461606	3683.417360
391.845348	3776.754324
392.229027	3876.690157
392.612645	4022.712220
392.996200	4136.002070
393.379694	4267.145167
393.763125	4430.012245
394.146494	4541.767064
394.529801	4678.152961
394.913047	4870.009194
395.296230	4944.368733
395.679351	5047.631729
396.062410	5263.551910
396.445408	5283.391371
396.828343	5447.594354
397.211217	5602.957675
397.594028	5620.737824
397.976778	5822.066386
398.359466	6005.289643
398.742092	6072.773049
399.124656	6252.686788
399.507158	6455.898220
399.889598	6557.807666
400.271977	6786.416431
400.654294	6885.175156
401.036549	7113.849456
401.418742	7216.230249
401.800874	7526.031838
402.182944	7673.861154
402.564952	8045.300931
402.946898	7990.322107
403.328783	8108.166640
403.710606	8350.883075
404.092367	8638.312023
404.474067	9012.655505
404.855705	8916.187985
405.237282	8941.330739
405.618797	9383.109736
406.000250	9663.208847
406.381642	10050.936592
406.762972	10077.238812
407.144240	9967.792842
407.525447	10250.208362
407.906593	10254.266491
408.287677	10538.461539
408.668700	10734.670809
409.049661	10755.021947
409.430560	10954.722215
409.811399	10967.136057
410.192176	11171.600215
410.572891	11272.897161
410.953545	11774.156732
411.334138	11310.242028
411.714669	11901.952502
412.095139	11279.417893
412.475547	11784.347424
412.855894	11658.938640
413.236180	12001.535455
413.616405	11720.959956
413.996568	11998.147800
414.376670	11988.476346
414.756711	11882.002136
415.136691	12168.662308
415.516609	12350.985719
415.896466	12429.191660
416.276262	12723.466495
416.655997	13173.502902
417.035670	13224.552146
417.415283	13858.446995
417.794834	13953.734885
418.174324	13712.424933
418.553753	13621.517806
418.933121	14103.598307
419.312428	13929.431483
419.691674	13835.668542
420.070859	14284.361481
420.449983	13957.180514
420.829045	14500.758051
421.208047	14251.654475
421.586988	14695.414645
421.965867	14950.993583
422.344686	14953.468790
422.723444	15506.339694
423.102141	14208.943299
423.480777	15392.152518
423.859352	14894.492331
424.237866	15996.400341
424.616319	15697.780032
424.994712	16352.739342
425.373044	16145.139586
425.751314	16814.249415
426.129524	15945.943432
426.507673	17026.134152
426.885762	16732.255048
427.263789	16923.163544
427.641756	17088.679748
428.019662	17147.068913
428.397508	17193.966767
428.775292	17476.034448
429.153016	17447.982947
429.530679	17519.158998
429.908282	17545.178914
430.285824	17276.961803
430.663305	17971.017782
431.040726	17578.987412
431.418086	17409.849139
431.795385	18042.292136
432.172624	18460.637329
432.549802	18016.993105
432.926920	18212.032827
433.303977	18092.451617
433.680974	18342.888578
434.057910	18628.903483
434.434786	18658.832813
434.811601	18578.665864
435.188355	19600.318705
435.565050	19241.950640
435.941683	19203.831955
436.318257	20063.159643
436.694770	19888.604650
437.071222	20473.212138
437.447614	19559.714732
437.823946	19576.799202
438.200218	19731.968438
438.576429	19512.527011
438.952580	19784.209915
439.328670	19742.007896
439.704700	20159.249076
440.080670	19731.224868
440.456580	20319.169600
440.832429	20480.723457
441.208218	19486.832250
441.583947	19934.547205
441.959616	20030.646721
442.335224	20267.371744
442.710773	20397.851929
443.086261	20928.191396
443.461689	20295.816455
443.837057	20423.173645
444.212365	21057.234852
444.587612	21056.115716
444.962800	20643.222531
445.337927	21073.542985
445.712995	19808.599018
446.088002	21633.889920
446.462949	21829.312769
446.837837	21998.226711
447.212664	21948.621758
447.587431	24712.081473
447.962139	27616.436397
448.336786	29978.469032
448.711374	28487.751948
449.085901	24836.469423
449.460369	24776.341061
449.834776	24680.307080
450.209124	27119.671015
450.583412	26685.874685
450.957640	27214.076703
451.331808	25893.279272
451.705917	24530.877198
452.079965	24559.105139
452.453954	24894.296499
452.827883	24802.121522
453.201752	24600.661891
453.575562	24770.707572
453.949311	25860.839447
454.323001	25914.152169
454.696632	25680.993763
455.070202	27221.068783
455.443713	27364.686215
455.817164	27941.991592
456.190556	28459.143400
456.563888	27926.116998
456.937160	28353.730353
457.310373	26700.816665
457.683526	27146.865519
458.056619	27111.625333
458.429653	27054.201550
458.802628	27623.667932
459.175542	27732.193892
459.548398	29044.355827
459.921194	30581.338100
460.293930	31246.888874
460.666607	33249.381376
461.039224	35016.479718
461.411782	35394.019292
461.784280	34206.769588
462.156719	33721.311513
462.529099	33167.931453
462.901419	31868.400129
463.273680	30827.820276
463.645882	30913.940827
464.018024	30886.907640
464.390106	31696.464016
464.762130	34358.142835
465.134094	38386.362515
465.505999	43644.427129
465.877845	48237.777800
466.249631	49420.472821
466.621358	47672.114968
466.993026	45577.933960
467.364634	43479.364629
467.736184	41526.033460
468.107674	40304.544239
468.479105	39519.588694
468.850477	38822.366870
469.221790	37415.413599
469.593043	35701.426333
469.964238	34819.514276
470.335373	34732.148559
470.706449	36396.142703
471.077467	38884.834328
471.448425	43454.509220
471.819324	46316.200859
472.190164	44534.279003
472.560945	40993.980001
472.931667	37904.924761
473.302330	36782.650489
473.672934	35983.615002
474.043479	36467.734649
474.413965	35694.335950
474.784393	35312.695398
475.154761	36192.853133
475.525070	36227.881591
475.895321	35783.766019
476.265513	36371.526749
476.635645	37332.894952
477.005719	37152.028434
477.375734	37595.720549
477.745691	38284.521125
478.115588	39604.116241
478.485427	41549.784856
478.855207	44880.434873
479.224928	47497.154162
479.594591	49139.292383
479.964194	48141.426226
480.333739	48280.965365
480.703226	48289.058937
481.072653	48916.770811
481.442022	49427.558163
481.811333	49696.105469
482.180584	48408.776259
482.549777	47887.276455
482.918912	47370.147332
483.287988	47069.134994
483.657005	46240.986843
484.025964	45600.498165
484.394864	45610.903107
484.763706	45186.163210
485.132489	44314.880426
485.501213	44155.496785
485.869879	44295.880317
486.238487	43908.081996
486.607036	44101.748003
486.975527	43563.360334
487.343959	43760.040951
487.712333	43846.015310
488.080648	43755.934932
488.448905	44202.296337
488.817104	44006.543292
489.185244	44950.663187
489.553326	46604.718696
489.921350	49308.670111
490.289315	52223.724884
490.657222	52854.247202
491.025070	53143.944669
491.392861	52253.913834
491.760593	50985.388127
492.128267	49320.736113
492.495883	47780.053633
492.863440	46399.639517
493.230939	45042.752465
493.598380	43962.864215
493.965763	43633.823062
494.333088	42826.313395
494.700354	42347.159283
495.067563	42054.611043
495.434713	41929.310644
495.801805	42013.409693
496.168839	41634.211580
496.535815	41310.088073
496.902733	41316.744917
497.269593	40936.236104
497.636395	40863.794723
498.003139	41277.499534
498.369825	40726.834135
498.736453	41017.943125
499.103023	40562.106871
499.469535	40455.126025
499.835989	40529.483044
500.202385	40198.158249
500.568723	40213.926978
500.935003	40400.822716
501.301226	40206.887007
501.667390	40828.816677
502.033497	41074.583009
502.399546	40490.905614
502.765537	39823.582874
503.131470	40209.387419
503.497345	40550.421477
503.863163	39231.615301
504.228923	39838.799597
504.594625	40242.268345
504.960269	39533.996312
505.325856	40223.787475
505.691385	39600.587433
506.056856	39722.457328
506.422270	40159.870685
506.787625	39737.984082
507.152924	39917.779354
507.518164	40023.394048
507.883347	39243.918237
508.248472	39501.783339
508.613540	39965.405655
508.978550	40262.596798
509.343503	40016.152430
509.708398	40202.002128
510.073236	40709.696732
510.438016	40713.296116
510.802738	40185.540241
511.167403	40797.299383
511.532010	41023.876563
511.896561	41323.371513
512.261053	42171.517922
512.625488	41697.276415
512.989866	41582.640576
513.354186	41426.780702
513.718449	41411.609350
514.082655	42088.777464
514.446803	41755.514345
514.810894	42273.422326
515.174927	42209.548386
515.538904	42118.288378
515.902822	42765.542285
516.266684	42218.236815
516.630488	42648.146415
516.994235	42509.078624
517.357925	43066.819283
517.721558	43234.457813
518.085133	43540.743197
518.448651	43685.477245
518.812112	43456.916371
519.175516	43564.192124
519.538863	43893.190427
519.902152	43864.065161
520.265385	44335.309702
520.628560	44371.860588
520.991678	44169.967417
521.354739	44410.344756
521.717743	44724.511985
522.080690	44629.440864
522.443580	45183.398137
522.806413	45217.186471
523.169189	45154.255227
523.531908	45354.164703
523.894569	45212.951901
524.257174	45381.074382
524.619722	45675.205544
524.982213	45675.636563
525.344647	45577.500421
525.707025	45643.831923
526.069345	46026.216046
526.431608	45956.451518
526.793815	46275.395239
527.155964	45813.136555
527.518057	45987.162227
527.880093	45770.309432
528.242072	46300.636296
528.603995	45995.344019
528.965860	45994.983577
529.327669	46107.786956
529.689421	46002.709145
530.051117	45961.215408
530.412755	46104.479959
530.774337	46172.958993
531.135862	45976.119579
531.497331	46181.135744
531.858743	46093.739781
532.220098	46438.330373
532.581396	46135.581358
532.942638	45802.272868
533.303824	46104.575741
533.664953	46064.700214
534.026025	45805.615153
534.387040	46266.800072
534.747999	46212.587503
535.108902	46389.423618
535.469748	45904.353713
535.830537	46028.066149
536.191270	46216.794346
536.551947	45863.570778
536.912567	46174.559559
537.273131	46292.386448
537.633638	45774.155833
537.994089	46124.700027
538.354483	45724.591208
538.714821	46294.886860
539.075103	46642.698749
539.435328	46398.709424
539.795497	46292.489792
540.155609	46284.292876
540.515665	46731.377687
540.875665	46201.068467
541.235609	46515.412135
541.595496	46492.245513
541.955328	47165.272319
542.315102	46546.067392
542.674821	46331.178127
543.034483	46358.710389
543.394090	46329.607808
543.753640	46288.610624
544.113134	47281.395298
544.472571	46307.464539
544.831953	47556.206238
545.191278	46759.298117
545.550548	46500.167686
545.909761	46952.250801
546.268918	47154.489291
546.628019	47454.135475
546.987064	47005.739964
547.346053	46295.113712
547.704986	47176.062909
548.063863	46738.175683
548.422684	46931.990404
548.781449	46761.828777
549.140158	47168.677618
549.498811	47019.220010
549.857408	46460.682849
550.215949	47298.192422
550.574434	47225.410764
550.932864	46999.309972
551.291237	47716.575424
551.649555	47313.673806
552.007817	47561.272597
552.366022	47200.517546
552.724173	47385.507727
553.082267	47789.478070
553.440305	48086.054192
553.798288	47409.627128
554.156215	47714.163232
554.514086	47908.731606
554.871902	47657.230961
555.229661	47669.150769
555.587365	47499.150459
555.945014	47589.742514
556.302606	47513.724434
556.660143	47743.636338
557.017625	47837.371553
557.375050	47627.185684
557.732421	47986.136002
558.089735	47954.230540
558.446994	47879.928973
558.804197	48344.196557
559.161345	48279.662226
559.518437	47525.268677
559.875474	47828.405860
560.232455	47996.755193
560.589381	48166.064866
560.946251	47855.302937
561.303065	48554.959638
561.659825	48355.410604
562.016528	48035.950164
562.373177	47735.371366
562.729770	48237.901308
563.086307	47743.754805
563.442789	48185.967341
563.799216	48226.780522
564.155587	48031.284576
564.511904	48063.742045
564.868164	48151.606836
565.224370	48396.478364
565.580520	48131.152355
565.936615	48340.829067
566.292654	48060.031756
566.648638	48295.264597
567.004567	48236.451976
567.360441	48288.143968
567.716260	48129.831572
568.072023	48414.613915
568.427732	48421.709339
568.783385	47973.523036
569.138982	48373.609169
569.494525	48327.470009
569.850013	48088.884800
570.205445	48070.726564
570.560823	48019.021970
570.916145	47884.317298
571.271412	47917.052030
571.626625	47679.323818
571.981782	47741.529136
572.336884	47409.937159
572.691931	47748.453160
573.046923	47340.243207
573.401860	47182.699588
573.756743	47168.062598
574.111570	47298.419274
574.466342	47147.751789
574.821059	47256.623068
575.175722	46768.941845
575.530330	46790.580997
575.884882	46524.745832
576.239380	46478.894017
576.593823	46456.755790
576.948211	46375.832668
577.302544	45897.099493
577.656823	45925.440860
578.011047	46141.151833
578.365216	45875.271297
578.719330	45673.431058
579.073389	45522.945054
579.427394	45594.605056
579.781344	45551.072172
580.135239	45227.437657
580.489080	45308.670810
580.842866	44799.559642
581.196597	45260.242966
581.550273	45193.089755
581.903895	45051.085492
582.257463	45480.924516
582.610975	44854.939237
582.964434	45134.796373
583.317837	44787.849042
583.671186	44623.882992
584.024481	44845.615623
584.377721	44379.056835
584.730906	44669.187842
585.084037	44685.619483
585.437113	44399.859156
585.790135	44444.853975
586.143103	44048.326896
586.496016	44181.425960
586.848874	44189.287640
587.201679	44201.895565
587.554428	43689.613512
587.907124	43883.879416
588.259765	43642.367818
588.612352	43870.175039
588.964884	43265.276907
589.317362	43551.932038
589.669786	43503.945295
590.022155	43275.855768
590.374470	43692.476887
590.726731	43222.699322
591.078937	42728.197417
591.431090	42832.355218
591.783188	42480.885972
592.135232	42173.703262
592.487222	42411.010538
592.839157	42484.460150
593.191038	42171.437263
593.542866	41932.728546
593.894639	41334.769562
594.246358	41608.468928
594.598022	41597.388472
594.949633	41213.645759
595.301190	41157.817501
595.652692	40990.418425
596.004141	41320.987048
596.355535	40347.018481
596.706876	40290.592846
597.058162	40119.017174
597.409395	40610.174273
597.760573	40678.928050
598.111698	40257.235531
598.462768	40260.272826
598.813785	40298.633486
599.164748	39744.809804
599.515657	40127.718206
599.866511	39603.997774
600.217312	40237.209547
600.568060	39189.718272
600.918753	39927.644892
601.269392	39873.260924
601.619978	39526.870641
601.970510	39746.813662
602.320988	39947.073499
602.671412	40243.516030
603.021783	39983.853758
603.372100	39629.090117
603.722363	39742.793342
604.072572	39804.860028
604.422728	39822.108336
604.772830	39638.368361
605.122878	39735.466025
605.472872	39674.168115
605.822813	39950.267070
606.172701	39773.599833
606.522534	40020.480261
606.872314	40277.420311
607.222041	40028.261282
607.571714	40412.616495
607.921333	39861.880520
608.270899	40147.479529
608.620411	40496.339978
608.969870	40304.062809
609.319276	40278.516762
609.668627	40335.602788
610.017926	40792.170009
610.367171	40982.569349
610.716362	41042.952290
611.065500	41009.289985
611.414585	41196.954498
611.763616	41481.625936
612.112594	41424.837338
612.461518	41625.671866
612.810389	41917.428644
613.159207	41781.408231
613.507971	41846.998684
613.856682	42327.380316
614.205340	42219.981054
614.553945	42905.837597
614.902496	42359.507590
615.250994	42835.168182
615.599439	42895.286462
615.947830	43102.092237
616.296169	43143.122188
616.644454	43279.523208
616.992686	43446.385400
617.340864	43959.310201
617.688990	43675.646995
618.037063	44286.239110
618.385082	44239.875618
618.733048	44555.787086
619.080961	44566.244960
619.428821	44575.447586
619.776628	44696.175659
620.124382	44505.501576
620.472083	44629.823992
620.819731	44771.495538
621.167326	44447.188029
621.514868	44418.690387
621.862357	43985.859438
622.209793	44009.691493
622.557176	43704.489957
622.904506	43432.489460
623.251783	43111.282260
623.599007	42873.775858
623.946179	42646.336641
624.293297	42603.179323
624.640363	42014.128057
624.987376	41995.034687
625.334336	41760.313523
625.681243	41399.424881
626.028097	41351.395288
626.374899	41206.472197
626.721647	41170.090190
627.068343	41069.819119
627.414987	40843.093225
627.761577	40614.456733
628.108115	40947.429986
628.454600	40395.501778
628.801032	40577.636146
629.147412	40554.898021
629.493739	40548.745293
629.840014	40210.622502
630.186236	40522.579184
630.532405	40146.133541
630.878521	40357.315037
631.224585	40244.269683
631.570597	39941.888672
631.916556	40104.995205
632.262462	40047.208458
632.608316	40061.439636
632.954117	39968.500923
633.299866	39949.692378
633.645562	39882.634950
633.991206	39382.466789
634.336797	38938.872977
634.682336	38954.364443
635.027823	38708.018378
635.373257	38525.846201
635.718639	38288.208729
636.063968	38145.244127
636.409245	37580.143383
636.754470	37619.608056
637.099642	37363.613223
637.444762	36890.863897
637.789829	37037.750518
638.134845	36681.734151
638.479808	36633.691955
638.824719	36546.996711
639.169577	36162.462537
639.514383	36204.104988
639.859137	35926.894459
640.203839	36160.619995
640.548489	35793.810518
640.893086	35856.865270
641.237632	35601.218277
641.582125	35702.071600
641.926566	35653.553015
642.270955	35622.161750
642.615292	35619.212675
642.959576	35597.865909
643.303809	35593.316268
643.647990	35725.840641
643.992118	35693.277308
644.336195	35685.322367
644.680219	35774.165142
645.024192	36079.953972
645.368112	36597.186439
645.711981	36598.023271
646.055797	37469.114491
646.399562	37393.260249
646.743274	38338.315278
647.086935	38783.653329
647.430544	38671.084364
647.774101	38794.973240
648.117606	39037.510713
648.461059	39355.347902
648.804460	38965.739806
649.147810	38343.283335
649.491108	38108.110988
649.834354	37758.154087
650.177548	36932.080371
650.520690	36476.415516
650.863781	36481.252503
651.206820	36331.502508
651.549807	35885.597327
651.892742	35400.514818
652.235626	35209.177824
652.578458	35079.524388
652.921238	34471.530988
653.263967	34791.974452
653.606644	34475.992409
653.949269	34426.508443
654.291843	34020.861916
654.634365	34429.076911
654.976836	34028.395921
655.319255	34022.787637
655.661622	34011.661810
656.003938	33791.980929
656.346203	33650.788292
656.688416	33871.033783
657.030577	33669.090201
657.372687	33508.224461
657.714746	33785.815598
658.056753	33892.846855
658.398708	33359.621328
658.740612	33406.773760
659.082465	33680.447920
659.424266	33494.021010
659.766016	33612.107518
660.107715	33488.090093
660.449362	33625.196874
660.790958	33596.404324
661.132503	33631.891527
661.473996	33663.247503
661.815438	33772.869914
662.156829	33956.730877
662.498168	33734.547063
662.839456	33771.723052
663.180693	33905.724483
663.521879	34080.518931
663.863013	34015.319167
664.204097	34018.457286
664.545129	34480.869725
664.886110	34437.921615
665.227040	34493.815408
665.567918	34625.477744
665.908746	34688.487126
666.249522	34871.019745
666.590248	34844.470508
666.930922	34960.379238
667.271545	34912.599182
667.612118	35020.837796
667.952639	34801.081297
668.293109	34858.540368
668.633528	34747.652628
668.973896	34669.512223
669.314213	34699.194537
669.654480	34457.372907
669.994695	34477.945856
670.334859	34352.703430
670.674973	34265.378042
671.015035	34415.480919
671.355047	34372.938621
671.695008	34301.208043
672.034918	34198.212229
672.374777	34281.421514
672.714585	34114.660145
673.054342	34343.967110
673.394049	34109.238384
673.733705	34389.854213
674.073310	34048.472316
674.412864	34119.393789
674.752368	33725.999787
675.091820	34023.828635
675.431223	33610.443938
675.770574	33335.166691
676.109875	33207.970817
676.449125	32916.854265
676.788324	32835.066585
677.127473	32284.517132
677.466571	32212.481564
677.805619	31877.446480
678.144616	31870.802239
678.483562	31787.131688
678.822458	31457.425103
679.161303	31376.582639
679.500098	31289.670627
679.838842	31176.617710
680.177535	31334.683089
680.516179	31594.277307
680.854771	31826.969406
681.193314	32677.764941
681.531805	33814.610668
681.870247	34579.701546
682.208638	35315.838557
682.546978	35557.997944
682.885268	35660.224982
683.223508	35130.427439
683.561697	34795.432684
683.899836	34611.380157
684.237925	34096.789255
684.575963	33933.881848
684.913951	33474.095849
685.251889	33619.407109
685.589776	33608.578711
685.927614	33593.470372
686.265401	33734.572269
686.603137	33823.586443
686.940824	34346.646483
687.278460	34703.045978
687.616046	34836.755022
687.953582	35439.614008
688.291068	35312.614739
688.628504	35608.389318
688.965889	35551.373868
689.303224	35178.260428
689.640510	34843.172411
689.977745	34117.848675
690.314930	33314.669359
690.652065	32797.996460
690.989150	32050.531977
691.326185	31161.411070
691.663170	30446.522522
692.000105	29701.250941
692.336990	29012.268883
692.673825	28550.564725
693.010610	28018.150824
693.347345	27431.836905
693.684030	26778.962112
694.020665	26484.929252
694.357251	25813.245913
694.693786	25756.089311
695.030272	25501.566494
695.366707	24960.673372
695.703093	24661.760675
696.039429	24655.224819
696.375716	24393.596496
696.711952	24356.246588
697.048139	24190.712739
697.384276	24002.065201
697.720363	24123.451144
698.056400	23920.769033
698.392388	23710.931004
698.728326	23679.610315
699.064214	23458.598569
699.400053	23418.702878
699.735842	23042.027862
700.071581	22774.012397
700.407270	22473.131130
700.742910	22288.715640
701.078501	22021.751256
701.414042	21737.057133
701.749533	21426.761511
702.084974	21072.131462
702.420366	21282.763472
702.755709	20838.872232
703.091002	20537.696057
703.426246	20555.670291
703.761440	20456.606577
704.096584	20170.735345
704.431679	20131.258070
704.766725	20035.360200
705.101721	19962.349169
705.436668	20048.376459
705.771565	19736.190404
706.106413	20081.055739
706.441212	20065.760878
706.775961	20181.011737
707.110661	20258.499313
707.445311	20601.806931
707.779913	20443.736511
708.114465	20676.819301
708.448967	20966.199175
708.783421	21670.060199
709.117825	21938.115993
709.452180	22153.892501
709.786485	22553.744221
710.120742	23344.308050
710.454949	23361.057283
710.789107	23830.252595
711.123216	24541.047726
711.457275	24656.288503
711.791286	25212.279881
712.125247	25280.824450
712.459159	24982.657844
712.793023	25674.611662
713.126837	24563.528751
713.460602	24835.372972
713.794318	24458.990344
714.127985	24083.467232
714.461602	23183.691847
714.795171	23150.828565
715.128691	22125.573819
715.462162	21582.883525
715.795584	21156.908546
716.128957	20888.557844
716.462281	20482.777727
716.795556	20242.715461
717.128782	19741.929758
717.461960	19170.487243
717.795088	19109.804354
718.128167	18703.263023
718.461198	18233.172906
718.794180	18096.051001
719.127113	17719.701140
719.459997	17510.788163
719.792833	17161.786561
720.125619	17129.581150
720.458357	16800.335830
720.791046	16633.627393
721.123686	16468.338041
721.456278	16222.778396
721.788821	16183.769948
722.121315	15921.357725
722.453761	15999.659447
722.786158	15913.642239
723.118506	15925.713282
723.450805	15787.247909
723.783056	15942.442351
724.115259	15834.223902
724.447412	15766.019611
724.779518	16004.340159
725.111574	16020.265164
725.443582	16220.731687
725.775542	16203.828699
726.107453	16674.284299
726.439315	16553.246195
726.771129	16952.117411
727.102895	17321.442424
727.434612	17537.229014
727.766281	17673.375456
728.097901	17928.256195
728.429473	17965.079303
728.760996	17944.871838
729.092471	18051.681285
729.423897	17922.189166
729.755276	17796.586297
730.086606	17900.267709
730.417887	18423.325229
730.749120	18932.252395
731.080305	19112.425754
731.411442	19452.857394
731.742530	19517.487507
732.073570	19633.189549
732.404562	19936.132648
732.735506	19747.419575
733.066401	19477.501074
733.397249	18952.575807
733.728048	18307.807188
734.058798	17467.451883
734.389501	16783.009385
734.720156	16318.552757
735.050762	15782.229441
735.381320	15409.703295
735.711831	15162.855635
736.042293	14811.993848
736.372707	14825.849459
736.703073	14599.524337
737.033391	14785.159786
737.363661	14743.895421
737.693883	14840.531820
738.024056	14999.459236
738.354182	15192.411920
738.684260	15470.895341
739.014290	15691.990266
739.344272	15876.627567
739.674207	16160.986453
740.004093	16282.800894
740.333931	16276.139009
740.663722	16325.552399
740.993464	16325.943089
741.323159	16143.140768
741.652806	15887.574433
741.982405	15669.332800
742.311956	15334.403580
742.641460	15220.765890
742.970915	14909.008333
743.300323	14569.070727
743.629683	14361.211351
743.958996	14083.347992
744.288260	13812.701045
744.617477	13504.666380
744.946647	13432.083847
745.275768	13152.193944
745.604842	12962.581025
745.933869	12788.129375
746.262847	12735.857651
746.591778	12664.714367
746.920662	12563.127556
747.249498	12560.612020
747.578286	12680.594002
747.907027	12814.948314
748.235720	13042.407696
748.564365	13067.464751
748.892963	12961.963483
749.221514	13025.822300
749.550017	12876.639434
749.878473	12843.166172
750.206881	12614.290226
750.535242	12517.966379
750.863555	12431.765169
751.191821	12325.197697
751.520039	12350.887417
751.848210	12254.951739
752.176334	12290.204528
752.504411	12190.079650
752.832440	12029.135773
753.160421	12097.808891
753.488356	11969.304838
753.816243	11877.260931
754.144082	11730.689383
754.471875	11672.060763
754.799620	11619.058072
755.127318	11591.503125
755.454969	11555.068186
755.782572	11506.400886
756.110129	11519.893535
756.437638	11433.815833
756.765100	11423.186560
757.092515	11425.813001
757.419882	11430.355081
757.747203	11438.599888
758.074477	11508.266113
758.401703	11469.091307
758.728882	11628.212807
759.056014	11673.053871
759.383099	11781.849532
759.710138	11885.735110
760.037129	11967.122019
760.364073	11987.153043
760.690970	11977.673154
761.017820	11969.887092
761.344623	12160.656956
761.671379	12484.858601
761.998088	13120.656486
762.324751	14664.298123
762.651366	17530.736008
762.977935	21214.231506
763.304456	23464.932779
763.630931	23985.590710
763.957359	22833.745029
764.283740	20915.492729
764.610074	19046.101813
764.936362	16894.628093
765.262602	15355.571385
765.588796	13869.388820
765.914943	12833.517404
766.241044	11959.333436
766.567097	11321.786271
766.893104	10752.438355
767.219064	10392.366380
767.544978	9998.959775
767.870845	9685.541158
768.196665	9494.486469
768.522438	9300.633939
768.848165	9127.331672
769.173846	8957.172565
769.499479	8829.205396
769.825066	8673.406015
770.150607	8484.839135
770.476101	8423.863859
770.801548	8313.996952
771.126949	8181.170110
771.452303	8080.830984
771.777611	7916.018020
772.102872	7898.956235
772.428087	7779.687576
772.753256	7652.781569
773.078378	7559.066519
773.403453	7415.202071
773.728482	7304.818446
774.053465	7246.668736
774.378401	7160.833010
774.703291	7063.879018
775.028135	6967.724050
775.352932	6928.818945
775.677683	6845.614701
776.002388	6755.420897
776.327046	6752.446616
776.651658	6664.995200
776.976224	6589.493838
777.300743	6573.581436
777.625216	6505.304049
777.949643	6458.070958
778.274024	6463.989272
778.598359	6393.309775
778.922647	6402.396455
779.246889	6357.323498
779.571086	6363.503953
779.895236	6371.642896
780.219339	6363.932451
780.543397	6358.185535
780.867409	6409.562455
781.191374	6405.222021
781.515294	6377.409976
781.839167	6425.900834
782.162995	6394.968314
782.486776	6348.975347
782.810511	6311.118802
783.134201	6237.041567
783.457844	6229.058900
783.781441	6178.065108
784.104993	6131.689014
784.428498	6107.378049
784.751958	6089.887766
785.075372	6063.731739
785.398739	6019.871180
785.722061	6047.847063
786.045337	6045.573503
786.368568	6154.316233
786.691752	6176.429254
787.014891	6420.436224
787.337983	6700.903338
787.661030	7130.681868
787.984031	7568.995072
788.306987	7829.116090
788.629897	7920.587826
788.952760	7845.643513
789.275579	7668.083992
789.598351	7365.889504
789.921078	7103.318485
790.243759	6827.378327
790.566395	6619.672706
790.888984	6422.054434
791.211529	6287.430421
791.534027	6113.404749
791.856480	5978.226208
792.178888	5915.489049
792.501249	5844.650755
792.823566	5735.953396
793.145836	5730.854268
793.468062	5718.445468
793.790241	5670.181461
794.112375	5715.698039
794.434464	5810.292771
794.756507	5836.882337
795.078505	5955.863650
795.400457	6168.766700
795.722364	6411.609163
796.044226	6610.681808
796.366042	6770.428412
796.687812	6719.293468
797.009538	6750.483087
797.331218	6656.805845
797.652852	6587.744558
797.974442	6470.086548
798.295986	6400.969808
798.617484	6272.349809
798.938938	6163.133211
799.260346	6094.734835
799.581709	5955.896417
799.903026	5901.300721
800.224299	5828.438404
800.545526	5707.947265
800.866708	5642.039220
801.187845	5595.411067
801.508936	5516.280076
801.829983	5487.815200
802.150984	5377.318149
802.471940	5352.049366
802.792851	5337.699721
803.113717	5310.031348
803.434538	5283.895486
803.755314	5250.081947
804.076045	5238.852777
804.396731	5201.160069
804.717372	5213.813365
805.037967	5218.347883
805.358518	5244.773612
805.679024	5302.462056
805.999485	5311.019414
806.319901	5328.287887
806.640272	5344.979147
806.960598	5395.073093
807.280879	5383.919540
807.601115	5418.801804
807.921306	5386.588831
808.241453	5380.357965
808.561554	5393.462444
808.881611	5356.931723
809.201623	5357.100602
809.521590	5307.498168
809.841513	5295.535510
810.161390	5309.849867
810.481223	5221.029777
810.801011	5210.569383
811.120755	5187.954767
811.440453	5130.755315
811.760107	5101.211633
812.079716	5076.837654
812.399281	5026.804202
812.718801	5017.964538
813.038276	4989.194673
813.357707	4952.729487
813.677093	4976.874093
813.996434	4910.363630
814.315731	4931.511271
814.634983	4929.804840
814.954191	4935.168628
815.273354	4994.107278
815.592473	5037.027662
815.911547	5112.400473
816.230577	5170.512374
816.549562	5255.097895
816.868502	5310.104445
817.187399	5369.635431
817.506250	5447.649807
817.825058	5474.811544
818.143821	5630.994052
818.462539	5806.443850
818.781213	6035.632348
819.099843	6394.396143
819.418429	7027.421394
819.736970	7650.160169
820.055466	8370.349490
820.373919	9303.772057
820.692327	10780.290730
821.010691	13505.541020
821.329011	19771.798595
821.647286	29385.505831
821.965517	39788.166247
822.283704	45317.306307
822.601847	46911.523319
822.919945	42370.832542
823.237999	37280.623228
823.556010	32074.255647
823.873976	27320.578640
824.191897	23063.654412
824.509775	19930.665517
824.827609	17102.903364
825.145398	15497.409290
825.463144	14723.698038
825.780845	15000.389329
826.098502	16253.244609
826.416116	18706.592705
826.733685	20986.704069
827.051210	21496.243735
827.368692	20071.769934
827.686129	17504.199374
828.003522	15015.883315
828.320872	12781.911112
828.638177	11104.290729
828.955439	9837.559673
829.272656	8758.530939
829.589830	7909.648522
829.906960	7163.593041
830.224046	6622.538602
830.541088	6200.485640
830.858086	5940.309170
831.175041	5727.126335
831.491952	5667.925545
831.808819	5695.261202
832.125642	5941.652637
832.442421	6491.302244
832.759157	7613.936958
833.075849	9384.763235
833.392497	11239.076060
833.709101	12375.639482
834.025662	12139.070735
834.342179	11084.542009
834.658653	9773.567266
834.975083	8656.208119
835.291469	7742.927482
835.607811	6996.423339
835.924110	6465.930117
836.240366	5972.486855
836.556578	5516.315364
836.872746	5149.566380
837.188871	4874.679823
837.504952	4647.071727
837.820990	4478.487980
838.136984	4360.156976
838.452935	4309.942043
838.768842	4342.936394
839.084706	4617.656594
839.400526	5365.733578
839.716303	6279.752743
840.032037	6853.511668
840.347727	6715.285750
840.663373	6117.299040
840.978977	5528.504874
841.294537	5082.009878
841.610054	4740.282661
841.925527	4501.770549
842.240957	4288.847334
842.556344	4099.776339
842.871687	3937.037810
843.186987	3782.229017
843.502244	3664.273578
843.817458	3574.568766
844.132629	3500.425996
844.447756	3452.189716
844.762840	3405.223806
845.077881	3362.326107
845.392879	3330.556756
845.707833	3304.123465
846.022745	3278.380813
846.337613	3263.574944
846.652438	3240.317581
846.967221	3230.872979
847.281960	3213.957388
847.596656	3198.191179
847.911309	3187.330013
848.225919	3172.400636
848.540485	3168.592044
848.855009	3155.583347
849.169490	3141.377375
849.483928	3136.825213
849.798323	3133.094759
850.112675	3122.563789
850.426984	3122.286526
850.741251	3115.080196
851.055474	3110.318826
851.369654	3116.136318
851.683792	3109.456789
851.997887	3111.619444
852.311938	3110.709516
852.625947	3113.078858
852.939914	3103.979575
853.253837	3110.684310
853.567718	3110.901080
853.881555	3102.573093
854.195350	3105.675924
854.509103	3108.398147
854.822812	3102.147116
855.136479	3101.708536
855.450103	3100.644852
855.763685	3097.700818
856.077224	3098.096549
856.390720	3107.994854
856.704173	3115.997686
857.017584	3123.483800
857.330953	3124.905405
857.644278	3135.393526
857.957561	3137.709936
858.270802	3137.115080
858.584000	3137.178094
858.897155	3129.563431
859.210268	3120.446504
859.523339	3107.117694
859.836367	3103.966972
860.149352	3099.981940
860.462295	3099.457660
860.775195	3086.164138
861.088054	3082.360587
861.400869	3083.157089
861.713642	3080.913776
862.026373	3087.797472
862.339062	3092.828543
862.651708	3099.583689
862.964312	3117.099178
863.276873	3124.255096
863.589392	3156.475631
863.901869	3181.996472
864.214303	3205.117724
864.526696	3225.499109
864.839045	3240.559557
865.151353	3256.696290
865.463619	3257.124788
865.775842	3254.014396
866.088023	3262.168462
866.400162	3254.710075
866.712258	3256.507247
867.024313	3253.245620
867.336325	3253.895929
867.648296	3257.192844
867.960224	3254.541197
868.272110	3258.291815
868.583954	3255.892226
868.895755	3267.592744
869.207515	3262.717948
869.519233	3283.522790
869.830909	3287.162503
870.142542	3299.460398
870.454134	3300.839154
870.765684	3321.548214
871.077191	3339.020853
871.388657	3346.333047
871.700081	3366.205275
872.011463	3386.770662
872.322803	3408.714805
872.634101	3427.263730
872.945357	3445.706792
873.256571	3473.314671
873.567744	3490.804954
873.878874	3494.351406
874.189963	3511.801360
874.501010	3512.434025
874.812015	3511.708098
875.122979	3528.374153
875.433900	3524.351312
875.744780	3528.490100
876.055618	3534.781460
876.366415	3535.426727
876.677169	3542.983417
876.987882	3561.305491
877.298554	3580.575301
877.609183	3619.982001
877.919771	3666.927746
878.230317	3742.101432
878.540822	3844.356197
878.851285	4002.444261
879.161707	4229.560844
879.472087	4616.063589
879.782425	5253.290641
880.092722	6451.701460
880.402977	8412.735512
880.713191	10813.660648
881.023363	13223.518709
881.333494	14586.419858
881.643583	15057.780345
881.953631	14672.164843
882.263637	13838.133666
882.573602	12810.554948
882.883526	11837.153511
883.193408	10866.570078
883.503248	9936.315877
883.813048	9090.795910
884.122806	8309.964029
884.432522	7525.908330
884.742197	6850.580237
885.051831	6274.509943
885.361424	5758.189925
885.670975	5356.909038
885.980485	5018.216596
886.289954	4742.442796
886.599382	4516.914175
886.908768	4332.488603
887.218113	4162.977284
887.527417	4028.711193
887.836680	3903.027666
888.145901	3796.886172
888.455082	3716.351218
888.764221	3648.862771
889.073319	3586.975046
889.382376	3551.906259
889.691392	3529.747867
890.000366	3519.567257
890.309300	3513.195239
890.618193	3512.970907
890.927044	3509.575690
891.235855	3519.683204
891.544625	3533.402704
891.853353	3564.022672
892.162041	3622.237917
892.470687	3716.099161
892.779293	3837.878314
893.087858	4013.610417
893.396381	4302.103048
893.704864	4717.466399
894.013306	5290.040653
894.321707	5871.101689
894.630068	6237.676753
894.938387	6281.809534
895.246665	6097.729281
895.554903	5782.112721
895.863100	5437.930462
896.171256	5168.566489
896.479371	4923.243778
896.787446	4691.895146
897.095480	4490.806040
897.403473	4341.734079
897.711425	4191.154814
898.019336	4066.300557
898.327207	3940.397739
898.635038	3834.596523
898.942827	3727.134246
899.250576	3639.672748
899.558284	3555.213256
899.865952	3499.944566
900.173579	3434.467539
900.481165	3384.981053
900.788711	3341.523786
901.096216	3308.000113
901.403681	3282.053294
901.711105	3270.042745
902.018489	3264.845315
902.325832	3295.493010
902.633135	3360.352495
902.940397	3531.300543
903.247619	3942.769602
903.554800	4706.527095
903.861941	5688.924471
904.169041	6410.721920
904.476101	6632.951105
904.783121	6362.994796
905.090100	5956.647549
905.397039	5534.014855
905.703938	5170.643444
906.010796	4839.003577
906.317614	4578.817024
906.624391	4332.332327
906.931129	4131.104589
907.237826	3940.738017
907.544483	3768.799383
907.851099	3592.835387
908.157675	3430.553083
908.464211	3281.345012
908.770707	3179.599404
909.077163	3098.993874
909.383578	3034.731766
909.689954	2987.085300
909.996289	2957.466001
910.302584	2935.917588
910.608839	2925.255548
910.915054	2910.041346
911.221229	2904.619585
911.527363	2908.657549
911.833458	2913.280287
912.139513	2929.782504
912.445527	2943.900256
912.751502	2979.185812
913.057436	3023.845394
913.363331	3081.165834
913.669186	3173.950791
913.975000	3292.382618
914.280775	3484.387565
914.586510	3760.907457
914.892205	4144.720746
915.197859	4646.436541
915.503475	5243.669599
915.809050	5744.326752
916.114585	6035.970105
916.420081	6102.450321
916.725536	6043.085694
917.030952	5799.260206
917.336328	5593.200522
917.641665	5380.662955
917.946961	5149.647039
918.252218	4948.963745
918.557435	4718.416656
918.862612	4513.458464
919.167750	4337.494469
919.472848	4138.588182
919.777906	3971.718428
920.082925	3808.984941
920.387904	3647.536948
920.692843	3536.334135
920.997743	3432.995522
921.302603	3335.333249
921.607423	3268.885800
921.912204	3203.675954
922.216946	3149.544044
922.521647	3101.133844
922.826310	3059.486352
923.130932	3022.227183
923.435516	2976.524083
923.740059	2950.514249
924.044564	2918.835639
924.349028	2892.084756
924.653454	2862.306660
924.957840	2833.730879
925.262186	2815.696152
925.566493	2792.481638
925.870761	2764.556166
926.174989	2755.580392
926.479178	2741.749986
926.783328	2722.384394
927.087438	2711.099771
927.391509	2698.010415
927.695541	2687.318128
927.999533	2673.318843
928.303486	2666.634273
928.607400	2659.760660
928.911275	2652.980308
929.215110	2648.554175
929.518906	2643.790285
929.822663	2646.583084
930.126381	2645.438742
930.430060	2645.247178
930.733699	2647.379586
931.037299	2654.202788
931.340861	2652.914773
931.644383	2652.771100
931.947866	2652.221615
932.251309	2650.482417
932.554714	2651.571306
932.858080	2646.530152
933.161407	2643.210552
933.464694	2641.874646
933.767943	2638.794501
934.071153	2633.183697
934.374323	2629.491052
934.677455	2628.167749
934.980548	2625.432923
935.283602	2620.222891
935.586617	2619.123919
935.889593	2623.998715
936.192530	2622.559465
936.495428	2629.919550
936.798287	2639.709471
937.101108	2653.940648
937.403890	2674.125428
937.706632	2699.424459
938.009336	2733.918554
938.312002	2761.556680
938.614628	2787.102727
938.917216	2804.829944
939.219765	2817.430308
939.522275	2828.561176
939.824747	2830.262566
940.127179	2821.611946
940.429573	2815.597849
940.731929	2815.832263
941.034246	2804.487146
941.336524	2805.845737
941.638763	2800.408852
941.940964	2794.848460
942.243126	2778.931017
942.545250	2765.680344
942.847335	2750.577047
943.149381	2737.202866
943.451389	2725.850187
943.753359	2708.329657
944.055290	2701.816486
944.357182	2692.452543
944.659036	2687.565144
944.960851	2684.240503
945.262628	2680.394103
945.564367	2681.094823
945.866067	2678.428053
946.167729	2678.123063
946.469352	2674.609379
946.770937	2674.057372
947.072484	2668.703667
947.373992	2669.202741
947.675462	2661.230157
947.976893	2653.877634
948.278286	2651.341933
948.579641	2651.883857
948.880958	2646.419247
949.182236	2650.442087
949.483476	2642.966056
949.784678	2643.709626
950.085841	2640.954636
950.386967	2648.155924
950.688054	2652.486275
950.989103	2660.610095
951.290114	2668.822134
951.591087	2680.822601
951.892021	2690.912470
952.192917	2707.475181
952.493776	2715.220914
952.794596	2718.938765
953.095378	2721.136708
953.396122	2718.069166
953.696828	2719.921790
953.997496	2711.457693
954.298126	2703.028884
954.598718	2694.612677
954.899272	2681.666994
955.199788	2673.646518
955.500266	2659.730413
955.800706	2642.565284
956.101108	2625.483335
956.401472	2612.802312
956.701798	2600.464088
957.002087	2582.691500
957.302337	2576.125397
957.602550	2568.719942
957.902724	2554.627397
958.202861	2545.056766
958.502960	2539.173740
958.803022	2531.307019
959.103045	2520.483662
959.403031	2512.720285
959.702979	2506.668380
960.002889	2503.759634
960.302762	2498.158912
960.602596	2494.902327
960.902393	2491.890237
961.202153	2490.145998
961.501875	2486.097951
961.801559	2484.394041
962.101205	2478.581591
962.400814	2476.262660
962.700385	2474.233596
962.999918	2475.856847
963.299414	2471.418111
963.598873	2472.738894
963.898293	2469.764613
964.197677	2469.358800
964.497022	2468.017853
964.796331	2466.802935
965.095601	2464.050465
965.394835	2462.361678
965.694030	2462.283541
965.993189	2461.970989
966.292309	2462.903603
966.591393	2460.690536
966.890439	2462.913685
967.189447	2461.524847
967.488419	2461.613067
967.787353	2463.548870
968.086249	2462.172635
968.385108	2462.618777
968.683930	2463.117852
968.982714	2467.191104
969.281462	2465.424179
969.580172	2470.268728
969.878844	2470.558595
970.177480	2475.077989
970.476078	2475.047742
970.774639	2481.233238
971.073162	2480.759369
971.371649	2482.412868
971.670098	2482.107878
971.968510	2485.772797
972.266885	2482.982518
972.565223	2490.191368
972.863524	2490.932418
973.161788	2492.785042
973.460014	2493.752943
973.758204	2493.755464
974.056356	2495.608088
974.354471	2493.954590
974.652550	2494.642707
974.950591	2494.385608
975.248595	2493.826040
975.546563	2490.987871
975.844493	2487.958137
976.142386	2488.558034
976.440243	2486.997797
976.738062	2482.722899
977.035845	2479.950264
977.333590	2480.441777
977.631299	2479.118474
977.928971	2478.775675
978.226606	2473.454738
978.524204	2473.353914
978.821765	2473.295941
979.119290	2468.569859
979.416777	2471.629840
979.714228	2472.673359
980.011642	2472.834676
980.309020	2474.994810
980.606360	2479.708289
980.903664	2488.041316
981.200931	2506.703668
981.498162	2521.895185
981.795356	2553.790565
982.092513	2591.208530
982.389633	2637.793832
982.686717	2679.852179
982.983764	2715.576316
983.280775	2732.827144
983.577749	2733.477453
983.874686	2725.905640
984.171587	2709.267312
984.468451	2691.875331
984.765279	2673.948988
985.062070	2654.260761
985.358824	2636.704943
985.655543	2611.141252
985.952224	2589.116451
986.248869	2560.606205
986.545478	2533.250384
986.842050	2512.266581
987.138586	2491.728920
987.435086	2480.829946
987.731549	2466.359313
988.027975	2464.415949
988.324366	2455.936728
988.620719	2453.786676
988.917037	2447.200408
989.213318	2445.269646
989.509563	2443.565736
989.805772	2441.856785
990.101944	2440.294027
990.398080	2440.830910
990.694180	2438.660694
990.990244	2438.393512
991.286271	2436.316557
991.582262	2436.704726
991.878217	2437.176074
992.174136	2439.273194
992.470019	2441.524069
992.765865	2442.265119
993.061676	2447.641509
993.357450	2448.143104
993.653188	2450.499843
993.948890	2458.548046
994.244556	2464.380661
994.540186	2473.361476
994.835780	2484.663743
995.131337	2497.407780
995.426859	2514.734226
995.722345	2533.814993
996.017795	2556.008673
996.313208	2570.060889
996.608586	2577.370562
996.903928	2583.982036
997.199234	2584.851635
997.494504	2581.126222
997.789738	2571.182546
998.084936	2560.966648
998.380099	2550.907025
998.675225	2540.754141
998.970316	2524.509023
999.265371	2510.587877
999.560390	2496.964158
999.855373	2484.320945
1000.150320	2473.701754
1000.445232	2465.308233
1000.740108	2459.039558
1001.034948	2452.697787
1001.329752	2449.594956
1001.624521	2444.876436
1001.919254	2431.368665
1002.213951	2437.150868
1002.508613	2430.065526
1002.803239	2431.918150
1003.097829	2423.932963
1003.392384	2429.185845
1003.686903	2424.628642
1003.981386	2424.754671
1004.275834	2424.401790
1004.570246	2424.739547
1004.864623	2423.703590
1005.158964	2422.667633
1005.453270	2419.486665
1005.747540	2420.111768
1006.041775	2418.380132
1006.335974	2420.076480
1006.630138	2420.106727
1006.924266	2416.928279
1007.218359	2415.005079
1007.512416	2419.312745
1007.806438	2419.521953
1008.100425	2417.724782
1008.394376	2416.981212
1008.688292	2417.760070
1008.982172	2416.119174
1009.276017	2418.271747
1009.569827	2417.278640
1009.863602	2416.398958
1010.157341	2415.907446
1010.451045	2413.356622
1010.744714	2412.892836
1011.038347	2415.337795
1011.331945	2415.209246
1011.625508	2416.829977
1011.919036	2413.780079
1012.212528	2414.448032
1012.505986	2414.014492
1012.799408	2411.642630
1013.092795	2411.919893
1013.386147	2414.329565
1013.679464	2410.094995
1013.972745	2412.668504
1014.265992	2411.428381
1014.559204	2409.890829
1014.852380	2409.452248
1015.145521	2413.495254
1015.438628	2408.570046
1015.731699	2411.309913
1016.024736	2411.872002
1016.317737	2412.960891
1016.610703	2413.845614
1016.903635	2412.303021
1017.196531	2410.984759
1017.489393	2414.304359
1017.782219	2408.827145
1018.075011	2415.836870
1018.367768	2415.483989
1018.660490	2413.890984
1018.953177	2413.890984
1019.245829	2413.890984
