Dividing Wavelength (nm)	Counts (n)	Blue Motor Position (mm): 32.200000	Red Motor Position (mm): 0.000000	
326.493990	1970.692903
326.888308	1970.692903
327.282561	1970.692903
327.676750	1944.761207
328.070874	1947.803544
328.464933	1952.217074
328.858929	1963.045472
329.252859	1973.904118
329.646726	1990.141674
330.040528	2005.575167
330.434265	2024.628208
330.827938	2044.709644
331.221547	2063.772767
331.615091	2085.590881
332.008571	2103.542430
332.401986	2125.622684
332.795338	2144.668163
333.188625	2166.370330
333.581847	2185.688032
333.975006	2204.113449
334.368100	2220.431664
334.761129	2238.862123
335.154095	2254.898033
335.546996	2292.925977
335.939833	2370.481608
336.332606	2386.094062
336.725315	2397.368603
337.117960	2404.738769
337.510540	2412.323185
337.903056	2422.413055
338.295508	2427.260124
338.687896	2436.951743
339.080220	2442.675973
339.472480	2450.749381
339.864676	2453.017900
340.256807	2454.472273
340.648875	2458.411934
341.040879	2463.148098
341.432818	2459.347068
341.824694	2458.439661
342.216506	2459.589044
342.608253	2459.599126
342.999937	2457.587706
343.391557	2459.079887
343.783113	2457.234825
344.174605	2459.193313
344.566033	2454.371450
344.957397	2451.392128
345.348697	2452.838939
345.739934	2448.793413
346.131106	2448.256530
346.522215	2443.658998
346.913260	2446.908021
347.304241	2440.525921
347.695159	2439.623554
348.086012	2440.813266
348.476802	2436.606423
348.867528	2436.429983
349.258191	2435.104160
349.648789	2435.005857
350.039324	2433.521237
350.429796	2431.008222
350.820203	2431.671134
351.210548	2426.942532
351.600828	2435.013419
351.991045	2429.795825
352.381198	2429.437903
352.771288	2431.683737
353.161314	2427.229877
353.551276	2428.908582
353.941175	2428.049065
354.331010	2429.818510
354.720782	2430.047882
355.110490	2433.274221
355.500135	2427.527305
355.889717	2429.440423
356.279235	2426.521595
356.668689	2432.760023
357.058080	2432.152564
357.447408	2428.800197
357.836672	2428.144847
358.225873	2427.242480
358.615010	2429.841195
359.004084	2434.083326
359.393095	2433.569128
359.782043	2433.465785
360.170927	2435.948553
360.559748	2434.952925
360.948505	2436.198090
361.337199	2441.014913
361.725830	2437.796136
362.114398	2440.034408
362.502903	2436.571135
362.891344	2439.396702
363.279722	2441.163627
363.668037	2441.796291
364.056289	2438.474171
364.444478	2440.520879
364.832603	2443.187650
365.220665	2439.237906
365.608665	2444.057249
365.996601	2443.774944
366.384474	2444.815943
366.772284	2443.719492
367.160031	2445.819132
367.547715	2444.480706
367.935336	2444.954574
368.322893	2445.761159
368.710388	2443.815273
369.097820	2451.223249
369.485189	2446.381221
369.872495	2448.004472
370.259738	2449.421037
370.646918	2447.802826
371.034035	2448.939606
371.421090	2449.952878
371.808081	2449.869699
372.195010	2452.841459
372.581875	2448.952209
372.968678	2451.767694
373.355418	2452.344906
373.742096	2451.485389
374.128710	2450.819957
374.515262	2455.593929
374.901751	2452.917077
375.288177	2454.532767
375.674540	2454.242900
376.060841	2455.961934
376.447079	2456.473611
376.833254	2454.212653
377.219367	2452.516305
377.605417	2455.941769
377.991404	2451.966819
378.377329	2453.877417
378.763191	2454.550411
379.148991	2462.094497
379.534727	2458.175000
379.920402	2462.540639
380.306013	2458.081739
380.691563	2462.623818
381.077049	2461.451750
381.462474	2458.628704
381.847835	2462.757409
382.233134	2464.179014
382.618371	2465.255301
383.003545	2465.056175
383.388657	2465.633387
383.773706	2463.130454
384.158693	2465.461988
384.543618	2467.407873
384.928480	2467.014663
385.313280	2466.414766
385.698017	2467.244036
386.082692	2466.931484
386.467305	2467.954839
386.851856	2469.036166
387.236344	2468.758903
387.620770	2470.462813
388.005133	2472.491877
388.389435	2469.641105
388.773674	2471.571867
389.157851	2476.066055
389.541965	2471.602113
389.926018	2473.495067
390.310008	2472.925416
390.693936	2475.589666
391.077802	2477.260809
391.461606	2477.328864
391.845348	2478.959678
392.229027	2475.748463
392.612645	2478.390027
392.996200	2479.320120
393.379694	2481.127374
393.763125	2480.293063
394.146494	2480.819863
394.529801	2482.947230
394.913047	2485.004021
395.296230	2482.579226
395.679351	2481.404637
396.062410	2482.422950
396.445408	2482.448156
396.828343	2484.885554
397.211217	2482.344812
397.594028	2486.660040
397.976778	2481.422281
398.359466	2485.891264
398.742092	2481.896150
399.124656	2488.495020
399.507158	2487.224649
399.889598	2487.968219
400.271977	2490.161121
400.654294	2493.687408
401.036549	2491.355875
401.418742	2494.587254
401.800874	2496.192862
402.182944	2494.849394
402.564952	2495.933242
402.946898	2495.759323
403.328783	2498.252173
403.710606	2500.432472
404.092367	2498.960455
404.474067	2499.656135
404.855705	2498.421052
405.237282	2502.164109
405.618797	2504.689727
406.000250	2507.457320
406.381642	2507.117042
406.762972	2510.471930
407.144240	2505.569408
407.525447	2510.005623
407.906593	2507.820283
408.287677	2514.227590
408.668700	2510.804646
409.049661	2514.058711
409.430560	2515.939062
409.811399	2517.748836
410.192176	2514.053670
410.572891	2521.373425
410.953545	2518.681449
411.334138	2519.820750
411.714669	2523.208405
412.095139	2523.135309
412.475547	2524.942562
412.855894	2525.938190
413.236180	2528.244518
413.616405	2530.661751
413.996568	2531.579241
414.376670	2536.020498
414.756711	2534.906403
415.136691	2540.610468
415.516609	2543.798998
415.896466	2548.242775
416.276262	2553.621687
416.655997	2557.778118
417.035670	2562.602502
417.415283	2574.978535
417.794834	2578.472054
418.174324	2587.697366
418.553753	2595.876638
418.933121	2609.442383
419.312428	2619.711213
419.691674	2630.433748
420.070859	2653.532315
420.449983	2667.639984
420.829045	2686.929959
421.208047	2706.875284
421.586988	2736.436610
421.965867	2767.747217
422.344686	2793.499951
422.723444	2839.442507
423.102141	2839.324040
423.480777	2905.572363
423.859352	2931.652772
424.237866	3007.847292
424.616319	3051.097872
424.994712	3127.304994
425.373044	3177.109074
425.751314	3269.820934
426.129524	3291.863379
426.507673	3419.107143
426.885762	3480.021926
427.263789	3577.139755
427.641756	3668.389681
428.019662	3763.811161
428.397508	3860.334134
428.775292	3979.564984
429.153016	4087.327209
429.530679	4194.534908
429.908282	4314.048062
430.285824	4390.540010
430.663305	4594.162296
431.040726	4668.889840
431.418086	4766.352988
431.795385	4985.985979
432.172624	5187.188511
432.549802	5256.453965
432.926920	5421.486219
433.303977	5549.221495
433.680974	5740.931535
434.057910	5950.736796
434.434786	6120.207786
434.811601	6258.690802
435.188355	6660.866495
435.565050	6756.489621
435.941683	6907.941006
436.318257	7311.520660
436.694770	7445.711134
437.071222	7797.994527
437.447614	7736.174857
437.823946	7917.679081
438.200218	8157.033065
438.576429	8282.739278
438.952580	8562.994664
439.328670	8750.192871
439.704700	9087.839273
440.080670	9124.629614
440.456580	9538.742758
440.832429	9817.722733
441.208218	9622.146128
441.583947	9989.754628
441.959616	10235.168080
442.335224	10540.730058
442.710773	10802.355861
443.086261	11249.453275
443.461689	11159.882053
443.837057	11424.093967
444.212365	11935.103130
444.587612	12146.188844
444.962800	12143.126343
445.337927	12572.534349
445.712995	12104.896753
446.088002	13304.532572
446.462949	13635.265032
446.837837	13942.150314
447.212664	14136.113749
447.587431	16010.061868
447.962139	18044.883289
448.336786	19781.739750
448.711374	19075.562316
449.085901	16956.641847
449.460369	17138.672871
449.834776	17316.313050
450.209124	19225.037569
450.583412	19152.104676
450.957640	19723.290092
451.331808	19018.695580
451.705917	18252.115041
452.079965	18483.902254
452.453954	18941.906204
452.827883	19055.768226
453.201752	19095.631150
453.575562	19398.186080
453.949311	20413.305586
454.323001	20661.179121
454.696632	20659.076960
455.070202	22036.294985
455.443713	22336.689781
455.817164	22975.502275
456.190556	23583.641870
456.563888	23310.136588
456.937160	23840.034954
457.310373	22647.043376
457.683526	23158.435666
458.056619	23293.752838
458.429653	23383.374471
458.802628	24023.966493
459.175542	24260.187401
459.548398	25518.358578
459.921194	27010.625816
460.293930	27741.328463
460.666607	29660.699899
461.039224	31349.098269
461.411782	31836.933247
461.784280	30888.954348
462.156719	30570.252602
462.529099	30182.887820
462.901419	29146.240067
463.273680	28289.705178
463.645882	28491.414347
464.018024	28567.185410
464.390106	29440.963565
464.762130	32007.586387
465.134094	35920.247698
465.505999	40993.324651
465.877845	45463.981198
466.249631	46660.453693
466.621358	45070.370427
466.993026	43072.601487
467.364634	41151.044710
467.736184	39375.787260
468.107674	38240.400947
468.479105	37580.846624
468.850477	36988.816037
469.221790	35690.401329
469.593043	34098.747743
469.964238	33302.888183
470.335373	33263.269754
470.706449	34901.337244
471.077467	37394.364261
471.448425	41880.812223
471.819324	44734.296864
472.190164	43008.077238
472.560945	39572.241025
472.931667	36583.575324
473.302330	35539.101179
473.672934	34757.790388
474.043479	35289.163292
474.413965	34555.483843
474.784393	34213.839806
475.154761	35094.554589
475.525070	35136.340713
475.895321	34702.123447
476.265513	35303.117206
476.635645	36256.853102
477.005719	36092.917299
477.375734	36568.905566
477.745691	37243.416992
478.115588	38535.646204
478.485427	40482.791877
478.855207	43786.789314
479.224928	46399.803354
479.594591	47998.159154
479.964194	46973.569841
480.333739	47086.968076
480.703226	47108.362733
481.072653	47762.197866
481.442022	48253.876724
481.811333	48540.723419
482.180584	47273.798279
482.549777	46755.141686
482.918912	46228.888074
483.287988	45953.646115
483.657005	45143.608310
484.025964	44501.982851
484.394864	44499.621070
484.763706	44079.939972
485.132489	43219.102458
485.501213	43058.657655
485.869879	43224.849374
486.238487	42831.934281
486.607036	43055.401070
486.975527	42509.771783
487.343959	42722.011922
487.712333	42800.979076
488.080648	42709.275447
488.448905	43144.044719
488.817104	42966.931340
489.185244	43907.582922
489.553326	45559.092648
489.921350	48259.311088
490.289315	51201.520037
490.657222	51838.472346
491.025070	52128.668887
491.392861	51196.995601
491.760593	49918.163255
492.128267	48206.590701
492.495883	46681.734924
492.863440	45299.692515
493.230939	43967.434021
493.598380	42911.037547
493.965763	42592.043414
494.333088	41805.686428
494.700354	41354.298992
495.067563	41081.013001
495.434713	40940.934459
495.801805	41020.544361
496.168839	40648.391260
496.535815	40333.029279
496.902733	40365.252334
497.269593	39950.297317
497.636395	39900.730172
498.003139	40286.275097
498.369825	39761.286815
498.736453	40047.195856
499.103023	39598.707083
499.469535	39501.248976
499.835989	39587.306514
500.202385	39249.128270
500.568723	39266.409345
500.935003	39452.415319
501.301226	39271.853791
501.667390	39852.927430
502.033497	40120.597576
502.399546	39551.688241
502.765537	38878.149758
503.131470	39262.557903
503.497345	39601.719172
503.863163	38290.567989
504.228923	38880.624965
504.594625	39295.892533
504.960269	38610.673697
505.325856	39255.016337
505.691385	38642.848861
506.056856	38760.491748
506.422270	39202.031290
506.787625	38792.339237
507.152924	38967.070671
507.518164	39067.001463
507.883347	38290.124368
508.248472	38546.416629
508.613540	39003.404787
508.978550	39300.321187
509.343503	39040.979027
509.708398	39230.894416
510.073236	39754.375393
510.438016	39755.623079
510.802738	39215.866737
511.167403	39816.525258
511.532010	40036.836284
511.896561	40345.856495
512.261053	41148.433393
512.625488	40723.131407
512.989866	40588.474626
513.354186	40447.445827
513.718449	40422.353484
514.082655	41078.366395
514.446803	40762.197829
514.810894	41276.347630
515.174927	41196.004241
515.538904	41102.521084
515.902822	41743.697880
516.266684	41218.873435
516.630488	41614.319187
516.994235	41476.889772
517.357925	42022.594675
517.721558	42195.050028
518.085133	42487.376457
518.448651	42627.487767
518.812112	42389.812486
519.175516	42495.628826
519.538863	42835.805887
519.902152	42790.291830
520.265385	43254.975309
520.628560	43275.359215
520.991678	43071.999069
521.354739	43313.936645
521.717743	43613.797078
522.080690	43510.302190
522.443580	44051.671701
522.806413	44105.491060
523.169189	44051.933841
523.531908	44231.603085
523.894569	44088.086476
524.257174	44254.890695
524.619722	44546.347525
524.982213	44531.329928
525.344647	44468.824662
525.707025	44506.497204
526.069345	44900.970013
526.431608	44827.195247
526.793815	45114.719978
527.155964	44656.668136
527.518057	44827.086862
527.880093	44630.101255
528.242072	45145.385316
528.603995	44848.418505
528.965860	44856.486872
529.327669	44945.097753
529.689421	44854.871182
530.051117	44813.649667
530.412755	44963.243387
530.774337	45020.276481
531.135862	44843.745355
531.497331	45041.386313
531.858743	44951.724350
532.220098	45273.665038
532.581396	44988.315565
532.942638	44667.541905
533.303824	44952.299042
533.664953	44931.491679
534.026025	44661.101831
534.387040	45118.493281
534.747999	45073.614409
535.108902	45239.453247
535.469748	44765.620074
535.830537	44886.038116
536.191270	45072.908648
536.551947	44744.139717
536.912567	45036.027566
537.273131	45136.860725
537.633638	44650.412064
537.994089	45003.875087
538.354483	44600.824754
538.714821	45162.230332
539.075103	45504.660789
539.435328	45285.158868
539.795497	45156.899312
540.155609	45158.257903
540.515665	45613.002747
540.875665	45068.164922
541.235609	45384.809877
541.595496	45367.596857
541.955328	46021.820159
542.315102	45420.743222
542.674821	45201.402618
543.034483	45250.672335
543.394090	45202.340273
543.753640	45182.934351
544.113134	46161.049267
544.472571	45193.137646
544.831953	46422.710357
545.191278	45639.183980
545.550548	45371.506272
545.909761	45817.156875
546.268918	46013.222472
546.628019	46314.451578
546.987064	45887.836372
547.346053	45183.834197
547.704986	46049.571711
548.063863	45618.787471
548.422684	45823.299521
548.781449	45669.042734
549.140158	46080.297544
549.498811	45928.180727
549.857408	45372.784205
550.215949	46175.023345
550.574434	46123.722043
550.932864	45892.827115
551.291237	46604.166690
551.649555	46221.797691
552.007817	46460.186295
552.366022	46116.760210
552.724173	46301.536142
553.082267	46683.126283
553.440305	46982.044021
553.798288	46325.728640
554.156215	46617.117414
554.514086	46831.832759
554.871902	46579.981754
555.229661	46593.371059
555.587365	46442.706094
555.945014	46521.695934
556.302606	46451.994420
556.660143	46677.603699
557.017625	46756.119670
557.375050	46573.183758
557.732421	46916.380471
558.089735	46905.045437
558.446994	46833.337544
558.804197	47281.791028
559.161345	47227.707009
559.518437	46488.184863
559.875474	46800.950651
560.232455	46961.103068
560.589381	47129.301166
560.946251	46833.045157
561.303065	47508.786624
561.659825	47315.775967
562.016528	47000.562699
562.373177	46707.943883
562.729770	47194.337091
563.086307	46725.620689
563.442789	47186.339301
563.799216	47207.688587
564.155587	47025.261832
564.511904	47055.677634
564.868164	47137.440108
565.224370	47400.921055
565.580520	47121.991492
565.936615	47345.019700
566.292654	47058.687203
566.648638	47285.466029
567.004567	47248.413549
567.360441	47283.346224
567.716260	47140.510171
568.072023	47457.792832
568.427732	47427.238399
568.783385	46983.773136
569.138982	47382.397336
569.494525	47353.975310
569.850013	47093.249354
570.205445	47086.070751
570.560823	47047.901654
570.916145	46908.730520
571.271412	46926.230886
571.626625	46705.577061
571.981782	46757.785771
572.336884	46439.240301
572.691931	46763.507481
573.046923	46374.075826
573.401860	46224.126704
573.756743	46193.589915
574.111570	46322.472054
574.466342	46169.064702
574.821059	46290.301931
575.175722	45824.300190
575.530330	45835.121027
575.884882	45562.538277
576.239380	45515.637902
576.593823	45489.928017
576.948211	45405.768474
577.302544	44962.076360
577.656823	44987.375390
578.011047	45197.520929
578.365216	44926.505978
578.719330	44721.772117
579.073389	44580.627372
579.427394	44667.108366
579.781344	44631.404394
580.135239	44291.940655
580.489080	44384.680242
580.842866	43873.658477
581.196597	44319.659440
581.550273	44256.440850
581.903895	44128.851767
582.257463	44552.535542
582.610975	43940.161378
582.964434	44207.471082
583.317837	43863.122465
583.671186	43715.325917
584.024481	43924.846353
584.377721	43477.632992
584.730906	43754.382256
585.084037	43774.413281
585.437113	43476.871778
585.790135	43534.353535
586.143103	43131.804797
586.496016	43247.700924
586.848874	43282.220225
587.201679	43295.289417
587.554428	42790.206130
587.907124	42978.639420
588.259765	42717.968916
588.612352	42992.845392
588.964884	42379.117678
589.317362	42648.375787
589.669786	42604.101854
590.022155	42375.868655
590.374470	42803.930672
590.726731	42324.819410
591.078937	41849.995650
591.431090	41942.263889
591.783188	41588.856319
592.135232	41284.668055
592.487222	41529.269881
592.839157	41614.014197
593.191038	41298.362349
593.542866	41045.198124
593.894639	40467.033230
594.246358	40734.680691
594.598022	40704.106093
594.949633	40332.179844
595.301190	40295.006376
595.652692	40121.830138
596.004141	40434.260689
596.355535	39454.383890
596.706876	39418.004403
597.058162	39257.410885
597.409395	39718.162265
597.760573	39790.717071
598.111698	39365.437771
598.462768	39361.356957
598.813785	39421.828118
599.164748	38879.982218
599.515657	39260.102862
599.866511	38750.585881
600.217312	39344.247281
600.568060	38343.976494
600.918753	39045.468175
601.269392	39019.050008
601.619978	38684.672794
601.970510	38885.872806
602.320988	39090.561296
602.671412	39369.311898
603.021783	39121.244279
603.372100	38778.352556
603.722363	38879.972135
604.072572	38950.424781
604.422728	38964.005649
604.772830	38781.462948
605.122878	38883.604287
605.472872	38812.277001
605.822813	39084.605173
606.172701	38911.020602
606.522534	39149.194956
606.872314	39410.301520
607.222041	39174.254532
607.571714	39552.220083
607.921333	39021.706696
608.270899	39310.320316
608.620411	39637.796190
608.969870	39454.033529
609.319276	39424.842728
609.668627	39502.161425
610.017926	39975.823199
610.367171	40121.767124
610.716362	40218.779088
611.065500	40157.977732
611.414585	40358.429132
611.763616	40629.673456
612.112594	40572.332852
612.461518	40789.054576
612.810389	41077.776580
613.159207	40946.817486
613.507971	41001.743377
613.856682	41500.928514
614.205340	41373.246169
614.553945	42070.513363
614.902496	41527.008923
615.250994	41985.884993
615.599439	42058.782598
615.947830	42266.440328
616.296169	42326.351921
616.644454	42458.011736
616.992686	42613.667443
617.340864	43142.434070
617.688990	42872.376938
618.037063	43463.290910
618.385082	43430.939305
618.733048	43719.379004
619.080961	43731.697064
619.428821	43749.976288
619.776628	43860.203637
620.124382	43671.762786
620.472083	43818.193182
620.819731	43929.464050
621.167326	43613.474444
621.514868	43576.714351
621.862357	43155.611646
622.209793	43172.456662
622.557176	42852.603012
622.904506	42589.101901
623.251783	42247.994746
623.599007	42030.695810
623.946179	41802.611324
624.293297	41762.869388
624.640363	41196.589015
624.987376	41180.424555
625.334336	40942.167021
625.681243	40591.882446
626.028097	40555.558412
626.374899	40396.895657
626.721647	40376.415969
627.068343	40272.429568
627.414987	40047.828520
627.761577	39821.601700
628.108115	40154.746352
628.454600	39623.035692
628.801032	39799.660078
629.147412	39760.621383
629.493739	39780.193663
629.840014	39428.142163
630.186236	39761.929562
630.532405	39384.392510
630.878521	39609.979103
631.224585	39499.000622
631.570597	39205.638235
631.916556	39371.966065
632.262462	39321.299949
632.608316	39326.235238
632.954117	39223.239424
633.299866	39202.714366
633.645562	39137.834716
633.991206	38635.352665
634.336797	38208.581184
634.682336	38217.226763
635.027823	37962.033472
635.373257	37791.050137
635.718639	37538.395068
636.063968	37403.960098
636.409245	36844.334047
636.754470	36892.018322
637.099642	36674.429519
637.444762	36184.116813
637.789829	36345.698397
638.134845	35993.803173
638.479808	35939.215039
638.824719	35855.889807
639.169577	35452.111028
639.514383	35526.488212
639.859137	35220.883383
640.203839	35454.654290
640.548489	35093.984938
640.893086	35175.192886
641.237632	34922.978917
641.582125	35015.978124
641.926566	34982.540150
642.270955	34932.985608
642.615292	34973.183769
642.959576	34931.705155
643.303809	34938.629180
643.647990	35086.861788
643.992118	35046.280499
644.336195	35048.359975
644.680219	35124.768744
645.024192	35431.812822
645.368112	35959.941743
645.711981	35956.014684
646.055797	36833.677048
646.399562	36781.407845
646.743274	37690.292595
647.086935	38156.420365
647.430544	38032.907054
647.774101	38159.455139
648.117606	38382.188440
648.461059	38698.036893
648.804460	38289.958010
649.147810	37700.042187
649.491108	37443.618855
649.834354	37074.314007
650.177548	36249.813130
650.520690	35813.531512
650.863781	35817.652655
651.206820	35682.522006
651.549807	35250.716932
651.892742	34763.524701
652.235626	34581.476032
652.578458	34449.193635
652.921238	33838.266283
653.263967	34177.843447
653.606644	33869.723083
653.949269	33809.652693
654.291843	33429.816875
654.634365	33824.423274
654.976836	33424.984929
655.319255	33421.556944
655.661622	33413.443207
656.003938	33192.000442
656.346203	33065.273396
656.688416	33276.255767
657.030577	33083.219904
657.372687	32923.332148
657.714746	33187.821325
658.056753	33297.572286
658.398708	32777.045425
658.740612	32820.013700
659.082465	33084.644030
659.424266	32927.100410
659.766016	33030.922974
660.107715	32913.975766
660.449362	33050.737229
660.790958	33017.316899
661.132503	33053.923238
661.473996	33080.837958
661.815438	33187.649926
662.156829	33399.171700
662.498168	33162.628159
662.839456	33200.003274
663.180693	33334.705425
663.521879	33490.625793
663.863013	33449.633650
664.204097	33448.128866
664.545129	33908.849998
664.886110	33871.908423
665.227040	33956.151145
665.567918	34046.433169
665.908746	34119.040908
666.249522	34279.800783
666.590248	34283.874036
666.930922	34391.301024
667.271545	34356.635530
667.612118	34446.637770
667.952639	34241.127572
668.293109	34288.527021
668.633528	34181.831000
668.973896	34102.856283
669.314213	34144.478570
669.654480	33877.773805
669.994695	33902.210799
670.334859	33794.405724
670.674973	33693.817060
671.015035	33848.424208
671.355047	33809.912313
671.695008	33742.033176
672.034918	33656.507481
672.374777	33738.711056
672.714585	33570.273503
673.054342	33807.459792
673.394049	33575.022270
673.733705	33848.426728
674.073310	33519.239382
674.412864	33584.713888
674.752368	33186.830739
675.091820	33471.749192
675.431223	33065.222984
675.770574	32795.254072
676.109875	32647.883502
676.449125	32375.663714
676.788324	32295.716056
677.127473	31771.282300
677.466571	31677.282425
677.805619	31348.702538
678.144616	31338.141321
678.483562	31261.185587
678.822458	30929.691913
679.161303	30865.792767
679.500098	30778.971495
679.838842	30671.685659
680.177535	30822.151498
680.516179	31073.939489
680.854771	31345.105675
681.193314	32200.544112
681.531805	33323.259485
681.870247	34103.004997
682.208638	34848.306826
682.546978	35074.011887
682.885268	35155.086243
683.223508	34620.986076
683.561697	34275.828354
683.899836	34096.232207
684.237925	33586.127932
684.575963	33441.915644
684.913951	32989.396469
685.251889	33138.914571
685.589776	33124.670791
685.927614	33125.048878
686.265401	33264.330917
686.603137	33377.320819
686.940824	33890.117071
687.278460	34268.271665
687.616046	34404.680247
687.953582	35016.504924
688.291068	34888.507507
688.628504	35162.627810
688.965889	35082.733083
689.303224	34698.115730
689.640510	34345.454251
689.977745	33626.815085
690.314930	32824.316324
690.652065	32277.943468
690.989150	31550.023538
691.326185	30658.891210
691.663170	29954.455495
692.000105	29183.748772
692.336990	28507.210802
692.673825	28056.135918
693.010610	27530.129323
693.347345	26972.355897
693.684030	26321.782390
694.020665	26043.772838
694.357251	25372.109664
694.693786	25331.409908
695.030272	25088.469142
695.366707	24551.576176
695.703093	24269.261478
696.039429	24255.042903
696.375716	23994.901721
696.711952	23958.156751
697.048139	23807.259893
697.384276	23628.873622
697.720363	23751.242591
698.056400	23545.392115
698.392388	23340.655734
698.728326	23291.232261
699.064214	23099.529783
699.400053	23040.621380
699.735842	22676.098066
700.071581	22385.150392
700.407270	22115.667952
700.742910	21923.297521
701.078501	21646.427270
701.414042	21367.442254
701.749533	21074.163047
702.084974	20727.845860
702.420366	20923.752660
702.755709	20491.947586
703.091002	20192.031700
703.426246	20213.174299
703.761440	20115.978332
704.096584	19844.623103
704.431679	19797.909251
704.766725	19701.177070
705.101721	19647.846704
705.436668	19738.879860
705.771565	19422.733979
706.106413	19754.477190
706.441212	19738.252236
706.775961	19868.074551
707.110661	19943.195305
707.445311	20295.224119
707.779913	20126.476535
708.114465	20391.875641
708.448967	20675.024650
708.783421	21369.932584
709.117825	21634.557873
709.452180	21861.455166
709.786485	22264.540787
710.120742	23069.678591
710.454949	23085.696857
710.789107	23562.441297
711.123216	24259.428707
711.457275	24381.144846
711.791286	24919.401445
712.125247	24990.592620
712.459159	24682.946124
712.793023	25335.954508
713.126837	24233.895263
713.460602	24489.567463
713.794318	24099.672021
714.127985	23715.528537
714.461602	22814.233243
714.795171	22774.889558
715.128691	21762.033530
715.462162	21217.241075
715.795584	20800.597272
716.128957	20526.040910
716.462281	20123.078798
716.795556	19896.481453
717.128782	19396.363703
717.461960	18847.069498
717.795088	18773.803888
718.128167	18372.550727
718.461198	17908.837670
718.794180	17777.162732
719.127113	17404.898726
719.459997	17215.474850
719.792833	16868.923249
720.125619	16842.447109
720.458357	16526.394489
720.791046	16358.645054
721.123686	16197.620518
721.456278	15964.331041
721.788821	15920.969556
722.121315	15664.107644
722.453761	15743.263842
722.786158	15672.412945
723.118506	15670.577965
723.450805	15539.263469
723.783056	15690.767787
724.115259	15595.096769
724.447412	15532.374733
724.779518	15769.992040
725.111574	15790.887623
725.443582	16001.655744
725.775542	15978.161447
726.107453	16433.717917
726.439315	16337.474728
726.771129	16723.082668
727.102895	17094.915655
727.434612	17306.250907
727.766281	17433.414013
728.097901	17691.584104
728.429473	17724.160040
728.760996	17699.244137
729.092471	17787.789484
729.423897	17664.442532
729.755276	17522.206376
730.086606	17639.735837
730.417887	18168.683945
730.749120	18689.029325
731.080305	18846.701493
731.411442	19181.822278
731.742530	19260.250029
732.073570	19350.053143
732.404562	19644.895108
732.735506	19447.097875
733.066401	19163.679165
733.397249	18637.455800
733.728048	18004.957351
734.058798	17169.807037
734.389501	16493.798388
734.720156	16034.995415
735.050762	15501.480021
735.381320	15160.148536
735.711831	14913.182409
736.042293	14573.632971
736.372707	14584.461369
736.703073	14371.003792
737.033391	14567.107197
737.363661	14536.872877
737.693883	14639.087312
738.024056	14799.660665
738.354182	15004.613816
738.684260	15275.671617
739.014290	15498.278889
739.344272	15694.979671
739.674207	15965.709797
740.004093	16083.219093
740.333931	16072.239460
740.663722	16114.169257
740.993464	16096.376504
741.323159	15926.219918
741.652806	15638.125538
741.982405	15420.113278
742.311956	15099.281644
742.641460	14967.536129
742.970915	14665.220654
743.300323	14336.746631
743.629683	14122.013642
743.958996	13846.015510
744.288260	13575.305548
744.617477	13278.127008
744.946647	13207.848283
745.275768	12931.305706
745.604842	12750.315680
745.933869	12577.308321
746.262847	12531.249819
746.591778	12459.368007
746.920662	12357.864374
747.249498	12349.511182
747.578286	12472.807723
747.907027	12614.612860
748.235720	12837.535203
748.564365	12862.380530
748.892963	12760.821445
749.221514	12829.935664
749.550017	12684.977285
749.878473	12646.934218
750.206881	12416.750092
750.535242	12327.738438
750.863555	12244.685429
751.191821	12149.052220
751.520039	12171.729850
751.848210	12076.222670
752.176334	12107.266096
752.504411	12013.551046
752.832440	11860.894825
753.160421	11920.057806
753.488356	11803.448356
753.816243	11708.016793
754.144082	11570.892368
754.471875	11507.537667
754.799620	11455.402053
755.127318	11421.522979
755.454969	11393.189174
755.782572	11339.321924
756.110129	11354.881446
756.437638	11269.743919
756.765100	11260.632033
757.092515	11261.834349
757.419882	11282.714808
757.747203	11282.240939
758.074477	11362.125584
758.401703	11321.874491
758.728882	11477.840229
759.056014	11520.294306
759.383099	11627.582663
759.710138	11739.473593
760.037129	11823.507107
760.364073	11838.761639
760.690970	11822.118269
761.017820	11822.115749
761.344623	12003.829180
761.671379	12322.813231
761.998088	12959.568935
762.324751	14509.312889
762.651366	17362.303497
762.977935	21023.736385
763.304456	23233.742943
763.630931	23695.704199
763.957359	22515.590248
764.283740	20606.318764
764.610074	18730.699502
764.936362	16607.095801
765.262602	15095.460449
765.588796	13631.345535
765.914943	12604.712034
766.241044	11758.977818
766.567097	11130.033381
766.893104	10577.890924
767.219064	10222.681142
767.544978	9844.365231
767.870845	9536.809476
768.196665	9342.205814
768.522438	9150.127770
768.848165	8980.177871
769.173846	8818.538314
769.499479	8696.156743
769.825066	8548.294659
770.150607	8361.126699
770.476101	8296.178994
770.801548	8190.566821
771.126949	8047.400572
771.452303	7955.586037
771.777611	7792.829864
772.102872	7773.066021
772.428087	7663.582242
772.753256	7529.926130
773.078378	7448.062832
773.403453	7304.284083
773.728482	7202.505708
774.053465	7136.912735
774.378401	7053.244704
774.703291	6956.830116
775.028135	6866.099429
775.352932	6821.777605
775.677683	6741.141828
776.002388	6657.924981
776.327046	6656.321894
776.651658	6573.165541
776.976224	6498.488409
777.300743	6476.967723
777.625216	6413.988588
777.949643	6365.422112
778.274024	6375.708586
778.598359	6307.050591
778.922647	6303.932638
779.246889	6269.970384
779.571086	6274.492299
779.895236	6287.879083
780.219339	6282.517816
780.543397	6280.118227
780.867409	6332.795764
781.191374	6324.616492
781.515294	6293.976359
781.839167	6346.812692
782.162995	6316.285985
782.486776	6269.201608
782.810511	6227.798612
783.134201	6152.662734
783.457844	6141.229397
783.781441	6093.454382
784.104993	6054.108177
784.428498	6019.228433
784.751958	6002.287636
785.075372	5978.006918
785.398739	5939.837822
785.722061	5965.797243
786.045337	5963.576615
786.368568	6068.576288
786.691752	6094.192911
787.014891	6341.390931
787.337983	6624.590352
787.661030	7063.271559
787.984031	7485.634552
788.306987	7743.091320
788.629897	7830.731780
788.952760	7740.416988
789.275579	7567.384423
789.598351	7268.277642
789.921078	6998.207907
790.243759	6719.956379
790.566395	6522.025556
790.888984	6325.168498
791.211529	6191.938364
791.534027	6029.033477
791.856480	5889.819493
792.178888	5830.285987
792.501249	5763.941882
792.823566	5657.876005
793.145836	5658.576725
793.468062	5634.696779
793.790241	5599.696048
794.112375	5639.201050
794.434464	5735.214867
794.756507	5767.596718
795.078505	5886.411673
795.400457	6100.522080
795.722364	6344.987795
796.044226	6537.012906
796.366042	6695.032915
796.687812	6635.784234
797.009538	6668.947464
797.331218	6574.193937
797.652852	6504.167268
797.974442	6385.735441
798.295986	6313.694832
798.617484	6187.111459
798.938938	6078.900571
799.260346	6013.975551
799.581709	5872.049426
799.903026	5820.738042
800.224299	5747.810189
800.545526	5631.442715
800.866708	5568.236728
801.187845	5521.038925
801.508936	5441.176966
801.829983	5417.677627
802.150984	5308.433302
802.471940	5282.458757
802.792851	5268.376294
803.113717	5244.115741
803.434538	5220.102205
803.755314	5186.608779
804.076045	5180.035114
804.396731	5138.082632
804.717372	5158.227083
805.037967	5159.595756
805.358518	5188.448800
805.679024	5246.573304
805.999485	5256.093523
806.319901	5272.782263
806.640272	5294.522238
806.960598	5340.749619
807.280879	5327.347712
807.601115	5369.597622
807.921306	5326.876364
808.241453	5324.108770
808.561554	5333.886088
808.881611	5298.983660
809.201623	5296.236231
809.521590	5247.919292
809.841513	5230.239965
810.161390	5246.648921
810.481223	5158.690869
810.801011	5145.888858
811.120755	5118.548161
811.440453	5065.487496
811.760107	5043.185431
812.079716	5012.114279
812.399281	4959.073779
812.718801	4952.469868
813.038276	4922.716978
813.357707	4888.437132
813.677093	4905.478752
813.996434	4850.245350
814.315731	4865.706569
814.634983	4864.443760
814.954191	4870.999780
815.273354	4927.543882
815.592473	4967.810099
815.911547	5044.360020
816.230577	5092.729891
816.549562	5189.212535
816.868502	5236.904371
817.187399	5292.311693
817.506250	5366.046129
817.825058	5400.827570
818.143821	5549.337442
818.462539	5719.418411
818.781213	5949.418535
819.099843	6311.907743
819.418429	6932.352794
819.736970	7550.267185
820.055466	8256.555524
820.373919	9163.633021
820.692327	10609.735893
821.010691	13295.045121
821.329011	19486.247476
821.647286	29027.210863
821.965517	39314.506994
822.283704	44764.485814
822.601847	46253.819101
822.919945	41672.783969
823.237999	36577.944355
823.556010	31383.617570
823.873976	26699.465636
824.191897	22501.797651
824.509775	19445.025961
824.827609	16691.572936
825.145398	15146.507173
825.463144	14395.450867
825.780845	14689.118244
826.098502	15942.467557
826.416116	18397.890087
826.733685	20675.112870
827.051210	21203.130886
827.368692	19771.400343
827.686129	17213.990230
828.003522	14748.684517
828.320872	12534.093030
828.638177	10891.375076
828.955439	9652.816508
829.272656	8595.386598
829.589830	7753.292095
829.906960	7023.411156
830.224046	6495.945147
830.541088	6087.226037
830.858086	5826.739535
831.175041	5625.877281
831.491952	5570.187654
831.808819	5603.204691
832.125642	5853.419842
832.442421	6393.965125
832.759157	7500.755493
833.075849	9262.381663
833.392497	11106.836512
833.709101	12226.126421
834.025662	11968.997328
834.342179	10918.168809
834.658653	9621.226117
834.975083	8513.273763
835.291469	7612.238090
835.607811	6875.791048
835.924110	6358.924064
836.240366	5871.978850
836.556578	5427.457465
836.872746	5072.983692
837.188871	4798.354233
837.504952	4578.144030
837.820990	4410.477774
838.136984	4297.518119
838.452935	4247.335953
838.768842	4278.759985
839.084706	4561.578798
839.400526	5299.475172
839.716303	6202.020672
840.032037	6765.805674
840.347727	6613.819926
840.663373	6016.652403
840.978977	5444.002532
841.294537	5002.798227
841.610054	4675.196324
841.925527	4434.060291
842.240957	4229.394486
842.556344	4043.869942
842.871687	3887.518556
843.186987	3740.160588
843.502244	3623.742702
843.817458	3535.121737
844.132629	3464.900985
844.447756	3414.766710
844.762840	3372.821789
845.077881	3330.939883
845.392879	3299.528454
845.707833	3271.539968
846.022745	3248.454003
846.337613	3236.637539
846.652438	3210.947819
846.967221	3202.082950
847.281960	3180.463962
847.596656	3171.657066
847.911309	3162.580468
848.225919	3148.679487
848.540485	3138.476191
848.855009	3133.356899
849.169490	3118.684621
849.483928	3112.047942
849.798323	3106.727004
850.112675	3095.066815
850.426984	3096.248966
850.741251	3088.588933
851.055474	3088.041968
851.369654	3087.560537
851.683792	3087.868048
851.997887	3089.735795
852.311938	3086.892584
852.625947	3089.062801
852.939914	3080.702048
853.253837	3085.375197
853.567718	3084.790423
853.881555	3078.872109
854.195350	3084.379569
854.509103	3080.825556
854.822812	3081.526276
855.136479	3071.902713
855.450103	3080.901173
855.763685	3071.514545
856.077224	3073.026891
856.390720	3084.009044
856.704173	3094.781990
857.017584	3098.772063
857.330953	3104.937395
857.644278	3113.507356
857.957561	3115.980042
858.270802	3111.362345
858.584000	3113.048611
858.897155	3107.251284
859.210268	3097.035386
859.523339	3083.966195
859.836367	3081.425453
860.149352	3076.258270
860.462295	3073.105029
860.775195	3064.824933
861.088054	3058.894016
861.400869	3061.580951
861.713642	3059.226732
862.026373	3067.637897
862.339062	3071.035635
862.651708	3079.817325
862.964312	3094.028338
863.276873	3101.259873
863.589392	3133.543422
863.901869	3160.354799
864.214303	3181.167202
864.526696	3201.871221
864.839045	3217.110629
865.151353	3231.336766
865.463619	3229.549677
865.775842	3232.909606
866.088023	3237.484453
866.400162	3231.167887
866.712258	3231.853484
867.024313	3230.409193
867.336325	3229.965572
867.648296	3231.379615
867.960224	3228.422979
868.272110	3228.198647
868.583954	3229.093452
868.895755	3236.947570
869.207515	3234.079153
869.519233	3253.643871
869.830909	3258.753081
870.142542	3272.875873
870.454134	3275.451903
870.765684	3289.967905
871.077191	3308.126142
871.388657	3317.265753
871.700081	3336.772498
872.011463	3360.191178
872.322803	3379.037532
872.634101	3397.349523
872.945357	3417.597318
873.256571	3442.356945
873.567744	3457.049388
873.878874	3465.700008
874.189963	3479.452276
874.501010	3480.785661
874.812015	3477.186277
875.122979	3491.520798
875.433900	3488.294459
875.744780	3494.961385
876.055618	3503.105369
876.366415	3500.244515
876.677169	3508.161647
876.987882	3521.371990
877.298554	3543.069117
877.609183	3583.589911
877.919771	3631.180924
878.230317	3696.105944
878.540822	3803.467398
878.851285	3951.846200
879.161707	4173.306609
879.472087	4545.661355
879.782425	5171.117313
880.092722	6348.614905
880.402977	8282.351109
880.713191	10644.996243
881.023363	13012.712779
881.333494	14352.142315
881.643583	14809.556450
881.953631	14407.784050
882.263637	13571.605341
882.573602	12541.609390
882.883526	11589.395923
883.193408	10632.723554
883.503248	9718.706909
883.813048	8894.523626
884.122806	8127.333107
884.432522	7363.575614
884.742197	6708.119750
885.051831	6146.918339
885.361424	5646.281351
885.670975	5254.311475
885.980485	4933.590747
886.289954	4662.548069
886.599382	4451.124597
886.908768	4270.255559
887.218113	4103.161473
887.527417	3974.488542
887.836680	3852.364070
888.145901	3750.764655
888.455082	3673.188859
888.764221	3603.217644
889.073319	3545.998027
889.382376	3512.834796
889.691392	3486.467041
890.000366	3483.094509
890.309300	3478.025629
890.618193	3480.853716
890.927044	3474.456492
891.235855	3481.294817
891.544625	3496.655213
891.853353	3521.273688
892.162041	3582.380034
892.470687	3676.775640
892.779293	3791.560192
893.087858	3966.478149
893.396381	4248.497939
893.704864	4656.660001
894.013306	5228.215942
894.321707	5796.802643
894.630068	6159.241440
894.938387	6200.432708
895.246665	6017.045613
895.554903	5700.619948
895.863100	5365.400862
896.171256	5091.293162
896.479371	4850.031101
896.787446	4628.152276
897.095480	4430.372687
897.403473	4283.349956
897.711425	4135.266062
898.019336	4015.901621
898.327207	3894.303949
898.635038	3792.051705
898.942827	3682.588090
899.250576	3597.679936
899.558284	3514.374869
899.865952	3462.428299
900.173579	3398.685429
900.481165	3349.375383
900.788711	3308.547078
901.096216	3275.832510
901.403681	3248.151534
901.711105	3239.747931
902.018489	3233.164184
902.325832	3268.222888
902.633135	3327.257320
902.940397	3492.723113
903.247619	3897.517685
903.554800	4651.059279
903.861941	5618.244974
904.169041	6314.624925
904.476101	6525.362800
904.783121	6259.653663
905.090100	5855.123752
905.397039	5438.127067
905.703938	5080.628601
906.010796	4759.179426
906.317614	4502.985467
906.624391	4264.954786
906.931129	4072.934715
907.237826	3889.842528
907.544483	3721.097465
907.851099	3549.617575
908.157675	3386.306876
908.464211	3247.977614
908.770707	3147.212511
909.077163	3066.622105
909.383578	3004.068947
909.689954	2961.415745
909.996289	2934.538833
910.302584	2911.704927
910.608839	2902.202352
910.915054	2886.297511
911.221229	2882.226779
911.527363	2886.869682
911.833458	2894.857390
912.139513	2906.885583
912.445527	2921.636000
912.751502	2954.753860
913.057436	2994.911691
913.363331	3052.075855
913.669186	3142.194042
913.975000	3260.015890
914.280775	3444.456586
914.586510	3716.197463
914.892205	4090.921552
915.197859	4588.647274
915.503475	5173.413558
915.809050	5666.755997
916.114585	5956.650070
916.420081	6020.745820
916.725536	5955.755265
917.030952	5718.558894
917.336328	5511.196072
917.641665	5296.687414
917.946961	5078.254218
918.252218	4875.423393
918.557435	4649.889732
918.862612	4448.200728
919.167750	4281.852733
919.472848	4087.067590
919.777906	3920.291097
920.082925	3761.598095
920.387904	3605.473560
920.692843	3496.307373
920.997743	3395.839698
921.302603	3305.769402
921.607423	3237.451685
921.912204	3170.447189
922.216946	3122.994808
922.521647	3075.038311
922.826310	3032.712783
923.130932	2994.042092
923.435516	2954.373253
923.740059	2926.089859
924.044564	2895.719428
924.349028	2868.691281
924.653454	2841.307734
924.957840	2817.977274
925.262186	2794.515744
925.566493	2775.119904
925.870761	2748.467324
926.174989	2739.627661
926.479178	2725.933366
926.783328	2709.547096
927.087438	2697.559232
927.391509	2681.664474
927.695541	2669.560663
927.999533	2663.269303
928.303486	2652.713127
928.607400	2647.213228
928.911275	2641.471354
929.215110	2638.023205
929.518906	2627.545167
929.822663	2631.441978
930.126381	2631.492390
930.430060	2634.328039
930.733699	2637.022536
931.037299	2641.360449
931.340861	2637.309882
931.644383	2643.044194
931.947866	2640.591673
932.251309	2640.241312
932.554714	2637.892135
932.858080	2635.001033
933.161407	2633.549181
933.464694	2629.649848
933.767943	2624.918725
934.071153	2621.745319
934.374323	2617.236007
934.677455	2615.431274
934.980548	2612.174688
935.283602	2610.687548
935.586617	2606.452979
935.889593	2611.599997
936.192530	2613.714761
936.495428	2617.939248
936.798287	2628.550877
937.101108	2639.349028
937.403890	2662.661844
937.706632	2690.173941
938.009336	2722.437326
938.312002	2754.821698
938.614628	2776.438166
938.917216	2792.786628
939.219765	2802.342135
939.522275	2814.692962
939.824747	2813.697334
940.127179	2808.043680
940.429573	2804.716518
940.731929	2799.007412
941.034246	2793.633542
941.336524	2789.814868
941.638763	2782.905966
941.940964	2778.265584
942.243126	2761.186155
942.545250	2749.848600
942.847335	2736.633215
943.149381	2724.332800
943.451389	2710.247816
943.753359	2697.087884
944.055290	2689.624456
944.357182	2678.007117
944.659036	2672.582835
944.960851	2671.556960
945.262628	2668.126455
945.564367	2667.798780
945.866067	2665.477329
946.167729	2667.014881
946.469352	2661.825013
946.770937	2661.981288
947.072484	2655.790752
947.373992	2654.172541
947.675462	2651.745226
947.976893	2645.970584
948.278286	2643.999493
948.579641	2637.892135
948.880958	2634.824593
949.182236	2636.284007
949.483476	2635.094294
949.784678	2630.007770
950.085841	2632.850981
950.386967	2637.866929
950.688054	2642.880357
950.989103	2648.150883
951.290114	2658.054230
951.591087	2669.129645
951.892021	2683.335616
952.192917	2693.412883
952.493776	2704.463092
952.794596	2706.547609
953.095378	2709.383258
953.396122	2707.066848
953.696828	2703.205324
953.997496	2700.203317
954.298126	2690.204188
954.598718	2683.139011
954.899272	2673.364214
955.199788	2660.287461
955.500266	2645.400933
955.800706	2631.086577
956.101108	2610.828700
956.401472	2604.605396
956.701798	2589.071080
957.002087	2574.653380
957.302337	2567.462174
957.602550	2556.772408
957.902724	2548.472148
958.202861	2537.963863
958.502960	2527.894158
958.803022	2518.701614
959.103045	2511.911180
959.403031	2505.461023
959.702979	2498.416011
960.002889	2498.615136
960.302762	2490.405617
960.602596	2489.795638
960.902393	2483.892447
961.202153	2483.516881
961.501875	2484.018475
961.801559	2475.037660
962.101205	2475.438432
962.400814	2472.592700
962.700385	2469.736887
962.999918	2467.803604
963.299414	2464.950311
963.598873	2464.549539
963.898293	2463.183387
964.197677	2462.331432
964.497022	2461.073664
964.796331	2463.206072
965.095601	2458.734568
965.394835	2459.984774
965.694030	2457.950669
965.993189	2457.819599
966.292309	2456.256841
966.591393	2454.706686
966.890439	2456.556790
967.189447	2454.799948
967.488419	2456.652572
967.787353	2456.647531
968.086249	2458.968982
968.385108	2457.136522
968.683930	2457.771708
968.982714	2462.152471
969.281462	2460.120886
969.580172	2462.596092
969.878844	2464.857050
970.177480	2466.616412
970.476078	2470.122535
970.774639	2472.607824
971.073162	2474.518421
971.371649	2476.106384
971.670098	2474.856178
971.968510	2477.510346
972.266885	2475.743421
972.565223	2483.390852
972.863524	2483.073259
973.161788	2487.025524
973.460014	2487.968219
973.758204	2489.094917
974.056356	2484.996459
974.354471	2490.622387
974.652550	2489.906543
974.950591	2487.844711
975.248595	2485.752632
975.546563	2486.213898
975.844493	2485.001500
976.142386	2481.447487
976.440243	2480.461941
976.738062	2479.120994
977.035845	2475.251909
977.333590	2469.855354
977.631299	2471.559264
977.928971	2470.361990
978.226606	2465.905610
978.524204	2466.583645
978.821765	2464.625157
979.119290	2465.467029
979.416777	2466.412246
979.714228	2462.235650
980.011642	2468.103553
980.309020	2469.099181
980.606360	2473.162351
980.903664	2486.193733
981.200931	2499.262925
981.498162	2515.258506
981.795356	2547.068187
982.092513	2582.444484
982.389633	2625.195989
982.686717	2669.825324
982.983764	2704.271528
983.280775	2721.010679
983.577749	2720.524208
983.874686	2711.858465
984.171587	2693.070084
984.468451	2678.788495
984.765279	2661.802327
985.062070	2642.608134
985.358824	2622.821605
985.655543	2602.026846
985.952224	2577.854513
986.248869	2551.524567
986.545478	2523.999867
986.842050	2504.505725
987.138586	2487.156594
987.435086	2474.518421
987.731549	2463.044755
988.027975	2458.734568
988.324366	2450.068825
988.620719	2450.401541
988.917037	2443.064142
989.213318	2441.193873
989.509563	2437.854109
989.805772	2437.430652
990.101944	2433.294385
990.398080	2433.707760
990.694180	2435.449479
990.990244	2434.388316
991.286271	2430.821699
991.582262	2432.417225
991.878217	2433.405291
992.174136	2435.938471
992.470019	2438.617844
992.765865	2438.068358
993.061676	2439.852927
993.357450	2444.294183
993.653188	2445.456169
993.948890	2453.305246
994.244556	2458.447223
994.540186	2468.027935
994.835780	2476.018164
995.131337	2494.403252
995.426859	2507.280880
995.722345	2528.756195
996.017795	2546.780841
996.313208	2560.686864
996.608586	2569.723132
996.903928	2575.522979
997.199234	2572.173133
997.494504	2568.760272
997.789738	2562.516802
998.084936	2556.301060
998.380099	2542.052238
998.675225	2529.998840
998.970316	2518.005935
999.265371	2502.050683
999.560390	2488.628611
999.855373	2478.710140
1000.150320	2468.297637
1000.445232	2458.911009
1000.740108	2452.695266
1001.034948	2446.933227
1001.329752	2439.079109
1001.624521	2438.786722
1001.919254	2428.951431
1002.213951	2429.384971
1002.508613	2427.245001
1002.803239	2424.789959
1003.097829	2423.219639
1003.392384	2424.973961
1003.686903	2420.628486
1003.981386	2423.181831
1004.275834	2421.714855
1004.570246	2420.189906
1004.864623	2417.591191
1005.158964	2417.240831
1005.453270	2415.950296
1005.747540	2416.028433
1006.041775	2415.128588
1006.335974	2417.833167
1006.630138	2413.974163
1006.924266	2412.691190
1007.218359	2415.733526
1007.512416	2414.087589
1007.806438	2415.035326
1008.100425	2415.191602
1008.394376	2413.331416
1008.688292	2416.073804
1008.982172	2413.217990
1009.276017	2411.473751
1009.569827	2412.096333
1009.863602	2410.147927
1010.157341	2409.230438
1010.451045	2409.724471
1010.744714	2411.493916
1011.038347	2412.267733
1011.331945	2408.159192
1011.625508	2409.154820
1011.919036	2409.384193
1012.212528	2406.178019
1012.505986	2407.665159
1012.799408	2407.929820
1013.092795	2408.892680
1013.386147	2409.583318
1013.679464	2406.120046
1013.972745	2408.317989
1014.265992	2407.907135
1014.559204	2405.888152
1014.852380	2408.617937
1015.145521	2408.375962
1015.438628	2410.425191
1015.731699	2409.669018
1016.024736	2407.897052
1016.317737	2409.374110
1016.610703	2411.355284
1016.903635	2407.763462
1017.196531	2404.736249
1017.489393	2409.341343
1017.782219	2406.498132
1018.075011	2411.829152
1018.367768	2408.764131
1018.660490	2412.287897
1018.953177	2412.287897
1019.245829	2412.287897
