Dividing Wavelength (nm)	Counts (n)	Blue Motor Position (mm): 41.200000	Red Motor Position (mm): 0.000000	
326.493990	1971.340691
326.888308	1971.340691
327.282561	1971.340691
327.676750	1946.276074
328.070874	1948.307659
328.464933	1954.777980
328.858929	1964.232664
329.252859	1976.543162
329.646726	1989.519092
330.040528	2004.277070
330.434265	2026.072498
330.827938	2044.266022
331.221547	2065.201934
331.615091	2085.101889
332.008571	2107.910590
332.401986	2125.915071
332.795338	2149.379121
333.188625	2166.861843
333.581847	2186.640810
333.975006	2203.490867
334.368100	2222.438043
334.761129	2239.046125
335.154095	2256.624628
335.546996	2294.733231
335.939833	2379.880840
336.332606	2393.670916
336.725315	2405.991496
337.117960	2412.461817
337.510540	2421.427509
337.903056	2431.514858
338.295508	2437.687751
338.687896	2443.243103
339.080220	2451.135029
339.472480	2457.053343
339.864676	2455.956893
340.256807	2462.475104
340.648875	2466.036680
341.040879	2466.755044
341.432818	2468.363172
341.824694	2469.560446
342.216506	2469.076495
342.608253	2472.176805
342.999937	2469.149592
343.391557	2466.765126
343.783113	2463.521144
344.174605	2462.341514
344.566033	2463.672378
344.957397	2462.999384
345.348697	2458.182562
345.739934	2457.204578
346.131106	2455.939248
346.522215	2454.391614
346.913260	2451.734926
347.304241	2452.866665
347.695159	2449.239555
348.086012	2448.697631
348.476802	2447.238217
348.867528	2444.200922
349.258191	2443.185129
349.648789	2444.395006
350.039324	2443.321240
350.429796	2441.113215
350.820203	2440.162957
351.210548	2439.280756
351.600828	2439.905859
351.991045	2439.931064
352.381198	2435.073913
352.771288	2439.668924
353.161314	2436.341763
353.551276	2435.661207
353.941175	2438.365786
354.331010	2439.500046
354.720782	2440.415015
355.110490	2440.503235
355.500135	2439.671445
355.889717	2438.695982
356.279235	2437.478543
356.668689	2441.110694
357.058080	2438.272525
357.447408	2435.217586
357.836672	2437.133224
358.225873	2437.312185
358.615010	2437.788574
359.004084	2443.447269
359.393095	2443.963988
359.782043	2443.832917
360.170927	2445.834256
360.559748	2447.016406
360.948505	2444.669749
361.337199	2449.128650
361.725830	2448.075048
362.114398	2450.199895
362.502903	2448.329627
362.891344	2448.828701
363.279722	2450.484720
363.668037	2452.990173
364.056289	2451.140070
364.444478	2452.299535
364.832603	2453.257355
365.220665	2452.659978
365.608665	2453.101079
365.996601	2455.911522
366.384474	2454.608384
366.772284	2454.091666
367.160031	2457.123920
367.547715	2459.989816
367.935336	2456.894547
368.322893	2457.058385
368.710388	2461.487038
369.097820	2460.912347
369.485189	2462.633901
369.872495	2464.506689
370.259738	2461.111472
370.646918	2461.534929
371.034035	2464.234467
371.421090	2462.792697
371.808081	2460.529219
372.195010	2464.657924
372.581875	2466.230764
372.968678	2464.640280
373.355418	2466.167750
373.742096	2467.359983
374.128710	2470.064562
374.515262	2471.075313
374.901751	2468.806794
375.288177	2471.488688
375.674540	2470.702268
376.060841	2471.745786
376.447079	2474.646970
376.833254	2472.302834
377.219367	2472.585138
377.605417	2473.069089
377.991404	2471.445838
378.377329	2476.461786
378.763191	2475.899697
379.148991	2480.151910
379.534727	2480.777013
379.920402	2482.614514
380.306013	2479.690645
380.691563	2482.738022
381.077049	2485.918990
381.462474	2483.824391
381.847835	2489.742706
382.233134	2490.098107
382.618371	2488.580720
383.003545	2489.974599
383.388657	2493.395022
383.773706	2494.345279
384.158693	2496.016422
384.543618	2497.483397
384.928480	2496.316370
385.313280	2498.393326
385.698017	2501.397853
386.082692	2507.369100
386.467305	2505.907165
386.851856	2510.439163
387.236344	2513.642816
387.620770	2514.371263
388.005133	2520.168590
388.389435	2527.246370
388.773674	2531.039838
389.157851	2539.415715
389.541965	2548.073897
389.926018	2554.871893
390.310008	2568.712381
390.693936	2583.006572
391.077802	2598.974427
391.461606	2619.212139
391.845348	2640.758031
392.229027	2662.845846
392.612645	2697.907071
392.996200	2729.205075
393.379694	2768.067330
393.763125	2812.401757
394.146494	2856.315249
394.529801	2907.432549
394.913047	2968.783391
395.296230	3014.602438
395.679351	3065.518092
396.062410	3151.351298
396.445408	3188.837318
396.828343	3266.024945
397.211217	3342.837006
397.594028	3388.003224
397.976778	3489.378308
398.359466	3592.439657
398.742092	3652.847803
399.124656	3766.954321
399.507158	3883.359604
399.889598	3969.875886
400.271977	4102.843881
400.654294	4202.275599
401.036549	4345.628371
401.418742	4447.033701
401.800874	4639.946056
402.182944	4774.597795
402.564952	4995.780941
402.946898	5045.048138
403.328783	5170.277961
403.710606	5353.937278
404.092367	5571.447943
404.474067	5835.057439
404.855705	5869.932141
405.237282	5968.176668
405.618797	6283.876407
406.000250	6523.999168
406.381642	6829.518297
406.762972	6933.587877
407.144240	6962.057793
407.525447	7229.044862
407.906593	7325.194790
408.287677	7596.343332
408.668700	7820.601581
409.049661	7939.774458
409.430560	8162.545567
409.811399	8275.815253
410.192176	8497.951176
410.572891	8673.564812
410.953545	9131.236046
411.334138	8899.647959
411.714669	9432.427344
412.095139	9070.475019
412.475547	9546.677534
412.855894	9549.465293
413.236180	9896.876410
413.616405	9777.534654
413.996568	10096.831257
414.376670	10179.044914
414.756711	10186.614207
415.136691	10504.174131
415.516609	10746.572973
415.896466	10891.422967
416.276262	11216.290044
416.655997	11671.297029
417.035670	11804.196968
417.415283	12441.998711
417.794834	12603.792023
418.174324	12468.631127
418.553753	12461.727267
418.933121	12989.951969
419.312428	12895.440417
419.691674	12880.014486
420.070859	13367.393240
420.449983	13119.285292
420.829045	13677.479654
421.208047	13510.173841
421.586988	13976.518380
421.965867	14262.480352
422.344686	14314.126974
422.723444	14886.728954
423.102141	13699.814487
423.480777	14852.744015
423.859352	14428.619139
424.237866	15505.046638
424.616319	15267.751964
424.994712	15923.225473
425.373044	15744.710653
425.751314	16434.098524
426.129524	15612.965139
426.507673	16679.398550
426.885762	16412.235040
427.263789	16616.895804
427.641756	16800.235007
428.019662	16870.511212
428.397508	16936.517560
428.775292	17210.501751
429.153016	17202.201492
429.530679	17287.291127
429.908282	17315.370354
430.285824	17065.666881
430.663305	17751.596520
431.040726	17367.339609
431.418086	17211.121813
431.795385	17834.997369
432.172624	18258.298017
432.549802	17834.261361
432.926920	18019.362448
433.303977	17904.590498
433.680974	18169.989604
434.057910	18449.181307
434.434786	18483.841760
434.811601	18400.193894
435.188355	19419.043854
435.565050	19082.808975
435.941683	19032.261325
436.318257	19900.695857
436.694770	19716.479493
437.071222	20288.524426
437.447614	19396.164577
437.823946	19410.105888
438.200218	19566.691689
438.576429	19338.118212
438.952580	19627.717377
439.328670	19579.004707
439.704700	19991.691205
440.080670	19571.780733
440.456580	20145.983280
440.832429	20314.914866
441.208218	19339.151648
441.583947	19767.196021
441.959616	19867.799808
442.335224	20112.444483
442.710773	20234.543750
443.086261	20762.924729
443.461689	20137.115890
443.837057	20265.693040
444.212365	20889.939121
444.587612	20885.621372
444.962800	20483.738067
445.337927	20904.034187
445.712995	19648.943155
446.088002	21463.002366
446.462949	21662.054847
446.837837	21828.733037
447.212664	21784.322992
447.587431	24543.706934
447.962139	27434.521319
448.336786	29792.594128
448.711374	28269.953938
449.085901	24636.668332
449.460369	24569.258023
449.834776	24484.964889
450.209124	26924.464935
450.583412	26487.376732
450.957640	27015.525817
451.331808	25691.345772
451.705917	24346.040772
452.079965	24355.518141
452.453954	24708.189702
452.827883	24597.322126
453.201752	24416.203551
453.575562	24578.412758
453.949311	25660.892162
454.323001	25722.361471
454.696632	25493.692212
455.070202	27025.877827
455.443713	27165.979054
455.817164	27739.264111
456.190556	28251.215969
456.563888	27710.895017
456.937160	28141.396953
457.310373	26508.758786
457.683526	26926.582220
458.056619	26909.558243
458.429653	26846.206063
458.802628	27416.012723
459.175542	27531.820630
459.548398	28832.554269
459.921194	30386.416845
460.293930	31058.218651
460.666607	33083.156889
461.039224	34816.129141
461.411782	35183.941808
461.784280	33972.948269
462.156719	33462.652430
462.529099	32893.604463
462.901419	31607.961519
463.273680	30568.359649
463.645882	30655.470788
464.018024	30641.968057
464.390106	31481.239514
464.762130	34163.171169
465.134094	38214.315496
465.505999	43508.447045
465.877845	48058.116118
466.249631	49198.508297
466.621358	47391.839417
466.993026	45236.496610
467.364634	43127.925629
467.736184	41182.519154
468.107674	39947.323036
468.479105	39176.671765
468.850477	38497.066254
469.221790	37095.103725
469.593043	35382.858177
469.964238	34506.861914
470.335373	34410.429682
470.706449	36056.938584
471.077467	38595.209957
471.448425	43162.616330
471.819324	46034.261727
472.190164	44219.965581
472.560945	40687.750069
472.931667	37574.835048
473.302330	36480.254355
473.672934	35673.556314
474.043479	36166.560995
474.413965	35398.722688
474.784393	35022.282087
475.154761	35902.432260
475.525070	35938.426098
475.895321	35502.946023
476.265513	36078.066060
476.635645	37028.008488
477.005719	36860.896758
477.375734	37329.567790
477.745691	38009.112808
478.115588	39318.852468
478.485427	41293.429580
478.855207	44618.635151
479.224928	47248.519413
479.594591	48863.327019
479.964194	47828.998196
480.333739	47932.568702
480.703226	47944.259137
481.072653	48588.947097
481.442022	49093.440568
481.811333	49366.718998
482.180584	48068.034588
482.549777	47545.413128
482.918912	47033.983029
483.287988	46737.991681
483.657005	45908.978972
484.025964	45257.125012
484.394864	45267.655982
484.763706	44836.760837
485.132489	43967.890245
485.501213	43820.169314
485.869879	43966.564422
486.238487	43545.381059
486.607036	43765.737455
486.975527	43236.000406
487.343959	43436.232516
487.712333	43511.444011
488.080648	43429.832772
488.448905	43864.763361
488.817104	43669.327908
489.185244	44617.190860
489.553326	46287.889739
489.921350	49016.169762
490.289315	51934.980195
490.657222	52585.036983
491.025070	52866.421588
491.392861	51940.873304
491.760593	50659.341420
492.128267	48932.290003
492.495883	47417.493849
492.863440	46023.556837
493.230939	44676.878122
493.598380	43587.227677
493.965763	43284.624856
494.333088	42477.911691
494.700354	42015.121165
495.067563	41731.331930
495.434713	41598.817639
495.801805	41680.963241
496.168839	41304.643627
496.535815	40981.679585
496.902733	41021.103929
497.269593	40621.980655
497.636395	40554.202342
498.003139	40930.441297
498.369825	40401.203323
498.736453	40712.645807
499.103023	40239.523437
499.469535	40127.766097
499.835989	40217.498635
500.202385	39867.995439
500.568723	39906.144371
500.935003	40091.399213
501.301226	39896.097351
501.667390	40499.684784
502.033497	40766.210587
502.399546	40174.679075
502.765537	39505.029842
503.131470	39898.507023
503.497345	40234.842725
503.863163	38900.875280
504.228923	39531.780725
504.594625	39927.370149
504.960269	39212.174091
505.325856	39899.472404
505.691385	39270.777505
506.056856	39418.614382
506.422270	39846.923416
506.787625	39408.988299
507.152924	39604.688412
507.518164	39719.730063
507.883347	38926.791852
508.248472	39190.373622
508.613540	39644.236264
508.978550	39940.865318
509.343503	39692.636382
509.708398	39886.143593
510.073236	40403.398745
510.438016	40409.629611
510.802738	39863.574347
511.167403	40483.147278
511.532010	40709.472401
511.896561	41006.885354
512.261053	41832.918741
512.625488	41375.116437
512.989866	41252.465164
513.354186	41096.575043
513.718449	41069.032699
514.082655	41755.564756
514.446803	41433.994593
514.810894	41934.074534
515.174927	41874.263765
515.538904	41771.368773
515.902822	42430.020729
516.266684	41891.648184
516.630488	42306.121771
516.994235	42147.368274
517.357925	42713.189902
517.721558	42899.258891
518.085133	43192.729662
518.448651	43345.247251
518.812112	43113.863331
519.175516	43203.114439
519.538863	43548.930031
519.902152	43507.252292
520.265385	43955.965396
520.628560	44008.859702
520.991678	43805.474350
521.354739	44021.429819
521.717743	44337.956308
522.080690	44239.641205
522.443580	44792.280216
522.806413	44858.011821
523.169189	44792.829702
523.531908	44961.577285
523.894569	44840.939953
524.257174	45000.210168
524.619722	45304.922712
524.982213	45282.184588
525.344647	45211.018619
525.707025	45250.334578
526.069345	45662.305232
526.431608	45580.860350
526.793815	45909.115083
527.155964	45446.349763
527.518057	45603.311129
527.880093	45388.252985
528.242072	45929.594770
528.603995	45633.421941
528.965860	45628.448843
529.327669	45747.422594
529.689421	45638.730276
530.051117	45603.792559
530.412755	45735.240646
530.774337	45823.654922
531.135862	45627.375077
531.497331	45835.794021
531.858743	45729.161014
532.220098	46083.982627
532.581396	45799.898485
532.942638	45469.410521
533.303824	45748.962666
533.664953	45733.491365
534.026025	45466.920191
534.387040	45931.376818
534.747999	45882.386885
535.108902	46050.161526
535.469748	45580.174753
535.830537	45700.580192
536.191270	45884.693213
536.551947	45544.863991
536.912567	45844.873139
537.273131	45981.584190
537.633638	45463.192258
537.994089	45809.675803
538.354483	45408.427683
538.714821	45964.242621
539.075103	46330.104361
539.435328	46095.189113
539.795497	45984.928996
540.155609	45982.552092
540.515665	46427.567509
540.875665	45885.893008
541.235609	46208.158850
541.595496	46182.191866
541.955328	46849.988475
542.315102	46236.248159
542.674821	46035.302725
543.034483	46045.591720
543.394090	46032.651078
543.753640	45973.848539
544.113134	46984.862026
544.472571	46008.617378
544.831953	47237.688494
545.191278	46469.502347
545.550548	46184.082299
545.909761	46651.059503
546.268918	46840.095211
546.628019	47130.715209
546.987064	46709.068060
547.346053	46000.170924
547.704986	46865.537914
548.063863	46435.600588
548.422684	46629.377500
548.781449	46467.437995
549.140158	46884.817807
549.498811	46715.765233
549.857408	46151.309758
550.215949	46992.370824
550.574434	46925.792305
550.932864	46699.202522
551.291237	47396.706651
551.649555	47004.260386
552.007817	47250.374558
552.366022	46897.443377
552.724173	47077.921726
553.082267	47479.928539
553.440305	47787.035631
553.798288	47091.812625
554.156215	47405.309380
554.514086	47627.586456
554.871902	47355.263325
555.229661	47374.457518
555.587365	47199.100982
555.945014	47292.621947
556.302606	47220.558653
556.660143	47467.096282
557.017625	47536.649082
557.375050	47313.283116
557.732421	47682.305660
558.089735	47670.642951
558.446994	47584.845033
558.804197	48050.473728
559.161345	47984.868152
559.518437	47245.313239
559.875474	47543.079073
560.232455	47704.728712
560.589381	47870.136532
560.946251	47576.368333
561.303065	48257.886962
561.659825	48059.409174
562.016528	47741.032582
562.373177	47455.650342
562.729770	47944.085218
563.086307	47458.017164
563.442789	47921.130324
563.799216	47955.548802
564.155587	47758.905993
564.511904	47786.138306
564.868164	47871.129639
565.224370	48119.877814
565.580520	47848.114251
565.936615	48066.675997
566.292654	47793.818504
566.648638	48021.650931
567.004567	47960.358062
567.360441	48008.717851
567.716260	47858.504069
568.072023	48172.194909
568.427732	48152.564656
568.783385	47696.138586
569.138982	48100.403837
569.494525	48063.643743
569.850013	47822.119542
570.205445	47796.674317
570.560823	47746.923170
570.916145	47621.668141
571.271412	47646.878952
571.626625	47407.212415
571.981782	47458.372565
572.336884	47152.276224
572.691931	47468.275912
573.046923	47070.972495
573.401860	46909.222033
573.756743	46900.329437
574.111570	47033.020168
574.466342	46884.227992
574.821059	47006.526384
575.175722	46525.348250
575.530330	46549.399595
575.884882	46269.487007
576.239380	46224.424133
576.593823	46198.666357
576.948211	46117.029912
577.302544	45643.549619
577.656823	45676.395257
578.011047	45904.958652
578.365216	45606.078722
578.719330	45423.599035
579.073389	45266.090704
579.427394	45344.314288
579.781344	45318.674980
580.135239	44965.574920
580.489080	45066.065281
580.842866	44559.865379
581.196597	45013.838927
581.550273	44957.166276
581.903895	44816.812991
582.257463	45229.202061
582.610975	44622.625224
582.964434	44913.537610
583.317837	44547.764090
583.671186	44373.937543
584.024481	44607.605106
584.377721	44158.738247
584.730906	44437.693016
585.084037	44460.499196
585.437113	44158.750850
585.790135	44207.849168
586.143103	43799.596365
586.496016	43924.982464
586.848874	43956.303153
587.201679	43970.735976
587.554428	43457.889313
587.907124	43641.397396
588.259765	43399.321188
588.612352	43643.098785
588.964884	43027.100032
589.317362	43328.072040
589.669786	43253.689815
590.022155	43034.581104
590.374470	43459.706649
590.726731	42979.330058
591.078937	42493.539268
591.431090	42593.608692
591.783188	42247.107503
592.135232	41934.303907
592.487222	42159.920747
592.839157	42255.274172
593.191038	41931.997579
593.542866	41699.383617
593.894639	41103.922525
594.246358	41361.452390
594.598022	41355.667666
594.949633	40948.120624
595.301190	40911.625191
595.652692	40752.072672
596.004141	41083.422673
596.355535	40090.464079
596.706876	40048.073016
597.058162	39878.090350
597.409395	40349.486125
597.760573	40425.612590
598.111698	39996.670891
598.462768	40014.198983
598.813785	40058.344367
599.164748	39510.005461
599.515657	39896.427547
599.866511	39375.126869
600.217312	39970.837498
600.568060	38959.594640
600.918753	39696.311383
601.269392	39659.294191
601.619978	39311.883073
601.970510	39513.312457
602.320988	39690.924910
602.671412	39998.566365
603.021783	39743.373075
603.372100	39395.339375
603.722363	39502.504224
604.072572	39574.809493
604.422728	39594.122154
604.772830	39412.958208
605.122878	39509.113176
605.472872	39433.813461
605.822813	39721.935568
606.172701	39550.180936
606.522534	39783.682141
606.872314	40048.128469
607.222041	39790.195312
607.571714	40196.729082
607.921333	39646.507304
608.270899	39936.857601
608.620411	40268.215164
608.969870	40068.552704
609.319276	40058.271271
609.668627	40114.754879
610.017926	40591.136356
610.367171	40753.779102
610.716362	40837.074087
611.065500	40792.474999
611.414585	40988.701913
611.763616	41267.810436
612.112594	41204.092772
612.461518	41413.900554
612.810389	41703.953423
613.159207	41573.372415
613.507971	41640.586119
613.856682	42120.017494
614.205340	42004.660771
614.553945	42691.228116
614.902496	42156.104594
615.250994	42615.877989
615.599439	42692.405225
615.947830	42910.266250
616.296169	42949.337713
616.644454	43067.580497
616.992686	43244.940893
617.340864	43769.871201
617.688990	43502.387578
618.037063	44086.347278
618.385082	44053.930138
618.733048	44363.535122
619.080961	44366.736255
619.428821	44376.546340
619.776628	44499.583262
620.124382	44308.392461
620.472083	44419.524697
620.819731	44557.281788
621.167326	44222.140839
621.514868	44201.726687
621.862357	43759.002474
622.209793	43786.605312
622.557176	43454.410917
622.904506	43204.828431
623.251783	42867.968449
623.599007	42635.740135
623.946179	42409.777976
624.293297	42366.091337
624.640363	41785.345372
624.987376	41769.755604
625.334336	41522.267718
625.681243	41173.072032
626.028097	41131.999231
626.374899	40987.522282
626.721647	40961.532614
627.068343	40849.792918
627.414987	40624.468465
627.761577	40382.029294
628.108115	40722.362631
628.454600	40183.004540
628.801032	40363.881140
629.147412	40332.240338
629.493739	40325.926293
629.840014	39968.505965
630.186236	40322.531076
630.532405	39935.052868
630.878521	40153.105457
631.224585	40021.344819
631.570597	39744.184701
631.916556	39903.918702
632.262462	39845.322850
632.608316	39864.867403
632.954117	39761.622052
633.299866	39757.100137
633.645562	39666.147639
633.991206	39177.468268
634.336797	38734.751616
634.682336	38746.265612
635.027823	38476.591607
635.373257	38293.580079
635.718639	38058.826147
636.063968	37915.445649
636.409245	37330.490322
636.754470	37384.705411
637.099642	37141.557958
637.444762	36679.266506
637.789829	36816.242218
638.134845	36463.419422
638.479808	36416.647596
638.824719	36329.788516
639.169577	35927.149037
639.514383	36006.534608
639.859137	35695.472730
640.203839	35937.349812
640.548489	35570.018575
640.893086	35646.555894
641.237632	35389.492336
641.582125	35487.368858
641.926566	35437.932783
642.270955	35394.820835
642.615292	35426.375938
642.959576	35387.095267
643.303809	35396.514663
643.647990	35545.997477
643.992118	35500.952247
644.336195	35500.458214
644.680219	35600.295745
645.024192	35899.823463
645.368112	36409.111071
645.711981	36415.205826
646.055797	37302.955539
646.399562	37226.443427
646.743274	38183.249386
647.086935	38622.674163
647.430544	38518.395376
647.774101	38617.776682
648.117606	38863.185093
648.461059	39171.214716
648.804460	38775.637895
649.147810	38160.642331
649.491108	37896.944615
649.834354	37542.823722
650.177548	36708.598460
650.520690	36252.074088
650.863781	36268.702334
651.206820	36103.342405
651.549807	35687.908479
651.892742	35199.186257
652.235626	34995.886605
652.578458	34874.828337
652.921238	34272.365082
653.263967	34593.181592
653.606644	34271.339207
653.949269	34221.625868
654.291843	33835.438195
654.634365	34241.452726
654.976836	33842.309288
655.319255	33824.191381
655.661622	33827.097606
656.003938	33603.151908
656.346203	33461.245948
656.688416	33685.320196
657.030577	33486.900380
657.372687	33317.016016
657.714746	33598.917339
658.056753	33705.348700
658.398708	33174.316074
658.740612	33219.888105
659.082465	33493.829446
659.424266	33325.016327
659.766016	33426.368725
660.107715	33303.286434
660.449362	33436.032617
660.790958	33405.657145
661.132503	33453.124649
661.473996	33476.266066
661.815438	33572.978082
662.156829	33783.799136
662.498168	33549.458579
662.839456	33577.124431
663.180693	33732.253338
663.521879	33905.490069
663.863013	33831.553986
664.204097	33842.223588
664.545129	34314.390661
664.886110	34277.474291
665.227040	34333.688197
665.567918	34462.139318
665.908746	34525.531828
666.249522	34682.659552
666.590248	34687.002506
666.930922	34798.696831
667.271545	34764.900936
667.612118	34862.122108
667.952639	34622.135459
668.293109	34677.242832
668.633528	34593.123618
668.973896	34496.721633
669.314213	34529.705903
669.654480	34260.286477
669.994695	34292.227228
670.334859	34182.408212
670.674973	34087.747945
671.015035	34246.786267
671.355047	34199.971592
671.695008	34145.481760
672.034918	34025.910632
672.374777	34112.222747
672.714585	33958.827998
673.054342	34183.829817
673.394049	33933.823874
673.733705	34229.230449
674.073310	33876.818507
674.412864	33946.378868
674.752368	33553.713313
675.091820	33851.610217
675.431223	33417.430760
675.770574	33149.238854
676.109875	33006.352390
676.449125	32746.236413
676.788324	32653.784172
677.127473	32122.166773
677.466571	32050.733623
677.805619	31690.097038
678.144616	31695.100383
678.483562	31609.753649
678.822458	31281.529163
679.161303	31215.447198
679.500098	31126.939660
679.838842	31009.803409
680.177535	31165.330567
680.516179	31442.830963
680.854771	31679.389628
681.193314	32561.347055
681.531805	33692.879406
681.870247	34493.885984
682.208638	35210.405345
682.546978	35440.155932
682.885268	35532.194798
683.223508	34987.077189
683.561697	34652.258874
683.899836	34462.809792
684.237925	33959.637103
684.575963	33806.151612
684.913951	33343.542568
685.251889	33501.189531
685.589776	33490.305680
685.927614	33463.824498
686.265401	33617.693117
686.603137	33716.656008
686.940824	34244.545474
687.278460	34612.136330
687.616046	34750.037094
687.953582	35378.079163
688.291068	35237.060446
688.628504	35510.820306
688.965889	35431.417092
689.303224	35044.085077
689.640510	34693.379566
689.977745	33952.990341
690.314930	33149.667353
690.652065	32616.386372
690.989150	31847.791892
691.326185	30966.925875
691.663170	30265.255233
692.000105	29499.874488
692.336990	28810.874787
692.673825	28346.574435
693.010610	27846.045831
693.347345	27251.812260
693.684030	26595.143998
694.020665	26311.437942
694.357251	25641.211497
694.693786	25591.820792
695.030272	25364.736976
695.366707	24810.366329
695.703093	24523.945611
696.039429	24515.693242
696.375716	24253.028963
696.711952	24219.321287
697.048139	24045.867786
697.384276	23879.358475
697.720363	24009.626931
698.056400	23798.251351
698.392388	23585.035749
698.728326	23539.665364
699.064214	23338.402338
699.400053	23280.129120
699.735842	22914.635384
700.071581	22636.416624
700.407270	22344.997602
700.742910	22150.184732
701.078501	21874.284903
701.414042	21599.872214
701.749533	21297.108076
702.084974	20945.815270
702.420366	21160.644041
702.755709	20712.475382
703.091002	20419.337327
703.426246	20443.494536
703.761440	20334.429173
704.096584	20059.484642
704.431679	20016.203815
704.766725	19915.824360
705.101721	19854.753302
705.436668	19958.749785
705.771565	19622.051120
706.106413	19980.945985
706.441212	19970.228492
706.775961	20086.883313
707.110661	20170.586631
707.445311	20525.239366
707.779913	20363.536795
708.114465	20607.238775
708.448967	20897.170656
708.783421	21595.705700
709.117825	21864.837781
709.452180	22097.212288
709.786485	22499.307321
710.120742	23309.660199
710.454949	23318.366272
710.789107	23793.656339
711.123216	24492.874460
711.457275	24617.532112
711.791286	25167.685834
712.125247	25227.186573
712.459159	24916.941362
712.793023	25576.576343
713.126837	24480.659744
713.460602	24729.811211
713.794318	24345.098076
714.127985	23961.700682
714.461602	23042.012739
714.795171	23005.905474
715.128691	21990.622131
715.462162	21441.673244
715.795584	21013.540651
716.128957	20746.999724
716.462281	20334.499749
716.795556	20093.646021
717.128782	19604.946485
717.461960	19063.256860
717.795088	18984.950097
718.128167	18571.406602
718.461198	18109.145398
718.794180	17971.784038
719.127113	17605.239221
719.459997	17400.921256
719.792833	17052.212041
720.125619	17018.232144
720.458357	16705.070626
720.791046	16529.774583
721.123686	16372.735079
721.456278	16134.966537
721.788821	16088.555154
722.121315	15831.869683
722.453761	15905.841054
722.786158	15823.072869
723.118506	15833.407235
723.450805	15699.761205
723.783056	15861.436050
724.115259	15765.240752
724.447412	15690.253589
724.779518	15934.492452
725.111574	15954.208404
725.443582	16149.142262
725.775542	16138.515509
726.107453	16613.550998
726.439315	16499.197464
726.771129	16895.757311
727.102895	17271.653468
727.434612	17480.674830
727.766281	17610.051002
728.097901	17879.135192
728.429473	17907.229542
728.760996	17892.673210
729.092471	17983.900451
729.423897	17843.612701
729.755276	17704.053398
730.086606	17824.582345
730.417887	18352.814610
730.749120	18876.053612
731.080305	19045.322955
731.411442	19383.135715
731.742530	19460.971131
732.073570	19550.396159
732.404562	19850.531335
732.735506	19664.737090
733.066401	19364.425473
733.397249	18834.501901
733.728048	18199.969346
734.058798	17353.839399
734.389501	16672.184658
734.720156	16207.370109
735.050762	15675.006619
735.381320	15319.484285
735.711831	15080.760445
736.042293	14728.194748
736.372707	14739.315533
736.703073	14521.106668
737.033391	14714.941554
737.363661	14681.657336
737.693883	14783.692810
738.024056	14961.486745
738.354182	15140.339322
738.684260	15434.697336
739.014290	15656.475338
739.344272	15848.404667
739.674207	16134.827905
740.004093	16244.727580
740.333931	16230.652678
740.663722	16268.564676
740.993464	16263.841115
741.323159	16091.032881
741.652806	15801.431196
741.982405	15595.285812
742.311956	15257.150418
742.641460	15136.702129
742.970915	14821.529191
743.300323	14485.264064
743.629683	14266.583852
743.958996	13987.704700
744.288260	13715.689080
744.617477	13416.489038
744.946647	13340.438191
745.275768	13073.670411
745.604842	12890.157288
745.933869	12706.994525
746.262847	12669.745439
746.591778	12598.518976
746.920662	12485.702994
747.249498	12497.045590
747.578286	12610.857200
747.907027	12758.373965
748.235720	12981.871000
748.564365	13000.767765
748.892963	12906.604052
749.221514	12961.499697
749.550017	12811.517808
749.878473	12778.016821
750.206881	12551.056513
750.535242	12459.357924
750.863555	12371.399872
751.191821	12275.796910
751.520039	12290.824589
751.848210	12197.711957
752.176334	12242.081673
752.504411	12136.267854
752.832440	11975.321455
753.160421	12043.359388
753.488356	11920.274576
753.816243	11825.939464
754.144082	11673.230311
754.471875	11625.414967
754.799620	11569.773231
755.127318	11541.262986
755.454969	11505.624549
755.782572	11454.088833
756.110129	11462.565533
756.437638	11388.304296
756.765100	11367.630524
757.092515	11373.591688
757.419882	11398.368959
757.747203	11398.552962
758.074477	11476.073305
758.401703	11432.275760
758.728882	11595.069741
759.056014	11628.868157
759.383099	11749.881055
759.710138	11849.857218
760.037129	11936.837287
760.364073	11955.857560
760.690970	11940.855087
761.017820	11935.811412
761.344623	12121.749331
761.671379	12449.424331
761.998088	13087.067278
762.324751	14662.992464
762.651366	17555.508238
762.977935	21252.728278
763.304456	23480.232681
763.630931	23958.897800
763.957359	22777.160598
764.283740	20834.461223
764.610074	18944.835115
764.936362	16794.175540
765.262602	15261.382467
765.588796	13777.281898
765.914943	12743.177406
766.241044	11876.406455
766.567097	11253.894531
766.893104	10701.923473
767.219064	10331.446557
767.544978	9947.971025
767.870845	9629.980081
768.196665	9441.473695
768.522438	9237.921985
768.848165	9066.759688
769.173846	8908.507787
769.499479	8782.756204
769.825066	8625.363819
770.150607	8436.708719
770.476101	8379.138742
770.801548	8268.515662
771.126949	8128.984085
771.452303	8041.464613
771.777611	7870.652677
772.102872	7849.179882
772.428087	7730.904331
772.753256	7605.087213
773.078378	7516.559510
773.403453	7374.494754
773.728482	7270.057169
774.053465	7204.338167
774.378401	7124.635004
774.703291	7021.492997
775.028135	6925.151506
775.352932	6885.487707
775.677683	6804.647764
776.002388	6712.848353
776.327046	6717.266924
776.651658	6628.875332
776.976224	6549.575462
777.300743	6540.950048
777.625216	6469.390869
777.949643	6426.462923
778.274024	6432.867709
778.598359	6364.726432
778.922647	6366.568974
779.246889	6324.626574
779.571086	6333.211659
779.895236	6347.158011
780.219339	6342.860428
780.543397	6338.066290
780.867409	6388.069495
781.191374	6378.438371
781.515294	6350.744792
781.839167	6402.925776
782.162995	6378.478700
782.486776	6323.094063
782.810511	6281.741478
783.134201	6210.494851
783.457844	6196.538417
783.781441	6150.563094
784.104993	6105.311176
784.428498	6074.970992
784.751958	6058.960287
785.075372	6029.741759
785.398739	5995.348487
785.722061	6016.657445
786.045337	6017.166601
786.368568	6127.661132
786.691752	6147.084698
787.014891	6403.951651
787.337983	6684.000350
787.661030	7126.432176
787.984031	7555.325983
788.306987	7822.023186
788.629897	7908.325220
788.952760	7818.759039
789.275579	7640.221535
789.598351	7342.057449
789.921078	7074.543579
790.243759	6791.757534
790.566395	6586.184321
790.888984	6388.959259
791.211529	6251.756695
791.534027	6080.972485
791.856480	5943.691784
792.178888	5881.652824
792.501249	5817.917516
792.823566	5709.613367
793.145836	5710.056988
793.468062	5696.017375
793.790241	5650.510879
794.112375	5690.411612
794.434464	5790.826355
794.756507	5819.772661
795.078505	5939.184992
795.400457	6158.588611
795.722364	6404.211270
796.044226	6600.430622
796.366042	6758.763182
796.687812	6706.690583
797.009538	6733.423822
797.331218	6637.226004
797.652852	6572.346354
797.974442	6441.427588
798.295986	6377.435181
798.617484	6247.897692
798.938938	6138.449201
799.260346	6066.637964
799.581709	5927.537406
799.903026	5878.265169
800.224299	5802.988139
800.545526	5684.112690
800.866708	5619.369151
801.187845	5569.002983
801.508936	5494.565305
801.829983	5463.446263
802.150984	5356.127659
802.471940	5330.455583
802.792851	5312.289785
803.113717	5287.623419
803.434538	5262.868833
803.755314	5231.291046
804.076045	5221.780909
804.396731	5184.967883
804.717372	5201.686870
805.037967	5206.128126
805.358518	5233.937652
805.679024	5289.178615
805.999485	5301.438702
806.319901	5318.956711
806.640272	5338.899516
806.960598	5384.688316
807.280879	5375.974682
807.601115	5416.611423
807.921306	5380.007605
808.241453	5373.789342
808.561554	5382.218151
808.881611	5345.347152
809.201623	5343.242470
809.521590	5295.727074
809.841513	5278.947594
810.161390	5289.355056
810.481223	5205.303898
810.801011	5188.267318
811.120755	5167.480120
811.440453	5111.760247
811.760107	5080.144651
812.079716	5058.056835
812.399281	5007.307539
812.718801	4995.049974
813.038276	4964.757680
813.357707	4929.159572
813.677093	4952.807625
813.996434	4891.890322
814.315731	4910.136778
814.634983	4909.194082
814.954191	4911.729783
815.273354	4974.461901
815.592473	5013.621584
815.911547	5089.425415
816.230577	5144.363909
816.549562	5236.705245
816.868502	5288.389675
817.187399	5343.454198
817.506250	5422.970838
817.825058	5450.959325
818.143821	5607.593016
818.462539	5782.082474
818.781213	6013.017732
819.099843	6377.725048
819.418429	7014.543766
819.736970	7642.863099
820.055466	8363.589303
820.373919	9283.239437
820.692327	10755.919272
821.010691	13489.414369
821.329011	19797.339601
821.647286	29480.957559
821.965517	39927.135736
822.283704	45451.169106
822.601847	46960.727502
822.919945	42328.748990
823.237999	37154.785945
823.556010	31901.840623
823.873976	27147.515828
824.191897	22866.018496
824.509775	19755.576162
824.827609	16954.219572
825.145398	15374.871443
825.463144	14614.209218
825.780845	14917.646350
826.098502	16186.096440
826.416116	18679.340227
826.733685	21008.222234
827.051210	21534.753109
827.368692	20087.299208
827.686129	17492.539186
828.003522	14968.667868
828.320872	12718.017007
828.638177	11044.890813
828.955439	9784.647722
829.272656	8706.912044
829.589830	7855.440995
829.906960	7113.146215
830.224046	6569.883750
830.541088	6151.762888
830.858086	5894.081789
831.175041	5691.503022
831.491952	5633.476820
831.808819	5666.955123
832.125642	5913.447381
832.442421	6470.235262
832.759157	7603.005216
833.075849	9390.996621
833.392497	11266.530183
833.709101	12403.234758
834.025662	12136.020837
834.342179	11077.295350
834.658653	9754.967929
834.975083	8629.686609
835.291469	7709.197122
835.607811	6965.193391
835.924110	6434.135559
836.240366	5939.754643
836.556578	5478.012677
836.872746	5123.604438
837.188871	4844.148074
837.504952	4620.761945
837.820990	4454.119042
838.136984	4336.118234
838.452935	4289.951347
838.768842	4318.285152
839.084706	4602.822999
839.400526	5355.825190
839.716303	6273.368122
840.032037	6841.062539
840.347727	6699.643050
840.663373	6088.738383
840.978977	5503.795658
841.294537	5055.531217
841.610054	4719.374476
841.925527	4475.853977
842.240957	4266.557873
842.556344	4079.583997
842.871687	3920.996859
843.186987	3765.416769
843.502244	3648.061228
843.817458	3559.969585
844.132629	3486.469562
844.447756	3437.777057
844.762840	3393.467835
845.077881	3351.986701
845.392879	3321.172648
845.707833	3295.810603
846.022745	3267.900254
846.337613	3255.211670
846.652438	3229.678226
846.967221	3222.111454
847.281960	3202.007332
847.596656	3188.139118
847.911309	3180.191739
848.225919	3166.696570
848.540485	3155.454797
848.855009	3149.390289
849.169490	3134.284472
849.483928	3129.777680
849.798323	3120.572533
850.112675	3111.677417
850.426984	3113.915690
850.741251	3105.658280
851.055474	3102.537805
851.369654	3102.484873
851.683792	3100.458329
851.997887	3104.055193
852.311938	3102.958742
852.625947	3105.673403
852.939914	3097.360540
853.253837	3105.817076
853.567718	3104.259359
853.881555	3094.597988
854.195350	3100.652414
854.509103	3098.378853
854.822812	3098.537650
855.136479	3090.799479
855.450103	3095.805344
855.763685	3086.048191
856.077224	3090.975919
856.390720	3094.161928
856.704173	3111.251440
857.017584	3113.933334
857.330953	3116.721092
857.644278	3128.426651
857.957561	3127.935138
858.270802	3127.368009
858.584000	3126.465642
858.897155	3122.082359
859.210268	3112.136162
859.523339	3101.607712
859.836367	3100.425562
860.149352	3094.981116
860.462295	3090.663368
860.775195	3077.316913
861.088054	3077.415215
861.400869	3074.884556
861.713642	3072.293403
862.026373	3083.409147
862.339062	3085.410485
862.651708	3093.713266
862.964312	3112.272273
863.276873	3120.383490
863.589392	3150.869868
863.901869	3179.279290
864.214303	3200.154708
864.526696	3219.563151
864.839045	3236.554360
865.151353	3247.758324
865.463619	3249.996597
865.775842	3251.876947
866.088023	3252.595311
866.400162	3250.465424
866.712258	3252.239910
867.024313	3248.126328
867.336325	3243.498549
867.648296	3246.659353
867.960224	3248.219590
868.272110	3249.260588
868.583954	3250.664549
868.895755	3258.440529
869.207515	3256.882813
869.519233	3276.230761
869.830909	3280.372069
870.142542	3294.532670
870.454134	3298.215233
870.765684	3311.695278
871.077191	3331.748988
871.388657	3341.959846
871.700081	3362.371478
872.011463	3381.636247
872.322803	3399.653331
872.634101	3419.830549
872.945357	3442.283848
873.256571	3470.622695
873.567744	3487.132473
873.878874	3487.422340
874.189963	3507.241636
874.501010	3508.144003
874.812015	3503.856501
875.122979	3520.202443
875.433900	3514.432842
875.744780	3521.722351
876.055618	3532.477652
876.366415	3531.421531
876.677169	3534.970503
876.987882	3550.532545
877.298554	3572.005340
877.609183	3612.427832
877.919771	3659.124040
878.230317	3728.641551
878.540822	3835.302284
878.851285	3992.719875
879.161707	4220.985842
879.472087	4604.816775
879.782425	5242.026183
880.092722	6455.812521
880.402977	8423.493334
880.713191	10839.277272
881.023363	13271.800360
881.333494	14647.848838
881.643583	15103.972438
881.953631	14705.438979
882.263637	13855.185369
882.573602	12806.834577
882.883526	11819.862353
883.193408	10837.729637
883.503248	9900.987471
883.813048	9057.504130
884.122806	8275.212835
884.432522	7489.027248
884.742197	6813.825185
885.051831	6238.193471
885.361424	5731.423919
885.670975	5327.262012
885.980485	4992.950333
886.289954	4719.737439
886.599382	4502.478831
886.908768	4315.225172
887.218113	4148.070593
887.527417	4010.946167
887.836680	3890.273547
888.145901	3783.706075
888.455082	3704.229764
888.764221	3637.671410
889.073319	3574.780495
889.382376	3540.800597
889.691392	3516.184643
890.000366	3509.684075
890.309300	3502.770133
890.618193	3510.147861
890.927044	3501.285513
891.235855	3509.570649
891.544625	3523.713606
891.853353	3555.097310
892.162041	3616.135600
892.470687	3709.822924
892.779293	3827.307014
893.087858	4007.790404
893.396381	4295.456287
893.704864	4718.139393
894.013306	5300.465759
894.321707	5884.266662
894.630068	6249.369709
894.938387	6291.859074
895.246665	6112.134378
895.554903	5793.878774
895.863100	5440.957675
896.171256	5162.191950
896.479371	4918.825207
896.787446	4683.816697
897.095480	4486.042149
897.403473	4334.154704
897.711425	4182.998227
898.019336	4058.441398
898.327207	3933.319959
898.635038	3831.279444
898.942827	3718.062690
899.250576	3633.083960
899.558284	3543.626164
899.865952	3490.678925
900.173579	3425.849687
900.481165	3376.378323
900.788711	3333.102538
901.096216	3302.636325
901.403681	3274.673045
901.711105	3263.113679
902.018489	3256.658481
902.325832	3290.000673
902.633135	3353.683049
902.940397	3525.795603
903.247619	3937.912450
903.554800	4711.931212
903.861941	5704.297470
904.169041	6431.123470
904.476101	6647.709083
904.783121	6365.459920
905.090100	5954.321057
905.397039	5522.773082
905.703938	5156.757586
906.010796	4823.476823
906.317614	4563.539807
906.624391	4318.285152
906.931129	4118.816777
907.237826	3930.242335
907.544483	3758.482662
907.851099	3580.577822
908.157675	3417.438522
908.464211	3272.961573
908.770707	3168.009791
909.077163	3088.556165
909.383578	3023.784900
909.689954	2980.733446
909.996289	2948.260854
910.302584	2930.367278
910.608839	2915.770617
910.915054	2902.325860
911.221229	2893.879407
911.527363	2905.227044
911.833458	2910.666449
912.139513	2921.820002
912.445527	2934.647218
912.751502	2970.053762
913.057436	3014.516739
913.363331	3069.777867
913.669186	3164.168432
913.975000	3285.201494
914.280775	3477.798777
914.586510	3755.946961
914.892205	4141.673368
915.197859	4655.049352
915.503475	5252.680662
915.809050	5763.589001
916.114585	6057.447941
916.420081	6126.335308
916.725536	6059.870215
917.030952	5816.412732
917.336328	5605.619404
917.641665	5386.331732
917.946961	5149.871370
918.252218	4949.190597
918.557435	4713.778795
918.862612	4511.603320
919.167750	4331.586237
919.472848	4138.205054
919.777906	3968.214826
920.082925	3800.987150
920.387904	3644.638284
920.692843	3529.069832
920.997743	3426.557969
921.302603	3328.142043
921.607423	3263.748864
921.912204	3194.841332
922.216946	3143.910555
922.521647	3095.036568
922.826310	3052.569888
923.130932	3015.005731
923.435516	2969.821869
923.740059	2943.088630
924.044564	2911.422622
924.349028	2888.737430
924.653454	2858.218284
924.957840	2830.189469
925.262186	2808.136941
925.566493	2786.812861
925.870761	2759.822523
926.174989	2749.752818
926.479178	2734.374778
926.783328	2718.313662
927.087438	2707.762527
927.391509	2691.310722
927.695541	2679.506860
927.999533	2669.399346
928.303486	2663.685198
928.607400	2655.750422
928.911275	2649.481747
929.215110	2644.236427
929.518906	2640.899183
929.822663	2637.796353
930.126381	2641.451189
930.430060	2643.069400
930.733699	2645.282466
931.037299	2648.181130
931.340861	2650.646254
931.644383	2652.614825
931.947866	2648.286994
932.251309	2644.909421
932.554714	2647.006541
932.858080	2642.565284
933.161407	2640.430356
933.464694	2636.568832
933.767943	2634.373409
934.071153	2628.848305
934.374323	2625.266565
934.677455	2619.887654
934.980548	2620.371605
935.283602	2616.890688
935.586617	2616.419340
935.889593	2620.270782
936.192530	2619.938065
936.495428	2623.804630
936.798287	2634.685961
937.101108	2650.318579
937.403890	2670.858760
937.706632	2698.680888
938.009336	2733.485015
938.312002	2762.796804
938.614628	2788.146246
938.917216	2809.959318
939.219765	2815.098775
939.522275	2828.873728
939.824747	2827.429437
940.127179	2823.794765
940.429573	2815.479382
940.731929	2814.791264
941.034246	2804.363638
941.336524	2804.093936
941.638763	2796.723769
941.940964	2789.141874
942.243126	2775.452620
942.545250	2762.411155
942.847335	2745.853486
943.149381	2735.526682
943.451389	2719.533621
943.753359	2705.257074
944.055290	2699.064016
944.357182	2689.437933
944.659036	2685.359639
944.960851	2681.790502
945.262628	2674.357321
945.564367	2678.304545
945.866067	2676.419153
946.167729	2673.575942
946.469352	2673.749862
946.770937	2669.200221
947.072484	2661.648572
947.373992	2662.485404
947.675462	2659.861483
947.976893	2651.336892
948.278286	2651.006697
948.579641	2646.699031
948.880958	2641.365490
949.182236	2644.208701
949.483476	2641.574698
949.784678	2637.874491
950.085841	2640.296765
950.386967	2646.620893
950.688054	2649.902684
950.989103	2657.177069
951.290114	2666.483039
951.591087	2680.661284
951.892021	2693.062522
952.192917	2705.221786
952.493776	2718.071687
952.794596	2720.060422
953.095378	2722.749877
953.396122	2718.527911
953.696828	2713.678321
953.997496	2709.068186
954.298126	2698.617874
954.598718	2691.771987
954.899272	2680.593228
955.199788	2671.947650
955.500266	2652.861841
955.800706	2639.767444
956.101108	2623.373612
956.401472	2612.797271
956.701798	2600.030549
957.002087	2586.157293
957.302337	2572.228585
957.602550	2563.988819
957.902724	2550.642365
958.202861	2539.700540
958.502960	2533.262987
958.803022	2524.793848
959.103045	2517.985770
959.403031	2511.439832
959.702979	2505.665190
960.002889	2501.034890
960.302762	2493.359733
960.602596	2493.400063
960.902393	2484.762046
961.202153	2485.392190
961.501875	2482.690131
961.801559	2479.453711
962.101205	2476.857516
962.400814	2474.856178
962.700385	2472.144037
962.999918	2469.764613
963.299414	2467.294448
963.598873	2467.778398
963.898293	2464.743624
964.197677	2464.274796
964.497022	2463.642132
964.796331	2464.516772
965.095601	2461.056020
965.394835	2458.981585
965.694030	2459.294136
965.993189	2463.581638
966.292309	2458.916050
966.591393	2456.894547
966.890439	2459.616770
967.189447	2456.564352
967.488419	2459.825978
967.787353	2461.355968
968.086249	2461.789508
968.385108	2460.370423
968.683930	2460.884620
968.982714	2462.517954
969.281462	2462.255814
969.580172	2464.852008
969.878844	2468.476598
970.177480	2470.316619
970.476078	2473.905921
970.774639	2477.026395
971.073162	2480.396406
971.371649	2480.056128
971.670098	2482.009576
971.968510	2485.785400
972.266885	2481.412199
972.565223	2486.675163
972.863524	2488.041316
973.161788	2490.103148
973.460014	2491.134064
973.758204	2493.543736
974.056356	2490.226656
974.354471	2493.042141
974.652550	2491.996101
974.950591	2488.958806
975.248595	2491.744044
975.546563	2491.103817
975.844493	2488.474855
976.142386	2488.242962
976.440243	2478.750470
976.738062	2483.408496
977.035845	2479.042857
977.333590	2475.882053
977.631299	2475.753504
977.928971	2474.268884
978.226606	2469.739407
978.524204	2470.034315
978.821765	2469.384006
979.119290	2466.099694
979.416777	2469.094139
979.714228	2468.965590
980.011642	2471.216465
980.309020	2475.375417
980.606360	2476.146714
980.903664	2488.467294
981.200931	2499.898110
981.498162	2519.495596
981.795356	2550.881819
982.092513	2588.209043
982.389633	2637.526651
982.686717	2680.686490
982.983764	2713.020451
983.280775	2732.290261
983.577749	2731.100549
983.874686	2724.940259
984.171587	2705.257074
984.468451	2690.645289
984.765279	2670.442865
985.062070	2653.101296
985.358824	2631.774695
985.655543	2610.591766
985.952224	2586.825246
986.248869	2556.575803
986.545478	2527.407687
986.842050	2508.175685
987.138586	2489.142808
987.435086	2476.996148
987.731549	2464.224385
988.027975	2461.388736
988.324366	2452.289453
988.620719	2447.828032
988.917037	2446.781992
989.213318	2443.618668
989.509563	2440.515838
989.805772	2436.601382
990.101944	2438.595159
990.398080	2435.888059
990.694180	2435.625919
990.990244	2435.109201
991.286271	2433.090219
991.582262	2437.160950
991.878217	2436.813111
992.174136	2438.322936
992.470019	2440.588935
992.765865	2438.174222
993.061676	2440.442742
993.357450	2445.244441
993.653188	2448.672425
993.948890	2451.009000
994.244556	2460.428396
994.540186	2470.208234
994.835780	2483.892447
995.131337	2497.823675
995.426859	2512.337157
995.722345	2536.017977
996.017795	2552.394166
996.313208	2567.880590
996.608586	2577.529359
996.903928	2581.121181
997.199234	2583.523291
997.494504	2577.065572
997.789738	2570.580128
998.084936	2559.340876
998.380099	2545.576005
998.675225	2533.189890
998.970316	2523.465504
999.265371	2505.221568
999.560390	2495.378716
999.855373	2481.858341
1000.150320	2469.492391
1000.445232	2460.607357
1000.740108	2456.937397
1001.034948	2446.890377
1001.329752	2440.442742
1001.624521	2438.764037
1001.919254	2432.513007
1002.213951	2431.923192
1002.508613	2423.302818
1002.803239	2426.408169
1003.097829	2423.244845
1003.392384	2423.849784
1003.686903	2425.571338
1003.981386	2422.143353
1004.275834	2422.218970
1004.570246	2424.169897
1004.864623	2420.240318
1005.158964	2418.276788
1005.453270	2418.349885
1005.747540	2414.919380
1006.041775	2417.245872
1006.335974	2418.294432
1006.630138	2416.903074
1006.924266	2415.037847
1007.218359	2413.948958
1007.512416	2415.360481
1007.806438	2413.351581
1008.100425	2413.729667
1008.394376	2412.741601
1008.688292	2412.948288
1008.982172	2414.400141
1009.276017	2415.841911
1009.569827	2410.596590
1009.863602	2415.385686
1010.157341	2415.680594
1010.451045	2411.771179
1010.744714	2413.505336
1011.038347	2413.391910
1011.331945	2412.093813
1011.625508	2412.282856
1011.919036	2412.965933
1012.212528	2409.099368
1012.505986	2411.640109
1012.799408	2408.804460
1013.092795	2408.257495
1013.386147	2412.429050
1013.679464	2409.777403
1013.972745	2411.158679
1014.265992	2407.576939
1014.559204	2408.413771
1014.852380	2407.425704
1015.145521	2406.450241
1015.438628	2408.819583
1015.731699	2406.288924
1016.024736	2409.603483
1016.317737	2408.887639
1016.610703	2409.817732
1016.903635	2408.864954
1017.196531	2403.022257
1017.489393	2410.397465
1017.782219	2410.765469
1018.075011	2410.813360
1018.367768	2411.645150
1018.660490	2412.852507
1018.953177	2412.852507
1019.245829	2412.852507
