Dividing Wavelength (nm)	Counts (n)	Blue Motor Position (mm): 30.200000	Red Motor Position (mm): 0.000000	
326.493990	1971.325567
326.888308	1971.325567
327.282561	1971.325567
327.676750	1946.253389
328.070874	1949.273040
328.464933	1955.594647
328.858929	1965.984465
329.252859	1975.061062
329.646726	1988.770480
330.040528	2006.406957
330.434265	2024.751716
330.827938	2041.798378
331.221547	2062.550288
331.615091	2083.251786
332.008571	2103.948243
332.401986	2125.688219
332.795338	2147.629841
333.188625	2165.667089
333.581847	2184.778104
333.975006	2202.583459
334.368100	2221.525595
334.761129	2237.851371
335.154095	2254.777045
335.546996	2290.722993
335.939833	2367.928264
336.332606	2384.780841
336.725315	2398.439848
337.117960	2403.929664
337.510540	2410.679769
337.903056	2422.019845
338.295508	2424.285843
338.687896	2434.567277
339.080220	2442.141610
339.472480	2446.577826
339.864676	2449.496654
340.256807	2455.851028
340.648875	2455.649382
341.040879	2457.444033
341.432818	2456.203909
341.824694	2457.854887
342.216506	2458.210288
342.608253	2459.054682
342.999937	2456.990329
343.391557	2455.082252
343.783113	2455.367077
344.174605	2452.614607
344.566033	2452.012190
344.957397	2448.485902
345.348697	2447.270984
345.739934	2446.726540
346.131106	2446.323248
346.522215	2442.491971
346.913260	2444.021961
347.304241	2442.915427
347.695159	2441.902156
348.086012	2438.542227
348.476802	2434.184149
348.867528	2434.688264
349.258191	2435.005857
349.648789	2430.282296
350.039324	2428.888417
350.429796	2431.567790
350.820203	2430.990578
351.210548	2428.951431
351.600828	2426.234249
351.991045	2429.284147
352.381198	2424.207706
352.771288	2428.056627
353.161314	2424.593354
353.551276	2428.913623
353.941175	2425.223498
354.331010	2425.422624
354.720782	2430.829261
355.110490	2429.493355
355.500135	2429.379929
355.889717	2427.844898
356.279235	2427.008067
356.668689	2430.219282
357.058080	2430.642738
357.447408	2428.631318
357.836672	2424.142171
358.225873	2432.301278
358.615010	2424.999167
359.004084	2430.083170
359.393095	2432.475198
359.782043	2432.162646
360.170927	2431.721545
360.559748	2434.844540
360.948505	2436.651794
361.337199	2437.783533
361.725830	2434.622729
362.114398	2435.348656
362.502903	2436.934098
362.891344	2439.653801
363.279722	2435.588110
363.668037	2440.573812
364.056289	2439.777309
364.444478	2436.621547
364.832603	2438.748914
365.220665	2440.137752
365.608665	2436.631629
365.996601	2441.143462
366.384474	2441.725715
366.772284	2442.313010
367.160031	2441.816456
367.547715	2442.905345
367.935336	2442.078596
368.322893	2441.859306
368.710388	2445.650253
369.097820	2446.366097
369.485189	2442.577670
369.872495	2447.074379
370.259738	2446.532455
370.646918	2445.204111
371.034035	2446.419029
371.421090	2447.197888
371.808081	2446.207301
372.195010	2447.006324
372.581875	2447.477672
372.968678	2448.372477
373.355418	2448.190995
373.742096	2448.783331
374.128710	2449.663012
374.515262	2449.012703
374.901751	2452.259206
375.288177	2450.015893
375.674540	2451.535801
376.060841	2450.862807
376.447079	2449.458845
376.833254	2453.395986
377.219367	2449.423557
377.605417	2452.700307
377.991404	2451.505554
378.377329	2449.922631
378.763191	2449.138732
379.148991	2456.564352
379.534727	2455.273816
379.920402	2457.547377
380.306013	2456.362705
380.691563	2458.618622
381.077049	2455.220884
381.462474	2459.324383
381.847835	2456.866821
382.233134	2459.387398
382.618371	2459.488221
383.003545	2458.842953
383.388657	2461.053499
383.773706	2458.187603
384.158693	2458.290947
384.543618	2460.027624
384.928480	2460.579631
385.313280	2463.410238
385.698017	2461.502162
386.082692	2463.153140
386.467305	2462.507872
386.851856	2465.139354
387.236344	2465.807307
387.620770	2465.731690
388.005133	2465.484673
388.389435	2465.280507
388.773674	2468.426187
389.157851	2469.265539
389.541965	2468.267390
389.926018	2464.915023
390.310008	2468.368213
390.693936	2466.175311
391.077802	2469.542802
391.461606	2471.733183
391.845348	2473.540437
392.229027	2468.390898
392.612645	2472.391054
392.996200	2470.954325
393.379694	2471.241671
393.763125	2472.365848
394.146494	2473.646301
394.529801	2474.367186
394.913047	2476.250057
395.296230	2477.497743
395.679351	2475.425829
396.062410	2474.679738
396.445408	2477.921200
396.828343	2477.401961
397.211217	2475.844244
397.594028	2474.525983
397.976778	2473.666466
398.359466	2476.761734
398.742092	2475.761065
399.124656	2480.348515
399.507158	2480.383803
399.889598	2480.028402
400.271977	2480.847590
400.654294	2486.844042
401.036549	2484.908239
401.418742	2484.875472
401.800874	2484.938486
402.182944	2485.455204
402.564952	2484.300780
402.946898	2482.995121
403.328783	2485.861017
403.710606	2487.784217
404.092367	2490.839157
404.474067	2490.670278
404.855705	2490.778663
405.237282	2488.424444
405.618797	2491.907881
406.000250	2492.323776
406.381642	2493.526092
406.762972	2494.337717
407.144240	2491.086173
407.525447	2496.855774
407.906593	2494.546925
408.287677	2496.492811
408.668700	2494.902327
409.049661	2497.450630
409.430560	2500.200579
409.811399	2501.415497
410.192176	2497.826196
410.572891	2502.103615
410.953545	2501.223933
411.334138	2500.576145
411.714669	2502.940446
412.095139	2501.425580
412.475547	2502.459016
412.855894	2506.007988
413.236180	2506.320540
413.616405	2506.255005
413.996568	2506.539830
414.376670	2505.864316
414.756711	2506.688544
415.136691	2509.471261
415.516609	2510.552589
415.896466	2511.369256
416.276262	2512.448062
416.655997	2513.053001
417.035670	2510.996210
417.415283	2517.542148
417.794834	2516.465862
418.174324	2522.235463
418.553753	2518.930986
418.933121	2521.416275
419.312428	2524.892151
419.691674	2523.684794
420.070859	2528.904909
420.449983	2529.192255
420.829045	2531.135620
421.208047	2533.535209
421.586988	2534.309026
421.965867	2541.628782
422.344686	2539.579553
422.723444	2544.862682
423.102141	2543.373021
423.480777	2551.259906
423.859352	2552.734443
424.237866	2563.933367
424.616319	2562.894889
424.994712	2571.507700
425.373044	2576.034657
425.751314	2587.364650
426.129524	2589.434043
426.507673	2604.262597
426.885762	2613.407251
427.263789	2625.266565
427.641756	2637.657721
428.019662	2650.028713
428.397508	2663.990188
428.775292	2688.381811
429.153016	2707.134903
429.530679	2725.426730
429.908282	2749.899012
430.285824	2767.328801
430.663305	2804.802218
431.040726	2828.069664
431.418086	2857.099148
431.795385	2903.528175
432.172624	2948.875874
432.549802	2982.581029
432.926920	3030.852598
433.303977	3074.267015
433.680974	3131.869759
434.057910	3198.844008
434.434786	3260.366250
434.811601	3317.318686
435.188355	3434.507868
435.565050	3492.652537
435.941683	3564.037796
436.318257	3696.146274
436.694770	3771.153602
437.071222	3898.223446
437.447614	3925.153290
437.823946	4021.872868
438.200218	4132.092655
438.576429	4216.680696
438.952580	4345.759441
439.328670	4454.008137
439.704700	4610.495635
440.080670	4673.235315
440.456580	4867.828895
440.832429	5017.175598
441.208218	5013.855998
441.583947	5189.784706
441.959616	5340.406821
442.335224	5515.889386
442.710773	5680.336866
443.086261	5912.164408
443.461689	5949.353000
443.837057	6117.949349
444.212365	6397.572070
444.587612	6561.064251
444.962800	6631.595035
445.337927	6881.847994
445.712995	6763.486743
446.088002	7347.554827
446.462949	7593.505162
446.837837	7822.270203
447.212664	8002.889704
447.587431	8979.623344
447.962139	10039.841012
448.336786	10969.190327
448.711374	10755.263922
449.085901	9855.395275
449.460369	10040.284634
449.834776	10258.191029
450.209124	11336.216574
450.583412	11438.191554
450.957640	11853.736386
451.331808	11604.761360
451.705917	11315.031125
452.079965	11548.955787
452.453954	11927.107860
452.827883	12129.008592
453.201752	12260.668407
453.575562	12561.736197
453.949311	13306.211277
454.323001	13597.146347
454.696632	13727.805493
455.070202	14703.654411
455.443713	15025.678277
455.817164	15573.850826
456.190556	16111.817559
456.563888	16086.881491
456.937160	16564.566106
457.310373	15933.353151
457.683526	16398.906229
458.056619	16646.545350
458.429653	16867.027775
458.802628	17442.911547
459.175542	17772.275333
459.548398	18818.897009
459.921194	20037.356497
460.293930	20723.495344
460.666607	22270.007918
461.039224	23698.134035
461.411782	24236.554472
461.784280	23706.814902
462.156719	23643.240911
462.529099	23533.263099
462.901419	22908.041555
463.273680	22427.054984
463.645882	22739.430082
464.018024	22975.537563
464.390106	23808.994049
464.762130	26021.155701
465.134094	29298.624065
465.505999	33603.088894
465.877845	37527.435599
466.249631	38821.391407
466.621358	37682.395628
466.993026	36239.551862
467.364634	34851.472671
467.736184	33529.677091
468.107674	32767.908333
468.479105	32377.055073
468.850477	32049.304456
469.221790	31102.031319
469.593043	29879.720390
469.964238	29342.557721
470.335373	29448.590830
470.706449	31043.652237
471.077467	33391.920001
471.448425	37561.105466
471.819324	40311.725362
472.190164	38894.553673
472.560945	35924.757010
472.931667	33370.502658
473.302330	32544.507080
473.672934	31962.962093
474.043479	32549.225600
474.413965	31993.690446
474.784393	31801.705664
475.154761	32702.615309
475.525070	32856.138608
475.895321	32553.132494
476.265513	33223.565627
476.635645	34211.314188
477.005719	34166.246272
477.375734	34712.137699
477.745691	35435.487823
478.115588	36744.824191
478.485427	38680.544089
478.855207	41927.780654
479.224928	44545.248554
479.594591	46216.726291
479.964194	45307.776005
480.333739	45508.333270
480.703226	45616.221524
481.072653	46311.666341
481.442022	46873.790283
481.811333	47217.571769
482.180584	46029.729730
482.549777	45597.024810
482.918912	45149.098126
483.287988	44918.382159
483.657005	44166.978013
484.025964	43599.192856
484.394864	43651.081452
484.763706	43271.790078
485.132489	42474.060249
485.501213	42362.902807
485.869879	42544.651527
486.238487	42195.105481
486.607036	42425.463526
486.975527	41936.509412
487.343959	42153.654593
487.712333	42284.533029
488.080648	42224.434914
488.448905	42669.135259
488.817104	42492.387364
489.185244	43450.067963
489.553326	45112.252333
489.921350	47815.210640
490.289315	50781.896911
490.657222	51451.122687
491.025070	51757.554265
491.392861	50838.720797
491.760593	49558.325694
492.128267	47873.022593
492.495883	46370.247069
492.863440	45004.724521
493.230939	43698.463257
493.598380	42642.064263
493.965763	42333.888446
494.333088	41573.228742
494.700354	41118.715791
495.067563	40860.999403
495.434713	40749.327763
495.801805	40822.482467
496.168839	40470.534312
496.535815	40141.561214
496.902733	40192.633144
497.269593	39794.795365
497.636395	39743.546995
498.003139	40134.133074
498.369825	39628.444850
498.736453	39918.671638
499.103023	39475.854164
499.469535	39344.592600
499.835989	39455.195515
500.202385	39135.031835
500.568723	39155.251903
500.935003	39347.140903
501.301226	39165.394704
501.667390	39750.584446
502.033497	40011.358293
502.399546	39465.010642
502.765537	38797.589599
503.131470	39167.138943
503.497345	39515.588538
503.863163	38228.970130
504.228923	38821.373763
504.594625	39216.658198
504.960269	38525.377374
505.325856	39196.158346
505.691385	38579.960467
506.056856	38707.277328
506.422270	39148.242178
506.787625	38734.683561
507.152924	38917.329606
507.518164	39018.198053
507.883347	38262.652600
508.248472	38503.919702
508.613540	38959.009866
508.978550	39247.815049
509.343503	39004.697843
509.708398	39194.368736
510.073236	39718.323582
510.438016	39732.811858
510.802738	39190.282881
511.167403	39783.840938
511.532010	40018.952791
511.896561	40304.546759
512.261053	41124.253498
512.625488	40689.063290
512.989866	40549.178832
513.354186	40411.421742
513.718449	40394.725440
514.082655	41054.476367
514.446803	40735.981308
514.810894	41243.882600
515.174927	41171.761332
515.538904	41070.061094
515.902822	41719.956566
516.266684	41192.447707
516.630488	41603.281581
516.994235	41453.433283
517.357925	41995.054852
517.721558	42176.463294
518.085133	42466.647233
518.448651	42602.655043
518.812112	42378.119530
519.175516	42464.131697
519.538863	42796.653766
519.902152	42765.864919
520.265385	43212.861510
520.628560	43249.490534
520.991678	43071.195005
521.354739	43272.561374
521.717743	43590.312863
522.080690	43490.429961
522.443580	44032.669072
522.806413	44078.382255
523.169189	44032.626222
523.531908	44212.913007
523.894569	44064.052775
524.257174	44237.670114
524.619722	44531.786153
524.982213	44515.225962
525.344647	44434.212099
525.707025	44503.943860
526.069345	44860.993663
526.431608	44793.298529
526.793815	45100.914778
527.155964	44640.717925
527.518057	44803.325384
527.880093	44600.595382
528.242072	45115.123270
528.603995	44831.359240
528.965860	44826.023179
529.327669	44914.787816
529.689421	44808.048945
530.051117	44775.641887
530.412755	44928.489672
530.774337	44993.916287
531.135862	44811.844934
531.497331	44999.625394
531.858743	44896.553962
532.220098	45221.327778
532.581396	44945.087671
532.942638	44634.729035
533.303824	44918.059525
533.664953	44892.049692
534.026025	44617.029543
534.387040	45085.826604
534.747999	45023.278488
535.108902	45188.164548
535.469748	44694.133992
535.830537	44844.284759
536.191270	45030.275609
536.551947	44683.461869
536.912567	44979.773330
537.273131	45107.730418
537.633638	44611.857320
537.994089	44934.849088
538.354483	44541.865940
538.714821	45101.650786
539.075103	45439.299709
539.435328	45223.656792
539.795497	45115.914731
540.155609	45097.154077
540.515665	45552.075362
540.875665	45000.028686
541.235609	45345.141037
541.595496	45310.142827
541.955328	45961.132229
542.315102	45346.023239
542.674821	45145.874308
543.034483	45182.957036
543.394090	45141.465819
543.753640	45111.392816
544.113134	46104.603467
544.472571	45130.894520
544.831953	46344.716146
545.191278	45581.046873
545.550548	45311.655173
545.909761	45756.867196
546.268918	45950.248378
546.628019	46258.308248
546.987064	45817.895404
547.346053	45123.942768
547.704986	45973.409959
548.063863	45554.570733
548.422684	45767.735923
548.781449	45614.416791
549.140158	46000.112951
549.498811	45852.991917
549.857408	45296.090611
550.215949	46121.077958
550.574434	46041.853705
550.932864	45835.363002
551.291237	46539.092956
551.649555	46148.406053
552.007817	46395.571306
552.366022	46046.962914
552.724173	46218.412557
553.082267	46617.014071
553.440305	46900.500837
553.798288	46233.863693
554.156215	46548.605613
554.514086	46755.487005
554.871902	46501.095258
555.229661	46509.085487
555.587365	46363.726337
555.945014	46438.811803
556.302606	46386.088895
556.660143	46611.499048
557.017625	46677.984306
557.375050	46492.323651
557.732421	46840.271651
558.089735	46804.681105
558.446994	46730.981956
558.804197	47194.526135
559.161345	47150.226995
559.518437	46407.725528
559.875474	46722.613641
560.232455	46880.953763
560.589381	47055.052531
560.946251	46749.301509
561.303065	47434.101930
561.659825	47230.267915
562.016528	46918.664114
562.373177	46652.511355
562.729770	47123.249260
563.086307	46657.791964
563.442789	47106.575644
563.799216	47147.638363
564.155587	46941.513144
564.511904	46971.611353
564.868164	47071.597598
565.224370	47317.437027
565.580520	47049.366110
565.936615	47266.309645
566.292654	46994.659508
566.648638	47214.910040
567.004567	47196.189715
567.360441	47224.831031
567.716260	47087.240298
568.072023	47371.707569
568.427732	47372.889719
568.783385	46930.959488
569.138982	47316.827048
569.494525	47298.510015
569.850013	47052.647901
570.205445	47021.629681
570.560823	46989.089033
570.916145	46865.699231
571.271412	46896.349446
571.626625	46638.547359
571.981782	46721.439052
572.336884	46399.901657
572.691931	46724.826707
573.046923	46336.057964
573.401860	46175.915630
573.756743	46172.384301
574.111570	46281.822710
574.466342	46135.145298
574.821059	46252.155520
575.175722	45790.320293
575.530330	45801.204144
575.884882	45533.879317
576.239380	45489.562533
576.593823	45467.925901
576.948211	45374.223454
577.302544	44923.998004
577.656823	44976.554553
578.011047	45186.768148
578.365216	44922.841059
578.719330	44708.851640
579.073389	44556.634000
579.427394	44658.452705
579.781344	44623.857786
580.135239	44293.896623
580.489080	44357.495820
580.842866	43861.189183
581.196597	44312.818594
581.550273	44267.765802
581.903895	44110.481802
582.257463	44534.992326
582.610975	43961.785408
582.964434	44215.184047
583.317837	43868.977765
583.671186	43714.191657
584.024481	43930.149647
584.377721	43469.967918
584.730906	43762.984985
585.084037	43776.465031
585.437113	43496.895241
585.790135	43529.425807
586.143103	43136.601455
586.496016	43274.905511
586.848874	43308.109071
587.201679	43308.502281
587.554428	42788.214875
587.907124	42984.716531
588.259765	42750.507044
588.612352	43002.295034
588.964884	42392.617888
589.317362	42677.175899
589.669786	42623.820327
590.022155	42395.922365
590.374470	42807.313286
590.726731	42330.909124
591.078937	41861.587783
591.431090	41958.282155
591.783188	41620.907975
592.135232	41283.548919
592.487222	41546.795452
592.839157	41623.688172
593.191038	41309.117651
593.542866	41070.035889
593.894639	40485.859419
594.246358	40759.178178
594.598022	40735.930897
594.949633	40345.879180
595.301190	40294.837497
595.652692	40142.786215
596.004141	40469.289147
596.355535	39492.326134
596.706876	39457.353129
597.058162	39291.335330
597.409395	39737.469884
597.760573	39813.775309
598.111698	39391.515660
598.462768	39406.941591
598.813785	39450.066141
599.164748	38911.103781
599.515657	39293.727358
599.866511	38784.918659
600.217312	39382.005523
600.568060	38367.085143
600.918753	39103.176783
601.269392	39075.442876
601.619978	38730.292716
601.970510	38937.085888
602.320988	39110.095767
602.671412	39423.025392
603.021783	39160.711472
603.372100	38819.629524
603.722363	38904.930888
604.072572	38998.255248
604.422728	39003.319088
604.772830	38820.557096
605.122878	38912.749717
605.472872	38850.254533
605.822813	39122.708734
606.172701	38957.598343
606.522534	39188.523518
606.872314	39448.793250
607.222041	39212.509328
607.571714	39592.377914
607.921333	39043.804594
608.270899	39337.340900
608.620411	39668.748875
608.969870	39477.547992
609.319276	39462.966454
609.668627	39524.203870
610.017926	40017.339622
610.367171	40158.625520
610.716362	40243.737841
611.065500	40189.585767
611.414585	40376.083253
611.763616	40682.000633
612.112594	40592.111819
612.461518	40816.861581
612.810389	41120.981789
613.159207	40977.790335
613.507971	41043.345500
613.856682	41516.712366
614.205340	41401.884964
614.553945	42100.548558
614.902496	41549.981461
615.250994	42019.506969
615.599439	42091.928185
615.947830	42299.301089
616.296169	42340.835156
616.644454	42474.874396
616.992686	42642.827998
617.340864	43158.099456
617.688990	42890.469639
618.037063	43483.848735
618.385082	43455.169611
618.733048	43749.648613
619.080961	43768.273156
619.428821	43761.213020
619.776628	43873.499680
620.124382	43699.337897
620.472083	43818.679653
620.819731	43956.275427
621.167326	43613.930669
621.514868	43601.458854
621.862357	43168.244778
622.209793	43186.947459
622.557176	42853.097045
622.904506	42598.400309
623.251783	42245.035589
623.599007	42044.042264
623.946179	41816.305619
624.293297	41779.348920
624.640363	41200.707638
624.987376	41189.904445
625.334336	40938.658378
625.681243	40581.933729
626.028097	40552.654708
626.374899	40404.374208
626.721647	40380.380837
627.068343	40277.674889
627.414987	40046.240557
627.761577	39821.337040
628.108115	40152.399695
628.454600	39605.326118
628.801032	39794.616404
629.147412	39767.119430
629.493739	39770.108834
629.840014	39436.228174
630.186236	39759.779510
630.532405	39374.302640
630.878521	39594.827915
631.224585	39478.112601
631.570597	39184.636788
631.916556	39356.071307
632.262462	39311.159668
632.608316	39319.076800
632.954117	39211.428001
633.299866	39203.306702
633.645562	39116.810584
633.991206	38634.720001
634.336797	38209.418015
634.682336	38184.295425
635.027823	37944.936399
635.373257	37780.267109
635.718639	37528.842081
636.063968	37385.630462
636.409245	36830.244023
636.754470	36878.591208
637.099642	36626.873794
637.444762	36161.842475
637.789829	36304.096275
638.134845	35965.159337
638.479808	35917.974137
638.824719	35824.826217
639.169577	35443.704904
639.514383	35493.294734
639.859137	35199.902101
640.203839	35445.111386
640.548489	35083.988330
640.893086	35154.796377
641.237632	34892.795009
641.582125	35027.781985
641.926566	34947.718380
642.270955	34919.198052
642.615292	34930.016368
642.959576	34907.270682
643.303809	34906.136422
643.647990	35062.334054
643.992118	35025.566398
644.336195	35020.948701
644.680219	35114.598216
645.024192	35417.674906
645.368112	35914.455412
645.711981	35935.494667
646.055797	36792.717673
646.399562	36741.076093
646.743274	37654.407141
647.086935	38109.008313
647.430544	38002.085440
647.774101	38121.926270
648.117606	38349.872123
648.461059	38643.148810
648.804460	38261.462888
649.147810	37665.502721
649.491108	37398.331649
649.834354	37045.052629
650.177548	36244.456904
650.520690	35781.018590
650.863781	35796.063914
651.206820	35636.110623
651.549807	35212.389039
651.892742	34735.314404
652.235626	34547.160898
652.578458	34403.745112
652.921238	33817.690813
653.263967	34137.862056
653.606644	33825.292873
653.949269	33771.493679
654.291843	33382.747621
654.634365	33773.038793
654.976836	33381.915831
655.319255	33376.085736
655.661622	33374.129769
656.003938	33148.822959
656.346203	33012.210211
656.688416	33236.229005
657.030577	33038.451937
657.372687	32877.901269
657.714746	33147.996210
658.056753	33265.540794
658.398708	32721.905284
658.740612	32783.848462
659.082465	33047.452917
659.424266	32882.549213
659.766016	32982.792557
660.107715	32868.779301
660.449362	32990.634072
660.790958	32981.318020
661.132503	33014.294728
661.473996	33039.979407
661.815438	33143.176867
662.156829	33350.925337
662.498168	33116.294914
662.839456	33134.463232
663.180693	33294.983653
663.521879	33447.536530
663.863013	33408.074378
664.204097	33405.805859
664.545129	33877.214237
664.886110	33831.957279
665.227040	33898.727361
665.567918	34006.015718
665.908746	34071.890996
666.249522	34238.554063
666.590248	34231.105758
666.930922	34349.330898
667.271545	34314.972914
667.612118	34398.676232
667.952639	34177.235988
668.293109	34234.306891
668.633528	34133.156139
668.973896	34040.918147
669.314213	34074.905606
669.654480	33820.024867
669.994695	33852.061400
670.334859	33732.959099
670.674973	33640.325377
671.015035	33814.993796
671.355047	33746.373610
671.695008	33693.779252
672.034918	33597.934314
672.374777	33688.904456
672.714585	33515.090513
673.054342	33753.605145
673.394049	33521.969167
673.733705	33792.359015
674.073310	33457.777634
674.412864	33535.358472
674.752368	33134.974910
675.091820	33414.721139
675.431223	32985.686180
675.770574	32726.991808
676.109875	32592.302260
676.449125	32321.665395
676.788324	32237.997365
677.127473	31701.976517
677.466571	31624.473818
677.805619	31286.121654
678.144616	31276.969439
678.483562	31217.844267
678.822458	30888.001570
679.161303	30808.268161
679.500098	30717.179552
679.838842	30616.469901
680.177535	30772.967481
680.516179	31042.079397
680.854771	31285.947734
681.193314	32141.570174
681.531805	33275.807104
681.870247	34046.289496
682.208638	34777.198831
682.546978	35015.259759
682.885268	35091.572746
683.223508	34559.753701
683.561697	34220.335333
683.899836	34032.683422
684.237925	33532.008625
684.575963	33382.200656
684.913951	32916.703030
685.251889	33077.157916
685.589776	33079.106322
685.927614	33059.897005
686.265401	33197.641493
686.603137	33316.113650
686.940824	33819.102336
687.278460	34203.765060
687.616046	34342.384188
687.953582	34957.379751
688.291068	34819.378165
688.628504	35105.834170
688.965889	35028.943971
689.303224	34632.779855
689.640510	34282.676762
689.977745	33558.257913
690.314930	32757.352157
690.652065	32234.191293
690.989150	31483.346716
691.326185	30589.484604
691.663170	29893.820497
692.000105	29126.876995
692.336990	28451.758110
692.673825	28004.605243
693.010610	27492.633220
693.347345	26909.643943
693.684030	26258.518430
694.020665	25991.344838
694.357251	25316.031868
694.693786	25265.532110
695.030272	25047.323245
695.366707	24499.231355
695.703093	24231.296548
696.039429	24210.098496
696.375716	23947.547642
696.711952	23911.785697
697.048139	23765.241875
697.384276	23589.040945
697.720363	23698.496998
698.056400	23505.859386
698.392388	23295.607983
698.728326	23256.823866
699.064214	23045.221433
699.400053	22988.465602
699.735842	22633.681798
700.071581	22353.199559
700.407270	22074.363258
700.742910	21872.235674
701.078501	21613.057352
701.414042	21323.130512
701.749533	21039.464785
702.084974	20688.542504
702.420366	20886.609438
702.755709	20448.495361
703.091002	20163.579427
703.426246	20172.656025
703.761440	20075.674307
704.096584	19811.338885
704.431679	19769.348594
704.766725	19681.284677
705.101721	19611.144583
705.436668	19710.770386
705.771565	19381.847701
706.106413	19729.052131
706.441212	19701.461896
706.775961	19841.311065
707.110661	19918.047509
707.445311	20273.365676
707.779913	20109.661767
708.114465	20360.328100
708.448967	20648.112450
708.783421	21337.838078
709.117825	21616.379472
709.452180	21830.820074
709.786485	22241.895924
710.120742	23028.620913
710.454949	23055.371796
710.789107	23510.847608
711.123216	24224.153233
711.457275	24347.336348
711.791286	24891.796087
712.125247	24955.501148
712.459159	24641.245700
712.793023	25300.074096
713.126837	24196.184912
713.460602	24435.732981
713.794318	24059.589807
714.127985	23659.044928
714.461602	22765.470162
714.795171	22733.350450
715.128691	21716.615255
715.462162	21180.821259
715.795584	20770.367993
716.128957	20505.301603
716.462281	20093.068809
716.795556	19861.211020
717.128782	19368.080309
717.461960	18817.268717
717.795088	18744.502182
718.128167	18352.691102
718.461198	17884.493938
718.794180	17746.084018
719.127113	17387.156385
719.459997	17198.478599
719.792833	16850.747369
720.125619	16813.841082
720.458357	16502.204512
720.791046	16333.041033
721.123686	16180.916654
721.456278	15936.145950
721.788821	15899.509364
722.121315	15633.336441
722.453761	15722.322889
722.786158	15639.310209
723.118506	15645.616692
723.450805	15519.923083
723.783056	15672.092832
724.115259	15576.217648
724.447412	15516.190108
724.779518	15752.340440
725.111574	15771.564880
725.443582	15975.502238
725.775542	15955.992973
726.107453	16420.114363
726.439315	16310.570090
726.771129	16697.521498
727.102895	17069.651913
727.434612	17284.775592
727.766281	17407.003408
728.097901	17670.252462
728.429473	17698.379579
728.760996	17678.209923
729.092471	17758.490298
729.423897	17635.140825
729.755276	17504.038058
730.086606	17611.396990
730.417887	18133.574829
730.749120	18653.728645
731.080305	18833.402930
731.411442	19161.519031
731.742530	19229.347756
732.073570	19321.016097
732.404562	19608.956722
732.735506	19433.302758
733.066401	19146.871958
733.397249	18620.777143
733.728048	17984.308784
734.058798	17148.876166
734.389501	16475.993033
734.720156	16011.775861
735.050762	15486.162475
735.381320	15141.949970
735.711831	14900.458536
736.042293	14555.124374
736.372707	14560.442792
736.703073	14365.067833
737.033391	14544.807653
737.363661	14517.880330
737.693883	14623.787410
738.024056	14791.365447
738.354182	14975.760772
738.684260	15267.772129
739.014290	15482.699203
739.344272	15681.913000
739.674207	15959.370546
740.004093	16072.746096
740.333931	16066.502627
740.663722	16092.227635
740.993464	16079.405460
741.323159	15909.458082
741.652806	15632.229908
741.982405	15414.925930
742.311956	15077.435804
742.641460	14956.314521
742.970915	14653.036185
743.300323	14320.362881
743.629683	14108.021919
743.958996	13833.127800
744.288260	13557.585892
744.617477	13264.702416
744.946647	13187.413966
745.275768	12916.761977
745.604842	12731.678534
745.933869	12562.905745
746.262847	12523.042821
746.591778	12444.383177
746.920662	12341.911642
747.249498	12347.696367
747.578286	12465.593832
747.907027	12608.432405
748.235720	12822.295795
748.564365	12853.684540
748.892963	12754.827513
749.221514	12815.752378
749.550017	12672.719720
749.878473	12636.577167
750.206881	12412.873445
750.535242	12319.947335
750.863555	12233.768810
751.191821	12138.659881
751.520039	12157.004640
751.848210	12063.163561
752.176334	12098.645722
752.504411	12001.109478
752.832440	11844.490910
753.160421	11913.224522
753.488356	11787.301540
753.816243	11697.347191
754.144082	11553.265973
754.471875	11495.358239
754.799620	11449.980293
755.127318	11416.252453
755.454969	11375.882893
755.782572	11335.052067
756.110129	11342.490290
756.437638	11261.327713
756.765100	11258.547516
757.092515	11253.055179
757.419882	11272.503951
757.747203	11283.748244
758.074477	11356.666014
758.401703	11315.459623
758.728882	11468.929990
759.056014	11513.135868
759.383099	11625.009154
759.710138	11726.825338
760.037129	11811.990591
760.364073	11829.705206
760.690970	11813.220633
761.017820	11804.267544
761.344623	12003.113337
761.671379	12322.173005
761.998088	12938.995986
762.324751	14487.071318
762.651366	17359.989607
762.977935	21013.273470
763.304456	23220.235171
763.630931	23692.903838
763.957359	22511.222088
764.283740	20598.900706
764.610074	18716.291885
764.936362	16598.508195
765.262602	15085.426033
765.588796	13623.556952
765.914943	12597.677103
766.241044	11752.691499
766.567097	11121.589449
766.893104	10577.752292
767.219064	10218.484381
767.544978	9838.497328
767.870845	9529.968630
768.196665	9332.420934
768.522438	9138.777612
768.848165	8980.843303
769.173846	8816.105957
769.499479	8693.706742
769.825066	8534.844861
770.150607	8355.775514
770.476101	8291.089949
770.801548	8181.207918
771.126949	8042.384624
771.452303	7958.691388
771.777611	7791.642673
772.102872	7770.883201
772.428087	7652.814337
772.753256	7524.360696
773.078378	7439.659229
773.403453	7300.727549
773.728482	7198.472785
774.053465	7129.759337
774.378401	7048.579116
774.703291	6951.647810
775.028135	6855.187852
775.352932	6827.728687
775.677683	6747.123158
776.002388	6652.440206
776.327046	6651.731924
776.651658	6560.368572
776.976224	6488.249825
777.300743	6475.994780
777.625216	6409.277630
777.949643	6364.048397
778.274024	6372.575509
778.598359	6302.566485
778.922647	6306.589326
779.246889	6264.031905
779.571086	6276.967506
779.895236	6285.597961
780.219339	6279.079749
780.543397	6280.256859
780.867409	6324.503066
781.191374	6322.771430
781.515294	6294.853520
781.839167	6345.154153
782.162995	6312.195089
782.486776	6262.426298
782.810511	6222.427262
783.134201	6154.006202
783.457844	6139.142360
783.781441	6086.900882
784.104993	6046.995108
784.428498	6015.651734
784.751958	5997.589280
785.075372	5978.906764
785.398739	5937.970074
785.722061	5958.679134
786.045337	5962.187777
786.368568	6067.268109
786.691752	6091.130410
787.014891	6339.583678
787.337983	6617.759588
787.661030	7052.682616
787.984031	7477.082234
788.306987	7747.507371
788.629897	7828.133065
788.952760	7746.486537
789.275579	7560.873773
789.598351	7264.905110
789.921078	7009.411872
790.243759	6726.484674
790.566395	6523.366503
790.888984	6327.792419
791.211529	6187.292941
791.534027	6028.889804
791.856480	5890.510131
792.178888	5828.236758
792.501249	5761.880050
792.823566	5663.985883
793.145836	5656.293083
793.468062	5632.609742
793.790241	5596.159679
794.112375	5638.066791
794.434464	5733.140432
794.756507	5763.382314
795.078505	5884.652311
795.400457	6104.106340
795.722364	6339.482855
796.044226	6535.719850
796.366042	6691.340270
796.687812	6637.677187
797.009538	6667.215828
797.331218	6572.396765
797.652852	6507.020562
797.974442	6383.643362
798.295986	6308.898174
798.617484	6189.942067
798.938938	6076.992494
799.260346	6003.691597
799.581709	5869.803592
799.903026	5821.368186
800.224299	5748.089973
800.545526	5629.017920
800.866708	5567.311676
801.187845	5516.264952
801.508936	5441.219815
801.829983	5414.075723
802.150984	5305.791738
802.471940	5282.930105
802.792851	5265.835552
803.113717	5237.917643
803.434538	5216.308737
803.755314	5182.966545
804.076045	5175.437582
804.396731	5140.310822
804.717372	5154.781454
805.037967	5155.499818
805.358518	5185.540054
805.679024	5244.786215
805.999485	5254.881125
806.319901	5273.046923
806.640272	5288.961846
806.960598	5340.137119
807.280879	5328.217311
807.601115	5367.366912
807.921306	5324.126414
808.241453	5323.713040
808.561554	5336.570503
808.881611	5302.154545
809.201623	5294.219769
809.521590	5245.802007
809.841513	5231.296087
810.161390	5247.195886
810.481223	5156.956712
810.801011	5150.438500
811.120755	5121.625785
811.440453	5068.368515
811.760107	5036.374832
812.079716	5011.637890
812.399281	4963.706600
812.718801	4953.336946
813.038276	4924.441052
813.357707	4887.325557
813.677093	4907.669133
813.996434	4841.992981
814.315731	4866.528277
814.634983	4859.213563
814.954191	4869.537846
815.273354	4927.438018
815.592473	4970.381087
815.911547	5043.238363
816.230577	5097.123257
816.549562	5179.248694
816.868502	5238.787242
817.187399	5288.674500
817.506250	5372.377818
817.825058	5392.267691
818.143821	5550.673348
818.462539	5721.346652
818.781213	5949.254697
819.099843	6309.266178
819.418429	6932.093174
819.736970	7551.971095
820.055466	8257.964527
820.373919	9173.284310
820.692327	10615.782757
821.010691	13288.713432
821.329011	19487.106993
821.647286	29061.652026
821.965517	39397.207123
822.283704	44889.193878
822.601847	46368.875875
822.919945	41790.542802
823.237999	36652.954203
823.556010	31451.418568
823.873976	26743.767296
824.191897	22541.597561
824.509775	19483.931066
824.827609	16705.287395
825.145398	15158.900850
825.463144	14404.351025
825.780845	14696.561507
826.098502	15938.853050
826.416116	18408.531963
826.733685	20692.618277
827.051210	21239.384343
827.368692	19819.129988
827.686129	17247.183707
828.003522	14762.570376
828.320872	12555.291082
828.638177	10902.342106
828.955439	9655.674842
829.272656	8602.451775
829.589830	7759.752333
829.906960	7025.203286
830.224046	6498.760631
830.541088	6085.113793
830.858086	5829.187015
831.175041	5626.782168
831.491952	5572.602367
831.808819	5600.535400
832.125642	5845.432134
832.442421	6389.856584
832.759157	7498.310533
833.075849	9267.808465
833.392497	11119.875456
833.709101	12232.044736
834.025662	11986.548105
834.342179	10932.304204
834.658653	9628.374474
834.975083	8521.390021
835.291469	7618.095910
835.607811	6882.233642
835.924110	6360.322985
836.240366	5878.035796
836.556578	5424.498308
836.872746	5071.988064
837.188871	4797.356084
837.504952	4578.822065
837.820990	4411.057506
838.136984	4300.436947
838.452935	4249.433073
838.768842	4280.942805
839.084706	4558.695258
839.400526	5296.188340
839.716303	6202.411361
840.032037	6765.755262
840.347727	6622.977182
840.663373	6026.840575
840.978977	5446.245846
841.294537	5005.689329
841.610054	4673.028628
841.925527	4437.102628
842.240957	4229.465063
842.556344	4046.380437
842.871687	3889.144328
843.186987	3739.437182
843.502244	3620.753297
843.817458	3535.252807
844.132629	3464.404431
844.447756	3418.030857
844.762840	3372.965462
845.077881	3333.379802
845.392879	3299.082312
845.707833	3274.786471
846.022745	3248.660691
846.337613	3234.631160
846.652438	3213.087789
846.967221	3203.202086
847.281960	3180.653005
847.596656	3175.934485
847.911309	3164.249090
848.225919	3145.579177
848.540485	3137.851088
848.855009	3131.761374
849.169490	3119.029940
849.483928	3112.128601
849.798323	3108.662807
850.112675	3096.768205
850.426984	3100.271807
850.741251	3088.067173
851.055474	3088.808223
851.369654	3089.977771
851.683792	3086.217070
851.997887	3086.476689
852.311938	3088.036926
852.625947	3089.377873
852.939914	3081.231369
853.253837	3087.071545
853.567718	3085.176072
853.881555	3083.762028
854.195350	3087.779827
854.509103	3081.843869
854.822812	3081.143148
855.136479	3077.465627
855.450103	3081.624579
855.763685	3073.851119
856.077224	3077.505956
856.390720	3083.671287
856.704173	3094.628235
857.017584	3102.547888
857.330953	3103.288937
857.644278	3112.315123
857.957561	3117.268057
858.270802	3112.010133
858.584000	3111.914352
858.897155	3106.482508
859.210268	3096.896754
859.523339	3083.734302
859.836367	3084.513160
860.149352	3078.075606
860.462295	3076.109556
860.775195	3063.539439
861.088054	3056.756567
861.400869	3060.015673
861.713642	3060.769325
862.026373	3068.394070
862.339062	3072.409349
862.651708	3076.376738
862.964312	3095.631425
863.276873	3102.084102
863.589392	3134.420583
863.901869	3159.656599
864.214303	3181.988911
864.526696	3197.253524
864.839045	3219.321175
865.151353	3230.532702
865.463619	3231.235943
865.775842	3230.605798
866.088023	3235.599061
866.400162	3229.216960
866.712258	3231.752661
867.024313	3229.844584
867.336325	3228.906929
867.648296	3230.111765
867.960224	3227.044223
868.272110	3230.625963
868.583954	3232.954976
868.895755	3239.755492
869.207515	3233.544791
869.519233	3254.412647
869.830909	3257.649068
870.142542	3270.153650
870.454134	3279.033643
870.765684	3289.582257
871.077191	3310.916420
871.388657	3321.696928
871.700081	3339.429186
872.011463	3356.977443
872.322803	3379.211452
872.634101	3398.551839
872.945357	3420.377514
873.256571	3447.072944
873.567744	3461.409986
873.878874	3465.014411
874.189963	3482.613079
874.501010	3484.684993
874.812015	3481.080568
875.122979	3496.423320
875.433900	3494.643793
875.744780	3497.010614
876.055618	3506.550998
876.366415	3502.863394
876.677169	3508.716174
876.987882	3526.554297
877.298554	3546.290414
877.609183	3586.491095
877.919771	3630.276037
878.230317	3700.635421
878.540822	3802.996050
878.851285	3955.909370
879.161707	4179.479502
879.472087	4547.665214
879.782425	5172.186038
880.092722	6356.968097
880.402977	8297.885424
880.713191	10671.928608
881.023363	13069.100605
881.333494	14419.338375
881.643583	14883.003541
881.953631	14484.694414
882.263637	13628.540133
882.573602	12588.683685
882.883526	11633.379990
883.193408	10671.122023
883.503248	9748.926106
883.813048	8921.501361
884.122806	8157.335534
884.432522	7380.128243
884.742197	6722.509724
885.051831	6162.981976
885.361424	5659.630326
885.670975	5265.278505
885.980485	4937.981592
886.289954	4667.206095
886.599382	4450.514617
886.908768	4271.130199
887.218113	4109.407463
887.527417	3975.902586
887.836680	3853.974718
888.145901	3750.774737
888.455082	3675.270856
888.764221	3605.773509
889.073319	3548.334602
889.382376	3514.092564
889.691392	3490.537773
890.000366	3478.370948
890.309300	3479.832883
890.618193	3482.766834
890.927044	3472.765185
891.235855	3478.965804
891.544625	3497.300481
891.853353	3524.021117
892.162041	3586.511260
892.470687	3678.913089
892.779293	3791.774442
893.087858	3972.265393
893.396381	4251.409205
893.704864	4660.559334
894.013306	5233.932610
894.321707	5809.423172
894.630068	6173.644017
894.938387	6210.515016
895.246665	6031.359970
895.554903	5715.483790
895.863100	5372.627356
896.171256	5102.234987
896.479371	4861.845045
896.787446	4637.264162
897.095480	4438.025159
897.403473	4286.011685
897.711425	4144.382988
898.019336	4021.162065
898.327207	3897.467273
898.635038	3795.759474
898.942827	3689.991025
899.250576	3602.010287
899.558284	3516.267822
899.865952	3462.622383
900.173579	3398.682909
900.481165	3352.863861
900.788711	3310.644198
901.096216	3276.039197
901.403681	3249.348808
901.711105	3240.272211
902.018489	3235.039493
902.325832	3269.223557
902.633135	3324.769511
902.940397	3496.856859
903.247619	3905.790218
903.554800	4658.626051
903.861941	5628.430625
904.169041	6336.838769
904.476101	6550.926491
904.783121	6280.087980
905.090100	5867.078848
905.397039	5454.193225
905.703938	5094.285087
906.010796	4769.077732
906.317614	4512.971993
906.624391	4274.674130
906.931129	4075.845981
907.237826	3899.771080
907.544483	3722.380438
907.851099	3553.365673
908.157675	3392.832650
908.464211	3249.585742
908.770707	3149.329795
909.077163	3068.930953
909.383578	3011.865092
909.689954	2965.609985
909.996289	2936.814914
910.302584	2913.376069
910.608839	2902.855181
910.915054	2885.594270
911.221229	2884.570916
911.527363	2890.322873
911.833458	2895.174983
912.139513	2908.211407
912.445527	2920.973088
912.751502	2954.370732
913.057436	2999.594923
913.363331	3055.367729
913.669186	3144.074392
913.975000	3260.038575
914.280775	3450.014458
914.586510	3717.997155
914.892205	4097.056636
915.197859	4593.953088
915.503475	5184.587276
915.809050	5684.180746
916.114585	5975.980374
916.420081	6049.424945
916.725536	5979.935159
917.030952	5737.725361
917.336328	5533.934196
917.641665	5318.535775
917.946961	5091.540179
918.252218	4881.480339
918.557435	4656.324764
918.862612	4459.129949
919.167750	4284.481695
919.472848	4096.474383
919.777906	3923.850152
920.082925	3766.606481
920.387904	3612.153089
920.692843	3498.654031
920.997743	3396.956313
921.302603	3303.899134
921.607423	3242.651635
921.912204	3176.204187
922.216946	3124.358440
922.521647	3074.839186
922.826310	3035.818134
923.130932	2996.766836
923.435516	2957.382822
923.740059	2928.416352
924.044564	2898.313101
924.349028	2873.281252
924.653454	2844.319823
924.957840	2816.827891
925.262186	2797.910961
925.566493	2776.256684
925.870761	2748.179978
926.174989	2741.011457
926.479178	2725.151987
926.783328	2709.390820
927.087438	2697.070240
927.391509	2685.135308
927.695541	2671.945129
927.999533	2661.353665
928.303486	2653.822181
928.607400	2650.043836
928.911275	2643.218114
929.215110	2634.469191
929.518906	2631.598254
929.822663	2632.621608
930.126381	2634.827113
930.430060	2637.602268
930.733699	2636.084881
931.037299	2643.213073
931.340861	2640.354738
931.644383	2644.957312
931.947866	2643.167702
932.251309	2640.266518
932.554714	2637.514048
932.858080	2636.170581
933.161407	2633.728142
933.464694	2629.291926
933.767943	2624.810341
934.071153	2623.229939
934.374323	2616.298352
934.677455	2616.535287
934.980548	2611.103443
935.283602	2610.710233
935.586617	2607.856940
935.889593	2612.295676
936.192530	2614.236520
936.495428	2620.573251
936.798287	2626.894858
937.101108	2642.628299
937.403890	2665.005981
937.706632	2691.005732
938.009336	2721.038406
938.312002	2752.838004
938.614628	2776.178547
938.917216	2799.723256
939.219765	2802.793318
939.522275	2817.168168
939.824747	2818.020123
940.127179	2810.513845
940.429573	2805.389512
940.731929	2803.660397
941.034246	2795.120682
941.336524	2791.672533
941.638763	2784.211625
941.940964	2778.883126
942.243126	2762.010384
942.545250	2752.417068
942.847335	2734.899058
943.149381	2724.438664
943.451389	2711.036757
943.753359	2696.089735
944.055290	2687.862572
944.357182	2678.821263
944.659036	2676.772034
944.960851	2672.345901
945.262628	2668.063441
945.564367	2667.690395
945.866067	2665.915909
946.167729	2664.995898
946.469352	2665.391629
946.770937	2661.192348
947.072484	2655.137922
947.373992	2656.327634
947.675462	2652.324958
947.976893	2644.710295
948.278286	2642.255253
948.579641	2638.030767
948.880958	2636.926754
949.182236	2635.011115
949.483476	2633.317288
949.784678	2633.589510
950.085841	2633.113121
950.386967	2637.287196
950.688054	2641.516724
950.989103	2648.130718
951.290114	2660.534477
951.591087	2672.764317
951.892021	2679.156500
952.192917	2693.793490
952.493776	2708.261601
952.794596	2711.261088
953.095378	2711.525748
953.396122	2708.173381
953.696828	2703.951415
953.997496	2701.735828
954.298126	2691.265351
954.598718	2679.995852
954.899272	2670.296672
955.199788	2660.673109
955.500266	2649.786737
955.800706	2633.644963
956.101108	2614.362549
956.401472	2604.769233
956.701798	2591.528643
957.002087	2576.344687
957.302337	2567.623491
957.602550	2555.854918
957.902724	2545.497867
958.202861	2538.500746
958.502960	2526.976668
958.803022	2519.672036
959.103045	2512.947137
959.403031	2505.198883
959.702979	2502.547236
960.002889	2495.560197
960.302762	2492.648931
960.602596	2488.152222
960.902393	2486.312200
961.202153	2482.934627
961.501875	2476.499594
961.801559	2474.876343
962.101205	2473.116980
962.400814	2469.930971
962.700385	2467.541464
962.999918	2468.048100
963.299414	2468.181691
963.598873	2466.003912
963.898293	2463.901751
964.197677	2461.855043
964.497022	2460.975361
964.796331	2460.385546
965.095601	2459.173149
965.394835	2456.488734
965.694030	2457.340689
965.993189	2458.616101
966.292309	2456.700463
966.591393	2453.993363
966.890439	2456.365226
967.189447	2458.361523
967.488419	2456.213991
967.787353	2456.594598
968.086249	2454.590740
968.385108	2454.167283
968.683930	2456.561831
968.982714	2458.298508
969.281462	2464.675568
969.580172	2463.498459
969.878844	2468.022894
970.177480	2466.455095
970.476078	2468.826958
970.774639	2475.226703
971.073162	2473.817701
971.371649	2475.067907
971.670098	2477.706951
971.968510	2478.301807
972.266885	2480.066211
972.565223	2480.225007
972.863524	2482.677528
973.161788	2482.667446
973.460014	2486.178610
973.758204	2486.642396
974.056356	2486.566779
974.354471	2486.526449
974.652550	2487.446460
974.950591	2487.658188
975.248595	2487.554845
975.546563	2486.108034
975.844493	2484.636017
976.142386	2482.793475
976.440243	2482.259113
976.738062	2480.333392
977.035845	2473.260653
977.333590	2472.202011
977.631299	2469.532720
977.928971	2467.609520
978.226606	2466.021556
978.524204	2467.677575
978.821765	2464.920064
979.119290	2464.678089
979.416777	2462.946452
979.714228	2465.683799
980.011642	2467.629684
980.309020	2471.332412
980.606360	2477.018833
980.903664	2483.373208
981.200931	2494.718324
981.498162	2516.541479
981.795356	2544.199770
982.092513	2584.113106
982.389633	2626.529374
982.686717	2669.177536
982.983764	2702.580221
983.280775	2721.570247
983.577749	2721.466904
983.874686	2711.520707
984.171587	2696.188038
984.468451	2679.353105
984.765279	2661.134375
985.062070	2640.334574
985.358824	2624.250772
985.655543	2601.651280
985.952224	2578.683783
986.248869	2552.207643
986.545478	2522.847963
986.842050	2506.076044
987.138586	2486.617190
987.435086	2471.723101
987.731549	2462.694395
988.027975	2457.849846
988.324366	2450.504885
988.620719	2444.263936
988.917037	2443.860644
989.213318	2437.723039
989.509563	2438.945519
989.805772	2435.346135
990.101944	2435.000816
990.398080	2433.871598
990.694180	2432.008891
990.990244	2433.284303
991.286271	2432.427307
991.582262	2432.989396
991.878217	2433.831268
992.174136	2435.570466
992.470019	2435.968718
992.765865	2437.024839
993.061676	2439.903338
993.357450	2443.512804
993.653188	2445.625048
993.948890	2450.043619
994.244556	2457.570062
994.540186	2466.613892
994.835780	2478.861375
995.131337	2491.439054
995.426859	2509.073010
995.722345	2527.379960
996.017795	2547.874771
996.313208	2563.467060
996.608586	2572.783112
996.903928	2576.017012
997.199234	2574.794533
997.494504	2569.307237
997.789738	2562.168963
998.084936	2552.636141
998.380099	2541.369162
998.675225	2527.042203
998.970316	2518.101717
999.265371	2502.184273
999.560390	2491.416369
999.855373	2477.235603
1000.150320	2470.135138
1000.445232	2458.885803
1000.740108	2454.595781
1001.034948	2445.728391
1001.329752	2441.236723
1001.624521	2436.205652
1001.919254	2431.406473
1002.213951	2429.516041
1002.508613	2424.704259
1002.803239	2426.458581
1003.097829	2421.228384
1003.392384	2423.648138
1003.686903	2421.074628
1003.981386	2420.729309
1004.275834	2419.411048
1004.570246	2421.344330
1004.864623	2415.700758
1005.158964	2416.829977
1005.453270	2415.647826
1005.747540	2416.451890
1006.041775	2415.115985
1006.335974	2417.119843
1006.630138	2412.910480
1006.924266	2414.939544
1007.218359	2416.436767
1007.512416	2414.291756
1007.806438	2414.097672
1008.100425	2412.771848
1008.394376	2411.829152
1008.688292	2413.543145
1008.982172	2411.756056
1009.276017	2414.180851
1009.569827	2412.237486
1009.863602	2413.727147
1010.157341	2411.078020
1010.451045	2411.602300
1010.744714	2408.620458
1011.038347	2411.120870
1011.331945	2408.983421
1011.625508	2413.381828
1011.919036	2409.878226
1012.212528	2411.879564
1012.505986	2408.718760
1012.799408	2408.592732
1013.092795	2409.038874
1013.386147	2406.288924
1013.679464	2407.123235
1013.972745	2406.470406
1014.265992	2407.705488
1014.559204	2408.224727
1014.852380	2408.086096
1015.145521	2408.234810
1015.438628	2405.489901
1015.731699	2411.877043
1016.024736	2404.247257
1016.317737	2409.958884
1016.610703	2413.444842
1016.903635	2407.897052
1017.196531	2405.739438
1017.489393	2408.756569
1017.782219	2406.064593
1018.075011	2413.127249
1018.367768	2411.700603
1018.660490	2409.089285
1018.953177	2409.089285
1019.245829	2409.089285
