Dividing Wavelength (nm)	Counts (n)	Blue Motor Position (mm): 8.200000	Red Motor Position (mm): 0.000000	
326.493990	1975.945785
326.888308	1975.945785
327.282561	1975.945785
327.676750	1950.447629
328.070874	1953.711776
328.464933	1958.415172
328.858929	1969.644343
329.252859	1981.024747
329.646726	1995.984372
330.040528	2011.453152
330.434265	2029.833199
330.827938	2051.439584
331.221547	2068.924827
331.615091	2090.884093
332.008571	2111.270519
332.401986	2131.084774
332.795338	2150.152938
333.188625	2166.965187
333.581847	2189.796572
333.975006	2207.536393
334.368100	2226.924670
334.761129	2244.213308
335.154095	2255.513054
335.546996	2279.009872
335.939833	2310.310396
336.332606	2323.901347
336.725315	2334.785198
337.117960	2343.294666
337.510540	2350.624503
337.903056	2358.297140
338.295508	2365.105218
338.687896	2375.600900
339.080220	2380.836138
339.472480	2385.516850
339.864676	2388.405431
340.256807	2388.869217
340.648875	2392.302243
341.040879	2393.945659
341.432818	2394.033879
341.824694	2398.172667
342.216506	2393.078581
342.608253	2396.473798
342.999937	2395.505896
343.391557	2394.157387
343.783113	2391.699825
344.174605	2389.164125
344.566033	2388.435678
344.957397	2388.569268
345.348697	2385.862169
345.739934	2384.995090
346.131106	2381.672970
346.522215	2379.711961
346.913260	2380.006869
347.304241	2378.721374
347.695159	2376.389841
348.086012	2373.198790
348.476802	2372.195601
348.867528	2372.641743
349.258191	2369.886752
349.648789	2369.639736
350.039324	2366.431041
350.429796	2367.782071
350.820203	2367.194776
351.210548	2363.328211
351.600828	2363.116483
351.991045	2365.289220
352.381198	2366.236957
352.771288	2363.766792
353.161314	2362.395598
353.551276	2361.886441
353.941175	2361.654548
354.331010	2363.134127
354.720782	2366.105887
355.110490	2362.854343
355.500135	2362.811493
355.889717	2365.241329
356.279235	2365.238808
356.668689	2367.303161
357.058080	2363.668489
357.447408	2364.757378
357.836672	2363.600433
358.225873	2364.134796
358.615010	2362.808972
359.004084	2368.462626
359.393095	2366.519262
359.782043	2367.908099
360.170927	2369.944726
360.559748	2370.058152
360.948505	2372.135107
361.337199	2367.618233
361.725830	2371.530168
362.114398	2371.726773
362.502903	2371.499922
362.891344	2371.588142
363.279722	2371.051259
363.668037	2373.546630
364.056289	2373.153420
364.444478	2374.461599
364.832603	2371.429345
365.220665	2371.605786
365.608665	2373.264325
365.996601	2376.573843
366.384474	2374.461599
366.772284	2372.561084
367.160031	2375.953781
367.547715	2377.420757
367.935336	2375.391692
368.322893	2376.422608
368.710388	2376.208359
369.097820	2377.478730
369.485189	2376.835983
369.872495	2378.413864
370.259738	2374.963194
370.646918	2378.759183
371.034035	2378.849924
371.421090	2379.669111
371.808081	2377.463607
372.195010	2377.377907
372.581875	2377.768596
372.968678	2380.314379
373.355418	2378.668442
373.742096	2379.222969
374.128710	2379.966539
374.515262	2380.621889
374.901751	2379.104502
375.288177	2380.586601
375.674540	2381.032743
376.060841	2379.475027
376.447079	2379.538041
376.833254	2382.192209
377.219367	2376.896477
377.605417	2382.096427
377.991404	2377.045191
378.377329	2381.115922
378.763191	2379.732126
379.148991	2383.944010
379.534727	2382.885368
379.920402	2381.695655
380.306013	2383.039123
380.691563	2384.753115
381.077049	2385.191695
381.462474	2384.256561
381.847835	2381.062990
382.233134	2384.175903
382.618371	2383.291180
383.003545	2385.526932
383.388657	2384.306973
383.773706	2385.650440
384.158693	2384.150697
384.543618	2387.291336
384.928480	2383.437374
385.313280	2386.421737
385.698017	2386.862838
386.082692	2389.675802
386.467305	2388.145812
386.851856	2387.924001
387.236344	2388.483569
387.620770	2388.415513
388.005133	2387.520708
388.389435	2385.733619
388.773674	2389.685884
389.157851	2389.625390
389.541965	2387.215719
389.926018	2390.069012
390.310008	2390.041285
390.693936	2388.168497
391.077802	2387.760163
391.461606	2390.316028
391.845348	2390.041285
392.229027	2389.290153
392.612645	2389.612787
392.996200	2391.089845
393.379694	2390.202602
393.763125	2389.595143
394.146494	2391.367109
394.529801	2391.520864
394.913047	2391.220915
395.296230	2390.104300
395.679351	2391.626728
396.062410	2390.527757
396.445408	2390.409290
396.828343	2392.771070
397.211217	2387.742519
397.594028	2389.020452
397.976778	2388.453322
398.359466	2389.557335
398.742092	2385.542056
399.124656	2390.167314
399.507158	2392.718138
399.889598	2394.560680
400.271977	2393.446585
400.654294	2393.244939
401.036549	2396.400701
401.418742	2396.267110
401.800874	2394.941287
402.182944	2394.807696
402.564952	2394.164949
402.946898	2395.095042
403.328783	2393.597819
403.710606	2395.997409
404.092367	2394.679147
404.474067	2395.140412
404.855705	2397.761812
405.237282	2398.303737
405.618797	2397.146792
406.000250	2397.469426
406.381642	2397.081257
406.762972	2395.768036
407.144240	2398.656617
407.525447	2395.359703
407.906593	2398.676782
408.287677	2397.058572
408.668700	2396.592265
409.049661	2397.202244
409.430560	2400.476474
409.811399	2397.499672
410.192176	2399.742986
410.572891	2398.586041
410.953545	2397.618140
411.334138	2399.374982
411.714669	2399.856412
412.095139	2398.855743
412.475547	2398.699467
412.855894	2399.634601
413.236180	2398.127296
413.616405	2402.467730
413.996568	2397.068654
414.376670	2402.830693
414.756711	2400.912534
415.136691	2397.217368
415.516609	2400.594941
415.896466	2401.426731
416.276262	2401.051165
416.655997	2397.613098
417.035670	2396.244425
417.415283	2396.914899
417.794834	2396.630073
418.174324	2401.212482
418.553753	2400.431103
418.933121	2400.274828
419.312428	2396.945146
419.691674	2401.449417
420.070859	2401.278017
420.449983	2402.419839
420.829045	2402.200548
421.208047	2401.550240
421.586988	2403.211300
421.965867	2404.516959
422.344686	2400.950342
422.723444	2403.339849
423.102141	2403.407905
423.480777	2400.902451
423.859352	2404.864798
424.237866	2401.908162
424.616319	2403.327246
424.994712	2403.014695
425.373044	2401.499828
425.751314	2404.053173
426.129524	2404.590055
426.507673	2403.261711
426.885762	2404.199366
427.263789	2403.042421
427.641756	2403.080230
428.019662	2406.051990
428.397508	2403.647360
428.775292	2403.239026
429.153016	2406.354459
429.530679	2404.660632
429.908282	2404.726167
430.285824	2403.720456
430.663305	2402.503018
431.040726	2404.769016
431.418086	2403.854047
431.795385	2401.875394
432.172624	2405.101733
432.549802	2405.177350
432.926920	2404.882442
433.303977	2403.279355
433.680974	2406.218348
434.057910	2405.946126
434.434786	2406.145251
434.811601	2407.390416
435.188355	2402.155178
435.565050	2406.868657
435.941683	2407.216497
436.318257	2403.503687
436.694770	2401.424211
437.071222	2405.449572
437.447614	2400.426062
437.823946	2404.201887
438.200218	2406.404871
438.576429	2406.286404
438.952580	2404.564850
439.328670	2406.382186
439.704700	2404.395971
440.080670	2406.987124
440.456580	2407.428225
440.832429	2409.164902
441.208218	2405.328584
441.583947	2405.867988
441.959616	2408.257495
442.335224	2407.070303
442.710773	2407.975190
443.086261	2405.842782
443.461689	2406.732546
443.837057	2407.460992
444.212365	2408.812022
444.587612	2407.198852
444.962800	2405.920920
445.337927	2408.570046
445.712995	2406.034346
446.088002	2406.137690
446.462949	2406.805643
446.837837	2407.329923
447.212664	2405.457134
447.587431	2410.324368
447.962139	2406.994686
448.336786	2408.181878
448.711374	2409.815211
449.085901	2409.913514
449.460369	2408.451579
449.834776	2409.502660
450.209124	2406.465365
450.583412	2409.956364
450.957640	2406.924110
451.331808	2409.797567
451.705917	2408.935530
452.079965	2408.466703
452.453954	2411.572053
452.827883	2408.973339
453.201752	2410.299162
453.575562	2411.325037
453.949311	2408.980900
454.323001	2407.997875
454.696632	2412.726478
455.070202	2411.909811
455.443713	2408.189439
455.817164	2407.367731
456.190556	2407.269429
456.563888	2409.795047
456.937160	2407.181208
457.310373	2407.458472
457.683526	2409.563154
458.056619	2413.643968
458.429653	2410.941909
458.802628	2412.023237
459.175542	2412.648340
459.548398	2412.953330
459.921194	2412.421488
460.293930	2410.992321
460.666607	2414.027095
461.039224	2413.575912
461.411782	2414.175809
461.784280	2413.301169
462.156719	2414.034657
462.529099	2413.495254
462.901419	2415.892322
463.273680	2413.139852
463.645882	2413.598597
464.018024	2415.216808
464.390106	2417.553382
464.762130	2418.072621
465.134094	2415.751170
465.505999	2420.220153
465.877845	2417.455080
466.249631	2421.185534
466.621358	2418.014648
466.993026	2418.130595
467.364634	2422.468507
467.736184	2418.579257
468.107674	2420.439443
468.479105	2418.899371
468.850477	2418.896850
469.221790	2421.553538
469.593043	2419.201840
469.964238	2417.944072
470.335373	2418.932138
470.706449	2418.433064
471.077467	2418.664957
471.448425	2424.777356
471.819324	2419.867272
472.190164	2423.055802
472.560945	2420.255441
472.931667	2419.252251
473.302330	2417.641603
473.672934	2418.977508
474.043479	2420.820050
474.413965	2419.325348
474.784393	2413.475089
475.154761	2417.908784
475.525070	2418.551531
475.895321	2415.534400
476.265513	2416.981212
476.635645	2421.462797
477.005719	2421.220822
477.375734	2416.502302
477.745691	2421.150246
478.115588	2424.326173
478.485427	2421.467838
478.855207	2426.319949
479.224928	2423.494382
479.594591	2425.034455
479.964194	2427.333221
480.333739	2423.570000
480.703226	2423.786769
481.072653	2424.416913
481.442022	2424.951276
481.811333	2427.333221
482.180584	2423.459094
482.549777	2425.999836
482.918912	2426.733324
483.287988	2425.684764
483.657005	2422.468507
484.025964	2427.136616
484.394864	2423.247366
484.763706	2425.765422
485.132489	2422.828950
485.501213	2422.425658
485.869879	2426.609815
486.238487	2424.462284
486.607036	2423.953127
486.975527	2426.657706
487.343959	2425.954465
487.712333	2424.298446
488.080648	2424.638724
488.448905	2425.283992
488.817104	2426.143509
489.185244	2428.734662
489.553326	2428.041503
489.921350	2428.109559
490.289315	2427.189548
490.657222	2429.695002
491.025070	2427.975968
491.392861	2430.917481
491.760593	2429.410176
492.128267	2430.617533
492.495883	2424.379105
492.863440	2426.382963
493.230939	2427.116451
493.598380	2425.636873
493.965763	2424.318611
494.333088	2425.737696
494.700354	2423.287695
495.067563	2425.760381
495.434713	2421.982036
495.801805	2423.809454
496.168839	2424.369023
496.535815	2429.009405
496.902733	2425.430185
497.269593	2427.030752
497.636395	2426.927408
498.003139	2427.673499
498.369825	2427.060999
498.736453	2428.333890
499.103023	2426.501431
499.469535	2426.844229
499.835989	2426.692994
500.202385	2428.006215
500.568723	2425.531008
500.935003	2426.551842
501.301226	2426.098138
501.667390	2428.926226
502.033497	2428.487645
502.399546	2427.565114
502.765537	2428.253232
503.131470	2426.645103
503.497345	2425.924218
503.863163	2426.143509
504.228923	2428.096956
504.594625	2427.098807
504.960269	2428.396904
505.325856	2428.112079
505.691385	2431.222471
506.056856	2430.224323
506.422270	2429.543767
506.787625	2431.197265
507.152924	2430.030238
507.518164	2429.155598
507.883347	2430.569642
508.248472	2429.485794
508.613540	2432.187852
508.978550	2430.657862
509.343503	2432.581062
509.708398	2433.342276
510.073236	2434.519386
510.438016	2434.267328
510.802738	2434.597524
511.167403	2436.225816
511.532010	2436.523244
511.896561	2436.992072
512.261053	2437.362597
512.625488	2436.248502
512.989866	2435.144489
513.354186	2437.140786
513.718449	2437.801177
514.082655	2443.157403
514.446803	2442.000458
514.810894	2442.857454
515.174927	2445.627568
515.538904	2443.593463
515.902822	2447.064297
516.266684	2447.339040
516.630488	2450.109154
516.994235	2451.298866
517.357925	2450.530090
517.721558	2454.925977
518.085133	2456.029989
518.448651	2456.133333
518.812112	2457.875052
519.175516	2455.462859
519.538863	2461.809672
519.902152	2462.704477
520.265385	2462.459981
520.628560	2465.620784
520.991678	2464.849488
521.354739	2467.307050
521.717743	2471.697895
522.080690	2472.748976
522.443580	2473.553040
522.806413	2475.393061
523.169189	2478.160655
523.531908	2481.165182
523.894569	2480.729123
524.257174	2482.927066
524.619722	2483.763897
524.982213	2488.681543
525.344647	2486.004690
525.707025	2487.852273
526.069345	2488.986533
526.431608	2493.604229
526.793815	2491.403766
527.155964	2496.719663
527.518057	2497.806031
527.880093	2498.834427
528.242072	2500.407267
528.603995	2505.347597
528.965860	2501.821310
529.327669	2505.859274
529.689421	2504.316681
530.051117	2508.760458
530.412755	2508.281549
530.774337	2511.099554
531.135862	2511.016375
531.497331	2513.095851
531.858743	2509.877074
532.220098	2514.560306
532.581396	2514.151972
532.942638	2518.855369
533.303824	2521.643127
533.664953	2524.841739
534.026025	2523.054650
534.387040	2527.773170
534.747999	2527.692512
535.108902	2528.627646
535.469748	2531.100332
535.830537	2531.380116
536.191270	2530.480270
536.551947	2535.039993
536.912567	2534.946732
537.273131	2534.891279
537.633638	2537.104346
537.994089	2538.576363
538.354483	2538.021836
538.714821	2542.180788
539.075103	2545.664225
539.435328	2542.485778
539.795497	2543.703216
540.155609	2548.237734
540.515665	2548.814946
540.875665	2550.768393
541.235609	2550.692776
541.595496	2552.973898
541.955328	2554.433312
542.315102	2555.033210
542.674821	2551.113712
543.034483	2557.994888
543.394090	2556.106975
543.753640	2558.811554
544.113134	2560.949004
544.472571	2561.029662
544.831953	2564.326577
545.191278	2562.660475
545.550548	2562.915054
545.909761	2565.649880
546.268918	2566.905127
546.628019	2569.803790
546.987064	2568.210786
547.346053	2569.539130
547.704986	2570.166753
548.063863	2570.834706
548.422684	2569.191290
548.781449	2571.469892
549.140158	2574.456775
549.498811	2576.085068
549.857408	2568.886300
550.215949	2570.796898
550.574434	2570.121383
550.932864	2574.005592
551.291237	2573.534244
551.649555	2572.687330
552.007817	2578.217476
552.366022	2579.737384
552.724173	2576.039698
553.082267	2578.245202
553.440305	2580.596901
553.798288	2578.557754
554.156215	2577.673032
554.514086	2581.032961
554.871902	2579.881057
555.229661	2579.913824
555.587365	2578.731674
555.945014	2577.680593
556.302606	2576.710171
556.660143	2580.216294
557.017625	2576.914338
557.375050	2578.708989
557.732421	2579.374421
558.089735	2580.813670
558.446994	2581.070769
558.804197	2583.654361
559.161345	2581.771490
559.518437	2576.916858
559.875474	2575.104564
560.232455	2576.168247
560.589381	2578.877867
560.946251	2577.912486
561.303065	2579.843248
561.659825	2577.725964
562.016528	2577.670511
562.373177	2577.378124
562.729770	2576.914338
563.086307	2574.071127
563.442789	2577.327712
563.799216	2573.980386
564.155587	2574.156827
564.511904	2570.421332
564.868164	2572.818400
565.224370	2571.358986
565.580520	2573.156158
565.936615	2572.775551
566.292654	2570.431414
566.648638	2570.176836
567.004567	2569.269428
567.360441	2567.953687
567.716260	2567.590724
568.072023	2568.939233
568.427732	2560.467573
568.783385	2565.070147
569.138982	2560.205433
569.494525	2563.197358
569.850013	2558.647717
570.205445	2563.603171
570.560823	2562.751216
570.916145	2560.744837
571.271412	2559.872717
571.626625	2558.773746
571.981782	2559.040927
572.336884	2558.551935
572.691931	2559.335834
573.046923	2558.592264
573.401860	2554.526574
573.756743	2554.259392
574.111570	2554.760987
574.466342	2555.295350
574.821059	2556.442212
575.175722	2552.147149
575.530330	2556.994218
575.884882	2552.560524
576.239380	2551.867365
576.593823	2551.096068
576.948211	2549.984494
577.302544	2547.852086
577.656823	2548.444422
578.011047	2550.410472
578.365216	2549.636654
578.719330	2549.568599
579.073389	2550.753270
579.427394	2550.602035
579.781344	2548.590615
580.135239	2545.016437
580.489080	2546.914431
580.842866	2548.061294
581.196597	2551.058260
581.550273	2550.758311
581.903895	2550.329813
582.257463	2550.357539
582.610975	2551.751418
582.964434	2551.506922
583.317837	2553.107489
583.671186	2554.725699
584.024481	2553.568754
584.377721	2554.796275
584.730906	2557.145453
585.084037	2557.989846
585.437113	2556.903478
585.790135	2558.408262
586.143103	2556.601008
586.496016	2557.710062
586.848874	2556.142263
587.201679	2558.806513
587.554428	2557.483210
587.907124	2563.366237
588.259765	2562.365568
588.612352	2569.889490
588.964884	2568.263718
589.317362	2573.017526
589.669786	2574.955850
590.022155	2574.310582
590.374470	2578.484657
590.726731	2578.789647
591.078937	2577.161354
591.431090	2581.721078
591.783188	2580.294432
592.135232	2579.129925
592.487222	2585.935483
592.839157	2586.782397
593.191038	2588.551842
593.542866	2591.629466
593.894639	2592.985536
594.246358	2596.970568
594.598022	2597.688933
594.949633	2601.142123
595.301190	2601.215220
595.652692	2603.932402
596.004141	2607.773761
596.355535	2606.478185
596.706876	2605.810232
597.058162	2610.148145
597.409395	2612.824997
597.760573	2614.763321
598.111698	2616.840276
598.462768	2622.012500
598.813785	2625.042234
599.164748	2626.975516
599.515657	2630.950466
599.866511	2632.639252
600.217312	2638.151754
600.568060	2637.592186
600.918753	2642.114101
601.269392	2649.028044
601.619978	2651.336892
601.970510	2658.296205
602.320988	2662.137564
602.671412	2668.756599
603.021783	2671.322547
603.372100	2671.239367
603.722363	2677.681962
604.072572	2681.924093
604.422728	2689.261492
604.772830	2689.011955
605.122878	2693.201154
605.472872	2699.684078
605.822813	2706.461909
606.172701	2711.543392
606.522534	2719.238714
606.872314	2725.638459
607.222041	2730.409911
607.571714	2739.141189
607.921333	2741.944071
608.270899	2751.484454
608.620411	2761.531474
608.969870	2767.585900
609.319276	2771.628905
609.668627	2782.822787
610.017926	2791.899385
610.367171	2804.340952
610.716362	2812.399237
611.065500	2820.785196
611.414585	2829.440857
611.763616	2838.376303
612.112594	2849.728981
612.461518	2861.885724
612.810389	2874.481047
613.159207	2883.618138
613.507971	2894.340672
613.856682	2908.909607
614.205340	2918.752460
614.553945	2940.036211
614.902496	2945.866306
615.250994	2962.464305
615.599439	2977.181953
615.947830	2991.468583
616.296169	3004.782271
616.644454	3023.812626
616.992686	3042.840462
617.340864	3064.837536
617.688990	3081.985021
618.037063	3108.637602
618.385082	3125.293574
618.733048	3151.265598
619.080961	3163.823113
619.428821	3181.462110
619.776628	3198.125644
620.124382	3207.590410
620.472083	3224.306877
620.819731	3232.118144
621.167326	3238.084350
621.514868	3248.234713
621.862357	3249.656319
622.209793	3259.753750
622.557176	3261.767691
622.904506	3262.377670
623.251783	3265.601488
623.599007	3271.487035
623.946179	3276.611368
624.293297	3289.075621
624.640363	3292.974954
624.987376	3304.410811
625.334336	3311.097902
625.681243	3319.004952
626.028097	3330.657579
626.374899	3347.421936
626.721647	3360.619677
627.068343	3376.781616
627.414987	3389.371898
627.761577	3403.938312
628.108115	3423.109820
628.454600	3431.846139
628.801032	3454.763225
629.147412	3471.280565
629.493739	3491.009121
629.840014	3504.239629
630.186236	3535.000750
630.532405	3541.508879
630.878521	3573.583221
631.224585	3593.939400
631.570597	3608.793160
631.916556	3634.326604
632.262462	3657.641941
632.608316	3675.749765
632.954117	3693.444215
633.299866	3712.419118
633.645562	3728.626428
633.991206	3722.582084
634.336797	3724.207857
634.682336	3737.755957
635.027823	3738.870053
635.373257	3743.903645
635.718639	3749.927823
636.063968	3762.200513
636.409245	3754.096858
636.754470	3768.663272
637.099642	3775.320115
637.444762	3778.710291
637.789829	3797.879279
638.134845	3801.844146
638.479808	3816.523986
638.824719	3830.165349
639.169577	3835.723221
639.514383	3854.433463
639.859137	3862.040564
640.203839	3887.873957
640.548489	3889.340933
640.893086	3908.633429
641.237632	3920.369235
641.582125	3944.718008
641.926566	3955.528762
642.270955	3984.906087
642.615292	4006.865353
642.959576	4023.531407
643.303809	4042.040004
643.647990	4072.279365
643.992118	4091.128239
644.336195	4111.880149
644.680219	4138.719252
645.024192	4180.449924
645.368112	4232.469590
645.711981	4266.593161
646.055797	4344.547043
646.399562	4384.440214
646.743274	4471.758040
647.086935	4533.030744
647.430544	4563.988470
647.774101	4600.557000
648.117606	4636.855828
648.461059	4680.996171
648.804460	4678.316798
649.147810	4652.511132
649.491108	4653.400895
649.834354	4644.616685
650.177548	4611.546715
650.520690	4602.162607
650.863781	4624.257985
651.206820	4634.887258
651.549807	4623.393427
651.892742	4617.943940
652.235626	4625.598932
652.578458	4639.925891
652.921238	4623.156493
653.263967	4667.256507
653.606644	4671.977547
653.949269	4694.498902
654.291843	4688.726781
654.634365	4742.460440
654.976836	4738.606477
655.319255	4761.997431
655.661622	4786.159682
656.003938	4794.099499
656.346203	4810.692457
656.688416	4845.620091
657.030577	4851.767778
657.372687	4864.804202
657.714746	4904.372219
658.056753	4939.735913
658.398708	4920.143469
658.740612	4950.075320
659.082465	4994.954192
659.424266	5006.402652
659.766016	5040.254000
660.107715	5066.926745
660.449362	5102.217343
660.790958	5129.638699
661.132503	5153.637112
661.473996	5187.312020
661.815438	5220.946598
662.156829	5264.086272
662.498168	5269.616418
662.839456	5301.990708
663.180693	5338.730637
663.521879	5381.043562
663.863013	5407.975926
664.204097	5437.857366
664.545129	5511.637173
664.886110	5535.943096
665.227040	5581.618471
665.567918	5621.249502
665.908746	5663.375904
666.249522	5710.054468
666.590248	5745.340024
666.930922	5791.706037
667.271545	5818.714018
667.612118	5852.517475
667.952639	5859.431418
668.293109	5894.227982
668.633528	5911.975364
668.973896	5933.886740
669.314213	5961.247602
669.654480	5962.694413
669.994695	5992.976624
670.334859	6013.887331
670.674973	6031.352408
671.015035	6078.177166
671.355047	6105.200271
671.695008	6135.167410
672.034918	6155.392519
672.374777	6200.778027
672.714585	6214.893258
673.054342	6280.392970
673.394049	6281.774246
673.733705	6350.475091
674.073310	6346.845460
674.412864	6380.515326
674.752368	6362.069744
675.091820	6422.417397
675.431223	6399.903604
675.770574	6393.440845
676.109875	6398.421505
676.449125	6387.013374
676.788324	6409.073463
677.127473	6366.695003
677.466571	6380.036417
677.805619	6371.564758
678.144616	6393.743314
678.483562	6417.978661
678.822458	6399.797740
679.161303	6418.616367
679.500098	6435.910045
679.838842	6454.837058
680.177535	6503.501836
680.516179	6579.774494
680.854771	6653.576986
681.193314	6823.645352
681.531805	7041.140894
681.870247	7210.372428
682.208638	7364.510748
682.546978	7436.896677
682.885268	7477.745146
683.223508	7436.412726
683.561697	7411.151504
683.899836	7426.446365
684.237925	7388.894810
684.575963	7397.643732
684.913951	7372.652212
685.251889	7434.892818
685.589776	7476.436967
685.927614	7516.141094
686.265401	7593.860563
686.603137	7657.280799
686.940824	7802.324878
687.278460	7910.497957
687.616046	7991.708425
687.953582	8144.034450
688.291068	8168.068151
688.628504	8261.936956
688.965889	8288.508878
689.303224	8253.906398
689.640510	8220.095379
689.977745	8120.043599
690.314930	7992.986357
690.652065	7925.213085
690.989150	7805.914179
691.326185	7664.267838
691.663170	7559.517703
692.000105	7446.754653
692.336990	7344.048705
692.673825	7283.199458
693.010610	7213.129940
693.347345	7131.501056
693.684030	7031.139245
694.020665	7008.038157
694.357251	6903.262816
694.693786	6928.206445
695.030272	6912.593991
695.366707	6836.701941
695.703093	6808.594988
696.039429	6827.590055
696.375716	6808.935265
696.711952	6829.828328
697.048139	6827.683317
697.384276	6820.696277
697.720363	6873.255347
698.056400	6863.989707
698.392388	6846.436409
698.728326	6866.963987
699.064214	6845.312232
699.400053	6858.835127
699.735842	6809.046171
700.071581	6775.041068
700.407270	6736.072948
700.742910	6721.413273
701.078501	6689.522934
701.414042	6647.000801
701.749533	6608.191478
702.084974	6553.966307
702.420366	6621.711853
702.755709	6547.039761
703.091002	6501.409757
703.426246	6530.850096
703.761440	6531.525610
704.096584	6492.255022
704.431679	6505.178020
704.766725	6512.863259
705.101721	6517.992633
705.436668	6559.201545
705.771565	6512.318814
706.106413	6614.876048
706.441212	6635.660725
706.775961	6693.177770
707.110661	6738.061683
707.445311	6842.955492
707.779913	6833.243709
708.114465	6920.463233
708.448967	7016.489652
708.783421	7212.081380
709.117825	7309.055536
709.452180	7396.522075
709.786485	7522.750047
710.120742	7751.532732
710.454949	7791.246942
710.789107	7932.149713
711.123216	8137.972463
711.457275	8197.279117
711.791286	8357.116461
712.125247	8406.723936
712.459159	8359.561421
712.793023	8548.972694
713.126837	8295.410218
713.460602	8382.549083
713.794318	8310.246333
714.127985	8240.549861
714.461602	8031.193262
714.795171	8039.448152
715.128691	7797.145092
715.462162	7676.611104
715.795584	7585.154491
716.128957	7535.441152
716.462281	7447.331865
716.795556	7406.085144
717.128782	7296.447610
717.461960	7168.893815
717.795088	7163.245202
718.128167	7076.935607
718.461198	6968.195398
718.794180	6949.701925
719.127113	6867.924327
719.459997	6837.919379
719.792833	6754.866370
720.125619	6760.530106
720.458357	6692.761875
720.791046	6656.999930
721.123686	6631.055631
721.456278	6580.513023
721.788821	6587.389157
722.121315	6526.552512
722.453761	6566.526342
722.786158	6564.598100
723.118506	6573.977167
723.450805	6560.111473
723.783056	6625.258304
724.115259	6615.770853
724.447412	6610.991839
724.779518	6703.333175
725.111574	6725.612554
725.443582	6802.422095
725.775542	6813.870555
726.107453	6980.087480
726.439315	6959.514531
726.771129	7104.979546
727.102895	7237.337560
727.434612	7319.818399
727.766281	7370.981069
728.097901	7464.847354
728.429473	7501.975452
728.760996	7517.416506
729.092471	7562.696150
729.423897	7547.061012
729.755276	7530.079885
730.086606	7592.154133
730.417887	7783.513812
730.749120	7978.954306
731.080305	8061.782984
731.411442	8193.969599
731.742530	8244.277794
732.073570	8298.679406
732.404562	8411.366838
732.735506	8368.766568
733.066401	8299.796022
733.397249	8149.395717
733.728048	7965.552398
734.058798	7705.708644
734.389501	7493.246694
734.720156	7351.068512
735.050762	7186.885693
735.381320	7084.910712
735.711831	7015.153746
736.042293	6911.482417
736.372707	6922.204951
736.703073	6863.346959
737.033391	6952.361133
737.363661	6948.991122
737.693883	7003.702765
738.024056	7075.511481
738.354182	7149.651730
738.684260	7254.553101
739.014290	7344.958633
739.344272	7420.359171
739.674207	7536.381327
740.004093	7593.986592
740.333931	7603.045546
740.663722	7639.382183
740.993464	7656.804410
741.323159	7616.213039
741.652806	7529.767333
741.982405	7468.466903
742.311956	7366.217179
742.641460	7342.463262
742.970915	7246.257882
743.300323	7139.569423
743.629683	7078.629434
743.958996	6992.123234
744.288260	6903.199801
744.617477	6802.354039
744.946647	6786.134127
745.275768	6704.069183
745.604842	6650.408621
745.933869	6598.958605
746.262847	6594.139262
746.591778	6577.831129
746.920662	6552.872376
747.249498	6565.457617
747.578286	6621.106914
747.907027	6690.185845
748.235720	6783.139681
748.564365	6802.180119
748.892963	6775.487210
749.221514	6813.462222
749.550017	6768.580829
749.878473	6771.842455
750.206881	6699.310334
750.535242	6672.226735
750.863555	6651.777294
751.191821	6624.842409
751.520039	6645.380070
751.848210	6617.633559
752.176334	6641.415203
752.504411	6612.683146
752.832440	6556.398663
753.160421	6586.597696
753.488356	6546.732251
753.816243	6515.061202
754.144082	6463.706968
754.471875	6447.305574
754.799620	6435.136228
755.127318	6431.642709
755.454969	6425.822697
755.782572	6415.720224
756.110129	6428.781854
756.437638	6406.217649
756.765100	6409.922897
757.092515	6420.463950
757.419882	6435.365601
757.747203	6442.501354
758.074477	6479.435368
758.401703	6467.795343
758.728882	6541.252517
759.056014	6566.702782
759.383099	6628.459437
759.710138	6680.768970
760.037129	6723.976700
760.364073	6738.399441
760.690970	6747.677684
761.017820	6756.260249
761.344623	6859.147678
761.671379	7024.943667
761.998088	7321.935684
762.324751	8035.329529
762.651366	9291.136405
762.977935	10889.156968
763.304456	11898.748849
763.630931	12170.963595
763.957359	11710.086187
764.283740	10894.321630
764.610074	10088.568805
764.936362	9152.393769
765.262602	8472.914286
765.588796	7791.768702
765.914943	7326.732342
766.241044	6943.801254
766.567097	6648.331666
766.893104	6399.071814
767.219064	6234.768007
767.544978	6056.727056
767.870845	5913.613739
768.196665	5832.932593
768.522438	5750.482001
768.848165	5678.635476
769.173846	5608.674343
769.499479	5551.701743
769.825066	5484.147761
770.150607	5407.731430
770.476101	5381.567842
770.801548	5332.852652
771.126949	5272.016007
771.452303	5233.708279
771.777611	5160.740098
772.102872	5160.001569
772.428087	5111.583807
772.753256	5052.808994
773.078378	5014.735679
773.403453	4948.875525
773.728482	4898.532042
774.053465	4873.280902
774.378401	4833.775900
774.703291	4789.983397
775.028135	4748.600565
775.352932	4733.744285
775.677683	4695.003017
776.002388	4658.862985
776.327046	4658.482378
776.651658	4620.330926
776.976224	4584.505966
777.300743	4579.361469
777.625216	4547.196387
777.949643	4530.686608
778.274024	4535.165673
778.598359	4500.800127
778.922647	4509.717928
779.246889	4492.308303
779.571086	4496.096731
779.895236	4500.863142
780.219339	4496.941124
780.543397	4500.666537
780.867409	4531.127709
781.191374	4533.393707
781.515294	4521.915000
781.839167	4556.928334
782.162995	4545.101787
782.486776	4521.713354
782.810511	4503.595447
783.134201	4469.255107
783.457844	4469.650837
783.781441	4447.762148
784.104993	4429.762708
784.428498	4416.968259
784.751958	4413.961211
785.075372	4402.243049
785.398739	4383.288310
785.722061	4403.354623
786.045337	4408.426024
786.368568	4467.790652
786.691752	4482.261284
787.014891	4615.940081
787.337983	4766.063122
787.661030	4993.981249
787.984031	5220.565991
788.306987	5371.888827
788.629897	5432.987611
788.952760	5405.669598
789.275579	5324.570036
789.598351	5180.597203
789.921078	5036.876427
790.243759	4886.675248
790.566395	4774.438999
790.888984	4673.873021
791.211529	4593.892595
791.534027	4515.787477
791.856480	4437.672278
792.178888	4400.634921
792.501249	4371.098800
792.823566	4309.027073
793.145836	4310.184018
793.468062	4301.467863
793.790241	4284.948002
794.112375	4309.591682
794.434464	4365.883727
794.756507	4383.305954
795.078505	4446.887507
795.400457	4566.640117
795.722364	4694.012431
796.044226	4801.837670
796.366042	4893.747987
796.687812	4871.710583
797.009538	4898.829470
797.331218	4851.193087
797.652852	4821.871216
797.974442	4757.004168
798.295986	4723.346905
798.617484	4652.722860
798.938938	4593.537193
799.260346	4560.258016
799.581709	4481.235409
799.903026	4453.501501
800.224299	4411.934667
800.545526	4344.771374
800.866708	4307.774346
801.187845	4278.293679
801.508936	4234.312132
801.829983	4221.250502
802.150984	4158.609125
802.471940	4143.200838
802.792851	4132.475783
803.113717	4123.116881
803.434538	4106.460909
803.755314	4090.717385
804.076045	4081.076178
804.396731	4060.047005
804.717372	4070.658634
805.037967	4068.853901
805.358518	4087.813681
805.679024	4123.716778
805.999485	4123.046305
806.319901	4139.430055
806.640272	4147.944564
806.960598	4179.134183
807.280879	4175.595293
807.601115	4200.314590
807.921306	4178.357845
808.241453	4181.546375
808.561554	4187.764638
808.881611	4168.900640
809.201623	4175.116383
809.521590	4148.337774
809.841513	4139.482987
810.161390	4152.476561
810.481223	4107.229685
810.801011	4096.131584
811.120755	4085.570367
811.440453	4052.104667
811.760107	4040.560425
812.079716	4025.343702
812.399281	3995.880678
812.718801	3998.244980
813.038276	3980.580777
813.357707	3962.009166
813.677093	3979.441476
813.996434	3942.706588
814.315731	3958.666881
814.634983	3957.701500
814.954191	3959.362560
815.273354	4004.150691
815.592473	4030.480638
815.911547	4073.348090
816.230577	4107.862349
816.549562	4164.905526
816.868502	4203.412379
817.187399	4239.549891
817.506250	4297.414775
817.825058	4317.070234
818.143821	4418.142848
818.462539	4529.345661
818.781213	4679.493907
819.099843	4909.388167
819.418429	5295.938803
819.736970	5682.585220
820.055466	6129.848992
820.373919	6721.728345
820.692327	7643.397462
821.010691	9226.899502
821.329011	12540.661653
821.647286	17370.059312
821.965517	22684.753727
822.283704	25667.455744
822.601847	26915.043018
822.919945	24835.788868
823.237999	22323.464313
823.556010	19559.134999
823.873976	16956.029346
824.191897	14582.422222
824.509775	12836.942868
824.827609	11264.513722
825.145398	10389.394620
825.463144	9968.959869
825.780845	10144.182815
826.098502	10851.718839
826.416116	12243.440264
826.733685	13597.169032
827.051210	13965.954642
827.368692	13200.236140
827.686129	11715.555839
828.003522	10234.850487
828.320872	8883.667501
828.638177	7856.303032
828.955439	7063.705098
829.272656	6402.283029
829.589830	5877.982864
829.906960	5425.481333
830.224046	5081.203293
830.541088	4823.786854
830.858086	4658.467255
831.175041	4533.305487
831.491952	4503.504706
831.808819	4531.586454
832.125642	4695.091237
832.442421	5058.697062
832.759157	5761.549854
833.075849	6855.676844
833.392497	8003.172009
833.709101	8714.090647
834.025662	8583.711286
834.342179	7952.072353
834.658653	7126.631301
834.975083	6420.685761
835.291469	5847.315005
835.607811	5369.164083
835.924110	5027.822515
836.240366	4710.249987
836.556578	4418.949433
836.872746	4183.905635
837.188871	4005.423583
837.504952	3858.877240
837.820990	3750.152155
838.136984	3675.459899
838.452935	3641.011174
838.768842	3660.775018
839.084706	3845.044314
839.400526	4311.381292
839.716303	4894.378131
840.032037	5266.274133
840.347727	5192.113719
840.663373	4813.356707
840.978977	4437.165642
841.294537	4141.073471
841.610054	3922.027775
841.925527	3762.341665
842.240957	3627.377373
842.556344	3504.106038
842.871687	3400.195255
843.186987	3299.573824
843.502244	3221.511557
843.817458	3159.878410
844.132629	3113.202366
844.447756	3080.548292
844.762840	3049.502346
845.077881	3022.509488
845.392879	3000.275479
845.707833	2984.168993
846.022745	2962.756692
846.337613	2957.813840
846.652438	2943.552416
846.967221	2937.513114
847.281960	2922.671957
847.596656	2919.201122
847.911309	2910.444638
848.225919	2901.536919
848.540485	2895.021228
848.855009	2889.947307
849.169490	2880.437170
849.483928	2874.818804
849.798323	2872.903165
850.112675	2863.761033
850.426984	2867.783874
850.741251	2859.967565
851.055474	2856.746267
851.369654	2860.065867
851.683792	2857.542770
851.997887	2862.536032
852.311938	2859.002184
852.625947	2859.004704
852.939914	2856.221987
853.253837	2861.827750
853.567718	2858.445136
853.881555	2853.436750
854.195350	2858.863552
854.509103	2854.974302
854.822812	2857.636031
855.136479	2853.567820
855.450103	2855.175948
855.763685	2852.657892
856.077224	2853.189733
856.390720	2859.077801
856.704173	2868.330839
857.017584	2866.752958
857.330953	2875.794267
857.644278	2879.905328
857.957561	2884.611245
858.270802	2880.207797
858.584000	2879.592777
858.897155	2879.050853
859.210268	2868.063658
859.523339	2862.145343
859.836367	2860.504448
860.149352	2856.335413
860.462295	2853.625793
860.775195	2847.160513
861.088054	2846.976511
861.400869	2845.507015
861.713642	2842.656242
862.026373	2848.027592
862.339062	2853.459435
862.651708	2859.607122
862.964312	2870.911910
863.276873	2877.490615
863.589392	2899.777557
863.901869	2913.502098
864.214303	2929.016249
864.526696	2941.876232
864.839045	2956.130095
865.151353	2963.475056
865.463619	2967.298771
865.775842	2966.623257
866.088023	2973.625419
866.400162	2967.938998
866.712258	2970.731797
867.024313	2967.679378
867.336325	2966.915643
867.648296	2968.932105
867.960224	2968.763226
868.272110	2970.825058
868.583954	2970.643577
868.895755	2978.396871
869.207515	2972.654997
869.519233	2986.724858
869.830909	2994.946979
870.142542	3003.272445
870.454134	3002.055006
870.765684	3016.079496
871.077191	3028.271527
871.388657	3037.527085
871.700081	3051.087789
872.011463	3066.430541
872.322803	3075.124011
872.634101	3088.752770
872.945357	3101.491766
873.256571	3121.341309
873.567744	3127.264665
873.878874	3135.035604
874.189963	3148.452635
874.501010	3146.249650
874.812015	3147.530103
875.122979	3156.773059
875.433900	3157.609891
875.744780	3160.838750
876.055618	3168.420645
876.366415	3169.741427
876.677169	3172.705626
876.987882	3186.072245
877.298554	3199.630428
877.609183	3231.097311
877.919771	3264.263062
878.230317	3318.452945
878.540822	3392.719224
878.851285	3502.460102
879.161707	3662.851973
879.472087	3933.090587
879.782425	4372.434706
880.092722	5167.041540
880.402977	6339.162741
880.713191	7659.735841
881.023363	8918.058253
881.333494	9655.589143
881.643583	10027.538076
881.953631	9961.262027
882.263637	9580.191125
882.573602	9024.471969
882.883526	8469.508986
883.193408	7879.562916
883.503248	7288.187679
883.813048	6760.134376
884.122806	6257.785915
884.432522	5767.826091
884.742197	5342.239280
885.051831	4981.544723
885.361424	4654.252850
885.670975	4393.831884
885.980485	4168.749406
886.289954	3991.741891
886.599382	3839.022656
886.908768	3713.818038
887.218113	3599.283023
887.527417	3509.278262
887.836680	3424.344902
888.145901	3352.637009
888.455082	3298.162301
888.764221	3250.846031
889.073319	3209.332129
889.382376	3187.231711
889.691392	3169.872497
890.000366	3163.334121
890.309300	3156.180723
890.618193	3160.354799
890.927044	3155.593429
891.235855	3160.576610
891.544625	3171.394926
891.853353	3191.541897
892.162041	3231.019173
892.470687	3298.598361
892.779293	3381.827811
893.087858	3508.655680
893.396381	3703.715566
893.704864	3984.984224
894.013306	4374.728431
894.321707	4773.607209
894.630068	5029.050036
894.938387	5069.008742
895.246665	4956.737204
895.554903	4739.912136
895.863100	4501.936907
896.171256	4311.093946
896.479371	4144.839213
896.787446	3983.749142
897.095480	3845.208152
897.403473	3734.839650
897.711425	3632.385760
898.019336	3546.229920
898.327207	3460.863021
898.635038	3384.282853
898.942827	3310.543375
899.250576	3245.540217
899.558284	3187.483768
899.865952	3149.783499
900.173579	3105.179370
900.481165	3070.952456
900.788711	3040.715615
901.096216	3017.914476
901.403681	2997.543174
901.711105	2988.801813
902.018489	2985.794765
902.325832	3012.091944
902.633135	3051.402861
902.940397	3176.640246
903.247619	3459.960654
903.554800	3973.107266
903.861941	4625.881236
904.169041	5110.598261
904.476101	5266.034678
904.783121	5098.933031
905.090100	4826.461186
905.397039	4539.884193
905.703938	4285.008496
906.010796	4059.515163
906.317614	3881.897669
906.624391	3712.464489
906.931129	3574.294023
907.237826	3445.018674
907.544483	3327.254800
907.851099	3205.137889
908.157675	3093.372988
908.464211	2994.183245
908.770707	2919.304466
909.077163	2862.830940
909.383578	2820.374342
909.689954	2789.782100
909.996289	2765.055241
910.302584	2751.658374
910.608839	2743.829462
910.915054	2731.738255
911.221229	2729.731876
911.527363	2736.025756
911.833458	2739.310068
912.139513	2750.572006
912.445527	2758.106010
912.751502	2784.909825
913.057436	2811.885039
913.363331	2854.926411
913.669186	2923.173552
913.975000	3008.724453
914.280775	3140.084319
914.586510	3335.512210
914.892205	3596.364195
915.197859	3945.683389
915.503475	4353.399309
915.809050	4696.560734
916.114585	4911.132406
916.420081	4964.271209
916.725536	4930.866003
917.030952	4761.218573
917.336328	4617.356645
917.641665	4467.026917
917.946961	4308.303668
918.252218	4167.441226
918.557435	4002.091380
918.862612	3857.793392
919.167750	3736.735124
919.472848	3599.461984
919.777906	3479.810198
920.082925	3369.159391
920.387904	3257.523039
920.692843	3177.648477
920.997743	3105.950667
921.302603	3038.547919
921.607423	2991.645024
921.912204	2945.584001
922.216946	2909.317940
922.521647	2872.454503
922.826310	2841.413598
923.130932	2816.321255
923.435516	2787.896709
923.740059	2765.571959
924.044564	2744.003382
924.349028	2724.211812
924.653454	2700.432689
924.957840	2682.511387
925.262186	2669.865653
925.566493	2653.378559
925.870761	2634.572535
926.174989	2628.661782
926.479178	2613.397168
926.783328	2606.090016
927.087438	2596.751278
927.391509	2586.681573
927.695541	2576.019533
927.999533	2569.019891
928.303486	2562.146278
928.607400	2555.837274
928.911275	2552.023641
929.215110	2552.101779
929.518906	2542.657177
929.822663	2546.405275
930.126381	2544.953423
930.430060	2547.937786
930.733699	2547.645399
931.037299	2553.016748
931.340861	2550.488609
931.644383	2554.045143
931.947866	2552.983981
932.251309	2552.104299
932.554714	2552.535318
932.858080	2550.947354
933.161407	2547.254709
933.464694	2544.628268
933.767943	2542.984852
934.071153	2539.947557
934.374323	2537.762217
934.677455	2534.465302
934.980548	2531.541433
935.283602	2528.413397
935.586617	2529.482121
935.889593	2533.247863
936.192530	2535.082843
936.495428	2535.183666
936.798287	2541.306148
937.101108	2553.835936
937.403890	2575.091961
937.706632	2596.045517
938.009336	2620.180041
938.312002	2640.543782
938.614628	2659.629590
938.917216	2671.642660
939.219765	2679.269926
939.522275	2688.669157
939.824747	2686.940041
940.127179	2682.269412
940.429573	2678.629699
940.731929	2682.047601
941.034246	2669.694254
941.336524	2671.342711
941.638763	2667.352638
941.940964	2662.498007
942.243126	2647.984525
942.545250	2640.523617
942.847335	2627.116668
943.149381	2620.487551
943.451389	2610.009513
943.753359	2598.124993
944.055290	2592.294898
944.357182	2583.795513
944.659036	2580.896849
944.960851	2580.276787
945.262628	2574.068607
945.564367	2575.901066
945.866067	2575.167578
946.167729	2575.442321
946.469352	2572.558781
946.770937	2571.185067
947.072484	2566.862277
947.373992	2566.963100
947.675462	2565.526371
947.976893	2559.229970
948.278286	2557.725186
948.579641	2552.167314
948.880958	2552.258054
949.182236	2550.818805
949.483476	2548.467107
949.784678	2549.359391
950.085841	2550.808723
950.386967	2551.832077
950.688054	2555.928014
950.989103	2563.547718
951.290114	2570.275138
951.591087	2578.519945
951.892021	2592.133581
952.192917	2596.899992
952.493776	2607.428442
952.794596	2608.643360
953.095378	2607.153699
953.396122	2609.644029
953.696828	2606.246292
953.997496	2603.574480
954.298126	2594.079467
954.598718	2587.871286
954.899272	2578.633371
955.199788	2572.410067
955.500266	2563.577965
955.800706	2551.222097
956.101108	2534.122503
956.401472	2528.178983
956.701798	2517.864782
957.002087	2507.462361
957.302337	2503.104284
957.602550	2493.571462
957.902724	2483.088383
958.202861	2476.877681
958.502960	2473.061528
958.803022	2465.222533
959.103045	2461.053499
959.403031	2459.715073
959.702979	2452.203753
960.002889	2450.431788
960.302762	2446.998762
960.602596	2442.681014
960.902393	2440.641867
961.202153	2436.193049
961.501875	2434.199272
961.801559	2436.437545
962.101205	2429.337080
962.400814	2430.786411
962.700385	2429.301792
962.999918	2429.009405
963.299414	2428.974117
963.598873	2426.637542
963.898293	2425.157963
964.197677	2423.867428
964.497022	2422.062695
964.796331	2424.832809
965.095601	2424.439599
965.394835	2421.135122
965.694030	2420.394073
965.993189	2422.181162
966.292309	2421.818199
966.591393	2420.666295
966.890439	2417.286201
967.189447	2418.851480
967.488419	2421.976995
967.787353	2421.026737
968.086249	2418.541449
968.385108	2421.740061
968.683930	2423.106213
968.982714	2423.912798
969.281462	2424.278282
969.580172	2424.230391
969.878844	2428.906061
970.177480	2429.974786
970.476078	2431.182142
970.774639	2434.186670
971.073162	2434.713470
971.371649	2436.573656
971.670098	2434.496701
971.968510	2441.587083
972.266885	2439.411826
972.565223	2443.391817
972.863524	2441.735797
973.161788	2446.023299
973.460014	2443.966508
973.758204	2445.793926
974.056356	2446.446756
974.354471	2444.667228
974.652550	2448.995059
974.950591	2447.127312
975.248595	2444.468103
975.546563	2443.863164
975.844493	2444.200922
976.142386	2442.045828
976.440243	2441.579522
976.738062	2441.178750
977.035845	2437.024839
977.333590	2433.382606
977.631299	2432.129879
977.928971	2430.438572
978.226606	2430.161308
978.524204	2429.813469
978.821765	2430.849426
979.119290	2428.447316
979.416777	2431.209868
979.714228	2428.704415
980.011642	2433.516196
980.309020	2435.925868
980.606360	2435.951073
980.903664	2443.240582
981.200931	2450.338527
981.498162	2465.396453
981.795356	2488.421923
982.092513	2522.038858
982.389633	2548.583053
982.686717	2581.637899
982.983764	2605.953905
983.280775	2619.461676
983.577749	2617.573764
983.874686	2609.951540
984.171587	2600.670775
984.468451	2587.616707
984.765279	2574.522310
985.062070	2559.144271
985.358824	2545.069369
985.655543	2530.760054
985.952224	2513.494102
986.248869	2491.123982
986.545478	2468.332925
986.842050	2456.415638
987.138586	2445.909873
987.435086	2435.648604
987.731549	2429.049734
988.027975	2424.699218
988.324366	2421.006573
988.620719	2419.421130
988.917037	2414.493402
989.213318	2413.502815
989.509563	2409.777403
989.805772	2410.664646
990.101944	2409.628689
990.398080	2406.914027
990.694180	2408.524676
990.990244	2409.109450
991.286271	2408.562485
991.582262	2409.603483
991.878217	2407.897052
992.174136	2409.611045
992.470019	2412.688669
992.765865	2410.886457
993.061676	2412.174471
993.357450	2414.664801
993.653188	2417.545821
993.948890	2422.982705
994.244556	2425.054619
994.540186	2434.592483
994.835780	2439.573143
995.131337	2454.915894
995.426859	2463.024590
995.722345	2479.902373
996.017795	2493.067347
996.313208	2502.693430
996.608586	2510.441683
996.903928	2514.971160
997.199234	2514.293125
997.494504	2509.209121
997.789738	2504.959428
998.084936	2497.468274
998.380099	2489.536018
998.675225	2480.792137
998.970316	2472.438945
999.265371	2461.706328
999.560390	2451.490430
999.855373	2444.213525
1000.150320	2435.184818
1000.445232	2430.163829
1000.740108	2424.779877
1001.034948	2419.973136
1001.329752	2415.635223
1001.624521	2413.853176
1001.919254	2407.372772
1002.213951	2409.565674
1002.508613	2403.032339
1002.803239	2405.134500
1003.097829	2398.570918
1003.392384	2404.005282
1003.686903	2401.338511
1003.981386	2402.460168
1004.275834	2399.750548
1004.570246	2400.206772
1004.864623	2401.507390
1005.158964	2398.490259
1005.453270	2398.288613
1005.747540	2398.311298
1006.041775	2396.309960
1006.335974	2397.411452
1006.630138	2399.034704
1006.924266	2393.940618
1007.218359	2397.265259
1007.512416	2395.770557
1007.806438	2396.776267
1008.100425	2396.410783
1008.394376	2397.408932
1008.688292	2398.581000
1008.982172	2397.373644
1009.276017	2397.492111
1009.569827	2396.675444
1009.863602	2395.924312
1010.157341	2395.571431
1010.451045	2395.195865
1010.744714	2394.850546
1011.038347	2395.473129
1011.331945	2392.793755
1011.625508	2395.077398
1011.919036	2392.892058
1012.212528	2393.393653
1012.505986	2392.629918
1012.799408	2395.742830
1013.092795	2392.332490
1013.386147	2392.279558
1013.679464	2394.270813
1013.972745	2395.110166
1014.265992	2393.638149
1014.559204	2393.764178
1014.852380	2393.983468
1015.145521	2395.752913
1015.438628	2392.642521
1015.731699	2393.461708
1016.024736	2393.721328
1016.317737	2393.607902
1016.610703	2395.813407
1016.903635	2393.058416
1017.196531	2392.778632
1017.489393	2393.108828
1017.782219	2389.302756
1018.075011	2399.685013
1018.367768	2397.119065
1018.660490	2394.003632
1018.953177	2394.003632
1019.245829	2394.003632
