Dividing Wavelength (nm)	Counts (n)	Blue Motor Position (mm): 28.200000	Red Motor Position (mm): 0.000000	
326.493990	1973.037039
326.888308	1973.037039
327.282561	1973.037039
327.676750	1946.323965
328.070874	1949.144491
328.464933	1956.870059
328.858929	1965.319033
329.252859	1977.629530
329.646726	1990.386170
330.040528	2006.144817
330.434265	2024.358506
330.827938	2041.710158
331.221547	2063.893755
331.615091	2084.779255
332.008571	2106.642740
332.401986	2126.033538
332.795338	2146.609007
333.188625	2168.406957
333.581847	2184.727692
333.975006	2205.978676
334.368100	2221.601212
334.761129	2238.685682
335.154095	2252.523650
335.546996	2291.680812
335.939833	2366.388192
336.332606	2381.047867
336.725315	2391.964486
337.117960	2402.462688
337.510540	2406.737587
337.903056	2418.249062
338.295508	2424.737027
338.687896	2433.382606
339.080220	2437.334870
339.472480	2442.368462
339.864676	2450.522529
340.256807	2451.319031
340.648875	2452.070163
341.040879	2453.224587
341.432818	2455.167952
341.824694	2457.431430
342.216506	2457.436471
342.608253	2457.633076
342.999937	2453.585030
343.391557	2454.943621
343.783113	2453.569906
344.174605	2449.136211
344.566033	2450.192333
344.957397	2448.246448
345.348697	2445.080603
345.739934	2444.485747
346.131106	2443.739656
346.522215	2441.047680
346.913260	2438.222113
347.304241	2440.783019
347.695159	2436.490477
348.086012	2435.484767
348.476802	2433.914447
348.867528	2432.830599
349.258191	2429.747934
349.648789	2430.244487
350.039324	2426.687953
350.429796	2428.099476
350.820203	2427.171904
351.210548	2424.684095
351.600828	2426.161153
351.991045	2425.125196
352.381198	2427.335742
352.771288	2425.715011
353.161314	2424.883220
353.551276	2421.160328
353.941175	2425.236101
354.331010	2423.035637
354.720782	2424.744588
355.110490	2426.125865
355.500135	2425.412541
355.889717	2424.943714
356.279235	2425.899013
356.668689	2427.008067
357.058080	2426.012439
357.447408	2421.573703
357.836672	2423.902716
358.225873	2426.750968
358.615010	2425.175607
359.004084	2428.429672
359.393095	2427.867583
359.782043	2429.904209
360.170927	2427.958324
360.559748	2431.464447
360.948505	2433.924530
361.337199	2433.669951
361.725830	2432.240784
362.114398	2435.623398
362.502903	2432.039138
362.891344	2434.859664
363.279722	2434.277410
363.668037	2435.888059
364.056289	2434.032914
364.444478	2436.150199
364.832603	2436.157761
365.220665	2438.181784
365.608665	2437.418049
365.996601	2439.822680
366.384474	2437.584407
366.772284	2436.866043
367.160031	2439.124480
367.547715	2437.150868
367.935336	2440.173040
368.322893	2438.592638
368.710388	2440.969542
369.097820	2440.898966
369.485189	2444.130346
369.872495	2443.532969
370.259738	2439.888215
370.646918	2443.467434
371.034035	2442.653288
371.421090	2443.369131
371.808081	2442.726384
372.195010	2445.047836
372.581875	2444.364759
372.968678	2444.876436
373.355418	2446.429112
373.742096	2444.470623
374.128710	2447.533124
374.515262	2446.582867
374.901751	2446.847528
375.288177	2445.153700
375.674540	2450.507405
376.060841	2449.753753
376.447079	2449.995728
376.833254	2446.736622
377.219367	2441.312341
377.605417	2448.402723
377.991404	2446.756787
378.377329	2449.347940
378.763191	2444.084975
379.148991	2448.647219
379.534727	2450.688887
379.920402	2453.098558
380.306013	2453.156532
380.691563	2455.722479
381.077049	2451.797941
381.462474	2452.690225
381.847835	2453.378342
382.233134	2455.994701
382.618371	2456.060236
383.003545	2456.193827
383.388657	2455.951851
383.773706	2458.767336
384.158693	2456.884465
384.543618	2457.565021
384.928480	2458.144753
385.313280	2455.475462
385.698017	2458.709362
386.082692	2459.175669
386.467305	2454.931018
386.851856	2460.556945
387.236344	2457.968313
387.620770	2458.777418
388.005133	2460.582151
388.389435	2461.182048
388.773674	2462.328911
389.157851	2465.398974
389.541965	2461.590382
389.926018	2464.113479
390.310008	2463.253963
390.693936	2462.918726
391.077802	2464.547019
391.461606	2466.492904
391.845348	2463.468212
392.229027	2462.517954
392.612645	2464.181535
392.996200	2465.426700
393.379694	2465.454426
393.763125	2468.156485
394.146494	2467.896865
394.529801	2469.235292
394.913047	2471.128245
395.296230	2466.513069
395.679351	2469.557926
396.062410	2469.444500
396.445408	2469.489870
396.828343	2470.944243
397.211217	2467.067596
397.594028	2471.806280
397.976778	2468.169088
398.359466	2473.149748
398.742092	2470.082206
399.124656	2474.614203
399.507158	2474.893987
399.889598	2471.392906
400.271977	2473.376600
400.654294	2474.558750
401.036549	2474.155458
401.418742	2473.747124
401.800874	2474.382310
402.182944	2475.622434
402.564952	2478.276601
402.946898	2478.528659
403.328783	2478.763072
403.710606	2480.638382
404.092367	2482.536376
404.474067	2482.864051
404.855705	2483.471510
405.237282	2481.583598
405.618797	2482.438074
406.000250	2482.312045
406.381642	2485.114926
406.762972	2486.697849
407.144240	2481.573516
407.525447	2485.251037
407.906593	2485.198105
408.287677	2482.420430
408.668700	2486.793631
409.049661	2486.924701
409.430560	2487.123826
409.811399	2489.480566
410.192176	2486.433188
410.572891	2489.321769
410.953545	2488.815133
411.334138	2488.638693
411.714669	2489.402428
412.095139	2488.583240
412.475547	2490.733292
412.855894	2488.149701
413.236180	2490.869403
413.616405	2492.170021
413.996568	2491.250011
414.376670	2492.754795
414.756711	2491.804537
415.136691	2494.468787
415.516609	2496.109683
415.896466	2496.651607
416.276262	2497.032214
416.655997	2498.289982
417.035670	2490.244300
417.415283	2498.277379
417.794834	2496.938953
418.174324	2498.582369
418.553753	2499.966166
418.933121	2503.341218
419.312428	2504.495642
419.691674	2500.646721
420.070859	2505.468585
420.449983	2506.849861
420.829045	2502.789212
421.208047	2508.430263
421.586988	2507.976559
421.965867	2508.352125
422.344686	2509.919924
422.723444	2511.396982
423.102141	2508.894049
423.480777	2511.727178
423.859352	2513.335306
424.237866	2513.355470
424.616319	2516.042405
424.994712	2517.222035
425.373044	2519.104906
425.751314	2519.452746
426.129524	2520.400483
426.507673	2523.410052
426.885762	2524.186389
427.263789	2526.555732
427.641756	2526.626308
428.019662	2529.227543
428.397508	2526.263345
428.775292	2530.477749
429.153016	2531.793490
429.530679	2537.946219
429.908282	2537.583256
430.285824	2537.426980
430.663305	2540.774306
431.040726	2544.766900
431.418086	2543.859492
431.795385	2548.845193
432.172624	2553.538508
432.549802	2556.056564
432.926920	2559.565207
433.303977	2566.970662
433.680974	2566.075857
434.057910	2576.511046
434.434786	2580.543969
434.811601	2587.760380
435.188355	2598.402256
435.565050	2600.433841
435.941683	2612.431787
436.318257	2625.165742
436.694770	2633.770992
437.071222	2650.794968
437.447614	2654.399393
437.823946	2666.414983
438.200218	2685.314269
438.576429	2702.549974
438.952580	2723.962275
439.328670	2741.021540
439.704700	2769.796446
440.080670	2782.782458
440.456580	2817.752942
440.832429	2848.309896
441.208218	2860.312884
441.583947	2901.962897
441.959616	2935.955397
442.335224	2980.877119
442.710773	3024.367153
443.086261	3082.350505
443.461689	3110.550719
443.837057	3161.814213
444.212365	3236.103177
444.587612	3293.284985
444.962800	3336.568332
445.337927	3415.532965
445.712995	3424.183585
446.088002	3579.942636
446.462949	3668.137623
446.837837	3759.518619
447.212664	3847.305272
447.587431	4131.701966
447.962139	4457.552068
448.336786	4751.801698
448.711374	4742.142847
449.085901	4554.226276
449.460369	4657.771576
449.834776	4780.926964
450.209124	5159.449562
450.583412	5259.587042
450.957640	5442.696873
451.331808	5431.591212
451.705917	5405.155401
452.079965	5546.685795
452.453954	5732.787551
452.827883	5873.602101
453.201752	5991.882694
453.575562	6164.771586
453.949311	6500.235168
454.323001	6686.306678
454.696632	6821.182749
455.070202	7270.682272
455.443713	7488.487845
455.817164	7801.659445
456.190556	8109.684028
456.563888	8192.573200
456.937160	8478.159606
457.310373	8314.395203
457.683526	8597.962628
458.056619	8813.184609
458.429653	9010.742387
458.802628	9363.361016
459.175542	9620.641344
459.548398	10203.870076
459.921194	10900.330686
460.293930	11363.935358
460.666607	12247.309349
461.039224	13104.149228
461.411782	13511.373635
461.784280	13383.489644
462.156719	13482.316424
462.529099	13558.949525
462.901419	13389.312177
463.273680	13272.654836
463.645882	13570.516452
464.018024	13842.012834
464.390106	14444.753352
464.762130	15841.949470
465.134094	17925.055062
465.505999	20656.097638
465.877845	23186.091436
466.249631	24154.058510
466.621358	23675.000180
466.993026	23007.977388
467.364634	22351.598993
467.736184	21765.305239
468.107674	21479.335705
468.479105	21434.484559
468.850477	21409.556053
469.221790	20979.102009
469.593043	20361.832885
469.964238	20185.263951
470.335373	20426.084911
470.706449	21686.804391
471.077467	23492.533096
471.448425	26560.816261
471.819324	28677.286730
472.190164	27874.278813
472.560945	25963.081608
472.931667	24338.191695
473.302330	23942.597229
473.672934	23698.920455
474.043479	24306.470234
474.413965	24057.936309
474.784393	24062.821187
475.154761	24923.212558
475.525070	25209.766866
475.895321	25137.799353
476.265513	25797.194879
476.635645	26721.082104
477.005719	26866.400925
477.375734	27442.871991
477.745691	28188.745990
478.115588	29407.800334
478.485427	31144.835756
478.855207	33933.518885
479.224928	36257.899141
479.594591	37833.143772
479.964194	37307.028792
480.333739	37692.601443
480.703226	38000.994030
481.072653	38792.583733
481.442022	39475.481118
481.811333	39972.506120
482.180584	39140.443513
482.549777	38961.638828
482.918912	38745.446424
483.287988	38738.633305
483.657005	38262.239225
484.025964	37950.958058
484.394864	38160.554111
484.763706	38013.614559
485.132489	37481.775348
485.501213	37524.209261
485.869879	37870.017291
486.238487	37716.579692
486.607036	38064.283196
486.975527	37783.301883
487.343959	38130.917167
487.712333	38389.664471
488.080648	38452.449522
488.448905	39016.221921
488.817104	39016.917600
489.185244	40007.315287
489.553326	41673.262878
489.921350	44355.260068
490.289315	47321.422059
490.657222	48123.588103
491.025070	48551.330007
491.392861	47770.538455
491.760593	46659.548806
492.128267	45155.165155
492.495883	43830.932177
492.863440	42629.957932
493.230939	41477.885399
493.598380	40581.732083
493.965763	40404.459908
494.333088	39730.439995
494.700354	39380.712467
495.067563	39196.118016
495.434713	39171.539871
495.801805	39319.452366
496.168839	39034.622132
496.535815	38790.340420
496.902733	38894.036954
497.269593	38565.530164
497.636395	38571.829086
498.003139	39008.808904
498.369825	38556.118330
498.736453	38891.153414
499.103023	38515.332875
499.469535	38441.868140
499.835989	38581.636651
500.202385	38304.965525
500.568723	38377.598469
500.935003	38609.451217
501.301226	38445.286042
501.667390	39063.991895
502.033497	39358.612049
502.399546	38840.038635
502.765537	38210.050680
503.131470	38604.180691
503.497345	38969.109817
503.863163	37720.383242
504.228923	38330.360337
504.594625	38750.394317
504.960269	38084.140301
505.325856	38749.980942
505.691385	38169.698764
506.056856	38317.729726
506.422270	38767.279662
506.787625	38355.964358
507.152924	38549.973163
507.518164	38661.750667
507.883347	37931.249667
508.248472	38176.053138
508.613540	38640.237543
508.978550	38954.132549
509.343503	38714.433246
509.708398	38918.816746
510.073236	39442.885018
510.438016	39451.510432
510.802738	38934.227553
511.167403	39537.575531
511.532010	39772.931881
511.896561	40081.841185
512.261053	40880.642259
512.625488	40464.000976
512.989866	40341.170742
513.354186	40197.540707
513.718449	40178.056648
514.082655	40854.435821
514.446803	40543.583151
514.810894	41044.207537
515.174927	40983.449030
515.538904	40879.772660
515.902822	41540.360419
516.266684	41001.486279
516.630488	41424.923037
516.994235	41296.287914
517.357925	41841.733199
517.721558	42011.972964
518.085133	42305.118581
518.448651	42433.085751
518.812112	42213.276320
519.175516	42322.868484
519.538863	42649.298319
519.902152	42626.156902
520.265385	43076.692383
520.628560	43121.452788
520.991678	42921.626491
521.354739	43136.024243
521.717743	43470.207373
522.080690	43356.670506
522.443580	43903.955811
522.806413	43946.349395
523.169189	43903.948250
523.531908	44081.054067
523.894569	43940.363024
524.257174	44104.903765
524.619722	44415.363225
524.982213	44395.662396
525.344647	44327.926932
525.707025	44367.389084
526.069345	44764.004384
526.431608	44688.008990
526.793815	45003.943142
527.155964	44535.060382
527.518057	44697.529209
527.880093	44493.480945
528.242072	45030.348706
528.603995	44723.075256
528.965860	44729.192696
529.327669	44816.525645
529.689421	44726.304115
530.051117	44692.992170
530.412755	44828.821019
530.774337	44887.926028
531.135862	44712.312392
531.497331	44911.657259
531.858743	44804.754551
532.220098	45148.901521
532.581396	44865.513058
532.942638	44520.549421
533.303824	44827.757336
533.664953	44797.288602
534.026025	44524.741140
534.387040	44974.464995
534.747999	44928.267861
535.108902	45100.007370
535.469748	44614.466117
535.830537	44740.043780
536.191270	44948.530779
536.551947	44591.745636
536.912567	44873.904058
537.273131	44996.394014
537.633638	44505.930074
537.994089	44838.346280
538.354483	44455.566427
538.714821	45015.399164
539.075103	45346.678589
539.435328	45121.447397
539.795497	45028.869128
540.155609	45003.812072
540.515665	45465.760726
540.875665	44924.076142
541.235609	45248.461789
541.595496	45220.765690
541.955328	45873.635442
542.315102	45266.093225
542.674821	45043.944698
543.034483	45097.179283
543.394090	45055.004990
543.753640	45021.176327
544.113134	46005.590165
544.472571	45037.456733
544.831953	46244.296361
545.191278	45488.496329
545.550548	45202.549480
545.909761	45673.809145
546.268918	45867.112189
546.628019	46171.686102
546.987064	45745.862357
547.346053	45041.827413
547.704986	45876.153498
548.063863	45466.148894
548.422684	45668.001736
548.781449	45513.127407
549.140158	45900.983702
549.498811	45754.888543
549.857408	45202.708277
550.215949	46014.974273
550.574434	45963.609956
550.932864	45740.866573
551.291237	46429.646985
551.649555	46062.976139
552.007817	46300.890875
552.366022	45946.578418
552.724173	46126.799668
553.082267	46516.669903
553.440305	46814.649987
553.798288	46137.310473
554.156215	46446.474357
554.514086	46656.735842
554.871902	46393.391007
555.229661	46418.019564
555.587365	46259.750018
555.945014	46343.881835
556.302606	46286.354708
556.660143	46501.450660
557.017625	46560.938796
557.375050	46372.013994
557.732421	46736.502020
558.089735	46719.533496
558.446994	46627.257695
558.804197	47102.348637
559.161345	47025.836524
559.518437	46311.678944
559.875474	46600.867255
560.232455	46776.856456
560.589381	46946.428269
560.946251	46643.212947
561.303065	47331.322885
561.659825	47117.018394
562.016528	46810.115469
562.373177	46542.735189
562.729770	47014.960235
563.086307	46530.018879
563.442789	46992.098602
563.799216	47041.007877
564.155587	46842.401538
564.511904	46865.789972
564.868164	46942.181097
565.224370	47205.687249
565.580520	46944.018597
565.936615	47170.978905
566.292654	46873.066877
566.648638	47093.566947
567.004567	47070.309583
567.360441	47110.023793
567.716260	46979.296592
568.072023	47268.981456
568.427732	47257.780013
568.783385	46818.198959
569.138982	47218.658138
569.494525	47184.325360
569.850013	46944.757126
570.205445	46923.528827
570.560823	46875.174080
570.916145	46769.597195
571.271412	46783.460368
571.626625	46568.883654
571.981782	46626.410781
572.336884	46310.577452
572.691931	46630.093344
573.046923	46250.015550
573.401860	46100.610873
573.756743	46084.524552
574.111570	46195.414813
574.466342	46033.072015
574.821059	46164.353743
575.175722	45699.135902
575.530330	45728.717393
575.884882	45450.251616
576.239380	45433.126816
576.593823	45390.612245
576.948211	45297.960879
577.302544	44851.735584
577.656823	44886.454011
578.011047	45111.561695
578.365216	44847.231313
578.719330	44643.747659
579.073389	44485.757897
579.427394	44578.252988
579.781344	44557.037292
580.135239	44227.340789
580.489080	44300.838292
580.842866	43798.832630
581.196597	44233.990071
581.550273	44193.018093
581.903895	44055.833174
582.257463	44490.746119
582.610975	43888.897885
582.964434	44170.194269
583.317837	43816.736288
583.671186	43668.065099
584.024481	43878.573602
584.377721	43433.724542
584.730906	43707.617992
585.084037	43718.771545
585.437113	43452.107110
585.790135	43489.094056
586.143103	43095.143006
586.496016	43239.544337
586.848874	43246.712858
587.201679	43256.661575
587.554428	42757.678085
587.907124	42937.400261
588.259765	42700.433263
588.612352	42959.392295
588.964884	42362.151675
589.317362	42645.782114
589.669786	42579.685025
590.022155	42355.930891
590.374470	42772.841876
590.726731	42305.879795
591.078937	41830.090654
591.431090	41931.107815
591.783188	41580.535895
592.135232	41253.854002
592.487222	41504.001097
592.839157	41594.048708
593.191038	41285.338528
593.542866	41048.079143
593.894639	40450.538575
594.246358	40725.654505
594.598022	40700.181554
594.949633	40318.659470
595.301190	40270.700453
595.652692	40118.165219
596.004141	40437.471904
596.355535	39459.014189
596.706876	39422.294425
597.058162	39253.650185
597.409395	39708.279082
597.760573	39799.949945
598.111698	39361.049447
598.462768	39370.494048
598.813785	39422.974981
599.164748	38873.060713
599.515657	39270.475036
599.866511	38749.784337
600.217312	39353.570895
600.568060	38330.733382
600.918753	39064.332173
601.269392	39028.648365
601.619978	38698.941780
601.970510	38911.043287
602.320988	39085.111809
602.671412	39382.489474
603.021783	39118.582550
603.372100	38765.641287
603.722363	38889.202488
604.072572	38955.970050
604.422728	38968.714087
604.772830	38783.161817
605.122878	38870.038542
605.472872	38816.095675
605.822813	39098.319632
606.172701	38925.176162
606.522534	39145.237651
606.872314	39408.978217
607.222041	39166.783542
607.571714	39551.158920
607.921333	39019.309628
608.270899	39292.789703
608.620411	39618.347418
608.969870	39427.096124
609.319276	39429.886402
609.668627	39481.361624
610.017926	39962.025561
610.367171	40123.337443
610.716362	40207.174352
611.065500	40148.936423
611.414585	40343.945897
611.763616	40642.089818
612.112594	40573.812430
612.461518	40779.632660
612.810389	41066.766700
613.159207	40935.921032
613.507971	41001.987873
613.856682	41489.051555
614.205340	41361.850641
614.553945	42046.809858
614.902496	41519.074147
615.250994	41953.256125
615.599439	42032.704709
615.947830	42259.239040
616.296169	42307.838283
616.644454	42422.748865
616.992686	42603.862399
617.340864	43114.904329
617.688990	42846.689739
618.037063	43440.257878
618.385082	43398.786826
618.733048	43692.018142
619.080961	43705.278897
619.428821	43718.988315
619.776628	43807.493332
620.124382	43649.082635
620.472083	43773.654587
620.819731	43887.824119
621.167326	43564.416456
621.514868	43550.076894
621.862357	43123.191986
622.209793	43133.143224
622.557176	42802.120897
622.904506	42549.417938
623.251783	42205.462531
623.599007	41982.807369
623.946179	41767.146807
624.293297	41717.075547
624.640363	41116.996757
624.987376	41113.969544
625.334336	40880.919523
625.681243	40526.690245
626.028097	40495.533393
626.374899	40329.692035
626.721647	40310.984313
627.068343	40205.210823
627.414987	39986.303758
627.761577	39758.962843
628.108115	40086.615158
628.454600	39543.692971
628.801032	39735.539122
629.147412	39685.669508
629.493739	39703.119462
629.840014	39353.759938
630.186236	39689.493223
630.532405	39320.944547
630.878521	39527.115137
631.224585	39409.936036
631.570597	39127.611256
631.916556	39281.205132
632.262462	39243.610727
632.608316	39246.804298
632.954117	39126.910536
633.299866	39128.062439
633.645562	39044.490191
633.991206	38548.269253
634.336797	38127.733679
634.682336	38126.652351
635.027823	37876.820328
635.373257	37698.610499
635.718639	37469.749676
636.063968	37319.886254
636.409245	36762.168281
636.754470	36800.622202
637.099642	36561.910965
637.444762	36105.865503
637.789829	36240.670998
638.134845	35891.442545
638.479808	35839.271643
638.824719	35757.252070
639.169577	35362.232296
639.514383	35419.819917
639.859137	35129.968694
640.203839	35368.453080
640.548489	34999.138149
640.893086	35074.846198
641.237632	34825.114998
641.582125	34944.807114
641.926566	34875.602154
642.270955	34845.337587
642.615292	34862.041450
642.959576	34828.585832
643.303809	34829.795709
643.647990	34980.120396
643.992118	34941.364006
644.336195	34955.224658
644.680219	35039.328748
645.024192	35340.278071
645.368112	35837.144277
645.711981	35857.697061
646.055797	36719.348720
646.399562	36658.527199
646.743274	37577.653053
647.086935	38027.906230
647.430544	37919.213912
647.774101	38041.908035
648.117606	38273.601986
648.461059	38567.037469
648.804460	38191.663071
649.147810	37586.901050
649.491108	37318.116809
649.834354	36948.932949
650.177548	36131.169575
650.520690	35692.591711
650.863781	35703.473041
651.206820	35560.838634
651.549807	35122.623733
651.892742	34655.381868
652.235626	34468.904547
652.578458	34328.536138
652.921238	33738.501848
653.263967	34058.910025
653.606644	33744.523506
653.949269	33687.059394
654.291843	33311.168278
654.634365	33715.690627
654.976836	33292.889054
655.319255	33309.504697
655.661622	33306.283400
656.003938	33073.064499
656.346203	32948.177474
656.688416	33174.179963
657.030577	32959.149546
657.372687	32797.797335
657.714746	33071.625250
658.056753	33183.248999
658.398708	32649.408451
658.740612	32697.438044
659.082465	32966.993581
659.424266	32802.606595
659.766016	32922.344082
660.107715	32797.207520
660.449362	32917.297887
660.790958	32911.719850
661.132503	32920.791406
661.473996	32953.682414
661.815438	33074.957453
662.156829	33268.099180
662.498168	33030.620504
662.839456	33059.957499
663.180693	33206.781105
663.521879	33363.324055
663.863013	33331.204344
664.204097	33315.362518
664.545129	33784.794764
664.886110	33760.710651
665.227040	33817.383303
665.567918	33918.355094
665.908746	33990.617514
666.249522	34154.772606
666.590248	34148.357738
666.930922	34262.980974
667.271545	34228.239862
667.612118	34316.207997
667.952639	34106.233857
668.293109	34135.349041
668.633528	34051.597831
668.973896	33963.909481
669.314213	34010.194835
669.654480	33740.142744
669.994695	33776.159267
670.334859	33665.982329
670.674973	33551.759866
671.015035	33725.210846
671.355047	33673.231509
671.695008	33621.592449
672.034918	33513.328629
672.374777	33592.575568
672.714585	33440.965386
673.054342	33656.739374
673.394049	33439.430355
673.733705	33705.063875
674.073310	33370.805128
674.412864	33446.992086
674.752368	33045.128945
675.091820	33350.161603
675.431223	32917.718823
675.770574	32651.843328
676.109875	32515.553213
676.449125	32217.215208
676.788324	32160.920643
677.127473	31632.275004
677.466571	31552.191234
677.805619	31217.141026
678.144616	31209.667515
678.483562	31132.832769
678.822458	30797.603600
679.161303	30743.504457
679.500098	30639.691976
679.838842	30537.442253
680.177535	30690.995799
680.516179	30959.671655
680.854771	31211.557948
681.193314	32067.593762
681.531805	33196.920608
681.870247	33965.777228
682.208638	34710.302719
682.546978	34931.798416
682.885268	35014.344790
683.223508	34468.949917
683.561697	34137.599916
683.899836	33950.205104
684.237925	33458.173365
684.575963	33304.597134
684.913951	32852.700541
685.251889	32996.454084
685.589776	33007.078316
685.927614	32974.751917
686.265401	33127.571975
686.603137	33238.008532
686.940824	33743.512755
687.278460	34141.337931
687.616046	34262.832260
687.953582	34894.415740
688.291068	34748.373513
688.628504	35021.137745
688.965889	34944.113955
689.303224	34566.062705
689.640510	34206.633477
689.977745	33484.241172
690.314930	32685.331713
690.652065	32158.122803
690.989150	31406.529614
691.326185	30517.827123
691.663170	29812.925101
692.000105	29060.434587
692.336990	28387.337205
692.673825	27942.667107
693.010610	27422.959433
693.347345	26852.789810
693.684030	26212.006224
694.020665	25932.920385
694.357251	25265.431287
694.693786	25215.407917
695.030272	24990.660676
695.366707	24451.852070
695.703093	24163.808101
696.039429	24147.797397
696.375716	23885.584300
696.711952	23862.889025
697.048139	23705.214336
697.384276	23530.482902
697.720363	23648.609740
698.056400	23453.592703
698.392388	23243.041351
698.728326	23201.557696
699.064214	22984.417556
699.400053	22938.986677
699.735842	22578.886976
700.071581	22302.251138
700.407270	22017.977952
700.742910	21828.080207
701.078501	21568.407852
701.414042	21281.886312
701.749533	20994.616160
702.084974	20635.108794
702.420366	20841.967501
702.755709	20409.572612
703.091002	20118.211563
703.426246	20134.481887
703.761440	20028.821823
704.096584	19761.184445
704.431679	19723.953003
704.766725	19629.620412
705.101721	19581.424461
705.436668	19660.613426
705.771565	19350.443833
706.106413	19697.605413
706.441212	19670.426032
706.775961	19801.342277
707.110661	19864.210506
707.445311	20221.083869
707.779913	20067.114428
708.114465	20311.658281
708.448967	20596.160839
708.783421	21288.482661
709.117825	21563.217984
709.452180	21788.809619
709.786485	22179.859484
710.120742	22981.014777
710.454949	23006.744826
710.789107	23467.115598
711.123216	24182.009187
711.457275	24303.576612
711.791286	24827.821324
712.125247	24904.144393
712.459159	24598.065696
712.793023	25256.889051
713.126837	24146.826974
713.460602	24393.752772
713.794318	24022.643191
714.127985	23622.985555
714.461602	22734.555286
714.795171	22678.545546
715.128691	21668.121875
715.462162	21144.671145
715.795584	20715.139632
716.128957	20459.848039
716.462281	20055.416431
716.795556	19826.210289
717.128782	19321.442075
717.461960	18785.030538
717.795088	18712.342141
718.128167	18310.133681
718.461198	17855.096450
718.794180	17708.479531
719.127113	17353.075664
719.459997	17154.391188
719.792833	16814.481308
720.125619	16780.171215
720.458357	16466.056919
720.791046	16300.727237
721.123686	16146.074720
721.456278	15909.725263
721.788821	15867.603902
722.121315	15608.516320
722.453761	15686.936510
722.786158	15604.276710
723.118506	15615.566374
723.450805	15486.081817
723.783056	15644.371527
724.115259	15548.317382
724.447412	15483.775489
724.779518	15723.510081
725.111574	15745.736528
725.443582	15940.302381
725.775542	15925.108344
726.107453	16385.350566
726.439315	16274.543484
726.771129	16675.350503
727.102895	17055.115746
727.434612	17244.090959
727.766281	17370.742388
728.097901	17631.939692
728.429473	17666.325403
728.760996	17646.256569
729.092471	17737.236793
729.423897	17614.890510
729.755276	17476.253738
730.086606	17592.273373
730.417887	18099.458821
730.749120	18623.474160
731.080305	18787.198234
731.411442	19125.804976
731.742530	19192.733855
732.073570	19289.977713
732.404562	19584.113916
732.735506	19391.287261
733.066401	19107.104816
733.397249	18589.519468
733.728048	17938.298173
734.058798	17111.619519
734.389501	16441.554391
734.720156	15984.528424
735.050762	15458.940245
735.381320	15120.315858
735.711831	14879.250402
736.042293	14531.614953
736.372707	14542.203897
736.703073	14334.989789
737.033391	14520.136246
737.363661	14492.268748
737.693883	14595.887144
738.024056	14764.198668
738.354182	14946.970742
738.684260	15238.251132
739.014290	15458.952847
739.344272	15655.323434
739.674207	15936.390446
740.004093	16046.489246
740.333931	16032.507606
740.663722	16072.151240
740.993464	16057.957871
741.323159	15877.224944
741.652806	15599.659013
741.982405	15389.261416
742.311956	15053.356733
742.641460	14927.126240
742.970915	14629.831754
743.300323	14301.818997
743.629683	14085.858486
743.958996	13807.042349
744.288260	13544.799006
744.617477	13239.378179
744.946647	13164.083506
745.275768	12892.876990
745.604842	12703.455635
745.933869	12545.183568
746.262847	12499.684634
746.591778	12432.967484
746.920662	12329.407060
747.249498	12324.149137
747.578286	12440.967795
747.907027	12589.780136
748.235720	12807.247951
748.564365	12839.556706
748.892963	12734.216755
749.221514	12804.190491
749.550017	12654.826144
749.878473	12610.448867
750.206881	12393.792677
750.535242	12305.131384
750.863555	12215.618136
751.191821	12126.629168
751.520039	12145.198258
751.848210	12049.814586
752.176334	12082.990419
752.504411	11986.109525
752.832440	11828.339053
753.160421	11900.533418
753.488356	11771.555496
753.816243	11677.253152
754.144082	11546.243646
754.471875	11485.167546
754.799620	11430.377766
755.127318	11404.181410
755.454969	11366.466017
755.782572	11321.655201
756.110129	11327.364308
756.437638	11245.309446
756.765100	11238.700494
757.092515	11240.152346
757.419882	11260.080027
757.747203	11262.905594
758.074477	11344.247132
758.401703	11303.847325
758.728882	11455.419697
759.056014	11501.599187
759.383099	11616.000612
759.710138	11721.615306
760.037129	11797.835031
760.364073	11814.173411
760.690970	11796.700772
761.017820	11800.920218
761.344623	11989.756799
761.671379	12300.107874
761.998088	12929.062393
762.324751	14481.967150
762.651366	17335.446749
762.977935	20987.256075
763.304456	23203.362429
763.630931	23661.893180
763.957359	22473.708342
764.283740	20569.793084
764.610074	18700.069452
764.936362	16576.990030
765.262602	15068.457509
765.588796	13601.799332
765.914943	12579.183631
766.241044	11740.985939
766.567097	11101.397107
766.893104	10561.799561
767.219064	10208.162619
767.544978	9828.168003
767.870845	9516.642340
768.196665	9323.009100
768.522438	9135.664700
768.848165	8970.483732
769.173846	8810.497674
769.499479	8686.190382
769.825066	8531.495014
770.150607	8343.195315
770.476101	8280.727857
770.801548	8168.499170
771.126949	8030.323663
771.452303	7945.680170
771.777611	7782.041795
772.102872	7758.360975
772.428087	7644.632544
772.753256	7515.619335
773.078378	7434.507170
773.403453	7290.715818
773.728482	7194.482712
774.053465	7121.320446
774.378401	7042.305400
774.703291	6943.876872
775.028135	6854.648448
775.352932	6813.605894
775.677683	6734.905921
776.002388	6648.550956
776.327046	6649.959958
776.651658	6557.769857
776.976224	6486.150185
777.300743	6464.102698
777.625216	6401.037864
777.949643	6366.546289
778.274024	6366.132914
778.598359	6298.450383
778.922647	6299.161186
779.246889	6260.712305
779.571086	6266.784375
779.895236	6283.110152
780.219339	6271.628924
780.543397	6272.473317
780.867409	6325.120607
781.191374	6314.801365
781.515294	6289.557787
781.839167	6341.348082
782.162995	6308.585623
782.486776	6262.063334
782.810511	6221.444237
783.134201	6138.653368
783.457844	6131.525176
783.781441	6085.438948
784.104993	6041.757350
784.428498	6011.278533
784.751958	5991.227344
785.075372	5971.037523
785.398739	5932.263488
785.722061	5955.442713
786.045337	5956.889525
786.368568	6064.528242
786.691752	6087.704946
787.014891	6334.154355
787.337983	6608.718279
787.661030	7053.383336
787.984031	7472.020916
788.306987	7739.083603
788.629897	7826.411511
788.952760	7733.225782
789.275579	7556.634163
789.598351	7261.837568
789.921078	6997.771847
790.243759	6717.710545
790.566395	6511.953331
790.888984	6317.997457
791.211529	6187.592889
791.534027	6023.064751
791.856480	5881.678030
792.178888	5823.437579
792.501249	5760.516418
792.823566	5658.818701
793.145836	5649.628677
793.468062	5631.140245
793.790241	5591.136169
794.112375	5632.471110
794.434464	5730.609772
794.756507	5762.452221
795.078505	5885.731118
795.400457	6097.474703
795.722364	6341.164079
796.044226	6528.700044
796.366042	6690.105187
796.687812	6632.157123
797.009538	6669.774213
797.331218	6568.986425
797.652852	6499.148800
797.974442	6378.808896
798.295986	6307.365663
798.617484	6182.967631
798.938938	6071.129633
799.260346	6009.067988
799.581709	5863.174475
799.903026	5815.228060
800.224299	5745.181228
800.545526	5627.540862
800.866708	5565.096089
801.187845	5511.909395
801.508936	5436.559269
801.829983	5409.851236
802.150984	5306.900792
802.471940	5280.684271
802.792851	5264.474441
803.113717	5239.835802
803.434538	5213.977203
803.755314	5182.132234
804.076045	5173.068239
804.396731	5136.598012
804.717372	5155.887987
805.037967	5150.582173
805.358518	5183.369837
805.679024	5235.389504
805.999485	5253.711578
806.319901	5269.439978
806.640272	5288.021671
806.960598	5339.985884
807.280879	5330.715203
807.601115	5363.333988
807.921306	5323.589532
808.241453	5318.848326
808.561554	5333.805430
808.881611	5299.001304
809.201623	5294.340757
809.521590	5248.488942
809.841513	5228.800716
810.161390	5244.168673
810.481223	5156.417308
810.801011	5144.684023
811.120755	5117.237461
811.440453	5062.036826
811.760107	5033.093041
812.079716	5010.002036
812.399281	4956.412050
812.718801	4951.731339
813.038276	4916.866719
813.357707	4887.169281
813.677093	4905.740892
813.996434	4841.216643
814.315731	4861.451835
814.634983	4862.472669
814.954191	4870.851066
815.273354	4924.844345
815.592473	4966.300273
815.911547	5042.043610
816.230577	5091.799798
816.549562	5182.971586
816.868502	5233.894802
817.187399	5287.522596
817.506250	5370.149628
817.825058	5393.485130
818.143821	5551.066558
818.462539	5715.907247
818.781213	5944.221105
819.099843	6305.974305
819.418429	6930.691734
819.736970	7549.745426
820.055466	8256.699197
820.373919	9167.154267
820.692327	10608.452919
821.010691	13297.356490
821.329011	19490.459360
821.647286	29077.400590
821.965517	39445.776119
822.283704	44939.996106
822.601847	46396.677839
822.919945	41791.508183
823.237999	36658.381006
823.556010	31440.171754
823.873976	26748.271567
824.191897	22532.510881
824.509775	19464.615885
824.827609	16702.640789
825.145398	15148.241330
825.463144	14395.256783
825.780845	14693.355333
826.098502	15938.540498
826.416116	18410.336696
826.733685	20697.906447
827.051210	21226.917570
827.368692	19801.022163
827.686129	17238.167604
828.003522	14751.013531
828.320872	12532.565560
828.638177	10885.126566
828.955439	9652.438422
829.272656	8594.937935
829.589830	7752.674553
829.906960	7022.420569
830.224046	6487.236553
830.541088	6079.649183
830.858086	5825.108722
831.175041	5622.209841
831.491952	5568.183796
831.808819	5601.803251
832.125642	5842.614129
832.442421	6389.859105
832.759157	7498.597879
833.075849	9262.971478
833.392497	11113.064857
833.709101	12223.620967
834.025662	11982.525264
834.342179	10925.150807
834.658653	9615.743863
834.975083	8512.706634
835.291469	7609.712472
835.607811	6878.006635
835.924110	6354.286203
836.240366	5872.351895
836.556578	5419.265590
836.872746	5068.393721
837.188871	4798.704593
837.504952	4574.153957
837.820990	4410.361827
838.136984	4294.901760
838.452935	4246.335284
838.768842	4276.781333
839.084706	4554.223755
839.400526	5293.057783
839.716303	6198.880033
840.032037	6765.248626
840.347727	6620.655731
840.663373	6022.444689
840.978977	5443.354744
841.294537	5003.067929
841.610054	4672.748844
841.925527	4433.722534
842.240957	4227.100761
842.556344	4046.778688
842.871687	3887.969739
843.186987	3736.188159
843.502244	3621.043164
843.817458	3534.504196
844.132629	3463.880151
844.447756	3420.435488
844.762840	3372.421018
845.077881	3331.698577
845.392879	3296.216416
845.707833	3272.631377
846.022745	3246.392172
846.337613	3233.741396
846.652438	3211.681307
846.967221	3202.579503
847.281960	3183.937317
847.596656	3172.488856
847.911309	3160.029644
848.225919	3148.066986
848.540485	3138.493835
848.855009	3133.414873
849.169490	3120.002883
849.483928	3110.916203
849.798323	3107.919237
850.112675	3095.490272
850.426984	3098.429265
850.741251	3091.790065
851.055474	3086.421237
851.369654	3086.874940
851.683792	3085.413006
851.997887	3092.871393
852.311938	3088.215887
852.625947	3088.483068
852.939914	3079.560226
853.253837	3086.718665
853.567718	3083.767069
853.881555	3080.069383
854.195350	3087.184971
854.509103	3082.511822
854.822812	3079.779516
855.136479	3073.160481
855.450103	3076.674166
855.763685	3074.204000
856.077224	3074.811459
856.390720	3084.276226
856.704173	3095.563369
857.017584	3096.526229
857.330953	3105.270111
857.644278	3114.084568
857.957561	3116.632872
858.270802	3114.243365
858.584000	3113.214969
858.897155	3107.833537
859.210268	3096.276692
859.523339	3079.656008
859.836367	3080.843200
860.149352	3076.706933
860.462295	3072.182498
860.775195	3064.330900
861.088054	3058.178172
861.400869	3060.257648
861.713642	3056.519632
862.026373	3065.908782
862.339062	3068.434400
862.651708	3077.952098
862.964312	3094.298039
863.276873	3102.346242
863.589392	3135.602733
863.901869	3160.246414
864.214303	3182.089734
864.526696	3199.927857
864.839045	3215.925958
865.151353	3229.121178
865.463619	3232.365161
865.775842	3233.055799
866.088023	3240.922520
866.400162	3226.968606
866.712258	3230.089080
867.024313	3229.882393
867.336325	3229.703432
867.648296	3230.953638
867.960224	3227.263513
868.272110	3231.130078
868.583954	3232.622260
868.895755	3239.594176
869.207515	3237.882704
869.519233	3256.779469
869.830909	3263.025459
870.142542	3270.776233
870.454134	3277.677572
870.765684	3290.981177
871.077191	3308.476502
871.388657	3323.426043
871.700081	3340.792818
872.011463	3358.157073
872.322803	3379.748335
872.634101	3393.966909
872.945357	3417.680497
873.256571	3441.578087
873.567744	3460.421920
873.878874	3462.909729
874.189963	3478.867502
874.501010	3482.240034
874.812015	3479.280876
875.122979	3497.749143
875.433900	3492.536590
875.744780	3496.524143
876.055618	3502.949094
876.366415	3501.489680
876.677169	3504.842047
876.987882	3523.232176
877.298554	3545.002399
877.609183	3581.591094
877.919771	3629.421561
878.230317	3700.015359
878.540822	3802.330618
878.851285	3949.250005
879.161707	4170.528933
879.472087	4547.831572
879.782425	5172.513713
880.092722	6361.416915
880.402977	8299.823748
880.713191	10684.786071
881.023363	13091.473246
881.333494	14445.179330
881.643583	14903.286624
881.953631	14493.249252
882.263637	13640.462462
882.573602	12598.037546
882.883526	11635.973664
883.193408	10674.910450
883.503248	9751.930634
883.813048	8919.109333
884.122806	8155.198085
884.432522	7376.843931
884.742197	6718.822120
885.051831	6153.693650
885.361424	5655.662938
885.670975	5262.125263
885.980485	4935.135860
886.289954	4669.162063
886.599382	4449.208959
886.908768	4273.207154
887.218113	4108.472329
887.527417	3972.739262
887.836680	3849.924151
888.145901	3751.861106
888.455082	3675.669107
888.764221	3608.006740
889.073319	3547.926268
889.382376	3514.435363
889.691392	3489.269923
890.000366	3483.001248
890.309300	3477.269456
890.618193	3479.520331
890.927044	3473.856595
891.235855	3486.192298
891.544625	3496.624966
891.853353	3523.756456
892.162041	3583.720981
892.470687	3676.105167
892.779293	3800.707366
893.087858	3970.526195
893.396381	4250.176643
893.704864	4660.355167
894.013306	5232.800871
894.321707	5809.713038
894.630068	6167.234189
894.938387	6209.456373
895.246665	6027.269073
895.554903	5715.461105
895.863100	5374.500144
896.171256	5098.812043
896.479371	4860.304973
896.787446	4633.818533
897.095480	4435.663378
897.403473	4286.084782
897.711425	4140.758399
898.019336	4018.465048
898.327207	3896.096079
898.635038	3793.390131
898.942827	3687.420036
899.250576	3597.906788
899.558284	3513.311185
899.865952	3459.554841
900.173579	3399.265162
900.481165	3350.507122
900.788711	3309.885504
901.096216	3276.029115
901.403681	3250.916607
901.711105	3241.671131
902.018489	3232.332393
902.325832	3264.893206
902.633135	3325.800427
902.940397	3496.556911
903.247619	3900.280237
903.554800	4657.683355
903.861941	5630.928517
904.169041	6339.495457
904.476101	6556.751544
904.783121	6279.399862
905.090100	5871.406679
905.397039	5454.374706
905.703938	5090.216876
906.010796	4765.377525
906.317614	4510.206920
906.624391	4271.092390
906.931129	4075.853543
907.237826	3894.624062
907.544483	3722.219121
907.851099	3550.383831
908.157675	3390.778379
908.464211	3248.078437
908.770707	3148.961791
909.077163	3068.109245
909.383578	3008.452231
909.689954	2962.224850
909.996289	2932.918102
910.302584	2915.379928
910.608839	2901.509193
910.915054	2887.877913
911.221229	2886.438663
911.527363	2888.845814
911.833458	2894.058368
912.139513	2907.735018
912.445527	2922.281267
912.751502	2958.078501
913.057436	3001.427383
913.363331	3057.719427
913.669186	3142.665390
913.975000	3261.331631
914.280775	3447.970270
914.586510	3720.986559
914.892205	4094.740226
915.197859	4594.023665
915.503475	5185.966032
915.809050	5690.101581
916.114585	5981.006405
916.420081	6047.274893
916.725536	5979.108410
917.030952	5737.344754
917.336328	5528.088978
917.641665	5319.211289
917.946961	5086.882153
918.252218	4884.399167
918.557435	4655.762676
918.862612	4456.624496
919.167750	4283.319709
919.472848	4095.440946
919.777906	3922.110954
920.082925	3763.365019
920.387904	3607.656380
920.692843	3496.113289
920.997743	3398.120820
921.302603	3303.397539
921.607423	3239.626943
921.912204	3174.154958
922.216946	3124.623100
922.521647	3073.573856
922.826310	3035.182949
923.130932	2994.836074
923.435516	2958.358285
923.740059	2930.339552
924.044564	2897.814027
924.349028	2874.193701
924.653454	2844.095492
924.957840	2818.504074
925.262186	2796.809469
925.566493	2775.611417
925.870761	2750.506471
926.174989	2737.107084
926.479178	2725.399004
926.783328	2707.689430
927.087438	2696.505631
927.391509	2684.182530
927.695541	2671.723318
927.999533	2660.700835
928.303486	2654.759836
928.607400	2648.407982
928.911275	2643.213073
929.215110	2636.878863
929.518906	2631.242853
929.822663	2632.276289
930.126381	2632.611526
930.430060	2634.696043
930.733699	2637.970273
931.037299	2641.899852
931.340861	2638.570170
931.644383	2644.838845
931.947866	2642.257774
932.251309	2640.717702
932.554714	2641.234420
932.858080	2636.861219
933.161407	2633.435755
933.464694	2628.959210
933.767943	2626.698253
934.071153	2623.224898
934.374323	2618.110647
934.677455	2618.392952
934.980548	2612.005810
935.283602	2609.870881
935.586617	2608.716457
935.889593	2612.270470
936.192530	2612.149483
936.495428	2619.622993
936.798287	2630.209416
937.101108	2643.202990
937.403890	2663.481032
937.706632	2689.957172
938.009336	2722.568396
938.312002	2753.243817
938.614628	2778.910852
938.917216	2795.471042
939.219765	2807.564770
939.522275	2816.026347
939.824747	2816.323775
940.127179	2809.611479
940.429573	2802.059830
940.731929	2803.267187
941.034246	2792.416103
941.336524	2792.358130
941.638763	2784.413271
941.940964	2779.094854
942.243126	2760.951741
942.545250	2755.814806
942.847335	2737.054152
943.149381	2726.828171
943.451389	2710.656149
943.753359	2697.622246
944.055290	2688.966585
944.357182	2684.066583
944.659036	2673.654080
944.960851	2669.321208
945.262628	2666.021773
945.564367	2667.251815
945.866067	2665.300888
946.167729	2663.763336
946.469352	2661.031031
946.770937	2663.402894
947.072484	2655.324445
947.373992	2654.580875
947.675462	2653.486944
947.976893	2643.628968
948.278286	2641.519245
948.579641	2639.691827
948.880958	2634.910292
949.182236	2636.034470
949.483476	2630.466515
949.784678	2632.959366
950.085841	2632.999695
950.386967	2637.088071
950.688054	2641.945222
950.989103	2650.096768
951.290114	2658.898623
951.591087	2671.796415
951.892021	2681.482992
952.192917	2696.452698
952.493776	2705.120962
952.794596	2709.287476
953.095378	2709.862168
953.396122	2709.169009
953.696828	2707.044163
953.997496	2701.445961
954.298126	2691.784590
954.598718	2684.510205
954.899272	2670.213493
955.199788	2661.429282
955.500266	2648.004689
955.800706	2633.841568
956.101108	2615.486727
956.401472	2603.821497
956.701798	2589.020669
957.002087	2575.649008
957.302337	2569.095508
957.602550	2556.064126
957.902724	2545.704554
958.202861	2534.835827
958.502960	2528.178983
958.803022	2522.258148
959.103045	2514.393948
959.403031	2508.284069
959.702979	2499.988851
960.002889	2497.891731
960.302762	2490.733292
960.602596	2483.269864
960.902393	2484.202478
961.202153	2479.637713
961.501875	2477.684266
961.801559	2478.168216
962.101205	2473.500108
962.400814	2469.328553
962.700385	2469.618419
962.999918	2465.479632
963.299414	2468.330405
963.598873	2466.311423
963.898293	2464.345372
964.197677	2463.306895
964.497022	2459.780608
964.796331	2458.732048
965.095601	2459.526029
965.394835	2458.162397
965.694030	2455.964454
965.993189	2457.943107
966.292309	2457.070987
966.591393	2454.328600
966.890439	2456.672736
967.189447	2455.256172
967.488419	2455.689711
967.787353	2457.693570
968.086249	2456.947479
968.385108	2456.796245
968.683930	2456.884465
968.982714	2460.277161
969.281462	2461.035855
969.580172	2464.342852
969.878844	2465.502317
970.177480	2469.439458
970.476078	2472.499439
970.774639	2475.819039
971.073162	2476.192084
971.371649	2476.948257
971.670098	2473.275777
971.968510	2479.748618
972.266885	2477.424646
972.565223	2481.523104
972.863524	2484.928404
973.161788	2483.516881
973.460014	2486.085348
973.758204	2487.517036
974.056356	2488.137098
974.354471	2488.210195
974.652550	2489.712459
974.950591	2489.828405
975.248595	2487.902684
975.546563	2487.801861
975.844493	2484.275574
976.142386	2483.854638
976.440243	2479.846921
976.738062	2478.679893
977.035845	2474.168061
977.333590	2475.471199
977.631299	2474.483133
977.928971	2470.692185
978.226606	2468.186732
978.524204	2469.936012
978.821765	2468.000209
979.119290	2464.292440
979.416777	2464.824282
979.714228	2465.056175
980.011642	2469.399129
980.309020	2471.418111
980.606360	2475.894656
980.903664	2482.569144
981.200931	2497.163284
981.498162	2514.918228
981.795356	2547.295038
982.092513	2582.119329
982.389633	2627.073819
982.686717	2670.742814
982.983764	2704.614327
983.280775	2725.862790
983.577749	2722.064281
983.874686	2713.033053
984.171587	2695.910774
984.468451	2679.022909
984.765279	2665.621002
985.062070	2643.777682
985.358824	2627.182203
985.655543	2602.044490
985.952224	2584.181161
986.248869	2551.111192
986.545478	2525.340813
986.842050	2505.473626
987.138586	2486.982674
987.435086	2472.980869
987.731549	2460.587192
988.027975	2459.805813
988.324366	2450.562858
988.620719	2446.343412
988.917037	2441.708071
989.213318	2439.585745
989.509563	2438.547268
989.805772	2436.044335
990.101944	2434.713470
990.398080	2433.208686
990.694180	2432.152564
990.990244	2432.840682
991.286271	2436.616506
991.582262	2435.590631
991.878217	2433.448141
992.174136	2435.076433
992.470019	2438.804367
992.765865	2437.957453
993.061676	2441.574481
993.357450	2443.870726
993.653188	2447.913732
993.948890	2451.964299
994.244556	2457.169290
994.540186	2466.576083
994.835780	2476.744090
995.131337	2492.525423
995.426859	2508.271467
995.722345	2530.213089
996.017795	2550.155893
996.313208	2561.528736
996.608586	2573.642629
996.903928	2573.872002
997.199234	2576.463155
997.494504	2573.249419
997.789738	2564.409756
998.084936	2553.919115
998.380099	2540.355890
998.675225	2529.487162
998.970316	2516.753208
999.265371	2506.081085
999.560390	2488.666419
999.855373	2478.190902
1000.150320	2469.893162
1000.445232	2458.464867
1000.740108	2455.299022
1001.034948	2447.853238
1001.329752	2442.542382
1001.624521	2438.711105
1001.919254	2430.189035
1002.213951	2430.685588
1002.508613	2424.210226
1002.803239	2425.266348
1003.097829	2420.126892
1003.392384	2424.525298
1003.686903	2421.954310
1003.981386	2423.015473
1004.275834	2419.915163
1004.570246	2419.592529
1004.864623	2417.329051
1005.158964	2417.447518
1005.453270	2418.032292
1005.747540	2418.911973
1006.041775	2416.686304
1006.335974	2414.367373
1006.630138	2414.382497
1006.924266	2416.134298
1007.218359	2414.984915
1007.512416	2413.865778
1007.806438	2414.074986
1008.100425	2413.777558
1008.394376	2412.237486
1008.688292	2414.808474
1008.982172	2414.826118
1009.276017	2413.404513
1009.569827	2412.174471
1009.863602	2415.637744
1010.157341	2411.688000
1010.451045	2412.056004
1010.744714	2410.621796
1011.038347	2412.053484
1011.331945	2409.686662
1011.625508	2413.923752
1011.919036	2407.607186
1012.212528	2408.411250
1012.505986	2407.912176
1012.799408	2408.754048
1013.092795	2411.201529
1013.386147	2410.868812
1013.679464	2410.566343
1013.972745	2409.008627
1014.265992	2409.633730
1014.559204	2409.633730
1014.852380	2408.668349
1015.145521	2408.539799
1015.438628	2409.449728
1015.731699	2409.971487
1016.024736	2406.266239
1016.317737	2409.031312
1016.610703	2408.570046
1016.903635	2407.823956
1017.196531	2404.302710
1017.489393	2407.975190
1017.782219	2406.193142
1018.075011	2408.139028
1018.367768	2408.678431
1018.660490	2410.125242
1018.953177	2410.125242
1019.245829	2410.125242
