Dividing Wavelength (nm)	Counts (n)	Blue Motor Position (mm): 34.800000	Red Motor Position (mm): 0.000000	
326.493990	1970.823973
326.888308	1970.823973
327.282561	1970.823973
327.676750	1944.214242
328.070874	1948.806733
328.464933	1953.999122
328.858929	1961.742334
329.252859	1976.170116
329.646726	1988.697384
330.040528	2005.300424
330.434265	2024.716428
330.827938	2042.085723
331.221547	2061.897458
331.615091	2085.926118
332.008571	2105.344643
332.401986	2127.061933
332.795338	2146.094810
333.188625	2167.227327
333.581847	2185.128464
333.975006	2204.000023
334.368100	2219.355378
334.761129	2239.182236
335.154095	2250.378639
335.546996	2292.968827
335.939833	2372.480426
336.332606	2386.898126
336.725315	2396.413304
337.117960	2407.231620
337.510540	2413.664132
337.903056	2424.159815
338.295508	2428.948911
338.687896	2438.116249
339.080220	2446.547579
339.472480	2451.969340
339.864676	2456.196347
340.256807	2457.466718
340.648875	2457.438992
341.040879	2459.490741
341.432818	2459.616770
341.824694	2463.695064
342.216506	2459.389918
342.608253	2462.182717
342.999937	2458.416976
343.391557	2461.960907
343.783113	2458.585854
344.174605	2456.793724
344.566033	2454.966306
344.957397	2454.265585
345.348697	2453.827005
345.739934	2451.460183
346.131106	2449.897426
346.522215	2447.152517
346.913260	2447.631427
347.304241	2444.997424
347.695159	2442.736467
348.086012	2440.964501
348.476802	2440.339398
348.867528	2437.090374
349.258191	2434.645415
349.648789	2436.306475
350.039324	2435.283121
350.429796	2436.797987
350.820203	2433.254056
351.210548	2433.178439
351.600828	2432.018973
351.991045	2429.765578
352.381198	2433.760692
352.771288	2432.276072
353.161314	2431.633325
353.551276	2431.081319
353.941175	2429.788263
354.331010	2432.092070
354.720782	2432.389498
355.110490	2435.739345
355.500135	2433.362441
355.889717	2433.763213
356.279235	2431.172060
356.668689	2430.993099
357.058080	2434.584921
357.447408	2430.799014
357.836672	2431.088881
358.225873	2431.504776
358.615010	2430.347831
359.004084	2435.905703
359.393095	2434.617688
359.782043	2438.680858
360.170927	2440.578853
360.559748	2438.496856
360.948505	2439.477361
361.337199	2439.489963
361.725830	2440.904007
362.114398	2439.169850
362.502903	2442.038267
362.891344	2440.094902
363.279722	2440.092381
363.668037	2442.683534
364.056289	2442.988524
364.444478	2444.120263
364.832603	2445.887188
365.220665	2446.214863
365.608665	2447.011365
365.996601	2445.998093
366.384474	2447.898608
366.772284	2448.165789
367.160031	2444.770572
367.547715	2445.471292
367.935336	2448.622014
368.322893	2447.969184
368.710388	2449.854576
369.097820	2453.516974
369.485189	2446.461879
369.872495	2452.566717
370.259738	2449.897426
370.646918	2454.714248
371.034035	2451.838270
371.421090	2451.329113
371.808081	2455.420010
372.195010	2453.126285
372.581875	2455.354475
372.968678	2453.973198
373.355418	2452.735595
373.742096	2454.789865
374.128710	2455.346913
374.515262	2454.537808
374.901751	2457.254990
375.288177	2456.740792
375.674540	2460.176338
376.060841	2459.384877
376.447079	2459.727676
376.833254	2458.739609
377.219367	2454.379011
377.605417	2460.370423
377.991404	2456.277006
378.377329	2460.113324
378.763191	2459.881431
379.148991	2461.378653
379.534727	2463.140537
379.920402	2465.119190
380.306013	2466.197997
380.691563	2465.721607
381.077049	2464.158850
381.462474	2467.957359
381.847835	2468.453913
382.233134	2467.574232
382.618371	2465.676237
383.003545	2469.285703
383.388657	2469.525158
383.773706	2468.479119
384.158693	2468.816876
384.543618	2471.604634
384.928480	2472.426342
385.313280	2470.921558
385.698017	2473.306023
386.082692	2475.869450
386.467305	2474.195787
386.851856	2478.339616
387.236344	2472.902731
387.620770	2478.831128
388.005133	2479.660398
388.389435	2478.634523
388.773674	2476.129070
389.157851	2480.661067
389.541965	2485.155256
389.926018	2479.521766
390.310008	2483.453866
390.693936	2482.543938
391.077802	2485.200626
391.461606	2487.391007
391.845348	2486.453353
392.229027	2485.031747
392.612645	2484.714155
392.996200	2485.462766
393.379694	2487.582571
393.763125	2492.162459
394.146494	2490.927377
394.529801	2494.635145
394.913047	2493.382419
395.296230	2492.096924
395.679351	2495.565238
396.062410	2495.282934
396.445408	2497.841319
396.828343	2497.216216
397.211217	2491.731441
397.594028	2495.454333
397.976778	2495.756802
398.359466	2499.731752
398.742092	2495.224960
399.124656	2500.256032
399.507158	2501.942298
399.889598	2506.975890
400.271977	2506.282731
400.654294	2508.581497
401.036549	2509.738442
401.418742	2508.808349
401.800874	2511.165089
402.182944	2516.012158
402.564952	2514.093999
402.946898	2516.080214
403.328783	2517.133815
403.710606	2519.699762
404.092367	2521.507016
404.474067	2526.822913
404.855705	2528.579755
405.237282	2529.204858
405.618797	2535.213913
406.000250	2537.341280
406.381642	2542.639533
406.762972	2550.717982
407.144240	2550.418033
407.525447	2557.974723
407.906593	2560.303736
408.287677	2570.317988
408.668700	2581.027919
409.049661	2586.626121
409.430560	2599.491145
409.811399	2614.433125
410.192176	2628.374436
410.572891	2646.446973
410.953545	2667.766012
411.334138	2675.491581
411.714669	2711.447611
412.095139	2719.914228
412.475547	2761.012235
412.855894	2778.794905
413.236180	2824.061946
413.616405	2851.508508
413.996568	2897.622463
414.376670	2942.163578
414.756711	2977.340750
415.136691	3040.297199
415.516609	3100.828854
415.896466	3166.686488
416.276262	3245.966194
416.655997	3344.046883
417.035670	3422.222577
417.415283	3556.985222
417.794834	3644.179539
418.174324	3710.170764
418.553753	3789.332003
418.933121	3942.220116
419.312428	4016.914893
419.691674	4108.855457
420.070859	4278.820479
420.449983	4343.556456
420.829045	4537.444274
421.208047	4619.105926
421.586988	4822.314837
421.965867	4999.581971
422.344686	5133.570799
422.723444	5390.694851
423.102141	5251.395167
423.480777	5650.271424
423.859352	5686.688720
424.237866	6102.241113
424.616319	6196.112439
424.994712	6529.284818
425.373044	6642.279760
425.751314	7008.065883
426.129524	6923.230826
426.507673	7430.401150
426.885762	7529.633743
427.263789	7782.026672
427.641756	8024.080194
428.019662	8229.608037
428.397508	8439.685520
428.775292	8746.578363
429.153016	8927.999408
429.530679	9153.578440
429.908282	9354.107978
430.285824	9423.938041
430.663305	9928.708776
431.040726	9957.392941
431.418086	10060.260206
431.795385	10551.636595
432.172624	10961.981477
432.549802	10935.139853
432.926920	11218.417411
433.303977	11348.416166
433.680974	11682.385047
434.057910	12040.851414
434.434786	12249.862694
434.811601	12385.068961
435.188355	13231.783681
435.565050	13211.089745
435.941683	13369.414743
436.318257	14112.352270
436.694770	14177.211756
437.071222	14757.438481
437.447614	14332.297813
437.823946	14522.409807
438.200218	14804.749710
438.576429	14814.867306
438.952580	15182.616958
439.328670	15314.440611
439.704700	15776.162412
440.080670	15624.005266
440.456580	16218.397633
440.832429	16503.222826
441.208218	15883.276849
441.583947	16361.155548
441.959616	16591.964777
442.335224	16913.494611
442.710773	17155.432187
443.086261	17738.855004
443.461689	17329.238568
443.837057	17563.984938
444.212365	18245.488445
444.587612	18353.313684
444.962800	18111.091283
445.337927	18586.600640
445.712995	17585.924040
446.088002	19304.851637
446.462949	19573.943388
446.837837	19832.216823
447.212664	19894.477594
447.587431	22487.246361
447.962139	25216.499327
448.336786	27454.517056
448.711374	26158.973285
449.085901	22928.644750
449.460369	22951.834058
449.834776	22957.906128
450.209124	25328.186090
450.583412	24983.098945
450.957640	25541.124429
451.331808	24369.645974
451.705917	23140.201813
452.079965	23225.581315
452.453954	23608.507361
452.827883	23572.364808
453.201752	23415.721035
453.575562	23620.979176
453.949311	24700.514545
454.323001	24804.710154
454.696632	24628.826817
455.070202	26130.009336
455.443713	26303.548536
455.817164	26886.847845
456.190556	27429.807841
456.563888	26937.771061
456.937160	27367.146298
457.310373	25808.910521
457.683526	26232.112866
458.056619	26231.482722
458.429653	26195.163729
458.802628	26761.592816
459.175542	26896.093321
459.548398	28172.508434
459.921194	29713.818537
460.293930	30397.598124
460.666607	32387.034037
461.039224	34099.297229
461.411782	34482.417359
461.784280	33291.991728
462.156719	32797.968734
462.529099	32243.794692
462.901419	30996.386378
463.273680	29995.606434
463.645882	30094.052607
464.018024	30069.920604
464.390106	30907.004200
464.762130	33533.316804
465.134094	37572.896725
465.505999	42798.241730
465.877845	47302.908422
466.249631	48417.331097
466.621358	46639.807648
466.993026	44473.591072
467.364634	42398.019485
467.736184	40487.510397
468.107674	39267.578893
468.479105	38510.160651
468.850477	37850.142542
469.221790	36457.218802
469.593043	34785.284841
469.964238	33941.090698
470.335373	33852.794888
470.706449	35477.031972
471.077467	37973.988569
471.448425	42488.876200
471.819324	45331.161918
472.190164	43541.209504
472.560945	40043.964476
472.931667	36987.477611
473.302330	35912.998518
473.672934	35111.699553
474.043479	35611.857632
474.413965	34850.227506
474.784393	34482.273687
475.154761	35348.888362
475.525070	35384.098301
475.895321	34934.003921
476.265513	35532.187236
476.635645	36475.883675
477.005719	36304.285318
477.375734	36761.255832
477.745691	37428.104704
478.115588	38730.771625
478.485427	40656.620944
478.855207	43969.493332
479.224928	46580.417814
479.594591	48175.897636
479.964194	47158.441555
480.333739	47236.682784
480.703226	47260.235054
481.072653	47906.941996
481.442022	48415.097866
481.811333	48678.414975
482.180584	47383.766009
482.549777	46859.143210
482.918912	46350.251333
483.287988	46055.605972
483.657005	45244.428866
484.025964	44602.442965
484.394864	44604.076299
484.763706	44177.503942
485.132489	43298.203203
485.501213	43146.363650
485.869879	43293.537616
486.238487	42904.889860
486.607036	43116.051192
486.975527	42573.565064
487.343959	42779.115592
487.712333	42861.218344
488.080648	42771.261474
488.448905	43210.706417
488.817104	43003.762010
489.185244	43956.088904
489.553326	45603.956397
489.921350	48315.061209
490.289315	51246.378744
490.657222	51883.714181
491.025070	52172.330321
491.392861	51242.670976
491.760593	49942.648139
492.128267	48244.976567
492.495883	46700.009107
492.863440	45334.738617
493.230939	43986.681146
493.598380	42920.517437
493.965763	42619.537867
494.333088	41841.690349
494.700354	41379.202292
495.067563	41096.065887
495.434713	40982.980203
495.801805	41038.937011
496.168839	40663.834835
496.535815	40351.293379
496.902733	40384.441486
497.269593	39986.366773
497.636395	39901.078011
498.003139	40305.738992
498.369825	39788.506525
498.736453	40075.557387
499.103023	39620.762131
499.469535	39493.470476
499.835989	39580.982386
500.202385	39261.501782
500.568723	39270.777505
500.935003	39474.677054
501.301226	39292.923294
501.667390	39875.539526
502.033497	40124.469182
502.399546	39555.645547
502.765537	38900.827389
503.131470	39267.367164
503.497345	39610.266449
503.863163	38310.346956
504.228923	38906.816279
504.594625	39312.767796
504.960269	38597.233981
505.325856	39276.413515
505.691385	38642.289293
506.056856	38778.758369
506.422270	39223.872089
506.787625	38788.513002
507.152924	38969.298861
507.518164	39074.888349
507.883347	38319.582350
508.248472	38542.582832
508.613540	39011.110191
508.978550	39291.390783
509.343503	39048.646622
509.708398	39256.211091
510.073236	39770.113876
510.438016	39764.069532
510.802738	39241.193493
511.167403	39843.848312
511.532010	40060.139018
511.896561	40354.053411
512.261053	41165.903511
512.625488	40724.860523
512.989866	40589.646695
513.354186	40455.370521
513.718449	40426.751890
514.082655	41093.310896
514.446803	40777.790118
514.810894	41289.626030
515.174927	41194.852337
515.538904	41112.462239
515.902822	41759.660694
516.266684	41223.523900
516.630488	41627.632874
516.994235	41486.130207
517.357925	42028.278576
517.721558	42191.382588
518.085133	42499.381965
518.448651	42627.434834
518.812112	42400.252716
519.175516	42506.890764
519.538863	42840.721013
519.902152	42799.386072
520.265385	43252.371553
520.628560	43296.337977
520.991678	43093.290382
521.354739	43324.132378
521.717743	43616.441163
522.080690	43518.811657
522.443580	44058.003391
522.806413	44121.494203
523.169189	44060.665120
523.531908	44225.094955
523.894569	44091.673257
524.257174	44252.566723
524.619722	44541.568512
524.982213	44545.805601
525.344647	44461.162108
525.707025	44519.697466
526.069345	44903.155353
526.431608	44829.685577
526.793815	45124.668695
527.155964	44676.230334
527.518057	44855.037540
527.880093	44621.183454
528.242072	45159.371998
528.603995	44847.216190
528.965860	44861.631369
529.327669	44948.757631
529.689421	44851.075193
530.051117	44823.064022
530.412755	44956.894053
530.774337	45032.350044
531.135862	44841.098750
531.497331	45038.195262
531.858743	44957.819105
532.220098	45278.640657
532.581396	44999.184293
532.942638	44675.159088
533.303824	44970.033821
533.664953	44941.904183
534.026025	44657.870451
534.387040	45132.356454
534.747999	45076.946612
535.108902	45243.017343
535.469748	44761.267037
535.830537	44893.078087
536.191270	45098.961331
536.551947	44731.572121
536.912567	45045.240275
537.273131	45155.913766
537.633638	44647.712526
537.994089	44998.682698
538.354483	44622.237055
538.714821	45176.320357
539.075103	45528.003852
539.435328	45291.951823
539.795497	45192.721751
540.155609	45178.382189
540.515665	45630.077135
540.875665	45082.063383
541.235609	45427.311845
541.595496	45395.108954
541.955328	46054.174285
542.315102	45440.181911
542.674821	45237.640952
543.034483	45266.647752
543.394090	45244.093629
543.753640	45201.896651
544.113134	46191.775100
544.472571	45232.834212
544.831953	46450.592979
545.191278	45677.307706
545.550548	45430.046671
545.909761	45864.223608
546.268918	46066.865390
546.628019	46377.917185
546.987064	45955.299614
547.346053	45242.261170
547.704986	46111.300640
548.063863	45689.940837
548.422684	45871.339197
548.781449	45736.327014
549.140158	46138.900958
549.498811	45977.737790
549.857408	45424.788748
550.215949	46247.278203
550.574434	46202.802624
550.932864	45960.494523
551.291237	46670.898964
551.649555	46278.818182
552.007817	46538.994653
552.366022	46184.266301
552.724173	46373.319652
553.082267	46735.214005
553.440305	47051.823672
553.798288	46393.489309
554.156215	46701.569344
554.514086	46886.493991
554.871902	46656.637540
555.229661	46666.467790
555.587365	46500.364291
555.945014	46593.492047
556.302606	46511.906013
556.660143	46745.729852
557.017625	46820.971593
557.375050	46629.453118
557.732421	46983.044690
558.089735	46949.216027
558.446994	46869.258286
558.804197	47349.216461
559.161345	47282.960576
559.518437	46547.146199
559.875474	46848.478649
560.232455	47014.773712
560.589381	47173.312959
560.946251	46884.139772
561.303065	47551.152481
561.659825	47377.817447
562.016528	47054.119918
562.373177	46763.371370
562.729770	47239.316787
563.086307	46783.979607
563.442789	47222.113849
563.799216	47261.649098
564.155587	47068.436795
564.511904	47096.387472
564.868164	47164.115374
565.224370	47439.276674
565.580520	47161.620003
565.936615	47374.074391
566.292654	47098.504757
566.648638	47329.490426
567.004567	47291.573387
567.360441	47326.536310
567.716260	47181.383847
568.072023	47474.776480
568.427732	47463.930437
568.783385	47024.361987
569.138982	47420.566432
569.494525	47375.624545
569.850013	47136.757032
570.205445	47116.116028
570.560823	47067.090807
570.916145	46936.913091
571.271412	46973.418606
571.626625	46712.763226
571.981782	46801.089283
572.336884	46473.399159
572.691931	46801.671536
573.046923	46391.266160
573.401860	46257.718433
573.756743	46221.099492
574.111570	46344.542226
574.466342	46196.468414
574.821059	46324.642271
575.175722	45856.140118
575.530330	45872.576800
575.884882	45597.959944
576.239380	45560.781434
576.593823	45527.547628
576.948211	45436.033041
577.302544	44974.180170
577.656823	45025.778900
578.011047	45231.410086
578.365216	44959.737264
578.719330	44755.603301
579.073389	44599.393067
579.427394	44692.430082
579.781344	44674.377710
580.135239	44321.358309
580.489080	44404.154219
580.842866	43906.395730
581.196597	44345.664232
581.550273	44299.439372
581.903895	44151.758770
582.257463	44574.467082
582.610975	43965.427641
582.964434	44252.619655
583.317837	43892.885437
583.671186	43734.812497
584.024481	43948.806957
584.377721	43508.426881
584.730906	43770.534113
585.084037	43803.092405
585.437113	43512.152293
585.790135	43564.781939
586.143103	43152.554187
586.496016	43295.233964
586.848874	43312.648630
587.201679	43326.710928
587.554428	42807.656084
587.907124	43004.061959
588.259765	42762.048766
588.612352	43005.223945
588.964884	42404.948551
589.317362	42676.996938
589.669786	42628.899290
590.022155	42392.413722
590.374470	42811.187413
590.726731	42343.360774
591.078937	41863.110212
591.431090	41963.741725
591.783188	41613.689043
592.135232	41304.941055
592.487222	41540.262117
592.839157	41622.942081
593.191038	41328.629437
593.542866	41083.344535
593.894639	40486.512249
594.246358	40769.149580
594.598022	40731.892933
594.949633	40342.433551
595.301190	40321.268267
595.652692	40141.445268
596.004141	40453.921189
596.355535	39491.259930
596.706876	39450.595462
597.058162	39283.340060
597.409395	39745.447510
597.760573	39819.738994
598.111698	39399.757947
598.462768	39413.916027
598.813785	39448.573960
599.164748	38913.924306
599.515657	39298.229108
599.866511	38769.772512
600.217312	39379.051407
600.568060	38369.802325
600.918753	39089.600956
601.269392	39052.556037
601.619978	38716.043894
601.970510	38923.825133
602.320988	39113.982497
602.671412	39404.635263
603.021783	39155.428343
603.372100	38797.423241
603.722363	38908.898276
604.072572	38973.515786
604.422728	39008.498873
604.772830	38812.776075
605.122878	38909.306609
605.472872	38849.541210
605.822813	39123.152356
606.172701	38963.274682
606.522534	39183.033702
606.872314	39440.079616
607.222041	39210.172753
607.571714	39597.764387
607.921333	39059.515350
608.270899	39330.958799
608.620411	39668.993371
608.969870	39454.267943
609.319276	39464.158687
609.668627	39515.459989
610.017926	39997.235500
610.367171	40158.038226
610.716362	40225.501467
611.065500	40196.048526
611.414585	40384.446527
611.763616	40669.072594
612.112594	40602.347882
612.461518	40812.760602
612.810389	41095.455907
613.159207	40987.570173
613.507971	41051.393702
613.856682	41514.151460
614.205340	41410.341500
614.553945	42096.371962
614.902496	41563.534603
615.250994	42016.242822
615.599439	42087.391146
615.947830	42291.736838
616.296169	42345.004190
616.644454	42476.792555
616.992686	42650.200685
617.340864	43165.207483
617.688990	42884.178279
618.037063	43494.324253
618.385082	43438.180922
618.733048	43747.490999
619.080961	43772.490081
619.428821	43771.900266
619.776628	43871.566398
620.124382	43699.048031
620.472083	43829.407228
620.819731	43959.146364
621.167326	43636.348680
621.514868	43621.494920
621.862357	43166.871063
622.209793	43188.086759
622.557176	42885.801531
622.904506	42610.650313
623.251783	42266.084927
623.599007	42058.722104
623.946179	41815.002481
624.293297	41798.527990
624.640363	41203.878523
624.987376	41187.761954
625.334336	40946.459564
625.681243	40609.818872
626.028097	40583.819121
626.374899	40409.803531
626.721647	40402.912274
627.068343	40283.336105
627.414987	40053.088964
627.761577	39831.847846
628.108115	40169.337972
628.454600	39625.657092
628.801032	39813.014095
629.147412	39775.460019
629.493739	39792.436105
629.840014	39450.449269
630.186236	39774.983630
630.532405	39395.291484
630.878521	39605.477353
631.224585	39488.883026
631.570597	39202.560611
631.916556	39362.095486
632.262462	39311.169750
632.608316	39331.772946
632.954117	39243.046118
633.299866	39211.319616
633.645562	39136.360179
633.991206	38635.549270
634.336797	38203.398877
634.682336	38214.365908
635.027823	37960.949624
635.373257	37782.885988
635.718639	37544.731798
636.063968	37402.162926
636.409245	36835.615372
636.754470	36889.386839
637.099642	36648.928842
637.444762	36184.782246
637.789829	36328.684503
638.134845	35981.590978
638.479808	35937.087672
638.824719	35838.001273
639.169577	35445.555007
639.514383	35507.200757
639.859137	35223.351028
640.203839	35474.592054
640.548489	35097.034836
640.893086	35152.938712
641.237632	34911.807721
641.582125	35027.945823
641.926566	34959.844876
642.270955	34939.372750
642.615292	34948.305674
642.959576	34924.110657
643.303809	34914.827372
643.647990	35063.473355
643.992118	35045.453750
644.336195	35036.649375
644.680219	35127.818642
645.024192	35414.443527
645.368112	35937.130522
645.711981	35960.133307
646.055797	36810.860786
646.399562	36746.399552
646.743274	37688.114817
647.086935	38119.534242
647.430544	38019.094293
647.774101	38139.661049
648.117606	38386.261692
648.461059	38667.346348
648.804460	38271.739280
649.147810	37668.993720
649.491108	37421.813344
649.834354	37061.872439
650.177548	36237.739567
650.520690	35795.239685
650.863781	35798.670190
651.206820	35647.231408
651.549807	35221.904217
651.892742	34738.936473
652.235626	34553.021240
652.578458	34421.096764
652.921238	33823.011751
653.263967	34155.944675
653.606644	33836.166642
653.949269	33790.897081
654.291843	33404.293513
654.634365	33791.544869
654.976836	33397.941659
655.319255	33388.181985
655.661622	33407.630757
656.003938	33177.754141
656.346203	33027.235370
656.688416	33250.611417
657.030577	33055.526325
657.372687	32903.757347
657.714746	33174.578214
658.056753	33277.543782
658.398708	32748.051228
658.740612	32788.236786
659.082465	33081.568926
659.424266	32889.679925
659.766016	33011.333050
660.107715	32884.424522
660.449362	33010.304654
660.790958	32999.554394
661.132503	33026.701007
661.473996	33055.498599
661.815438	33162.701256
662.156829	33360.649723
662.498168	33131.680516
662.839456	33159.812675
663.180693	33307.820952
663.521879	33473.160715
663.863013	33408.754934
664.204097	33421.400668
664.545129	33878.560225
664.886110	33844.088815
665.227040	33910.311933
665.567918	34042.458219
665.908746	34095.546610
666.249522	34259.376549
666.590248	34254.514356
666.930922	34358.662074
667.271545	34321.173533
667.612118	34415.397740
667.952639	34200.836150
668.293109	34249.067389
668.633528	34147.596524
668.973896	34058.514294
669.314213	34105.578507
669.654480	33838.651931
669.994695	33866.239645
670.334859	33758.278295
670.674973	33652.411543
671.015035	33810.774350
671.355047	33769.202475
671.695008	33720.663725
672.034918	33607.114255
672.374777	33702.694532
672.714585	33548.107550
673.054342	33765.018317
673.394049	33508.700850
673.733705	33814.018333
674.073310	33469.783142
674.412864	33549.183836
674.752368	33146.980417
675.091820	33434.132102
675.431223	33021.490975
675.770574	32736.408684
676.109875	32607.418160
676.449125	32335.841120
676.788324	32244.639085
677.127473	31720.016286
677.466571	31643.655408
677.805619	31298.149847
678.144616	31292.614660
678.483562	31214.096169
678.822458	30907.253737
679.161303	30838.290752
679.500098	30743.484292
679.838842	30630.363321
680.177535	30779.730189
680.516179	31052.186910
680.854771	31292.881842
681.193314	32167.269976
681.531805	33284.188022
681.870247	34053.304262
682.208638	34800.156245
682.546978	35015.335377
682.885268	35104.170590
683.223508	34561.863423
683.561697	34222.694593
683.899836	34037.540574
684.237925	33537.284192
684.575963	33398.271854
684.913951	32936.711370
685.251889	33099.205402
685.589776	33088.608897
685.927614	33086.022785
686.265401	33229.788931
686.603137	33327.849456
686.940824	33827.629448
687.278460	34205.383270
687.616046	34369.626583
687.953582	34978.814738
688.291068	34850.146847
688.628504	35112.501096
688.965889	35038.867483
689.303224	34649.556815
689.640510	34304.041172
689.977745	33560.407965
690.314930	32760.112189
690.652065	32231.985789
690.989150	31504.297752
691.326185	30605.926328
691.663170	29901.992207
692.000105	29149.310129
692.336990	28456.993348
692.673825	28018.463375
693.010610	27505.906578
693.347345	26919.844717
693.684030	26281.851410
694.020665	25999.637536
694.357251	25341.610683
694.693786	25294.685102
695.030272	25050.610077
695.366707	24524.671538
695.703093	24226.373862
696.039429	24217.294743
696.375716	23949.722900
696.711952	23925.157358
697.048139	23771.666826
697.384276	23593.850206
697.720363	23723.281831
698.056400	23524.811604
698.392388	23294.803919
698.728326	23266.936420
699.064214	23053.950191
699.400053	23011.165918
699.735842	22644.101863
700.071581	22354.646371
700.407270	22075.941139
700.742910	21892.783417
701.078501	21618.181685
701.414042	21335.778767
701.749533	21043.848068
702.084974	20696.106755
702.420366	20894.398021
702.755709	20462.582865
703.091002	20169.434728
703.426246	20186.798982
703.761440	20081.259906
704.096584	19816.430450
704.431679	19772.191805
704.766725	19680.001704
705.101721	19614.910325
705.436668	19712.499502
705.771565	19386.447753
706.106413	19749.173896
706.441212	19708.887515
706.775961	19847.332723
707.110661	19909.563247
707.445311	20268.518607
707.779913	20112.444483
708.114465	20357.172338
708.448967	20634.488732
708.783421	21333.971513
709.117825	21609.505859
709.452180	21831.374601
709.786485	22240.801993
710.120742	23026.604452
710.454949	23047.164798
710.789107	23503.711855
711.123216	24213.176121
711.457275	24343.250493
711.791286	24880.879468
712.125247	24936.417860
712.459159	24626.545695
712.793023	25295.264835
713.126837	24202.340161
713.460602	24441.966368
713.794318	24065.840838
714.127985	23672.197299
714.461602	22779.235033
714.795171	22733.907498
715.128691	21723.307386
715.462162	21173.587203
715.795584	20766.108218
716.128957	20498.778350
716.462281	20088.897254
716.795556	19857.911585
717.128782	19370.575681
717.461960	18825.296754
717.795088	18756.933667
718.128167	18337.287856
718.461198	17890.747490
718.794180	17745.784070
719.127113	17389.172847
719.459997	17199.360801
719.792833	16845.713777
720.125619	16813.939384
720.458357	16502.403638
720.791046	16330.366701
721.123686	16172.780232
721.456278	15941.812207
721.788821	15903.486835
722.121315	15642.065199
722.453761	15713.170674
722.786158	15635.078160
723.118506	15649.556354
723.450805	15519.804616
723.783056	15666.242573
724.115259	15570.059878
724.447412	15510.967473
724.779518	15740.125724
725.111574	15769.641680
725.443582	15972.147350
725.775542	15946.848320
726.107453	16419.844662
726.439315	16306.937939
726.771129	16690.511773
727.102895	17072.711893
727.434612	17282.852391
727.766281	17404.596257
728.097901	17655.204617
728.429473	17692.378086
728.760996	17671.432092
729.092471	17752.025018
729.423897	17630.318961
729.755276	17488.644894
730.086606	17613.189121
730.417887	18135.142628
730.749120	18647.240680
731.080305	18824.429676
731.411442	19148.769952
731.742530	19216.429799
732.073570	19319.027362
732.404562	19608.699624
732.735506	19418.146529
733.066401	19130.609196
733.397249	18612.484445
733.728048	17974.246641
734.058798	17137.546173
734.389501	16458.064169
734.720156	16008.362999
735.050762	15485.280273
735.381320	15126.700480
735.711831	14897.292692
736.042293	14547.855031
736.372707	14560.531012
736.703073	14349.561244
737.033391	14525.253017
737.363661	14509.300286
737.693883	14605.026756
738.024056	14780.458910
738.354182	14967.601664
738.684260	15251.640437
739.014290	15474.398943
739.344272	15659.689073
739.674207	15950.316633
740.004093	16055.061728
740.333931	16041.904317
740.663722	16084.287817
740.993464	16067.778039
741.323159	15901.031793
741.652806	15625.189937
741.982405	15401.677778
742.311956	15066.539350
742.641460	14949.289673
742.970915	14631.455005
743.300323	14310.159586
743.629683	14100.326598
743.958996	13824.895596
744.288260	13553.310994
744.617477	13256.805448
744.946647	13177.485413
745.275768	12907.962643
745.604842	12724.295765
745.933869	12558.149416
746.262847	12501.784275
746.591778	12436.100561
746.920662	12336.744460
747.249498	12333.936537
747.578286	12455.062861
747.907027	12599.030653
748.235720	12816.193479
748.564365	12849.757481
748.892963	12743.552972
749.221514	12803.212507
749.550017	12657.787822
749.878473	12622.300619
750.206881	12395.184036
750.535242	12309.121457
750.863555	12225.949981
751.191821	12128.839713
751.520039	12145.888896
751.848210	12049.708722
752.176334	12082.077970
752.504411	11994.256029
752.832440	11834.706031
753.160421	11896.049311
753.488356	11777.297371
753.816243	11689.682117
754.144082	11542.303984
754.471875	11490.057466
754.799620	11435.255082
755.127318	11407.838767
755.454969	11375.519930
755.782572	11328.422950
756.110129	11330.383959
756.437638	11256.589028
756.765100	11244.301216
757.092515	11244.583520
757.419882	11263.124884
757.747203	11266.358784
758.074477	11344.315187
758.401703	11296.247785
758.728882	11459.268618
759.056014	11502.035247
759.383099	11615.125972
759.710138	11715.767567
760.037129	11795.707664
760.364073	11814.992598
760.690970	11803.450877
761.017820	11803.362657
761.344623	11986.767395
761.671379	12305.905201
761.998088	12938.988425
762.324751	14479.602849
762.651366	17337.926997
762.977935	20985.194243
763.304456	23189.012785
763.630931	23652.740965
763.957359	22463.845325
764.283740	20561.631456
764.610074	18693.916723
764.936362	16571.233032
765.262602	15065.137909
765.588796	13604.085496
765.914943	12578.566089
766.241044	11739.236659
766.567097	11109.190731
766.893104	10567.428009
767.219064	10204.727072
767.544978	9830.068518
767.870845	9515.588739
768.196665	9333.129216
768.522438	9131.825861
768.848165	8973.160585
769.173846	8807.535996
769.499479	8685.923200
769.825066	8525.375053
770.150607	8345.635233
770.476101	8286.971326
770.801548	8169.474633
771.126949	8036.138634
771.452303	7949.614790
771.777611	7784.859800
772.102872	7762.653517
772.428087	7640.828994
772.753256	7519.783328
773.078378	7432.155471
773.403453	7292.417207
773.728482	7185.310332
774.053465	7131.483412
774.378401	7040.346912
774.703291	6947.471214
775.028135	6856.218768
775.352932	6812.632952
775.677683	6734.752166
776.002388	6648.384598
776.327046	6645.599360
776.651658	6562.672379
776.976224	6482.596171
777.300743	6467.523121
777.625216	6404.906949
777.949643	6358.936667
778.274024	6366.538727
778.598359	6300.023223
778.922647	6297.706813
779.246889	6259.633498
779.571086	6265.846720
779.895236	6280.271982
780.219339	6277.229646
780.543397	6271.273522
780.867409	6318.509134
781.191374	6321.296892
781.515294	6285.136696
781.839167	6334.161917
782.162995	6309.661909
782.486776	6261.017295
782.810511	6219.077416
783.134201	6145.456405
783.457844	6133.642461
783.781441	6088.009936
784.104993	6044.479573
784.428498	6013.650396
784.751958	6000.281256
785.075372	5973.973995
785.398739	5931.557727
785.722061	5960.592252
786.045337	5956.062775
786.368568	6061.203601
786.691752	6083.722435
787.014891	6339.818091
787.337983	6614.203054
787.661030	7051.790331
787.984031	7475.990825
788.306987	7732.588076
788.629897	7818.950603
788.952760	7734.334836
789.275579	7554.189203
789.598351	7254.822802
789.921078	6994.903431
790.243759	6713.859104
790.566395	6512.959041
790.888984	6320.147509
791.211529	6183.456623
791.534027	6020.723135
791.856480	5887.581221
792.178888	5820.773330
792.501249	5755.785295
792.823566	5654.853833
793.145836	5649.923585
793.468062	5631.979597
793.790241	5592.525007
794.112375	5632.004803
794.434464	5728.222786
794.756507	5753.564667
795.078505	5875.356423
795.400457	6098.858499
795.722364	6333.733419
796.044226	6531.374376
796.366042	6683.281985
796.687812	6628.182174
797.009538	6663.840775
797.331218	6568.986425
797.652852	6499.511763
797.974442	6379.053392
798.295986	6304.706455
798.617484	6175.768863
798.938938	6069.604683
799.260346	6002.958109
799.581709	5866.637747
799.903026	5817.821734
800.224299	5739.565382
800.545526	5625.998268
800.866708	5562.026026
801.187845	5512.065671
801.508936	5442.059167
801.829983	5411.098921
802.150984	5300.339730
802.471940	5277.241163
802.792851	5257.215179
803.113717	5241.385956
803.434538	5211.532243
803.755314	5181.348335
804.076045	5169.562117
804.396731	5135.778824
804.717372	5145.283920
805.037967	5152.994365
805.358518	5180.645094
805.679024	5239.341768
805.999485	5252.214355
806.319901	5269.482827
806.640272	5284.145023
806.960598	5331.799051
807.280879	5325.280839
807.601115	5362.824832
807.921306	5324.912834
808.241453	5320.814376
808.561554	5332.555224
808.881611	5296.488288
809.201623	5289.055107
809.521590	5240.786059
809.841513	5225.360128
810.161390	5241.224639
810.481223	5150.130989
810.801011	5139.761336
811.120755	5115.573880
811.440453	5056.826793
811.760107	5028.107340
812.079716	5006.624463
812.399281	4959.532524
812.718801	4953.054642
813.038276	4914.031070
813.357707	4881.750041
813.677093	4903.976488
813.996434	4844.155636
814.315731	4863.884192
814.634983	4859.629458
814.954191	4869.910891
815.273354	4924.889715
815.592473	4966.960664
815.911547	5039.679309
816.230577	5088.318882
816.549562	5176.705432
816.868502	5233.572168
817.187399	5283.648470
817.506250	5363.954050
817.825058	5393.414553
818.143821	5540.817892
818.462539	5711.836516
818.781213	5938.259941
819.099843	6303.826773
819.418429	6928.324912
819.736970	7543.038171
820.055466	8249.845749
820.373919	9159.229573
820.692327	10611.011305
821.010691	13289.575469
821.329011	19488.420213
821.647286	29050.657269
821.965517	39385.481399
822.283704	44829.899826
822.601847	46304.656617
822.919945	41704.868393
823.237999	36570.007058
823.556010	31387.214433
823.873976	26683.341505
824.191897	22499.052743
824.509775	19440.423388
824.827609	16674.501069
825.145398	15136.639115
825.463144	14378.184916
825.780845	14677.326985
826.098502	15935.848522
826.416116	18379.797386
826.733685	20662.134419
827.051210	21187.533556
827.368692	19751.354195
827.686129	17198.216459
828.003522	14726.730293
828.320872	12521.603571
828.638177	10881.358303
828.955439	9638.640783
829.272656	8584.346471
829.589830	7745.763132
829.906960	7018.337234
830.224046	6489.353838
830.541088	6081.892496
830.858086	5823.477909
831.175041	5624.591787
831.491952	5569.403755
831.808819	5601.934321
832.125642	5845.263255
832.442421	6391.852881
832.759157	7499.185173
833.075849	9261.607846
833.392497	11097.838052
833.709101	12218.300030
834.025662	11952.991664
834.342179	10905.452498
834.658653	9605.974107
834.975083	8498.442689
835.291469	7604.898170
835.607811	6865.623040
835.924110	6353.202355
836.240366	5869.400300
836.556578	5415.456999
836.872746	5061.608328
837.188871	4794.616217
837.504952	4572.651693
837.820990	4407.057351
838.136984	4295.146256
838.452935	4249.042383
838.768842	4279.117907
839.084706	4558.110485
839.400526	5295.938803
839.716303	6200.893974
840.032037	6764.678976
840.347727	6607.508402
840.663373	6012.937073
840.978977	5438.590854
841.294537	4998.228421
841.610054	4671.012166
841.925527	4431.872431
842.240957	4228.076225
842.556344	4045.692320
842.871687	3884.660222
843.186987	3734.653127
843.502244	3619.359418
843.817458	3535.462015
844.132629	3461.110037
844.447756	3414.554982
844.762840	3367.538660
845.077881	3332.603464
845.392879	3298.484935
845.707833	3272.278497
846.022745	3246.787902
846.337613	3234.404308
846.652438	3208.696944
846.967221	3204.106973
847.281960	3179.513704
847.596656	3169.834689
847.911309	3160.034686
848.225919	3148.359373
848.540485	3139.721356
848.855009	3132.154584
849.169490	3118.956843
849.483928	3111.808487
849.798323	3107.553753
850.112675	3093.670416
850.426984	3095.553287
850.741251	3089.947524
851.055474	3083.472162
851.369654	3084.624065
851.683792	3082.138776
851.997887	3085.037440
852.311938	3086.882502
852.625947	3087.134560
852.939914	3079.419074
853.253837	3086.816967
853.567718	3084.528283
853.881555	3077.279104
854.195350	3086.464086
854.509103	3082.589960
854.822812	3078.660380
855.136479	3074.579566
855.450103	3076.089392
855.763685	3072.328691
856.077224	3075.338260
856.390720	3082.302614
856.704173	3093.856938
857.017584	3100.274327
857.330953	3101.809359
857.644278	3109.476954
857.957561	3112.206738
858.270802	3108.627519
858.584000	3112.363014
858.897155	3105.741459
859.210268	3093.362905
859.523339	3081.526276
859.836367	3083.051225
860.149352	3076.117118
860.462295	3071.867425
860.775195	3062.311918
861.088054	3058.185734
861.400869	3060.245045
861.713642	3060.514747
862.026373	3063.965417
862.339062	3071.874987
862.651708	3078.431008
862.964312	3093.057916
863.276873	3101.965634
863.589392	3131.849594
863.901869	3158.164417
864.214303	3180.421112
864.526696	3200.999102
864.839045	3215.131977
865.151353	3229.431209
865.463619	3227.505489
865.775842	3228.584296
866.088023	3234.908423
866.400162	3226.635890
866.712258	3228.052454
867.024313	3226.827453
867.336325	3224.891650
867.648296	3228.112948
867.960224	3226.530025
868.272110	3228.125551
868.583954	3227.697052
868.895755	3234.588310
869.207515	3233.128896
869.519233	3253.535487
869.830909	3262.095366
870.142542	3269.142899
870.454134	3275.335956
870.765684	3287.225518
871.077191	3309.673776
871.388657	3320.461845
871.700081	3336.207889
872.011463	3357.736137
872.322803	3376.705998
872.634101	3396.883217
872.945357	3419.371804
873.256571	3442.021708
873.567744	3456.807413
873.878874	3461.583906
874.189963	3479.444714
874.501010	3478.491936
874.812015	3476.334322
875.122979	3492.403000
875.433900	3489.544666
875.744780	3493.290243
876.055618	3498.270903
876.366415	3497.348372
876.677169	3506.926564
876.987882	3523.827032
877.298554	3539.789846
877.609183	3577.338880
877.919771	3626.878299
878.230317	3692.793906
878.540822	3799.177376
878.851285	3952.844348
879.161707	4174.019932
879.472087	4545.431983
879.782425	5176.904558
880.092722	6359.881884
880.402977	8289.547356
880.713191	10670.305356
881.023363	13053.016804
881.333494	14408.230193
881.643583	14861.830695
881.953631	14454.008911
882.263637	13605.527266
882.573602	12578.402252
882.883526	11612.459202
883.193408	10656.439663
883.503248	9733.132171
883.813048	8899.932784
884.122806	8140.672000
884.432522	7374.288066
884.742197	6710.627724
885.051831	6145.075798
885.361424	5653.046579
885.670975	5254.646712
885.980485	4929.656126
886.289954	4667.168286
886.599382	4445.982620
886.908768	4267.808079
887.218113	4106.347483
887.527417	3972.691371
887.836680	3844.923327
888.145901	3748.876743
888.455082	3672.140299
888.764221	3604.087243
889.073319	3544.858726
889.382376	3514.463089
889.691392	3485.915035
890.000366	3483.157524
890.309300	3472.127479
890.618193	3481.619972
890.927044	3472.634115
891.235855	3480.309272
891.544625	3493.290243
891.853353	3522.833925
892.162041	3584.724171
892.470687	3675.701874
892.779293	3793.677477
893.087858	3968.769353
893.396381	4246.065582
893.704864	4661.897760
894.013306	5227.058997
894.321707	5804.135001
894.630068	6161.885525
894.938387	6201.352719
895.246665	6024.075503
895.554903	5702.286050
895.863100	5364.758114
896.171256	5093.889357
896.479371	4857.305486
896.787446	4628.845435
897.095480	4431.643058
897.403473	4280.685706
897.711425	4135.276144
898.019336	4016.367928
898.327207	3895.092890
898.635038	3791.839977
898.942827	3683.729912
899.250576	3598.720934
899.558284	3514.967204
899.865952	3459.380922
900.173579	3394.992784
900.481165	3351.003676
900.788711	3308.894918
901.096216	3272.722118
901.403681	3250.150352
901.711105	3238.240626
902.018489	3234.021180
902.325832	3267.038217
902.633135	3327.590037
902.940397	3496.435923
903.247619	3901.417017
903.554800	4653.791585
903.861941	5628.856603
904.169041	6332.286608
904.476101	6547.203599
904.783121	6263.326143
905.090100	5857.341860
905.397039	5446.364313
905.703938	5085.710084
906.010796	4761.805867
906.317614	4505.246425
906.624391	4267.329169
906.931129	4072.531423
907.237826	3890.273547
907.544483	3722.309862
907.851099	3550.572874
908.157675	3389.298801
908.464211	3246.369486
908.770707	3147.842655
909.077163	3068.671334
909.383578	3004.946108
909.689954	2961.544294
909.996289	2931.924995
910.302584	2914.038981
910.608839	2900.687485
910.915054	2886.907491
911.221229	2881.664691
911.527363	2886.589898
911.833458	2893.851680
912.139513	2907.135121
912.445527	2921.744384
912.751502	2956.009107
913.057436	2996.008142
913.363331	3053.341185
913.669186	3145.158241
913.975000	3260.338524
914.280775	3447.120835
914.586510	3715.811815
914.892205	4098.311883
915.197859	4594.295887
915.503475	5179.425134
915.809050	5673.894271
916.114585	5966.631554
916.420081	6031.274270
916.725536	5969.008458
917.030952	5727.511983
917.336328	5522.750397
917.641665	5308.163601
917.946961	5080.177418
918.252218	4877.071850
918.557435	4651.041635
918.862612	4449.788691
919.167750	4280.320223
919.472848	4090.856017
919.777906	3920.467537
920.082925	3764.993312
920.387904	3607.505145
920.692843	3496.672857
920.997743	3398.720717
921.302603	3304.703198
921.607423	3237.502097
921.912204	3173.970955
922.216946	3122.495733
922.521647	3074.846747
922.826310	3031.016435
923.130932	2996.698780
923.435516	2954.015331
923.740059	2927.123296
924.044564	2896.417628
924.349028	2871.884852
924.653454	2840.745645
924.957840	2815.814619
925.262186	2794.878707
925.566493	2772.521189
925.870761	2747.796850
926.174989	2741.593711
926.479178	2725.731720
926.783328	2706.671117
927.087438	2695.605785
927.391509	2684.782427
927.695541	2670.276507
927.999533	2663.806186
928.303486	2652.710607
928.607400	2647.760193
928.911275	2641.887249
929.215110	2635.442134
929.518906	2633.017339
929.822663	2629.400311
930.126381	2631.351238
930.430060	2634.088584
930.733699	2636.087402
931.037299	2640.843730
931.340861	2639.364152
931.644383	2642.078813
931.947866	2642.474544
932.251309	2639.656539
932.554714	2641.269708
932.858080	2637.627474
933.161407	2633.365179
933.464694	2630.116155
933.767943	2625.259003
934.071153	2621.944445
934.374323	2620.006121
934.677455	2613.813063
934.980548	2613.475306
935.283602	2610.276694
935.586617	2609.447424
935.889593	2613.997066
936.192530	2611.799122
936.495428	2621.102572
936.798287	2626.453757
937.101108	2642.953453
937.403890	2663.259221
937.706632	2690.690660
938.009336	2721.771894
938.312002	2751.892788
938.614628	2776.841458
938.917216	2797.578245
939.219765	2801.275931
939.522275	2813.969556
939.824747	2812.666418
940.127179	2809.119966
940.429573	2802.203503
940.731929	2803.065541
941.034246	2792.579941
941.336524	2789.071297
941.638763	2782.853034
941.940964	2779.606531
942.243126	2760.939138
942.545250	2749.790627
942.847335	2738.233782
943.149381	2722.162583
943.451389	2712.120605
943.753359	2697.148378
944.055290	2688.475072
944.357182	2678.957374
944.659036	2676.293124
944.960851	2669.931188
945.262628	2666.036897
945.564367	2670.392454
945.866067	2664.975734
946.167729	2664.365754
946.469352	2662.883655
946.770937	2661.784683
947.072484	2651.667088
947.373992	2654.164979
947.675462	2650.497540
947.976893	2644.180974
948.278286	2643.008906
948.579641	2636.762916
948.880958	2634.070940
949.182236	2636.455406
949.483476	2632.803090
949.784678	2632.520785
950.085841	2629.100362
950.386967	2635.515231
950.688054	2642.444297
950.989103	2649.249854
951.290114	2657.610608
951.591087	2669.878256
951.892021	2682.367715
952.192917	2695.078984
952.493776	2704.568956
952.794596	2708.569112
953.095378	2709.577342
953.396122	2706.529965
953.696828	2700.626774
953.997496	2700.014274
954.298126	2690.836853
954.598718	2683.718744
954.899272	2671.186435
955.199788	2659.730413
955.500266	2646.623413
955.800706	2632.243522
956.101108	2614.622169
956.401472	2604.933071
956.701798	2589.539908
957.002087	2575.480130
957.302337	2565.344890
957.602550	2556.434650
957.902724	2542.329502
958.202861	2535.317257
958.502960	2525.696215
958.803022	2521.582633
959.103045	2511.767507
959.403031	2506.499501
959.702979	2503.164778
960.002889	2498.970538
960.302762	2492.026348
960.602596	2487.567448
960.902393	2485.808085
961.202153	2480.262816
961.501875	2476.141673
961.801559	2477.089409
962.101205	2473.656384
962.400814	2471.304685
962.700385	2469.409212
962.999918	2466.707153
963.299414	2467.130610
963.598873	2464.743624
963.898293	2465.204889
964.197677	2463.228757
964.497022	2459.997377
964.796331	2457.756584
965.095601	2458.104424
965.394835	2458.220371
965.694030	2456.052674
965.993189	2455.732561
966.292309	2456.244238
966.591393	2456.133333
966.890439	2456.599640
967.189447	2457.164249
967.488419	2452.581840
967.787353	2454.691563
968.086249	2456.319856
968.385108	2457.675926
968.683930	2458.825309
968.982714	2457.897737
969.281462	2459.768005
969.580172	2461.476956
969.878844	2463.758078
970.177480	2465.656072
970.476078	2470.422483
970.774639	2472.328040
971.073162	2478.173257
971.371649	2474.997331
971.670098	2477.250726
971.968510	2477.200315
972.266885	2476.628144
972.565223	2481.893629
972.863524	2483.348002
973.161788	2484.184833
973.460014	2488.605925
973.758204	2487.801861
974.056356	2486.259268
974.354471	2488.810092
974.652550	2488.079125
974.950591	2488.820174
975.248595	2486.952427
975.546563	2485.954278
975.844493	2485.475369
976.142386	2484.905718
976.440243	2478.470686
976.738062	2476.461786
977.035845	2476.222331
977.333590	2469.943574
977.631299	2472.575056
977.928971	2469.784777
978.226606	2466.029118
978.524204	2468.607668
978.821765	2463.836216
979.119290	2464.675568
979.416777	2465.585496
979.714228	2463.067440
980.011642	2467.415435
980.309020	2471.090436
980.606360	2473.293421
980.903664	2481.555872
981.200931	2496.026504
981.498162	2515.046777
981.795356	2545.150027
982.092513	2584.798703
982.389633	2626.998201
982.686717	2669.860612
982.983764	2704.032073
983.280775	2721.819785
983.577749	2718.999259
983.874686	2711.679504
984.171587	2696.745085
984.468451	2680.159689
984.765279	2664.211999
985.062070	2641.972949
985.358824	2626.088273
985.655543	2600.375868
985.952224	2577.483988
986.248869	2552.661347
986.545478	2526.215454
986.842050	2505.468585
987.138586	2485.871099
987.435086	2472.665797
987.731549	2459.949486
988.027975	2457.181893
988.324366	2452.077725
988.620719	2445.930037
988.917037	2442.769234
989.213318	2439.003492
989.509563	2440.251178
989.805772	2434.804211
990.101944	2432.621391
990.398080	2434.509303
990.694180	2432.850764
990.990244	2432.540733
991.286271	2431.187183
991.582262	2433.097780
991.878217	2434.403439
992.174136	2432.825558
992.470019	2436.261104
992.765865	2435.262956
993.061676	2440.019285
993.357450	2440.783019
993.653188	2445.715788
993.948890	2450.099072
994.244556	2455.593929
994.540186	2464.282358
994.835780	2476.245016
995.131337	2494.015083
995.426859	2507.051507
995.722345	2530.812986
996.017795	2546.067517
996.313208	2560.023952
996.608586	2571.048955
996.903928	2578.913155
997.199234	2572.276476
997.494504	2571.532906
997.789738	2562.332800
998.084936	2553.117571
998.380099	2541.172557
998.675225	2530.996988
998.970316	2516.299504
999.265371	2505.950015
999.560390	2489.568786
999.855373	2478.972280
1000.150320	2468.025415
1000.445232	2460.045268
1000.740108	2452.435647
1001.034948	2447.192847
1001.329752	2441.503904
1001.624521	2439.936106
1001.919254	2426.403128
1002.213951	2429.430341
1002.508613	2427.534867
1002.803239	2427.401277
1003.097829	2417.271078
1003.392384	2421.702252
1003.686903	2422.216450
1003.981386	2421.548497
1004.275834	2419.945410
1004.570246	2420.053795
1004.864623	2419.322827
1005.158964	2416.204874
1005.453270	2414.412744
1005.747540	2415.257137
1006.041775	2415.176478
1006.335974	2416.656057
1006.630138	2412.681107
1006.924266	2414.195974
1007.218359	2416.653537
1007.512416	2415.335275
1007.806438	2413.210428
1008.100425	2413.444842
1008.394376	2412.550037
1008.688292	2412.464338
1008.982172	2413.351581
1009.276017	2411.072979
1009.569827	2414.233783
1009.863602	2411.844276
1010.157341	2410.329409
1010.451045	2413.575912
1010.744714	2408.272618
1011.038347	2410.518452
1011.331945	2409.185067
1011.625508	2409.263205
1011.919036	2411.214132
1012.212528	2406.472926
1012.505986	2409.016188
1012.799408	2406.994686
1013.092795	2404.806825
1013.386147	2408.232289
1013.679464	2408.746487
1013.972745	2408.433935
1014.265992	2408.680952
1014.559204	2408.131466
1014.852380	2408.907804
1015.145521	2406.369583
1015.438628	2409.240520
1015.731699	2405.976373
1016.024736	2405.552916
1016.317737	2405.971332
1016.610703	2411.120870
1016.903635	2406.568708
1017.196531	2405.076527
1017.489393	2408.444018
1017.782219	2403.596948
1018.075011	2411.438463
1018.367768	2411.798905
1018.660490	2407.866805
1018.953177	2407.866805
1019.245829	2407.866805
