Dividing Wavelength (nm)	Counts (n)	Blue Motor Position (mm): 44.400000	Red Motor Position (mm): 0.000000	
326.493990	1973.344550
326.888308	1973.344550
327.282561	1973.344550
327.676750	1950.213215
328.070874	1951.677670
328.464933	1958.382405
328.858929	1965.515638
329.252859	1978.297483
329.646726	1993.705770
330.040528	2010.200425
330.434265	2028.777077
330.827938	2045.788451
331.221547	2063.377037
331.615091	2088.774370
332.008571	2107.842534
332.401986	2129.103601
332.795338	2150.422640
333.188625	2172.207987
333.581847	2187.606191
333.975006	2207.493543
334.368100	2224.083980
334.761129	2240.306413
335.154095	2256.513723
335.546996	2299.424024
335.939833	2384.427961
336.332606	2396.940104
336.725315	2409.623647
337.117960	2419.002714
337.510540	2425.669640
337.903056	2436.941660
338.295508	2439.414346
338.687896	2449.562189
339.080220	2457.035699
339.472480	2459.964610
339.864676	2461.466874
340.256807	2467.183542
340.648875	2465.918213
341.040879	2469.343677
341.432818	2473.502628
341.824694	2470.442648
342.216506	2470.356948
342.608253	2474.510859
342.999937	2471.408029
343.391557	2468.209417
343.783113	2470.160343
344.174605	2466.107256
344.566033	2465.154478
344.957397	2467.135651
345.348697	2462.482666
345.739934	2462.233129
346.131106	2458.787500
346.522215	2457.431430
346.913260	2455.273816
347.304241	2454.131995
347.695159	2454.341203
348.086012	2452.317179
348.476802	2453.244752
348.867528	2449.224432
349.258191	2448.992538
349.648789	2445.471292
350.039324	2447.023968
350.429796	2446.696293
350.820203	2444.878957
351.210548	2442.252516
351.600828	2440.974583
351.991045	2445.070521
352.381198	2443.583380
352.771288	2442.875098
353.161314	2441.425767
353.551276	2440.170519
353.941175	2438.083482
354.331010	2443.621189
354.720782	2443.805191
355.110490	2444.652105
355.500135	2440.848554
355.889717	2444.568926
356.279235	2440.160437
356.668689	2444.513473
357.058080	2442.499532
357.447408	2442.625561
357.836672	2444.200922
358.225873	2446.834925
358.615010	2443.505242
359.004084	2452.478496
359.393095	2449.307611
359.782043	2447.381890
360.170927	2449.733588
360.559748	2450.535132
360.948505	2450.227621
361.337199	2454.401697
361.725830	2454.144598
362.114398	2454.915894
362.502903	2457.837243
362.891344	2457.615432
363.279722	2457.164249
363.668037	2456.604681
364.056289	2456.912191
364.444478	2459.314301
364.832603	2458.399332
365.220665	2459.674743
365.608665	2460.231791
365.996601	2459.427727
366.384474	2462.966617
366.772284	2464.468881
367.160031	2464.743624
367.547715	2464.045424
367.935336	2464.945270
368.322893	2466.722277
368.710388	2464.249591
369.097820	2468.030456
369.485189	2468.751341
369.872495	2471.128245
370.259738	2470.084726
370.646918	2470.750158
371.034035	2469.779736
371.421090	2474.261322
371.808081	2472.075982
372.195010	2473.469861
372.581875	2472.895169
372.968678	2476.534883
373.355418	2478.679893
373.742096	2477.883391
374.128710	2481.129894
374.515262	2481.180306
374.901751	2483.453866
375.288177	2483.577374
375.674540	2482.675008
376.060841	2483.595018
376.447079	2484.721716
376.833254	2487.312869
377.219367	2481.681901
377.605417	2489.508292
377.991404	2485.356902
378.377329	2488.623569
378.763191	2487.958137
379.148991	2494.617501
379.534727	2497.652276
379.920402	2500.273676
380.306013	2502.459016
380.691563	2506.905314
381.077049	2512.929493
381.462474	2514.973681
381.847835	2520.357633
382.233134	2529.855167
382.618371	2536.811959
383.003545	2549.765204
383.388657	2563.835064
383.773706	2580.317117
384.158693	2595.682554
384.543618	2615.345574
384.928480	2636.594038
385.313280	2661.855260
385.698017	2693.032276
386.082692	2727.226422
386.467305	2755.126688
386.851856	2798.581434
387.236344	2852.247037
387.620770	2891.308418
388.005133	2945.273970
388.389435	3004.961232
388.773674	3062.740416
389.157851	3129.863380
389.541965	3198.629759
389.926018	3248.582553
390.310008	3339.701409
390.693936	3419.820467
391.077802	3504.418590
391.461606	3594.380501
391.845348	3688.009851
392.229027	3787.030716
392.612645	3923.567847
392.996200	4030.609187
393.379694	4160.678518
393.763125	4317.750790
394.146494	4429.800516
394.529801	4563.194488
394.913047	4744.184514
395.296230	4818.317202
395.679351	4925.287966
396.062410	5127.821363
396.445408	5156.601310
396.828343	5319.397812
397.211217	5468.636131
397.594028	5493.388196
397.976778	5684.750396
398.359466	5863.729002
398.742092	5936.881185
399.124656	6113.997084
399.507158	6314.526622
399.889598	6418.770122
400.271977	6641.417723
400.654294	6751.899651
401.036549	6967.787064
401.418742	7077.071718
401.800874	7380.387862
402.182944	7528.801952
402.564952	7894.010863
402.946898	7843.843821
403.328783	7969.441648
403.710606	8202.773975
404.092367	8494.492945
404.474067	8866.653607
404.855705	8777.251264
405.237282	8808.385430
405.618797	9243.411801
406.000250	9529.910657
406.381642	9913.524820
406.762972	9942.700498
407.144240	9833.509106
407.525447	10124.872675
407.906593	10135.943049
408.287677	10428.584550
408.668700	10617.158992
409.049661	10647.670576
409.430560	10848.890752
409.811399	10866.396159
410.192176	11066.509802
410.572891	11185.483553
410.953545	11683.504183
411.334138	11230.851417
411.714669	11820.414359
412.095139	11211.286699
412.475547	11713.012577
412.855894	11595.800709
413.236180	11929.464599
413.616405	11654.023515
413.996568	11945.465222
414.376670	11929.320927
414.756711	11834.096051
415.136691	12124.196811
415.516609	12308.960140
415.896466	12386.021739
416.276262	12685.791432
416.655997	13134.718784
417.035670	13181.500692
417.415283	13820.484586
417.794834	13926.868056
418.174324	13684.320500
418.553753	13581.836363
418.933121	14070.878698
419.312428	13886.138053
419.691674	13806.999500
420.070859	14256.955248
420.449983	13924.909567
420.829045	14465.112052
421.208047	14227.845105
421.586988	14670.135779
421.965867	14921.873358
422.344686	14917.384210
422.723444	15473.405836
423.102141	14196.990723
423.480777	15360.050450
423.859352	14878.542120
424.237866	15972.593492
424.616319	15671.676937
424.994712	16318.474619
425.373044	16118.393744
425.751314	16783.190866
426.129524	15927.281081
426.507673	17000.313362
426.885762	16712.075309
427.263789	16879.996143
427.641756	17057.948874
428.019662	17121.180067
428.397508	17162.691448
428.775292	17449.102083
429.153016	17413.319973
429.530679	17497.524887
429.908282	17521.470368
430.285824	17238.061739
430.663305	17945.701108
431.040726	17548.727886
431.418086	17374.568624
431.795385	18016.531840
432.172624	18443.089073
432.549802	17984.460019
432.926920	18186.398560
433.303977	18053.634732
433.680974	18313.780956
434.057910	18609.464793
434.434786	18636.757600
434.811601	18536.423515
435.188355	19572.284849
435.565050	19222.829544
435.941683	19167.782664
436.318257	20035.566887
436.694770	19849.192909
437.071222	20429.023904
437.447614	19525.452530
437.823946	19546.519512
438.200218	19699.359734
438.576429	19479.585591
438.952580	19747.351519
439.328670	19711.435818
439.704700	20122.373036
440.080670	19695.795639
440.456580	20288.476535
440.832429	20446.942685
441.208218	19454.604153
441.583947	19895.034642
441.959616	20005.997999
442.335224	20233.802701
442.710773	20366.616940
443.086261	20886.029706
443.461689	20261.062740
443.837057	20399.157588
444.212365	21024.177486
444.587612	21021.883761
444.962800	20606.008733
445.337927	21021.062053
445.712995	19784.688825
446.088002	21593.144794
446.462949	21776.113473
446.837837	21943.071447
447.212664	21908.206827
447.587431	24681.461504
447.962139	27562.236432
448.336786	29940.683063
448.711374	28427.656353
449.085901	24796.457785
449.460369	24722.995571
449.834776	24626.913699
450.209124	27067.910968
450.583412	26631.909133
450.957640	27166.715062
451.331808	25833.869274
451.705917	24487.745086
452.079965	24495.954605
452.453954	24873.491657
452.827883	24755.347176
453.201752	24562.424739
453.575562	24715.547266
453.949311	25814.559134
454.323001	25872.635747
454.696632	25640.273843
455.070202	27152.988001
455.443713	27310.430797
455.817164	27876.653197
456.190556	28424.548482
456.563888	27871.972486
456.937160	28316.985383
457.310373	26659.693453
457.683526	27093.819978
458.056619	27070.038335
458.429653	27012.816197
458.802628	27565.296412
459.175542	27685.323764
459.548398	28978.147833
459.921194	30525.517403
460.293930	31204.104602
460.666607	33203.859756
461.039224	34950.942198
461.411782	35338.808575
461.784280	34134.948269
462.156719	33661.372194
462.529099	33106.799901
462.901419	31817.759218
463.273680	30772.818767
463.645882	30861.885873
464.018024	30825.176191
464.390106	31641.754893
464.762130	34298.102692
465.134094	38306.329157
465.505999	43573.921551
465.877845	48156.332918
466.249631	49329.916054
466.621358	47585.956607
466.993026	45481.494167
467.364634	43388.921288
467.736184	41429.036619
468.107674	40206.075381
468.479105	39431.527298
468.850477	38752.599822
469.221790	37325.456729
469.593043	35611.159432
469.964238	34732.342644
470.335373	34652.546219
470.706449	36296.965563
471.077467	38809.249788
471.448425	43360.791649
471.819324	46217.583287
472.190164	44446.860354
472.560945	40892.249516
472.931667	37807.433887
473.302330	36709.571402
473.672934	35888.949694
474.043479	36390.998206
474.413965	35597.119818
474.784393	35242.784676
475.154761	36113.699456
475.525070	36138.171737
475.895321	35688.609199
476.265513	36283.268748
476.635645	37240.956909
477.005719	37069.638336
477.375734	37523.115331
477.745691	38206.254691
478.115588	39511.064103
478.485427	41464.160858
478.855207	44789.903312
479.224928	47409.314577
479.594591	49034.320437
479.964194	48039.720947
480.333739	48176.268161
480.703226	48182.718317
481.072653	48813.086879
481.442022	49320.995732
481.811333	49608.044073
482.180584	48304.096699
482.549777	47781.442471
482.918912	47266.009696
483.287988	46971.787793
483.657005	46148.441341
484.025964	45520.616041
484.394864	45523.560075
484.763706	45096.511330
485.132489	44232.157612
485.501213	44062.235439
485.869879	44229.165687
486.238487	43806.069207
486.607036	44014.049570
486.975527	43479.838497
487.343959	43685.920866
487.712333	43761.454995
488.080648	43671.548537
488.448905	44119.974295
488.817104	43928.342393
489.185244	44875.149223
489.553326	46528.511574
489.921350	49230.270087
490.289315	52148.205879
490.657222	52800.516063
491.025070	53081.983847
491.392861	52180.718801
491.760593	50929.950558
492.128267	49232.110108
492.495883	47703.632262
492.863440	46322.943402
493.230939	44981.338608
493.598380	43905.107715
493.965763	43559.864294
494.333088	42779.977629
494.700354	42294.764051
495.067563	42014.952286
495.434713	41885.049313
495.801805	41967.875471
496.168839	41586.791967
496.535815	41262.575198
496.902733	41288.849692
497.269593	40891.238765
497.636395	40819.311582
498.003139	41222.069527
498.369825	40693.552437
498.736453	40993.622079
499.103023	40530.322396
499.469535	40410.163974
499.835989	40501.345844
500.202385	40170.520123
500.568723	40182.213079
500.935003	40386.410057
501.301226	40176.413232
501.667390	40783.141303
502.033497	41047.280120
502.399546	40476.366927
502.765537	39809.737345
503.131470	40184.998317
503.497345	40530.637468
503.863163	39211.823731
504.228923	39817.684724
504.594625	40214.773892
504.960269	39510.615440
505.325856	40184.216938
505.691385	39558.201412
506.056856	39704.692302
506.422270	40137.654320
506.787625	39707.124658
507.152924	39895.116847
507.518164	40004.766984
507.883347	39226.122964
508.248472	39473.691509
508.613540	39925.172206
508.978550	40233.264844
509.343503	40000.134164
509.708398	40178.013798
510.073236	40703.531401
510.438016	40706.651875
510.802738	40156.488071
511.167403	40766.865937
511.532010	41011.165294
511.896561	41321.473519
512.261053	42137.391831
512.625488	41697.132742
512.989866	41562.521331
513.354186	41403.067115
513.718449	41403.120047
514.082655	42074.732809
514.446803	41748.282809
514.810894	42259.919596
515.174927	42186.346476
515.538904	42092.114707
515.902822	42772.294911
516.266684	42214.355127
516.630488	42620.904020
516.994235	42468.721667
517.357925	43059.640680
517.721558	43217.259917
518.085133	43527.064026
518.448651	43666.081405
518.812112	43448.091831
519.175516	43551.342223
519.538863	43881.724323
519.902152	43858.572824
520.265385	44307.444724
520.628560	44357.442888
520.991678	44143.866843
521.354739	44398.253549
521.717743	44693.466039
522.080690	44604.250218
522.443580	45156.818653
522.806413	45208.538371
523.169189	45146.882539
523.531908	45332.691908
523.894569	45197.203337
524.257174	45377.119597
524.619722	45660.928997
524.982213	45635.700542
525.344647	45564.917701
525.707025	45622.631351
526.069345	46012.191556
526.431608	45932.377487
526.793815	46251.192659
527.155964	45784.706968
527.518057	45952.595035
527.880093	45732.344503
528.242072	46262.467200
528.603995	45973.881307
528.965860	45977.768037
529.327669	46063.959164
529.689421	45957.951261
530.051117	45908.709270
530.412755	46054.582618
530.774337	46118.433873
531.135862	45925.342557
531.497331	46139.359702
531.858743	46027.451128
532.220098	46379.227885
532.581396	46095.042919
532.942638	45751.175733
533.303824	46043.121555
533.664953	45994.202198
534.026025	45725.788482
534.387040	46200.758436
534.747999	46150.266239
535.108902	46321.683114
535.469748	45834.379977
535.830537	45964.799668
536.191270	46127.828063
536.551947	45804.249001
536.912567	46095.892353
537.273131	46206.467542
537.633638	45696.254882
537.994089	46053.254274
538.354483	45636.093752
538.714821	46197.428754
539.075103	46552.704071
539.435328	46313.045097
539.795497	46183.391661
540.155609	46177.801021
540.515665	46651.568660
540.875665	46104.689167
541.235609	46410.684685
541.595496	46393.680873
541.955328	47067.211794
542.315102	46439.588140
542.674821	46218.483133
543.034483	46259.276150
543.394090	46216.060858
543.753640	46183.686568
544.113134	47178.538115
544.472571	46208.809158
544.831953	47442.301367
545.191278	46648.778381
545.550548	46359.839607
545.909761	46830.544745
546.268918	47036.463276
546.628019	47349.503807
546.987064	46900.180723
547.346053	46181.622216
547.704986	47062.021926
548.063863	46628.603683
548.422684	46813.944225
548.781449	46673.729572
549.140158	47061.381700
549.498811	46900.246258
549.857408	46358.415481
550.215949	47190.021864
550.574434	47124.552399
550.932864	46888.699495
551.291237	47601.364894
551.649555	47217.733086
552.007817	47455.685630
552.366022	47105.133874
552.724173	47290.857543
553.082267	47673.627314
553.440305	47991.449379
553.798288	47314.442582
554.156215	47611.837891
554.514086	47822.285900
554.871902	47567.558916
555.229661	47580.040813
555.587365	47410.494207
555.945014	47496.531579
556.302606	47438.104606
556.660143	47653.399684
557.017625	47751.543388
557.375050	47540.306439
557.732421	47900.927900
558.089735	47875.938900
558.446994	47804.268816
558.804197	48278.096948
559.161345	48217.346003
559.518437	47454.014488
559.875474	47778.687481
560.232455	47928.795398
560.589381	48102.823591
560.946251	47798.378228
561.303065	48493.500411
561.659825	48285.066343
562.016528	47971.226790
562.373177	47688.637349
562.729770	48173.992080
563.086307	47681.221812
563.442789	48154.497938
563.799216	48191.537816
564.155587	47991.837547
564.511904	48025.104122
564.868164	48111.466649
565.224370	48354.916571
565.580520	48089.288093
565.936615	48304.502512
566.292654	48023.385088
566.648638	48251.162063
567.004567	48193.637457
567.360441	48258.038197
567.716260	48113.515878
568.072023	48393.609947
568.427732	48388.919154
568.783385	47925.775747
569.138982	48351.536477
569.494525	48308.318665
569.850013	48069.960309
570.205445	48029.878094
570.560823	47997.402981
570.916145	47864.855923
571.271412	47882.368892
571.626625	47639.561717
571.981782	47724.492556
572.336884	47391.113491
572.691931	47720.124396
573.046923	47316.426276
573.401860	47176.075512
573.756743	47164.546393
574.111570	47277.871531
574.466342	47128.817215
574.821059	47242.659072
575.175722	46761.100330
575.530330	46778.325952
575.884882	46498.967892
576.239380	46472.564848
576.593823	46448.362269
576.948211	46362.997890
577.302544	45892.842238
577.656823	45920.094716
578.011047	46140.075546
578.365216	45872.450771
578.719330	45672.258990
579.073389	45524.059149
579.427394	45608.921933
579.781344	45576.227530
580.135239	45214.870060
580.489080	45312.633157
580.842866	44804.757072
581.196597	45249.354073
581.550273	45197.011773
581.903895	45064.462194
582.257463	45472.818341
582.610975	44871.451537
582.964434	45149.902190
583.317837	44796.464373
583.671186	44636.790867
584.024481	44866.475918
584.377721	44406.702523
584.730906	44677.205797
585.084037	44706.555395
585.437113	44420.621148
585.790135	44459.717817
586.143103	44052.742947
586.496016	44188.639851
586.848874	44221.099841
587.201679	44224.820213
587.554428	43704.951222
587.907124	43907.260288
588.259765	43650.983150
588.612352	43898.975151
588.964884	43286.752222
589.317362	43578.710647
589.669786	43505.495450
590.022155	43299.105570
590.374470	43716.631576
590.726731	43246.009617
591.078937	42743.522525
591.431090	42843.697814
591.783188	42502.424301
592.135232	42206.395145
592.487222	42433.534413
592.839157	42512.635158
593.191038	42187.591641
593.542866	41982.953562
593.894639	41369.840870
594.246358	41663.409943
594.598022	41622.342183
594.949633	41231.892215
595.301190	41183.106449
595.652692	41029.585670
596.004141	41348.720956
596.355535	40366.666378
596.706876	40322.674749
597.058162	40151.744345
597.409395	40623.556016
597.760573	40701.577954
598.111698	40288.820880
598.462768	40298.860338
598.813785	40336.996667
599.164748	39783.301534
599.515657	40167.686994
599.866511	39651.863530
600.217312	40272.527871
600.568060	39220.703724
600.918753	39973.658024
601.269392	39919.216083
601.619978	39571.489893
601.970510	39807.635184
602.320988	39979.538530
602.671412	40287.295931
603.021783	40038.701511
603.372100	39672.859936
603.722363	39789.539962
604.072572	39848.985248
604.422728	39865.066529
604.772830	39682.324702
605.122878	39781.325402
605.472872	39709.320081
605.822813	39987.921969
606.172701	39824.601187
606.522534	40067.146222
606.872314	40322.014358
607.222041	40070.521274
607.571714	40461.949227
607.921333	39901.188917
608.270899	40193.893433
608.620411	40533.359691
608.969870	40345.138130
609.319276	40321.449748
609.668627	40363.528259
610.017926	40842.914264
610.367171	41011.971879
610.716362	41095.259302
611.065500	41050.856819
611.414585	41239.978226
611.763616	41534.729450
612.112594	41459.313789
612.461518	41670.505367
612.810389	41955.806949
613.159207	41831.489574
613.507971	41891.688513
613.856682	42360.228475
614.205340	42230.567477
614.553945	42936.868419
614.902496	42395.299782
615.250994	42863.449055
615.599439	42945.735809
615.947830	43137.985252
616.296169	43174.798278
616.644454	43302.120180
616.992686	43458.920229
617.340864	43989.118544
617.688990	43697.923854
618.037063	44305.224096
618.385082	44252.183596
618.733048	44584.332620
619.080961	44578.137042
619.428821	44589.320841
619.776628	44687.013362
620.124382	44519.324420
620.472083	44662.525957
620.819731	44782.099606
621.167326	44452.040140
621.514868	44421.397486
621.862357	43980.664529
622.209793	43993.325387
622.557176	43690.026886
622.904506	43439.320223
623.251783	43085.375770
623.599007	42876.125036
623.946179	42653.351406
624.293297	42587.461005
624.640363	41999.410409
624.987376	41983.961793
625.334336	41740.872313
625.681243	41398.066290
626.028097	41348.398322
626.374899	41191.099198
626.721647	41162.281442
627.068343	41047.867415
627.414987	40822.172436
627.761577	40571.445609
628.108115	40913.997054
628.454600	40374.969158
628.801032	40552.286703
629.147412	40514.553667
629.493739	40515.771106
629.840014	40157.937403
630.186236	40483.157361
630.532405	40114.538109
630.878521	40316.307771
631.224585	40198.354854
631.570597	39897.851673
631.916556	40055.057535
632.262462	40014.267039
632.608316	40019.058655
632.954117	39932.615470
633.299866	39923.463255
633.645562	39835.464873
633.991206	39332.050209
634.336797	38903.068182
634.682336	38912.870705
635.027823	38654.403186
635.373257	38480.470775
635.718639	38240.637881
636.063968	38093.123637
636.409245	37514.021089
636.754470	37556.926349
637.099642	37324.413211
637.444762	36845.611980
637.789829	36977.034861
638.134845	36627.100646
638.479808	36591.454647
638.824719	36488.957907
639.169577	36089.864881
639.514383	36155.208317
639.859137	35842.402200
640.203839	36095.833607
640.548489	35737.578967
640.893086	35789.613757
641.237632	35531.499119
641.582125	35650.251059
641.926566	35583.932160
642.270955	35551.953601
642.615292	35561.191515
642.959576	35529.943923
643.303809	35524.365886
643.647990	35666.881826
643.992118	35636.319831
644.336195	35624.095033
644.680219	35701.915325
645.024192	36012.266399
645.368112	36511.612853
645.711981	36533.216717
646.055797	37402.823318
646.399562	37315.036664
646.743274	38257.825695
647.086935	38702.152995
647.430544	38607.124724
647.774101	38722.050429
648.117606	38959.856780
648.461059	39277.905696
648.804460	38888.068228
649.147810	38281.902246
649.491108	38038.306130
649.834354	37670.347270
650.177548	36837.715013
650.520690	36390.272279
650.863781	36393.886787
651.206820	36240.822232
651.549807	35806.607487
651.892742	35302.217360
652.235626	35130.775279
652.578458	34986.936036
652.921238	34387.537803
653.263967	34703.177048
653.606644	34380.961618
653.949269	34335.056871
654.291843	33918.203859
654.634365	34338.487376
654.976836	33936.604071
655.319255	33923.300466
655.661622	33924.293573
656.003938	33707.130748
656.346203	33568.098245
656.688416	33782.627068
657.030577	33569.361054
657.372687	33414.184257
657.714746	33677.188814
658.056753	33803.154646
658.398708	33255.584515
658.740612	33311.380006
659.082465	33583.965277
659.424266	33383.864237
659.766016	33503.296733
660.107715	33392.719023
660.449362	33518.563868
660.790958	33504.292361
661.132503	33525.656771
661.473996	33561.302770
661.815438	33660.777338
662.156829	33857.631875
662.498168	33634.775067
662.839456	33661.115095
663.180693	33816.223837
663.521879	33960.962926
663.863013	33906.727673
664.204097	33914.831327
664.545129	34357.631158
664.886110	34327.855583
665.227040	34397.720934
665.567918	34503.557438
665.908746	34572.429682
666.249522	34749.129686
666.590248	34740.295064
666.930922	34840.888768
667.271545	34811.279551
667.612118	34893.747787
667.952639	34689.409657
668.293109	34733.860031
668.633528	34626.680059
668.973896	34556.847475
669.314213	34591.089513
669.654480	34324.062114
669.994695	34337.191799
670.334859	34240.313425
670.674973	34138.814834
671.015035	34312.976617
671.355047	34249.601751
671.695008	34177.346893
672.034918	34086.553192
672.374777	34165.608567
672.714585	33997.468442
673.054342	34222.472782
673.394049	33985.450331
673.733705	34268.357364
674.073310	33919.736370
674.412864	34001.279554
674.752368	33607.867908
675.091820	33894.021444
675.431223	33471.998729
675.770574	33218.423650
676.109875	33069.190373
676.449125	32791.505975
676.788324	32706.623026
677.127473	32171.169309
677.466571	32097.971755
677.805619	31755.148087
678.144616	31743.550913
678.483562	31660.268531
678.822458	31325.107417
679.161303	31260.121903
679.500098	31169.590342
679.838842	31052.693546
680.177535	31216.342003
680.516179	31472.866157
680.854771	31719.038302
681.193314	32552.048646
681.531805	33670.048020
681.870247	34442.473777
682.208638	35197.051329
682.546978	35419.656080
682.885268	35521.472264
683.223508	35000.111092
683.561697	34665.018034
683.899836	34481.514993
684.237925	33972.242508
684.575963	33811.517920
684.913951	33345.889225
685.251889	33502.059130
685.589776	33484.712519
685.927614	33457.331492
686.265401	33593.341823
686.603137	33695.936866
686.940824	34203.586099
687.278460	34574.748613
687.616046	34695.557344
687.953582	35312.612219
688.291068	35181.839647
688.628504	35483.035986
688.965889	35404.094038
689.303224	35039.792534
689.640510	34687.640212
689.977745	33961.875375
690.314930	33174.432021
690.652065	32656.768535
690.989150	31918.753694
691.326185	31021.171211
691.663170	30321.454016
692.000105	29563.869416
692.336990	28874.448778
692.673825	28411.746472
693.010610	27902.647907
693.347345	27318.015213
693.684030	26657.457701
694.020665	26381.678859
694.357251	25694.758633
694.693786	25642.907845
695.030272	25393.017849
695.366707	24850.814027
695.703093	24564.655449
696.039429	24544.657192
696.375716	24292.670076
696.711952	24256.441824
697.048139	24084.735082
697.384276	23911.236211
697.720363	24030.305744
698.056400	23822.116173
698.392388	23609.389563
698.728326	23580.191200
699.064214	23366.474003
699.400053	23313.093225
699.735842	22954.488226
700.071581	22679.170649
700.407270	22390.713306
700.742910	22193.798275
701.078501	21922.508581
701.414042	21636.332359
701.749533	21335.050320
702.084974	20988.816312
702.420366	21195.370029
702.755709	20742.654249
703.091002	20451.346133
703.426246	20464.629573
703.761440	20361.333811
704.096584	20093.038562
704.431679	20047.456449
704.766725	19943.802764
705.101721	19893.955835
705.436668	19981.818105
705.771565	19649.573299
706.106413	19994.758747
706.441212	19977.323916
706.775961	20104.865109
707.110661	20171.194090
707.445311	20517.665033
707.779913	20364.834892
708.114465	20603.493197
708.448967	20879.637523
708.783421	21569.345507
709.117825	21846.684586
709.452180	22060.099313
709.786485	22464.493113
710.120742	23260.952571
710.454949	23269.232666
710.789107	23731.388007
711.123216	24439.012251
711.457275	24576.983591
711.791286	25127.885924
712.125247	25183.383987
712.459159	24883.828543
712.793023	25572.046866
713.126837	24464.802794
713.460602	24737.052828
713.794318	24360.587021
714.127985	23973.479338
714.461602	23086.367331
714.795171	23059.986973
715.128691	22031.009335
715.462162	21486.864668
715.795584	21081.573543
716.128957	20803.750513
716.462281	20394.217257
716.795556	20157.320835
717.128782	19651.945162
717.461960	19114.303584
717.795088	19035.943888
718.128167	18631.260222
718.461198	18159.176329
718.794180	18016.599895
719.127113	17655.141603
719.459997	17443.052699
719.792833	17094.744256
720.125619	17062.627065
720.458357	16744.000936
720.791046	16569.786221
721.123686	16412.756799
721.456278	16169.528688
721.788821	16120.521111
722.121315	15856.110071
722.453761	15936.869356
722.786158	15859.338930
723.118506	15855.122005
723.450805	15717.823659
723.783056	15872.115734
724.115259	15780.669204
724.447412	15709.110025
724.779518	15950.750173
725.111574	15968.064016
725.443582	16167.366033
725.775542	16139.758154
726.107453	16618.428314
726.439315	16496.525653
726.771129	16906.721821
727.102895	17266.864372
727.434612	17466.531873
727.766281	17607.636290
728.097901	17872.475828
728.429473	17907.403462
728.760996	17900.252585
729.092471	17976.081621
729.423897	17854.156274
729.755276	17717.845995
730.086606	17846.435747
730.417887	18364.767186
730.749120	18872.731491
731.080305	19043.601401
731.411442	19390.389936
731.742530	19462.889290
732.073570	19561.030473
732.404562	19862.690598
732.735506	19676.470375
733.066401	19409.198481
733.397249	18893.826200
733.728048	18255.603520
734.058798	17421.549657
734.389501	16723.959829
734.720156	16262.124602
735.050762	15728.301698
735.381320	15370.399939
735.711831	15122.944820
736.042293	14765.038021
736.372707	14768.055151
736.703073	14561.022524
737.033391	14742.781326
737.363661	14701.645511
737.693883	14792.910560
738.024056	14972.799094
738.354182	15144.596576
738.684260	15427.801037
739.014290	15644.701723
739.344272	15834.909498
739.674207	16118.474402
740.004093	16240.306488
740.333931	16239.499903
740.663722	16274.457785
740.993464	16272.413597
741.323159	16109.049965
741.652806	15841.470560
741.982405	15616.980418
742.311956	15290.888340
742.641460	15169.361244
742.970915	14873.082550
743.300323	14534.443041
743.629683	14317.655781
743.958996	14041.640005
744.288260	13772.886012
744.617477	13464.354793
744.946647	13397.481367
745.275768	13117.097431
745.604842	12927.701281
745.933869	12759.016712
746.262847	12699.954553
746.591778	12631.984676
746.920662	12522.931915
747.249498	12526.130528
747.578286	12644.950524
747.907027	12788.671299
748.235720	13004.120132
748.564365	13032.627857
748.892963	12930.632712
749.221514	12990.254439
749.550017	12849.843181
749.878473	12809.100575
750.206881	12579.609608
750.535242	12486.156698
750.863555	12407.728947
751.191821	12300.687607
751.520039	12321.779795
751.848210	12226.849827
752.176334	12263.710743
752.504411	12165.201556
752.832440	11997.636123
753.160421	12065.858058
753.488356	11939.325096
753.816243	11850.217661
754.144082	11703.993952
754.471875	11648.548822
754.799620	11593.438928
755.127318	11564.623693
755.454969	11521.226920
755.782572	11483.251908
756.110129	11489.573515
756.437638	11413.194993
756.765100	11399.019268
757.092515	11401.718806
757.419882	11415.413101
757.747203	11422.203535
758.074477	11495.781696
758.401703	11450.265118
758.728882	11603.072573
759.056014	11642.809468
759.383099	11757.256263
759.710138	11862.671832
760.037129	11951.212137
760.364073	11966.940537
760.690970	11948.237856
761.017820	11945.815582
761.344623	12142.591981
761.671379	12466.896970
761.998088	13102.515894
762.324751	14644.080575
762.651366	17520.860388
762.977935	21176.473264
763.304456	23427.529938
763.630931	23947.613177
763.957359	22784.482874
764.283740	20887.695807
764.610074	18997.835286
764.936362	16862.800768
765.262602	15335.593292
765.588796	13846.433926
765.914943	12816.138026
766.241044	11936.431474
766.567097	11300.870523
766.893104	10740.994936
767.219064	10377.013546
767.544978	9983.654832
767.870845	9670.659672
768.196665	9479.660435
768.522438	9280.358418
768.848165	9113.493705
769.173846	8944.083209
769.499479	8820.151483
769.825066	8666.262700
770.150607	8475.581056
770.476101	8411.734843
770.801548	8304.985889
771.126949	8168.007657
771.452303	8070.615085
771.777611	7907.896722
772.102872	7888.140440
772.428087	7770.331195
772.753256	7643.500805
773.078378	7549.518574
773.403453	7409.006493
773.728482	7301.418187
774.053465	7239.497695
774.378401	7152.648696
774.703291	7053.983233
775.028135	6959.048224
775.352932	6919.707059
775.677683	6837.604307
776.002388	6747.163487
776.327046	6746.651810
776.651658	6659.747358
776.976224	6584.871100
777.300743	6570.047588
777.625216	6503.302711
777.949643	6450.516789
778.274024	6459.711853
778.598359	6389.153343
778.922647	6392.074692
779.246889	6353.056161
779.571086	6359.347521
779.895236	6372.837649
780.219339	6362.296596
780.543397	6362.863726
780.867409	6404.770838
781.191374	6402.008286
781.515294	6369.472679
781.839167	6424.849754
782.162995	6397.209107
782.486776	6348.098187
782.810511	6306.395241
783.134201	6233.739612
783.457844	6226.518159
783.781441	6173.311300
784.104993	6126.592407
784.428498	6102.147852
784.751958	6084.982723
785.075372	6063.169651
785.398739	6021.118866
785.722061	6042.939500
786.045337	6046.944697
786.368568	6147.031765
786.691752	6172.235014
787.014891	6418.583600
787.337983	6696.063831
787.661030	7136.885008
787.984031	7562.726397
788.306987	7833.138931
788.629897	7927.194258
788.952760	7841.489602
789.275579	7664.091398
789.598351	7366.199535
789.921078	7105.695389
790.243759	6818.760474
790.566395	6616.920236
790.888984	6425.220279
791.211529	6283.200893
791.534027	6112.762002
791.856480	5976.113965
792.178888	5913.142392
792.501249	5844.156722
792.823566	5744.974540
793.145836	5736.417182
793.468062	5712.746444
793.790241	5671.020813
794.112375	5715.332556
794.434464	5808.417462
794.756507	5841.084138
795.078505	5955.041942
795.400457	6171.867010
795.722364	6411.246200
796.044226	6612.352951
796.366042	6767.065962
796.687812	6718.910340
797.009538	6748.791779
797.331218	6655.235526
797.652852	6588.175577
797.974442	6476.234235
798.295986	6399.691876
798.617484	6272.473317
798.938938	6159.851420
799.260346	6090.679227
799.581709	5953.025480
799.903026	5901.036061
800.224299	5827.435214
800.545526	5707.128078
800.866708	5645.275641
801.187845	5595.844607
801.508936	5519.680334
801.829983	5486.837217
802.150984	5383.465836
802.471940	5350.446279
802.792851	5334.818702
803.113717	5308.269465
803.434538	5286.426145
803.755314	5253.756948
804.076045	5244.549280
804.396731	5203.259710
804.717372	5218.478953
805.037967	5223.172267
805.358518	5243.241101
805.679024	5302.653620
805.999485	5316.582328
806.319901	5331.534390
806.640272	5351.124314
806.960598	5396.920676
807.280879	5385.021032
807.601115	5427.573412
807.921306	5385.779726
808.241453	5384.209407
808.561554	5395.589811
808.881611	5366.545203
809.201623	5355.288307
809.521590	5313.751720
809.841513	5298.880316
810.161390	5314.512934
810.481223	5225.460951
810.801011	5215.875197
811.120755	5194.399882
811.440453	5137.487776
811.760107	5106.451912
812.079716	5081.692285
812.399281	5028.944172
812.718801	5022.892266
813.038276	4986.792564
813.357707	4955.557574
813.677093	4976.465760
813.996434	4915.525772
814.315731	4934.548566
814.634983	4937.532929
814.954191	4944.257828
815.273354	4999.720603
815.592473	5041.907499
815.911547	5118.407008
816.230577	5173.010266
816.549562	5256.763996
816.868502	5312.294826
817.187399	5371.503178
817.506250	5451.649963
817.825058	5485.534078
818.143821	5639.924456
818.462539	5810.529705
818.781213	6040.355909
819.099843	6406.295787
819.418429	7042.005452
819.736970	7668.222624
820.055466	8389.543683
820.373919	9323.924069
820.692327	10810.278034
821.010691	13552.461560
821.329011	19855.292705
821.647286	29551.359793
821.965517	40016.701916
822.283704	45603.149812
822.601847	47190.904066
822.919945	42623.734627
823.237999	37478.745615
823.556010	32211.478375
823.873976	27432.209950
824.191897	23139.548983
824.509775	19999.658748
824.827609	17166.555493
825.145398	15547.120108
825.463144	14761.909985
825.780845	15049.858172
826.098502	16301.281764
826.416116	18770.995966
826.733685	21066.424876
827.051210	21582.654153
827.368692	20157.547687
827.686129	17570.805620
828.003522	15064.288475
828.320872	12824.791167
828.638177	11132.644699
828.955439	9864.245021
829.272656	8781.087582
829.589830	7925.306346
829.906960	7176.072418
830.224046	6634.677700
830.541088	6215.258742
830.858086	5945.509120
831.175041	5738.438684
831.491952	5678.060785
831.808819	5704.836873
832.125642	5957.663342
832.442421	6515.817375
832.759157	7631.603682
833.075849	9419.022916
833.392497	11286.399891
833.709101	12424.337028
834.025662	12180.090604
834.342179	11125.208997
834.658653	9808.913316
834.975083	8686.102161
835.291469	7767.853468
835.607811	7013.739702
835.924110	6483.526264
836.240366	5983.705943
836.556578	5521.681672
836.872746	5162.194471
837.188871	4883.953025
837.504952	4658.411802
837.820990	4484.244978
838.136984	4365.883727
838.452935	4316.122497
838.768842	4348.597610
839.084706	4630.123367
839.400526	5376.161204
839.716303	6294.336801
840.032037	6871.301900
840.347727	6724.130455
840.663373	6130.847141
840.978977	5544.253438
841.294537	5091.802319
841.610054	4754.970063
841.925527	4507.053678
842.240957	4295.967964
842.556344	4106.997792
842.871687	3943.734983
843.186987	3789.175727
843.502244	3668.747602
843.817458	3580.953388
844.132629	3508.577542
844.447756	3456.383956
844.762840	3410.809404
845.077881	3369.114021
845.392879	3333.422652
845.707833	3307.949701
846.022745	3282.070938
846.337613	3269.258845
846.652438	3244.889908
846.967221	3232.818865
847.281960	3214.713561
847.596656	3205.195862
847.911309	3193.727237
848.225919	3177.451872
848.540485	3167.926612
848.855009	3160.997546
849.169490	3146.242089
849.483928	3142.078096
849.798323	3136.767240
850.112675	3125.117133
850.426984	3127.917494
850.741251	3115.639764
851.055474	3115.395268
851.369654	3117.867954
851.683792	3112.438632
851.997887	3115.735546
852.311938	3112.219341
852.625947	3113.824949
852.939914	3109.880246
853.253837	3115.463324
853.567718	3112.025257
853.881555	3106.661469
854.195350	3110.079372
854.509103	3110.079372
854.822812	3108.751028
855.136479	3101.970676
855.450103	3108.400667
855.763685	3099.162753
856.077224	3102.386571
856.390720	3112.093312
856.704173	3117.986421
857.017584	3128.189717
857.330953	3129.820530
857.644278	3138.763537
857.957561	3138.735811
858.270802	3140.157416
858.584000	3137.901500
858.897155	3133.533340
859.210268	3120.562451
859.523339	3107.231120
859.836367	3108.060389
860.149352	3102.595779
860.462295	3099.760130
860.775195	3091.046495
861.088054	3085.387800
861.400869	3086.688418
861.713642	3084.069538
862.026373	3093.123451
862.339062	3095.454984
862.651708	3102.830192
862.964312	3120.814509
863.276873	3128.078811
863.589392	3159.205416
863.901869	3186.041998
864.214303	3204.931202
864.526696	3229.809296
864.839045	3247.118098
865.151353	3257.268461
865.463619	3262.181065
865.775842	3263.103597
866.088023	3267.197013
866.400162	3262.821292
866.712258	3260.361209
867.024313	3258.753081
867.336325	3259.368102
867.648296	3262.609563
867.960224	3259.118564
868.272110	3262.039913
868.583954	3261.782814
868.895755	3272.144906
869.207515	3267.050820
869.519233	3286.890281
869.830909	3294.399080
870.142542	3304.453661
870.454134	3308.852068
870.765684	3324.333451
871.077191	3343.091585
871.388657	3353.952751
871.700081	3375.312119
872.011463	3394.561765
872.322803	3415.177564
872.634101	3431.594082
872.945357	3453.581074
873.256571	3482.121567
873.567744	3495.793176
873.878874	3501.192252
874.189963	3521.185468
874.501010	3520.116743
874.812015	3519.418543
875.122979	3537.826317
875.433900	3533.989998
875.744780	3538.980741
876.055618	3546.350908
876.366415	3546.303017
876.677169	3553.380797
876.987882	3567.838826
877.298554	3590.498812
877.609183	3626.464925
877.919771	3677.862009
878.230317	3750.938575
878.540822	3858.345399
878.851285	4022.750028
879.161707	4246.370572
879.472087	4634.123523
879.782425	5284.583604
880.092722	6500.565364
880.402977	8489.136719
880.713191	10920.180229
881.023363	13373.959343
881.333494	14755.830353
881.643583	15242.228603
881.953631	14850.251165
882.263637	13998.195342
882.573602	12960.995582
882.883526	11956.830503
883.193408	10978.082922
883.503248	10025.340133
883.813048	9166.952621
884.122806	8383.171665
884.432522	7585.663647
884.742197	6897.649491
885.051831	6313.863711
885.361424	5797.435308
885.670975	5381.943408
885.980485	5041.978075
886.289954	4765.236373
886.599382	4537.595509
886.908768	4350.160368
887.218113	4177.949511
887.527417	4042.254253
887.836680	3918.793874
888.145901	3813.219510
888.455082	3729.712797
888.764221	3659.277795
889.073319	3597.785800
889.382376	3563.823547
889.691392	3536.666851
890.000366	3529.793238
890.309300	3523.580016
890.618193	3525.432640
890.927044	3518.702699
891.235855	3530.355327
891.544625	3548.092626
891.853353	3573.502562
892.162041	3635.937253
892.470687	3729.982498
892.779293	3849.452803
893.087858	4030.349568
893.396381	4323.061645
893.704864	4743.246860
894.013306	5328.381148
894.321707	5915.534419
894.630068	6283.389936
894.938387	6327.164795
895.246665	6147.535881
895.554903	5823.346839
895.863100	5477.828675
896.171256	5200.010686
896.479371	4950.448365
896.787446	4722.767172
897.095480	4513.763454
897.403473	4362.944734
897.711425	4210.487639
898.019336	4083.632043
898.327207	3955.087662
898.635038	3852.618648
898.942827	3743.691916
899.250576	3651.837052
899.558284	3565.242632
899.865952	3512.900331
900.173579	3443.468519
900.481165	3395.633011
900.788711	3353.788913
901.096216	3318.815908
901.403681	3292.498565
901.711105	3280.999693
902.018489	3276.429887
902.325832	3309.756955
902.633135	3366.243084
902.940397	3546.487019
903.247619	3963.836584
903.554800	4735.808637
903.861941	5735.134208
904.169041	6468.720395
904.476101	6699.050714
904.783121	6419.929588
905.090100	6006.184448
905.397039	5577.197379
905.703938	5208.807500
906.010796	4871.105645
906.317614	4602.507927
906.624391	4355.443497
906.931129	4149.608144
907.237826	3962.125112
907.544483	3782.350004
907.851099	3606.880042
908.157675	3442.344342
908.464211	3291.525622
908.770707	3183.231555
909.077163	3103.382199
909.383578	3040.987837
909.689954	2996.177021
909.996289	2964.198462
910.302584	2941.185594
910.608839	2925.164807
910.915054	2916.443611
911.221229	2909.723753
911.527363	2912.536717
911.833458	2922.024168
912.139513	2933.553287
912.445527	2948.908642
912.751502	2983.674959
913.057436	3030.361085
913.363331	3088.515836
913.669186	3182.553520
913.975000	3305.116573
914.280775	3500.032786
914.586510	3778.740538
914.892205	4167.519364
915.197859	4682.523641
915.503475	5287.802380
915.809050	5795.360873
916.114585	6094.737356
916.420081	6166.336864
916.725536	6098.800526
917.030952	5857.772878
917.336328	5643.715404
917.641665	5427.124749
917.946961	5194.651940
918.252218	4989.391278
918.557435	4748.751800
918.862612	4544.791756
919.167750	4368.905898
919.472848	4168.315866
919.777906	3990.831963
920.082925	3826.203002
920.387904	3668.437572
920.692843	3551.999521
920.997743	3452.124181
921.302603	3349.438397
921.607423	3280.982049
921.912204	3214.862275
922.216946	3163.170283
922.521647	3110.379320
922.826310	3067.224523
923.130932	3027.462422
923.435516	2986.850886
923.740059	2958.300312
924.044564	2927.453491
924.349028	2897.995509
924.653454	2866.891589
924.957840	2843.782940
925.262186	2818.539362
925.566493	2796.811989
925.870761	2769.493977
926.174989	2759.283119
926.479178	2745.561099
926.783328	2729.096690
927.087438	2712.838969
927.391509	2699.744572
927.695541	2687.555062
927.999533	2679.524504
928.303486	2667.864315
928.607400	2664.622853
928.911275	2659.070022
929.215110	2651.616676
929.518906	2648.866727
929.822663	2645.960502
930.126381	2648.168527
930.430060	2649.282622
930.733699	2653.796975
931.037299	2657.051040
931.340861	2655.354692
931.644383	2657.139260
931.947866	2658.051709
932.251309	2653.837304
932.554714	2651.145328
932.858080	2649.330513
933.161407	2648.297076
933.464694	2643.543268
933.767943	2642.829945
934.071153	2636.178142
934.374323	2634.338121
934.677455	2630.451392
934.980548	2626.879734
935.283602	2623.829836
935.586617	2622.667850
935.889593	2625.039713
936.192530	2625.848818
936.495428	2633.118162
936.798287	2643.712147
937.101108	2657.814775
937.403890	2677.278670
937.706632	2702.113914
938.009336	2740.862743
938.312002	2766.933070
938.614628	2793.452060
938.917216	2813.094916
939.219765	2823.610763
939.522275	2833.224243
939.824747	2835.986796
940.127179	2826.892554
940.429573	2823.270485
940.731929	2821.619507
941.034246	2814.667756
941.336524	2813.399906
941.638763	2804.582928
941.940964	2800.978503
942.243126	2782.253137
942.545250	2773.824328
942.847335	2758.259765
943.149381	2739.872157
943.451389	2732.133985
943.753359	2717.302911
944.055290	2708.017105
944.357182	2698.000333
944.659036	2691.129240
944.960851	2688.449867
945.262628	2683.711182
945.564367	2685.480627
945.866067	2683.063394
946.167729	2680.026099
946.469352	2677.906293
946.770937	2675.819256
947.072484	2671.567042
947.373992	2671.226765
947.675462	2667.934891
947.976893	2661.083963
948.278286	2657.744199
948.579641	2653.776811
948.880958	2650.686583
949.182236	2651.614156
949.483476	2648.133239
949.784678	2646.842703
950.085841	2647.679535
950.386967	2650.474855
950.688054	2657.040958
950.989103	2664.103614
951.290114	2671.488905
951.591087	2685.122705
951.892021	2697.725590
952.192917	2711.014071
952.493776	2720.738457
952.794596	2725.111658
953.095378	2727.962431
953.396122	2726.684498
953.696828	2719.692418
953.997496	2715.805688
954.298126	2706.908052
954.598718	2700.357072
954.899272	2686.710669
955.199788	2674.173319
955.500266	2663.652431
955.800706	2647.795482
956.101108	2630.602626
956.401472	2619.103754
956.701798	2604.625561
957.002087	2590.752305
957.302337	2582.951120
957.602550	2568.901424
957.902724	2558.317521
958.202861	2548.477189
958.502960	2536.932947
958.803022	2532.194262
959.103045	2522.603467
959.403031	2516.097858
959.702979	2509.955212
960.002889	2506.343225
960.302762	2499.777122
960.602596	2497.712770
960.902393	2492.462408
961.202153	2488.558034
961.501875	2485.301449
961.801559	2482.301963
962.101205	2481.553351
962.400814	2479.050418
962.700385	2478.715182
962.999918	2477.036477
963.299414	2473.162351
963.598873	2470.790488
963.898293	2466.659262
964.197677	2470.369551
964.497022	2467.896865
964.796331	2467.491052
965.095601	2464.345372
965.394835	2463.768160
965.694030	2460.478807
965.993189	2463.647173
966.292309	2461.940742
966.591393	2462.228088
966.890439	2463.135496
967.189447	2459.193313
967.488419	2461.960907
967.787353	2460.952676
968.086249	2463.158181
968.385108	2461.658438
968.683930	2464.441154
968.982714	2469.126907
969.281462	2464.955352
969.580172	2469.126907
969.878844	2470.054479
970.177480	2475.488843
970.476078	2476.005561
970.774639	2481.639051
971.073162	2480.918166
971.371649	2484.078969
971.670098	2482.375059
971.968510	2486.816316
972.266885	2484.305821
972.565223	2492.802686
972.863524	2488.800010
973.161788	2494.574652
973.460014	2493.664723
973.758204	2496.918788
974.056356	2495.482059
974.354471	2495.855105
974.652550	2495.051041
974.950591	2496.757471
975.248595	2495.144302
975.546563	2494.090701
975.844493	2493.314363
976.142386	2490.892089
976.440243	2489.432675
976.738062	2487.358240
977.035845	2484.746922
977.333590	2481.497898
977.631299	2478.785758
977.928971	2479.927579
978.226606	2474.949440
978.524204	2476.718885
978.821765	2474.984728
979.119290	2472.108749
979.416777	2469.895683
979.714228	2470.644294
980.011642	2471.128245
980.309020	2479.388176
980.606360	2483.015286
980.903664	2491.517192
981.200931	2506.338184
981.498162	2528.022707
981.795356	2558.708211
982.092513	2598.369489
982.389633	2644.196098
982.686717	2687.527336
982.983764	2721.411451
983.280775	2741.906262
983.577749	2742.060017
983.874686	2733.585838
984.171587	2715.818291
984.468451	2697.672658
984.765279	2678.859072
985.062070	2661.714107
985.358824	2640.095119
985.655543	2619.134001
985.952224	2594.734817
986.248869	2561.677450
986.545478	2536.953111
986.842050	2514.527538
987.138586	2495.940804
987.435086	2483.300111
987.731549	2468.058182
988.027975	2463.193469
988.324366	2456.259362
988.620719	2454.941100
988.917037	2447.313834
989.213318	2444.195881
989.509563	2443.520366
989.805772	2441.967691
990.101944	2441.992896
990.398080	2440.861157
990.694180	2439.263112
990.990244	2440.941816
991.286271	2440.417536
991.582262	2440.248657
991.878217	2441.811415
992.174136	2440.067176
992.470019	2442.895263
992.765865	2441.670262
993.061676	2447.500357
993.357450	2446.424071
993.653188	2451.896243
993.948890	2455.747685
994.244556	2464.408387
994.540186	2474.001703
994.835780	2486.997797
995.131337	2501.939777
995.426859	2519.714886
995.722345	2541.699358
996.017795	2557.344579
996.313208	2575.825449
996.608586	2587.533528
996.903928	2587.208374
997.199234	2588.619897
997.494504	2585.998497
997.789738	2576.362332
998.084936	2568.374623
998.380099	2553.699824
998.675225	2540.068544
998.970316	2527.185876
999.265371	2513.136180
999.560390	2499.457009
999.855373	2485.742550
1000.150320	2475.929944
1000.445232	2467.599437
1000.740108	2460.957717
1001.034948	2451.377004
1001.329752	2448.357353
1001.624521	2442.272680
1001.919254	2435.673810
1002.213951	2436.530806
1002.508613	2430.322625
1002.803239	2430.539395
1003.097829	2427.345824
1003.392384	2428.117120
1003.686903	2427.411359
1003.981386	2427.862542
1004.275834	2424.127047
1004.570246	2426.060330
1004.864623	2418.906932
1005.158964	2422.866759
1005.453270	2419.569844
1005.747540	2420.457087
1006.041775	2419.753846
1006.335974	2418.412899
1006.630138	2417.220666
1006.924266	2418.647313
1007.218359	2420.789803
1007.512416	2418.148239
1007.806438	2418.221335
1008.100425	2417.412230
1008.394376	2416.628331
1008.688292	2418.150759
1008.982172	2416.494740
1009.276017	2416.409041
1009.569827	2413.699420
1009.863602	2416.504822
1010.157341	2414.558937
1010.451045	2416.635892
1010.744714	2416.822415
1011.038347	2415.373083
1011.331945	2413.893505
1011.625508	2413.865778
1011.919036	2412.093813
1012.212528	2415.491551
1012.505986	2413.989287
1012.799408	2415.128587
1013.092795	2412.943247
1013.386147	2415.194122
1013.679464	2414.881571
1013.972745	2412.862589
1014.265992	2410.132804
1014.559204	2410.926786
1014.852380	2413.112126
1015.145521	2414.566499
1015.438628	2410.296642
1015.731699	2415.753691
1016.024736	2412.025757
1016.317737	2412.050963
1016.610703	2412.484502
1016.903635	2411.100706
1017.196531	2410.785633
1017.489393	2412.688669
1017.782219	2410.654563
1018.075011	2416.943403
1018.367768	2413.792682
1018.660490	2415.478948
1018.953177	2415.478948
1019.245829	2415.478948
