Dividing Wavelength (nm)	Counts (n)	Blue Motor Position (mm): 36.200000	Red Motor Position (mm): 0.000000	
326.493990	1970.135855
326.888308	1970.135855
327.282561	1970.135855
327.676750	1946.311362
328.070874	1947.864037
328.464933	1953.295881
328.858929	1962.513631
329.252859	1976.124746
329.646726	1990.670995
330.040528	2007.768069
330.434265	2023.602333
330.827938	2043.078831
331.221547	2063.855946
331.615091	2084.320510
332.008571	2105.692482
332.401986	2124.826182
332.795338	2147.889460
333.188625	2167.612975
333.581847	2185.105779
333.975006	2202.848120
334.368100	2219.057950
334.761129	2237.201063
335.154095	2251.888464
335.546996	2293.167953
335.939833	2371.525127
336.332606	2388.559186
336.725315	2398.969169
337.117960	2408.368400
337.510540	2415.373083
337.903056	2426.216605
338.295508	2430.819179
338.687896	2438.219593
339.080220	2447.439863
339.472480	2450.948506
339.864676	2455.248610
340.256807	2459.647017
340.648875	2459.647017
341.040879	2461.199693
341.432818	2461.061061
341.824694	2462.533078
342.216506	2463.090125
342.608253	2462.885958
342.999937	2460.536781
343.391557	2460.062912
343.783113	2460.975361
344.174605	2456.534105
344.566033	2458.648869
344.957397	2454.789865
345.348697	2453.496809
345.739934	2450.497323
346.131106	2450.731737
346.522215	2447.853238
346.913260	2448.022116
347.304241	2445.105809
347.695159	2443.633792
348.086012	2439.852927
348.476802	2439.207659
348.867528	2437.975097
349.258191	2437.435693
349.648789	2437.087854
350.039324	2435.141968
350.429796	2438.363266
350.820203	2436.107349
351.210548	2431.792122
351.600828	2434.191711
351.991045	2432.686926
352.381198	2432.427307
352.771288	2433.521237
353.161314	2432.147523
353.551276	2429.967224
353.941175	2431.255239
354.331010	2434.811773
354.720782	2435.184818
355.110490	2436.175405
355.500135	2433.264138
355.889717	2433.465785
356.279235	2435.567946
356.668689	2433.150712
357.058080	2435.673810
357.447408	2434.945363
357.836672	2433.518717
358.225873	2430.620053
358.615010	2430.662903
359.004084	2439.162288
359.393095	2435.555343
359.782043	2439.910900
360.170927	2437.531475
360.559748	2438.993410
360.948505	2442.252516
361.337199	2442.000458
361.725830	2441.466096
362.114398	2445.645212
362.502903	2442.844851
362.891344	2445.662856
363.279722	2439.510128
363.668037	2446.804678
364.056289	2441.158585
364.444478	2446.164451
364.832603	2446.706375
365.220665	2449.015224
365.608665	2448.548917
365.996601	2446.545058
366.384474	2445.740994
366.772284	2450.189812
367.160031	2448.662343
367.547715	2447.734771
367.935336	2451.140070
368.322893	2451.792899
368.710388	2450.058743
369.097820	2451.513115
369.485189	2450.925821
369.872495	2451.369443
370.259738	2450.905656
370.646918	2454.240380
371.034035	2454.726851
371.421090	2453.542180
371.808081	2450.096551
372.195010	2457.444033
372.581875	2455.392283
372.968678	2456.508899
373.355418	2453.854731
373.742096	2458.663992
374.128710	2458.036368
374.515262	2460.491410
374.901751	2458.895885
375.288177	2458.820268
375.674540	2457.925463
376.060841	2463.861422
376.447079	2459.677264
376.833254	2459.795731
377.219367	2457.990998
377.605417	2461.918057
377.991404	2460.844291
378.377329	2461.918057
378.763191	2461.144240
379.148991	2466.215641
379.534727	2466.122379
379.920402	2466.697071
380.306013	2467.347380
380.691563	2467.876701
381.077049	2464.085753
381.462474	2466.893676
381.847835	2472.086064
382.233134	2472.151599
382.618371	2473.376600
383.003545	2472.144037
383.388657	2470.971969
383.773706	2473.626137
384.158693	2474.692341
384.543618	2477.152424
384.928480	2476.199646
385.313280	2475.998000
385.698017	2479.045377
386.082692	2479.604945
386.467305	2477.984214
386.851856	2480.681232
387.236344	2477.734677
387.620770	2481.898670
388.005133	2481.850779
388.389435	2485.432519
388.773674	2483.189206
389.157851	2488.827736
389.541965	2486.090390
389.926018	2487.849752
390.310008	2489.412510
390.693936	2490.813951
391.077802	2489.639362
391.461606	2492.096924
391.845348	2490.405617
392.229027	2491.809579
392.612645	2492.555669
392.996200	2494.211688
393.379694	2497.732934
393.763125	2498.254694
394.146494	2500.944149
394.529801	2501.312154
394.913047	2502.912720
395.296230	2500.601351
395.679351	2503.779798
396.062410	2507.578308
396.445408	2505.140910
396.828343	2505.019922
397.211217	2503.114366
397.594028	2508.311796
397.976778	2505.082937
398.359466	2512.805984
398.742092	2507.636281
399.124656	2514.794720
399.507158	2519.568692
399.889598	2518.436953
400.271977	2521.993487
400.654294	2525.575227
401.036549	2529.545136
401.418742	2532.690816
401.800874	2534.722401
402.182944	2539.811446
402.564952	2546.546427
402.946898	2548.852755
403.328783	2557.785680
403.710606	2564.046793
404.092367	2575.810325
404.474067	2588.609815
404.855705	2598.142637
405.237282	2608.837445
405.618797	2630.390898
406.000250	2649.665750
406.381642	2674.682476
406.762972	2698.688450
407.144240	2712.811243
407.525447	2744.416757
407.906593	2771.896086
408.287677	2811.650626
408.668700	2855.138139
409.049661	2893.665158
409.430560	2947.091306
409.811399	2993.059067
410.192176	3050.923952
410.572891	3111.377469
410.953545	3201.609081
411.334138	3229.882393
411.714669	3345.201308
412.095139	3364.221581
412.475547	3480.873881
412.855894	3542.960732
413.236180	3661.301818
413.616405	3713.870971
413.996568	3833.101821
414.376670	3928.457766
414.756711	4002.426617
415.136691	4144.115807
415.516609	4278.326446
415.896466	4397.932862
416.276262	4570.930139
416.655997	4769.115541
417.035670	4904.520933
417.415283	5174.794835
417.794834	5328.176982
418.174324	5412.828037
418.553753	5522.558833
418.933121	5792.225275
419.312428	5892.975256
419.691674	6008.694942
420.070859	6301.376773
420.449983	6356.622778
420.829045	6682.813158
421.208047	6763.922803
421.586988	7079.050371
421.965867	7341.825556
422.344686	7514.815271
422.723444	7925.308867
423.102141	7561.725728
423.480777	8216.445584
423.859352	8180.620624
424.237866	8844.500256
424.616319	8901.366992
424.994712	9389.222135
425.373044	9475.390578
425.751314	9991.849228
426.129524	9747.315457
426.507673	10491.359518
426.885762	10521.941678
427.263789	10816.224075
427.641756	11096.292939
428.019662	11313.591875
428.397508	11524.869153
428.775292	11878.337217
429.153016	12040.987525
429.530679	12268.656115
429.908282	12475.701345
430.285824	12461.039149
430.663305	13106.720216
431.040726	13024.672917
431.418086	13081.501844
431.795385	13670.795084
432.172624	14125.537408
432.549802	13986.729237
432.926920	14275.781437
433.303977	14342.475902
433.680974	14673.231047
434.057910	15046.089909
434.434786	15221.910232
434.811601	15293.197188
435.188355	16241.508803
435.565050	16110.169101
435.941683	16204.612598
436.318257	17049.381433
436.694770	17022.106270
437.071222	17653.863670
437.447614	17001.031727
437.823946	17126.543855
438.200218	17376.854787
438.576429	17290.600645
438.952580	17644.202299
439.328670	17712.431796
439.704700	18188.687244
440.080670	17882.883290
440.456580	18503.779524
440.832429	18746.445546
441.208218	17923.497346
441.583947	18404.982991
441.959616	18577.461028
442.335224	18860.675572
442.710773	19035.795174
443.086261	19600.137224
443.461689	19079.925435
443.837057	19239.152800
444.212365	19887.301512
444.587612	19937.876888
444.962800	19613.231621
445.337927	20042.967301
445.712995	18905.289783
446.088002	20677.744352
446.462949	20892.792414
446.837837	21086.244172
447.212664	21077.989283
447.587431	23813.193331
447.962139	26629.592723
448.336786	28938.731051
448.711374	27473.287792
449.085901	23990.059693
449.460369	23959.275887
449.834776	23892.377255
450.209124	26297.773895
450.583412	25885.878858
450.957640	26420.730158
451.331808	25142.424612
451.705917	23828.057173
452.079965	23873.717424
452.453954	24223.702050
452.827883	24139.189626
453.201752	23969.118740
453.575562	24110.523105
453.949311	25192.523599
454.323001	25263.961790
454.696632	25050.171497
455.070202	26557.005149
455.443713	26707.904528
455.817164	27272.072657
456.190556	27797.476835
456.563888	27260.568744
456.937160	27668.655189
457.310373	26080.399341
457.683526	26492.760684
458.056619	26485.962688
458.429653	26426.625787
458.802628	26983.990880
459.175542	27116.797557
459.548398	28398.475634
459.921194	29944.562231
460.293930	30630.680913
460.666607	32613.550723
461.039224	34328.566385
461.411782	34700.210329
461.784280	33484.236130
462.156719	32974.504900
462.529099	32418.175765
462.901419	31146.096044
463.273680	30118.330804
463.645882	30217.240763
464.018024	30201.449349
464.390106	31035.077234
464.762130	33702.601271
465.134094	37730.253822
465.505999	42990.344979
465.877845	47501.602980
466.249631	48594.789794
466.621358	46790.069320
466.993026	44632.762985
467.364634	42538.355125
467.736184	40628.934927
468.107674	39399.578986
468.479105	38646.864140
468.850477	37954.726320
469.221790	36573.979487
469.593043	34878.677257
469.964238	34020.481309
470.335373	33928.812968
470.706449	35576.486376
471.077467	38075.308199
471.448425	42595.599948
471.819324	45438.846005
472.190164	43647.227490
472.560945	40129.371704
472.931667	37080.960768
473.302330	36001.967322
473.672934	35193.066297
474.043479	35692.168254
474.413965	34924.642498
474.784393	34558.858896
475.154761	35430.045898
475.525070	35474.854194
475.895321	35021.407446
476.265513	35604.668946
476.635645	36536.944651
477.005719	36381.571248
477.375734	36844.147525
477.745691	37520.617439
478.115588	38818.192795
478.485427	40755.109967
478.855207	44076.201956
479.224928	46668.017945
479.594591	48277.900343
479.964194	47223.071668
480.333739	47331.456476
480.703226	47353.035135
481.072653	47999.729474
481.442022	48497.631636
481.811333	48762.191390
482.180584	47461.611507
482.549777	46960.425032
482.918912	46441.498738
483.287988	46158.490881
483.657005	45315.582232
484.025964	44689.917066
484.394864	44682.889698
484.763706	44249.645375
485.132489	43389.311977
485.501213	43226.810383
485.869879	43382.337541
486.238487	42989.704753
486.607036	43188.905947
486.975527	42649.948628
487.343959	42862.029970
487.712333	42935.151906
488.080648	42843.380221
488.448905	43273.675469
488.817104	43102.122483
489.185244	44031.244946
489.553326	45705.843157
489.921350	48418.319163
490.289315	51345.139989
490.657222	51986.286538
491.025070	52267.396400
491.392861	51331.909481
491.760593	50025.466735
492.128267	48322.607816
492.495883	46786.913558
492.863440	45401.765798
493.230939	44084.056074
493.598380	43001.765713
493.965763	42687.207796
494.333088	41900.618917
494.700354	41449.556635
495.067563	41175.937928
495.434713	41042.601929
495.801805	41106.876641
496.168839	40740.727555
496.535815	40422.799626
496.902733	40451.642587
497.269593	40056.511908
497.636395	39989.968677
498.003139	40361.395851
498.369825	39847.309064
498.736453	40137.311522
499.103023	39686.690341
499.469535	39550.178416
499.835989	39649.373200
500.202385	39321.085700
500.568723	39342.578659
500.935003	39544.373527
501.301226	39344.315337
501.667390	39939.703332
502.033497	40181.260301
502.399546	39618.682655
502.765537	38972.920930
503.131470	39324.107871
503.497345	39664.829378
503.863163	38369.429279
504.228923	38943.178122
504.594625	39364.366526
504.960269	38658.688167
505.325856	39317.214093
505.691385	38706.944612
506.056856	38841.021660
506.422270	39279.228999
506.787625	38826.054474
507.152924	39029.386894
507.518164	39120.805698
507.883347	38357.867393
508.248472	38605.357800
508.613540	39063.800331
508.978550	39352.353456
509.343503	39106.191393
509.708398	39292.794744
510.073236	39805.785080
510.438016	39813.780350
510.802738	39282.621696
511.167403	39883.456658
511.532010	40122.094799
511.896561	40390.001879
512.261053	41203.755015
512.625488	40772.973295
512.989866	40637.504889
513.354186	40487.893525
513.718449	40489.821766
514.082655	41123.575463
514.446803	40814.794708
514.810894	41336.909532
515.174927	41239.201888
515.538904	41161.248006
515.902822	41806.994608
516.266684	41258.943047
516.630488	41679.750843
516.994235	41549.721842
517.357925	42079.721031
517.721558	42247.611618
518.085133	42549.939697
518.448651	42684.520861
518.812112	42475.653254
519.175516	42562.892942
519.538863	42891.419897
519.902152	42855.675595
520.265385	43301.797546
520.628560	43338.839945
520.991678	43152.793641
521.354739	43376.217580
521.717743	43687.037482
522.080690	43581.029578
522.443580	44121.511847
522.806413	44182.585426
523.169189	44123.820695
523.531908	44279.766269
523.894569	44152.545190
524.257174	44312.977390
524.619722	44616.757321
524.982213	44603.173932
525.344647	44517.565058
525.707025	44565.004836
526.069345	44955.288446
526.431608	44885.725564
526.793815	45186.130442
527.155964	44732.202265
527.518057	44890.129012
527.880093	44696.694898
528.242072	45213.329988
528.603995	44908.995530
528.965860	44912.509214
529.327669	45029.358119
529.689421	44920.280153
530.051117	44866.576741
530.412755	45018.582653
530.774337	45092.795999
531.135862	44903.457823
531.497331	45095.059477
531.858743	45015.396644
532.220098	45361.590322
532.581396	45060.540177
532.942638	44738.501187
533.303824	45029.509354
533.664953	44993.281102
534.026025	44730.591616
534.387040	45188.373756
534.747999	45145.145862
535.108902	45307.949925
535.469748	44840.420714
535.830537	44957.428416
536.191270	45152.778168
536.551947	44800.298171
536.912567	45126.475948
537.273131	45248.464310
537.633638	44730.402573
537.994089	45086.928096
538.354483	44688.051839
538.714821	45248.673517
539.075103	45607.797756
539.435328	45367.372526
539.795497	45263.691115
540.155609	45260.953768
540.515665	45700.759153
540.875665	45164.781156
541.235609	45504.801942
541.595496	45480.680020
541.955328	46127.384442
542.315102	45534.355706
542.674821	45322.755794
543.034483	45354.706627
543.394090	45324.356360
543.753640	45293.764118
544.113134	46299.388611
544.472571	45320.633468
544.831953	46542.626804
545.191278	45773.762623
545.550548	45509.283527
545.909761	45961.792620
546.268918	46156.373597
546.628019	46472.794221
546.987064	46045.805969
547.346053	45350.794692
547.704986	46194.915738
548.063863	45789.760724
548.422684	45963.496530
548.781449	45837.051789
549.140158	46211.715384
549.498811	46065.572334
549.857408	45511.244536
550.215949	46350.296703
550.574434	46288.615665
550.932864	46050.174129
551.291237	46777.335366
551.649555	46369.596760
552.007817	46632.760115
552.366022	46278.591331
552.724173	46445.730786
553.082267	46852.151130
553.440305	47146.161305
553.798288	46469.434292
554.156215	46789.527396
554.514086	46995.561875
554.871902	46739.478821
555.229661	46759.189733
555.587365	46587.107425
555.945014	46674.228646
556.302606	46616.583052
556.660143	46836.808378
557.017625	46914.797549
557.375050	46728.771410
557.732421	47066.503512
558.089735	47039.056950
558.446994	46977.748958
558.804197	47435.200902
559.161345	47366.729429
559.518437	46646.799728
559.875474	46927.481092
560.232455	47080.865759
560.589381	47275.429092
560.946251	46958.978221
561.303065	47636.284967
561.659825	47457.734859
562.016528	47123.332439
562.373177	46852.599793
562.729770	47314.782860
563.086307	46851.788167
563.442789	47299.523287
563.799216	47351.449692
564.155587	47137.155283
564.511904	47156.150351
564.868164	47250.427490
565.224370	47495.082247
565.580520	47220.336842
565.936615	47438.517981
566.292654	47164.057401
566.648638	47390.604334
567.004567	47354.872636
567.360441	47398.402999
567.716260	47247.276768
568.072023	47541.428095
568.427732	47524.981331
568.783385	47073.629183
569.138982	47460.048749
569.494525	47429.154037
569.850013	47191.403140
570.205445	47165.415992
570.560823	47117.366234
570.916145	46982.472519
571.271412	47017.778240
571.626625	46789.310627
571.981782	46836.193358
572.336884	46529.076183
572.691931	46846.996550
573.046923	46432.838035
573.401860	46297.057077
573.756743	46267.664630
574.111570	46401.066163
574.466342	46237.657161
574.821059	46374.418624
575.175722	45882.039046
575.530330	45912.265804
575.884882	45634.417569
576.239380	45589.286639
576.593823	45572.529843
576.948211	45482.560371
577.302544	45012.392116
577.656823	45036.813986
578.011047	45274.489266
578.365216	44974.560777
578.719330	44780.085665
579.073389	44637.983099
579.427394	44720.174072
579.781344	44685.201067
580.135239	44343.836814
580.489080	44426.791521
580.842866	43922.885344
581.196597	44357.571437
581.550273	44314.759438
581.903895	44175.553016
582.257463	44598.175628
582.610975	43998.477446
582.964434	44279.005055
583.317837	43925.297536
583.671186	43752.834622
584.024481	43973.453158
584.377721	43511.058363
584.730906	43789.627483
585.084037	43819.387935
585.437113	43526.378429
585.790135	43572.878032
586.143103	43165.457020
586.496016	43304.003051
586.848874	43326.620188
587.201679	43346.351264
587.554428	42829.310361
587.907124	43020.818754
588.259765	42768.808953
588.612352	43018.013352
588.964884	42419.280551
589.317362	42702.674056
589.669786	42629.378199
590.022155	42417.221240
590.374470	42834.296062
590.726731	42369.121070
591.078937	41877.767367
591.431090	41959.250057
591.783188	41639.056129
592.135232	41322.068375
592.487222	41561.457648
592.839157	41647.167346
593.191038	41320.997130
593.542866	41093.600762
593.894639	40497.688487
594.246358	40780.494697
594.598022	40736.145146
594.949633	40361.612621
595.301190	40304.093056
595.652692	40144.240588
596.004141	40477.377678
596.355535	39500.023976
596.706876	39451.845669
597.058162	39295.431268
597.409395	39756.628789
597.760573	39836.168114
598.111698	39403.501003
598.462768	39416.779402
598.813785	39463.553748
599.164748	38923.124412
599.515657	39324.019651
599.866511	38782.471179
600.217312	39377.597034
600.568060	38374.115032
600.918753	39107.565108
601.269392	39059.099455
601.619978	38711.121208
601.970510	38930.991133
602.320988	39106.486301
602.671412	39420.572871
603.021783	39144.436107
603.372100	38816.861930
603.722363	38916.139893
604.072572	38982.894853
604.422728	39008.466106
604.772830	38811.029315
605.122878	38902.256556
605.472872	38854.809216
605.822813	39123.575813
606.172701	38954.840832
606.522534	39182.113691
606.872314	39450.547572
607.222041	39205.746620
607.571714	39592.508984
607.921333	39061.766225
608.270899	39340.468936
608.620411	39672.353300
608.969870	39466.520468
609.319276	39474.321653
609.668627	39529.429026
610.017926	40001.959062
610.367171	40156.309110
610.716362	40244.083160
611.065500	40203.978261
611.414585	40388.454245
611.763616	40669.672491
612.112594	40591.577457
612.461518	40825.071100
612.810389	41093.933478
613.159207	40983.302837
613.507971	41056.649105
613.856682	41518.998530
614.205340	41409.562641
614.553945	42098.985800
614.902496	41562.521331
615.250994	42019.413707
615.599439	42101.017385
615.947830	42307.114878
616.296169	42355.348638
616.644454	42468.777120
616.992686	42648.731189
617.340864	43162.936443
617.688990	42870.680590
618.037063	43492.111186
618.385082	43459.071464
618.733048	43762.322073
619.080961	43778.257161
619.428821	43780.041729
619.776628	43876.650402
620.124382	43704.316037
620.472083	43839.499618
620.819731	43957.966734
621.167326	43617.073828
621.514868	43613.174496
621.862357	43165.262935
622.209793	43187.073487
622.557176	42866.642626
622.904506	42607.164355
623.251783	42275.892492
623.599007	42055.135323
623.946179	41819.095897
624.293297	41788.748151
624.640363	41190.101050
624.987376	41187.598117
625.334336	40956.100771
625.681243	40600.611204
626.028097	40573.895609
626.374899	40410.526937
626.721647	40388.907948
627.068343	40282.090940
627.414987	40056.902597
627.761577	39827.618318
628.108115	40168.380153
628.454600	39631.204881
628.801032	39813.409825
629.147412	39777.494125
629.493739	39789.698758
629.840014	39439.845202
630.186236	39778.184763
630.532405	39396.619828
630.878521	39626.430909
631.224585	39494.382925
631.570597	39215.433197
631.916556	39372.659224
632.262462	39319.172582
632.608316	39320.291718
632.954117	39236.485056
633.299866	39230.549097
633.645562	39130.356164
633.991206	38637.827872
634.336797	38211.764672
634.682336	38216.193326
635.027823	37963.626477
635.373257	37778.474979
635.718639	37553.473159
636.063968	37403.559326
636.409245	36843.809767
636.754470	36895.746255
637.099642	36649.606877
637.444762	36183.138830
637.789829	36335.860585
638.134845	35981.522923
638.479808	35937.848886
638.824719	35839.614442
639.169577	35458.309127
639.514383	35518.175349
639.859137	35222.113425
640.203839	35482.244525
640.548489	35096.268581
640.893086	35168.334396
641.237632	34923.087302
641.582125	35035.167276
641.926566	34980.745499
642.270955	34948.842557
642.615292	34954.929751
642.959576	34938.712359
643.303809	34921.579997
643.647990	35074.377370
643.992118	35050.270573
644.336195	35036.914036
644.680219	35127.685052
645.024192	35441.789266
645.368112	35964.756045
645.711981	35975.171069
646.055797	36835.627975
646.399562	36765.457634
646.743274	37705.736170
647.086935	38138.383116
647.430544	38031.321612
647.774101	38160.612084
648.117606	38395.386181
648.461059	38688.239410
648.804460	38291.271230
649.147810	37681.715072
649.491108	37454.202758
649.834354	37070.770075
650.177548	36265.549092
650.520690	35802.713196
650.863781	35835.137897
651.206820	35674.836767
651.549807	35242.870376
651.892742	34762.710554
652.235626	34577.458233
652.578458	34428.865182
652.921238	33851.748849
653.263967	34169.427241
653.606644	33860.220508
653.949269	33793.838594
654.291843	33423.830504
654.634365	33820.793643
654.976836	33420.016872
655.319255	33415.815070
655.661622	33419.311110
656.003938	33194.122768
656.346203	33053.073804
656.688416	33267.007770
657.030577	33071.791608
657.372687	32922.593619
657.714746	33179.377393
658.056753	33302.777277
658.398708	32765.342386
658.740612	32816.106805
659.082465	33091.164762
659.424266	32915.319234
659.766016	33017.788247
660.107715	32912.286980
660.449362	33038.698953
660.790958	33026.892571
661.132503	33054.576068
661.473996	33080.321240
661.815438	33186.142621
662.156829	33378.341653
662.498168	33156.374608
662.839456	33187.851572
663.180693	33330.763243
663.521879	33497.333048
663.863013	33437.202165
664.204097	33458.007007
664.545129	33912.676234
664.886110	33870.443968
665.227040	33938.983495
665.567918	34058.186619
665.908746	34112.699136
666.249522	34285.950991
666.590248	34279.715084
666.930922	34399.581119
667.271545	34355.614696
667.612118	34432.837611
667.952639	34231.519132
668.293109	34276.246770
668.633528	34172.719114
668.973896	34088.526804
669.314213	34134.383660
669.654480	33863.267885
669.994695	33893.318203
670.334859	33788.152172
670.674973	33685.594938
671.015035	33863.582957
671.355047	33807.041376
671.695008	33747.505349
672.034918	33637.666168
672.374777	33726.014910
672.714585	33564.163625
673.054342	33791.975888
673.394049	33560.602049
673.733705	33846.004454
674.073310	33502.616177
674.412864	33578.082250
674.752368	33164.067408
675.091820	33462.854076
675.431223	33045.791857
675.770574	32778.978707
676.109875	32641.919817
676.449125	32363.133927
676.788324	32291.146250
677.127473	31756.299991
677.466571	31680.319720
677.805619	31332.555722
678.144616	31319.461325
678.483562	31255.509247
678.822458	30936.189960
679.161303	30861.656500
679.500098	30776.397986
679.838842	30650.613636
680.177535	30819.391467
680.516179	31093.599989
680.854771	31329.392398
681.193314	32205.663404
681.531805	33324.514733
681.870247	34115.723829
682.208638	34849.027711
682.546978	35055.021860
682.885268	35145.608874
683.223508	34618.440293
683.561697	34277.660814
683.899836	34083.851133
684.237925	33580.754062
684.575963	33433.481793
684.913951	32985.061077
685.251889	33143.948163
685.589776	33121.981336
685.927614	33126.745226
686.265401	33274.261990
686.603137	33383.687796
686.940824	33892.509098
687.278460	34271.407262
687.616046	34412.791463
687.953582	35020.484915
688.291068	34895.035802
688.628504	35175.875962
688.965889	35081.871046
689.303224	34700.112027
689.640510	34336.271789
689.977745	33606.106025
690.314930	32797.169711
690.652065	32280.474127
690.989150	31530.572245
691.326185	30627.494904
691.663170	29942.235738
692.000105	29180.918164
692.336990	28498.902981
692.673825	28054.545434
693.010610	27540.204069
693.347345	26962.276109
693.684030	26321.986557
694.020665	26031.379161
694.357251	25377.665015
694.693786	25317.990357
695.030272	25081.945889
695.366707	24537.622262
695.703093	24246.878755
696.039429	24245.313477
696.375716	24000.903215
696.711952	23964.599345
697.048139	23809.929183
697.384276	23618.992961
697.720363	23750.672941
698.056400	23540.388770
698.392388	23331.437984
698.728326	23300.407161
699.064214	23075.922060
699.400053	23042.350496
699.735842	22669.907529
700.071581	22384.487481
700.407270	22115.425977
700.742910	21912.990882
701.078501	21645.066158
701.414042	21370.784539
701.749533	21070.510731
702.084974	20722.655992
702.420366	20918.945920
702.755709	20485.878037
703.091002	20190.776452
703.426246	20214.197653
703.761440	20110.531366
704.096584	19847.365491
704.431679	19802.090888
704.766725	19704.012719
705.101721	19644.368308
705.436668	19742.010417
705.771565	19420.634338
706.106413	19763.425238
706.441212	19748.377394
706.775961	19875.386744
707.110661	19952.294588
707.445311	20300.988678
707.779913	20139.533124
708.114465	20390.713655
708.448967	20680.068324
708.783421	21372.004498
709.117825	21660.650885
709.452180	21874.292465
709.786485	22272.518413
710.120742	23066.051481
710.454949	23086.001847
710.789107	23562.731163
711.123216	24269.241313
711.457275	24392.084150
711.791286	24921.773308
712.125247	24998.754248
712.459159	24687.130282
712.793023	25343.039850
713.126837	24230.174892
713.460602	24488.821372
713.794318	24104.509008
714.127985	23706.000756
714.461602	22814.868429
714.795171	22763.491509
715.128691	21752.977097
715.462162	21216.129501
715.795584	20785.695621
716.128957	20519.361381
716.462281	20113.518249
716.795556	19886.288240
717.128782	19392.403877
717.461960	18846.618314
717.795088	18768.601418
718.128167	18370.085603
718.461198	17915.638187
718.794180	17777.220705
719.127113	17414.602947
719.459997	17215.759675
719.792833	16872.492386
720.125619	16843.848550
720.458357	16526.691917
720.791046	16362.541866
721.123686	16198.285950
721.456278	15961.916328
721.788821	15917.324802
722.121315	15661.972716
722.453761	15737.080867
722.786158	15658.179247
723.118506	15659.749567
723.450805	15534.209713
723.783056	15684.708320
724.115259	15594.809423
724.447412	15522.622621
724.779518	15770.123110
725.111574	15792.692356
725.443582	15993.713406
725.775542	15975.910572
726.107453	16441.393074
726.439315	16337.550346
726.771129	16737.518012
727.102895	17100.060153
727.434612	17305.111606
727.766281	17440.388449
728.097901	17690.192746
728.429473	17720.933702
728.760996	17713.611426
729.092471	17781.225902
729.423897	17664.687028
729.755276	17528.843055
730.086606	17642.248852
730.417887	18166.085230
730.749120	18686.498665
731.080305	18853.277679
731.411442	19182.134829
731.742530	19253.832640
732.073570	19351.913329
732.404562	19653.525564
732.735506	19454.437795
733.066401	19162.854936
733.397249	18639.978898
733.728048	17997.352770
734.058798	17164.377714
734.389501	16489.084910
734.720156	16035.907864
735.050762	15510.982596
735.381320	15149.458769
735.711831	14913.893211
736.042293	14571.311519
736.372707	14578.028857
736.703073	14374.565367
737.033391	14562.260128
737.363661	14530.947001
737.693883	14630.648421
738.024056	14811.338498
738.354182	15003.373692
738.684260	15284.647392
739.014290	15506.974879
739.344272	15696.353385
739.674207	15976.840664
740.004093	16086.127839
740.333931	16076.012763
740.663722	16100.595950
740.993464	16098.763491
741.323159	15927.860814
741.652806	15648.180119
741.982405	15429.446974
742.311956	15100.511686
742.641460	14977.494929
742.970915	14666.264173
743.300323	14330.407380
743.629683	14113.668012
743.958996	13841.934696
744.288260	13578.385693
744.617477	13275.775310
744.946647	13197.763454
745.275768	12922.468563
745.604842	12750.333324
745.933869	12572.562075
746.262847	12532.855427
746.591778	12454.515896
746.920662	12358.174405
747.249498	12356.064682
747.578286	12470.539203
747.907027	12615.699228
748.235720	12838.591325
748.564365	12862.370448
748.892963	12761.779264
749.221514	12823.175477
749.550017	12674.161490
749.878473	12642.356850
750.206881	12420.351996
750.535242	12334.763286
750.863555	12239.382135
751.191821	12145.112558
751.520039	12162.582677
751.848210	12077.750140
752.176334	12104.654778
752.504411	12009.629028
752.832440	11857.860050
753.160421	11913.307701
753.488356	11797.577932
753.816243	11702.320289
754.144082	11561.717468
754.471875	11500.880823
754.799620	11450.353338
755.127318	11425.878536
755.454969	11381.097966
755.782572	11342.633963
756.110129	11357.439831
756.437638	11278.916298
756.765100	11262.106571
757.092515	11260.100192
757.419882	11284.930395
757.747203	11286.626743
758.074477	11358.727846
758.401703	11317.221506
758.728882	11477.779735
759.056014	11523.414781
759.383099	11640.006587
759.710138	11740.857390
760.037129	11814.377578
760.364073	11833.387769
760.690970	11823.733959
761.017820	11819.912765
761.344623	12003.783810
761.671379	12332.885457
761.998088	12964.854585
762.324751	14509.837169
762.651366	17382.558853
762.977935	21043.152389
763.304456	23243.288368
763.630931	23711.679616
763.957359	22512.865505
764.283740	20609.073755
764.610074	18727.200942
764.936362	16604.839884
765.262602	15086.588019
765.588796	13623.796407
765.914943	12596.076537
766.241044	11753.150244
766.567097	11129.315017
766.893104	10577.757333
767.219064	10217.438342
767.544978	9843.762813
767.870845	9530.397128
768.196665	9343.758489
768.522438	9152.597935
768.848165	8979.424218
769.173846	8820.758942
769.499479	8697.255714
769.825066	8539.563381
770.150607	8360.052933
770.476101	8294.275958
770.801548	8188.641100
771.126949	8049.406951
771.452303	7959.382026
771.777611	7793.580996
772.102872	7771.962008
772.428087	7651.410376
772.753256	7529.343876
773.078378	7439.787778
773.403453	7302.181922
773.728482	7201.971346
774.053465	7136.592621
774.378401	7050.769498
774.703291	6959.204500
775.028135	6862.210179
775.352932	6820.683674
775.677683	6741.139308
776.002388	6660.685013
776.327046	6652.135216
776.651658	6566.899387
776.976224	6493.480022
777.300743	6476.647610
777.625216	6409.711169
777.949643	6366.838676
778.274024	6373.878647
778.598359	6304.502288
778.922647	6302.763090
779.246889	6265.892091
779.571086	6273.778976
779.895236	6286.480163
780.219339	6283.720131
780.543397	6282.061592
780.867409	6333.277194
781.191374	6324.949208
781.515294	6293.583149
781.839167	6342.396642
782.162995	6318.579710
782.486776	6265.844200
782.810511	6225.638477
783.134201	6158.833107
783.457844	6144.644779
783.781441	6092.816676
784.104993	6047.781528
784.428498	6017.917733
784.751958	5999.572974
785.075372	5973.931145
785.398739	5937.914622
785.722061	5961.774403
786.045337	5964.458817
786.368568	6074.363533
786.691752	6096.214414
787.014891	6341.857238
787.337983	6617.923426
787.661030	7057.781743
787.984031	7482.282185
788.306987	7745.921928
788.629897	7828.758168
788.952760	7744.734736
789.275579	7560.074750
789.598351	7265.963752
789.921078	7002.581108
790.243759	6723.727163
790.566395	6519.779722
790.888984	6323.273024
791.211529	6184.704308
791.534027	6021.953177
791.856480	5891.362086
792.178888	5831.664743
792.501249	5761.126397
792.823566	5662.007230
793.145836	5656.280480
793.468062	5638.444877
793.790241	5598.163537
794.112375	5636.320031
794.434464	5734.773766
794.756507	5765.232417
795.078505	5886.681375
795.400457	6105.855621
795.722364	6344.617270
796.044226	6538.174892
796.366042	6693.618871
796.687812	6642.194061
797.009538	6670.732033
797.331218	6576.265851
797.652852	6503.615262
797.974442	6381.911726
798.295986	6311.698535
798.617484	6184.132137
798.938938	6075.820426
799.260346	6013.786508
799.581709	5872.402307
799.903026	5819.878525
800.224299	5749.171301
800.545526	5630.464731
800.866708	5566.399227
801.187845	5515.634808
801.508936	5439.830977
801.829983	5415.641001
802.150984	5308.287109
802.471940	5279.986071
802.792851	5264.981077
803.113717	5243.475515
803.434538	5219.283017
803.755314	5186.770096
804.076045	5173.045554
804.396731	5139.768898
804.717372	5154.778933
805.037967	5157.153317
805.358518	5188.035425
805.679024	5248.365434
805.999485	5260.779275
806.319901	5274.665133
806.640272	5292.208349
806.960598	5340.116954
807.280879	5332.351057
807.601115	5363.477661
807.921306	5334.357436
808.241453	5327.042722
808.561554	5338.564279
808.881611	5295.931241
809.201623	5289.818842
809.521590	5247.271503
809.841513	5230.585284
810.161390	5245.262604
810.481223	5158.746321
810.801011	5146.077902
811.120755	5119.805928
811.440453	5066.289039
811.760107	5035.376684
812.079716	5013.495556
812.399281	4957.810970
812.718801	4952.522800
813.038276	4921.466772
813.357707	4884.850351
813.677093	4904.916663
813.996434	4846.691337
814.315731	4865.404100
814.634983	4862.109706
814.954191	4872.368454
815.273354	4927.465745
815.592473	4967.018638
815.911547	5041.872211
816.230577	5092.553451
816.549562	5186.003840
816.868502	5234.877827
817.187399	5290.461589
817.506250	5369.658116
817.825058	5397.283639
818.143821	5548.170415
818.462539	5718.405139
818.781213	5945.771260
819.099843	6309.460263
819.418429	6935.591735
819.736970	7556.505613
820.055466	8264.848223
820.373919	9175.595679
820.692327	10618.205031
821.010691	13317.548832
821.329011	19540.477689
821.647286	29128.853127
821.965517	39445.488774
822.283704	44904.506383
822.601847	46360.530245
822.919945	41741.746953
823.237999	36612.635055
823.556010	31415.601170
823.873976	26714.263943
824.191897	22505.603723
824.509775	19458.591706
824.827609	16691.315837
825.145398	15146.348377
825.463144	14392.363161
825.780845	14687.381566
826.098502	15963.126205
826.416116	18415.561852
826.733685	20698.055161
827.051210	21218.957588
827.368692	19786.365009
827.686129	17224.241416
828.003522	14745.311986
828.320872	12528.167154
828.638177	10888.872143
828.955439	9648.942381
829.272656	8590.834436
829.589830	7750.239676
829.906960	7018.932091
830.224046	6491.826524
830.541088	6080.866621
830.858086	5827.720040
831.175041	5626.867867
831.491952	5567.926697
831.808819	5602.032623
832.125642	5850.745510
832.442421	6395.056535
832.759157	7504.518714
833.075849	9272.290051
833.392497	11118.431166
833.709101	12238.474727
834.025662	11980.206333
834.342179	10915.441544
834.658653	9614.458368
834.975083	8504.998709
835.291469	7611.744057
835.607811	6876.627879
835.924110	6357.182346
836.240366	5867.661102
836.556578	5417.783491
836.872746	5073.422272
837.188871	4801.424296
837.504952	4576.147733
837.820990	4411.289399
838.136984	4298.654899
838.452935	4251.565481
838.768842	4278.296199
839.084706	4561.800609
839.400526	5297.579698
839.716303	6210.308328
840.032037	6766.264419
840.347727	6615.637262
840.663373	6016.702815
840.978977	5440.761070
841.294537	4999.939893
841.610054	4672.106097
841.925527	4432.542904
842.240957	4229.243252
842.556344	4046.382958
842.871687	3890.407137
843.186987	3735.585741
843.502244	3619.538379
843.817458	3535.088970
844.132629	3464.117086
844.447756	3414.796957
844.762840	3370.013867
845.077881	3331.965758
845.392879	3297.980819
845.707833	3274.781429
846.022745	3245.431832
846.337613	3231.359451
846.652438	3210.978066
846.967221	3201.846016
847.281960	3184.716175
847.596656	3174.717046
847.911309	3163.886127
848.225919	3151.595794
848.540485	3140.427118
848.855009	3129.293729
849.169490	3120.711165
849.483928	3112.947788
849.798323	3108.309927
850.112675	3094.025817
850.426984	3098.963627
850.741251	3089.297215
851.055474	3087.230342
851.369654	3090.247472
851.683792	3087.633634
851.997887	3088.283943
852.311938	3089.589602
852.625947	3091.230497
852.939914	3083.404106
853.253837	3087.966350
853.567718	3090.330651
853.881555	3080.916297
854.195350	3088.566248
854.509103	3081.808581
854.822812	3081.047367
855.136479	3074.221644
855.450103	3079.615679
855.763685	3072.381623
856.077224	3077.848754
856.390720	3085.589446
856.704173	3094.534974
857.017584	3102.817589
857.330953	3104.861777
857.644278	3113.756893
857.957561	3115.634723
858.270802	3116.537090
858.584000	3110.669187
858.897155	3105.617950
859.210268	3096.042279
859.523339	3083.646081
859.836367	3080.412181
860.149352	3077.856316
860.462295	3073.281469
860.775195	3062.770663
861.088054	3056.975857
861.400869	3059.534242
861.713642	3057.510219
862.026373	3067.171591
862.339062	3070.405491
862.651708	3081.238930
862.964312	3094.640838
863.276873	3104.902107
863.589392	3134.077784
863.901869	3160.556445
864.214303	3182.414888
864.526696	3199.317877
864.839045	3215.830176
865.151353	3231.329204
865.463619	3229.864749
865.775842	3233.738875
866.088023	3236.882035
866.400162	3231.573700
866.712258	3230.406673
867.024313	3231.729976
867.336325	3228.279306
867.648296	3228.629666
867.960224	3226.298132
868.272110	3226.635890
868.583954	3231.402301
868.895755	3239.715163
869.207515	3234.603433
869.519233	3255.466248
869.830909	3260.809872
870.142542	3272.495266
870.454134	3277.382665
870.765684	3289.960344
871.077191	3309.764517
871.388657	3323.564675
871.700081	3339.610668
872.011463	3358.865355
872.322803	3381.321175
872.634101	3399.333218
872.945357	3418.610590
873.256571	3450.513532
873.567744	3457.117443
873.878874	3462.143474
874.189963	3479.512769
874.501010	3481.569560
874.812015	3481.675424
875.122979	3495.742764
875.433900	3492.919718
875.744780	3494.580778
876.055618	3504.002695
876.366415	3502.515554
876.677169	3509.553005
876.987882	3523.345602
877.298554	3544.493242
877.609183	3580.134200
877.919771	3629.040954
878.230317	3696.985626
878.540822	3799.487407
878.851285	3952.884677
879.161707	4174.781146
879.472087	4555.902459
879.782425	5179.455381
880.092722	6364.923037
880.402977	8307.909759
880.713191	10688.705568
881.023363	13083.117534
881.333494	14429.161063
881.643583	14876.760072
881.953631	14466.127844
882.263637	13624.809679
882.573602	12583.057757
882.883526	11629.299176
883.193408	10662.632720
883.503248	9743.259849
883.813048	8908.379237
884.122806	8142.138976
884.432522	7376.165896
884.742197	6720.137861
885.051831	6150.376571
885.361424	5654.785777
885.670975	5256.522021
885.980485	4933.605870
886.289954	4667.937062
886.599382	4448.946819
886.908768	4270.454684
887.218113	4106.370168
887.527417	3974.788491
887.836680	3854.375490
888.145901	3751.369593
888.455082	3676.589117
888.764221	3602.579938
889.073319	3548.140517
889.382376	3512.839838
889.691392	3486.124243
890.000366	3483.694407
890.309300	3478.234837
890.618193	3477.103098
890.927044	3474.436328
891.235855	3483.286073
891.544625	3498.840553
891.853353	3528.724513
892.162041	3588.371446
892.470687	3679.177750
892.779293	3795.966161
893.087858	3967.123416
893.396381	4252.261160
893.704864	4663.810878
894.013306	5235.210543
894.321707	5805.733047
894.630068	6168.514642
894.938387	6209.685746
895.246665	6032.985742
895.554903	5705.033478
895.863100	5372.156008
896.171256	5099.805151
896.479371	4859.082493
896.787446	4631.998677
897.095480	4433.772946
897.403473	4280.012712
897.711425	4140.544150
898.019336	4013.343235
898.327207	3894.714803
898.635038	3794.955410
898.942827	3686.638657
899.250576	3600.155143
899.558284	3515.826721
899.865952	3463.055923
900.173579	3396.996643
900.481165	3354.061135
900.788711	3307.606903
901.096216	3278.605145
901.403681	3248.070876
901.711105	3240.584762
902.018489	3235.843557
902.325832	3266.534102
902.633135	3324.623318
902.940397	3497.494565
903.247619	3904.968510
903.554800	4658.898273
903.861941	5626.981293
904.169041	6338.386404
904.476101	6549.313322
904.783121	6267.200270
905.090100	5866.529363
905.397039	5447.155774
905.703938	5088.850723
906.010796	4765.014562
906.317614	4508.676930
906.624391	4273.469294
906.931129	4076.438317
907.237826	3893.888054
907.544483	3721.243658
907.851099	3551.029098
908.157675	3389.651682
908.464211	3248.937954
908.770707	3146.232006
909.077163	3066.168401
909.383578	3010.609844
909.689954	2964.647124
909.996289	2937.790377
910.302584	2914.616193
910.608839	2901.877197
910.915054	2885.558982
911.221229	2884.641492
911.527363	2889.360012
911.833458	2894.005435
912.139513	2909.103691
912.445527	2921.656164
912.751502	2954.572378
913.057436	2997.044099
913.363331	3054.304045
913.669186	3144.334012
913.975000	3262.423041
914.280775	3450.314406
914.586510	3718.334912
914.892205	4098.528653
915.197859	4599.563893
915.503475	5186.835631
915.809050	5684.800808
916.114585	5972.796886
916.420081	6039.990425
916.725536	5976.040868
917.030952	5733.203446
917.336328	5528.615779
917.641665	5312.917409
917.946961	5084.170012
918.252218	4884.404208
918.557435	4657.816946
918.862612	4457.531904
919.167750	4285.870533
919.472848	4088.191767
919.777906	3920.961571
920.082925	3762.051798
920.387904	3607.714353
920.692843	3497.923063
920.997743	3399.686098
921.302603	3303.826037
921.607423	3240.670462
921.912204	3174.850637
922.216946	3126.793317
922.521647	3076.129721
922.826310	3035.578679
923.130932	2993.023779
923.435516	2955.252934
923.740059	2928.660848
924.044564	2897.745972
924.349028	2875.736294
924.653454	2843.452745
924.957840	2815.849907
925.262186	2797.152267
925.566493	2777.406067
925.870761	2751.565113
926.174989	2737.951477
926.479178	2724.683160
926.783328	2707.792774
927.087438	2694.007739
927.391509	2682.070287
927.695541	2674.178360
927.999533	2661.419200
928.303486	2655.208498
928.607400	2647.306490
928.911275	2640.866416
929.215110	2635.734521
929.518906	2632.102370
929.822663	2632.916516
930.126381	2633.176135
930.430060	2637.456075
930.733699	2637.072947
931.037299	2641.531848
931.340861	2641.683083
931.644383	2644.042343
931.947866	2643.845737
932.251309	2638.103863
932.554714	2639.215438
932.858080	2636.626805
933.161407	2633.884417
933.464694	2628.936525
933.767943	2627.333438
934.071153	2622.125926
934.374323	2616.772221
934.677455	2616.578136
934.980548	2612.232662
935.283602	2609.641509
935.586617	2606.921806
935.889593	2611.252157
936.192530	2611.620162
936.495428	2619.469238
936.798287	2629.417955
937.101108	2638.676034
937.403890	2663.148316
937.706632	2691.373736
938.009336	2725.794734
938.312002	2754.050402
938.614628	2777.292642
938.917216	2796.262503
939.219765	2807.910089
939.522275	2814.047694
939.824747	2814.970225
940.127179	2809.767755
940.429573	2804.018319
940.731929	2803.685602
941.034246	2793.333593
941.336524	2793.164714
941.638763	2783.485699
941.940964	2777.688372
942.243126	2761.476021
942.545250	2751.575195
942.847335	2737.520458
943.149381	2724.446226
943.451389	2711.795450
943.753359	2697.879345
944.055290	2684.991635
944.357182	2679.453928
944.659036	2674.198525
944.960851	2670.747855
945.262628	2667.287103
945.564367	2666.132679
945.866067	2666.598985
946.167729	2663.907009
946.469352	2665.545384
946.770937	2661.388953
947.072484	2656.176400
947.373992	2654.568272
947.675462	2651.858652
947.976893	2644.861530
948.278286	2640.768113
948.579641	2638.330715
948.880958	2634.723770
949.182236	2637.239305
949.483476	2633.821403
949.784678	2632.225878
950.085841	2630.776546
950.386967	2634.282669
950.688054	2639.142341
950.989103	2650.419402
951.290114	2655.939466
951.591087	2670.604182
951.892021	2682.163548
952.192917	2695.192410
952.493776	2703.389326
952.794596	2711.518187
953.095378	2709.174050
953.396122	2709.562219
953.696828	2705.131045
953.997496	2702.676003
954.298126	2690.017666
954.598718	2683.444001
954.899272	2673.109636
955.199788	2662.997081
955.500266	2647.921510
955.800706	2632.268728
956.101108	2613.941613
956.401472	2607.110849
956.701798	2589.156780
957.002087	2574.771848
957.302337	2568.336815
957.602550	2552.948692
957.902724	2546.851417
958.202861	2532.539581
958.502960	2527.589168
958.803022	2522.973992
959.103045	2512.190964
959.403031	2508.135355
959.702979	2501.927174
960.002889	2497.657317
960.302762	2490.224136
960.602596	2487.280102
960.902393	2485.203147
961.202153	2482.400265
961.501875	2476.058493
961.801559	2477.994297
962.101205	2472.174284
962.400814	2470.036835
962.700385	2468.355610
962.999918	2467.264201
963.299414	2465.557770
963.598873	2465.572893
963.898293	2462.011318
964.197677	2462.434775
964.497022	2463.518623
964.796331	2459.367233
965.095601	2462.026442
965.394835	2459.798252
965.694030	2456.455967
965.993189	2455.520833
966.292309	2454.563013
966.591393	2455.687191
966.890439	2458.379167
967.189447	2451.898764
967.488419	2457.030658
967.787353	2458.248097
968.086249	2456.513940
968.385108	2458.510237
968.683930	2460.483849
968.982714	2459.808334
969.281462	2460.829168
969.580172	2463.238839
969.878844	2466.029118
970.177480	2466.646659
970.476078	2471.087916
970.774639	2474.498256
971.073162	2475.965232
971.371649	2476.368524
971.670098	2477.202835
971.968510	2478.589153
972.266885	2479.428505
972.565223	2482.049905
972.863524	2483.164000
973.161788	2486.455873
973.460014	2486.765904
973.758204	2488.174907
974.056356	2490.261944
974.354471	2488.585761
974.652550	2487.111223
974.950591	2488.608446
975.248595	2487.075935
975.546563	2485.881182
975.844493	2484.094093
976.142386	2484.096613
976.440243	2479.340285
976.738062	2481.921355
977.035845	2474.470530
977.333590	2472.721250
977.631299	2473.227886
977.928971	2471.221506
978.226606	2465.777060
978.524204	2468.443831
978.821765	2464.166412
979.119290	2463.846298
979.416777	2464.980558
979.714228	2462.563325
980.011642	2465.328398
980.309020	2471.133286
980.606360	2474.142855
980.903664	2486.322283
981.200931	2496.838130
981.498162	2513.690707
981.795356	2544.343443
982.092513	2584.972622
982.389633	2627.255300
982.686717	2672.618123
982.983764	2705.816642
983.280775	2723.049826
983.577749	2723.531256
983.874686	2711.001468
984.171587	2697.574355
984.468451	2679.360666
984.765279	2662.644200
985.062070	2645.975625
985.358824	2624.936369
985.655543	2603.322422
985.952224	2579.074472
986.248869	2551.206974
986.545478	2525.371060
986.842050	2506.444048
987.138586	2486.564258
987.435086	2474.029429
987.731549	2460.677933
988.027975	2457.002932
988.324366	2451.238372
988.620719	2448.488423
988.917037	2443.898452
989.213318	2439.558019
989.509563	2439.063986
989.805772	2435.515014
990.101944	2434.511824
990.398080	2436.145158
990.694180	2433.453182
990.990244	2435.598193
991.286271	2432.576021
991.582262	2433.584252
991.878217	2432.881011
992.174136	2436.160281
992.470019	2436.056938
992.765865	2435.036104
993.061676	2440.135231
993.357450	2441.755962
993.653188	2445.262085
993.948890	2449.181582
994.244556	2457.494444
994.540186	2465.225054
994.835780	2478.901704
995.131337	2493.823520
995.426859	2506.907834
995.722345	2529.202337
996.017795	2546.717826
996.313208	2562.504200
996.608586	2572.405026
996.903928	2575.374265
997.199234	2573.856878
997.494504	2573.748493
997.789738	2560.008828
998.084936	2556.066646
998.380099	2540.640715
998.675225	2530.684437
998.970316	2518.421830
999.265371	2503.994047
999.560390	2490.186327
999.855373	2480.119143
1000.150320	2469.104222
1000.445232	2457.126440
1000.740108	2452.642334
1001.034948	2448.438012
1001.329752	2441.458534
1001.624521	2440.878801
1001.919254	2428.124682
1002.213951	2428.631318
1002.508613	2425.276430
1002.803239	2428.427151
1003.097829	2421.271233
1003.392384	2423.915319
1003.686903	2421.533373
1003.981386	2422.977664
1004.275834	2418.155800
1004.570246	2420.787283
1004.864623	2418.430543
1005.158964	2416.950965
1005.453270	2414.503484
1005.747540	2416.267888
1006.041775	2415.042888
1006.335974	2412.071128
1006.630138	2414.601787
1006.924266	2414.551375
1007.218359	2412.602969
1007.512416	2412.663463
1007.806438	2411.783782
1008.100425	2413.414595
1008.394376	2411.463669
1008.688292	2411.811508
1008.982172	2409.782444
1009.276017	2411.819070
1009.569827	2411.380490
1009.863602	2414.344688
1010.157341	2413.066756
1010.451045	2409.280849
1010.744714	2410.767989
1011.038347	2412.439132
1011.331945	2408.683472
1011.625508	2409.298493
1011.919036	2410.490726
1012.212528	2411.289749
1012.505986	2409.159861
1012.799408	2409.114491
1013.092795	2407.672721
1013.386147	2408.040725
1013.679464	2406.412433
1013.972745	2409.860582
1014.265992	2407.448390
1014.559204	2408.612896
1014.852380	2407.821435
1015.145521	2408.670869
1015.438628	2406.251116
1015.731699	2408.146589
1016.024736	2408.237330
1016.317737	2407.619789
1016.610703	2409.941240
1016.903635	2405.686506
1017.196531	2407.163564
1017.489393	2408.418812
1017.782219	2404.945457
1018.075011	2413.006262
1018.367768	2410.052146
1018.660490	2411.435942
1018.953177	2411.435942
1019.245829	2411.435942
