Dividing Wavelength (nm)	Counts (n)	Blue Motor Position (mm): 39.000000	Red Motor Position (mm): 0.000000	
326.493990	1970.075361
326.888308	1970.075361
327.282561	1970.075361
327.676750	1944.995621
328.070874	1950.525767
328.464933	1954.382249
328.858929	1963.350462
329.252859	1973.468058
329.646726	1989.819040
330.040528	2004.995434
330.434265	2025.089473
330.827938	2044.828111
331.221547	2062.779660
331.615091	2082.853535
332.008571	2104.230548
332.401986	2125.693260
332.795338	2144.796713
333.188625	2163.869918
333.581847	2183.875737
333.975006	2202.946422
334.368100	2218.458053
334.761129	2238.279869
335.154095	2252.253948
335.546996	2294.375309
335.939833	2374.698534
336.332606	2390.106820
336.725315	2401.164591
337.117960	2410.364697
337.510540	2416.678742
337.903056	2427.502100
338.295508	2433.841351
338.687896	2442.827207
339.080220	2446.567743
339.472480	2452.939762
339.864676	2458.028807
340.256807	2459.858746
340.648875	2461.129116
341.040879	2462.165073
341.432818	2466.094653
341.824694	2466.976855
342.216506	2464.153809
342.608253	2464.478963
342.999937	2464.345373
343.391557	2464.574745
343.783113	2462.331432
344.174605	2461.245063
344.566033	2460.093159
344.957397	2457.786831
345.348697	2454.963785
345.739934	2454.386573
346.131106	2454.472273
346.522215	2452.997735
346.913260	2446.613114
347.304241	2448.175872
347.695159	2443.512804
348.086012	2445.642692
348.476802	2442.940633
348.867528	2440.546085
349.258191	2438.106167
349.648789	2443.691765
350.039324	2434.559715
350.429796	2438.113728
350.820203	2437.183636
351.210548	2437.778492
351.600828	2434.095929
351.991045	2432.056782
352.381198	2433.828748
352.771288	2436.339242
353.161314	2432.366813
353.551276	2434.889911
353.941175	2436.208172
354.331010	2433.375044
354.720782	2435.394026
355.110490	2438.612803
355.500135	2437.932247
355.889717	2434.292534
356.279235	2433.024684
356.668689	2438.206990
357.058080	2436.361927
357.447408	2436.457709
357.836672	2431.323294
358.225873	2432.850764
358.615010	2434.839499
359.004084	2438.474171
359.393095	2439.187494
359.782043	2440.445262
360.170927	2439.116918
360.559748	2443.618668
360.948505	2441.272011
361.337199	2442.892742
361.725830	2445.244441
362.114398	2446.293001
362.502903	2445.746035
362.891344	2444.445418
363.279722	2444.410130
363.668037	2447.712085
364.056289	2445.877105
364.444478	2445.748556
364.832603	2447.835594
365.220665	2449.584874
365.608665	2452.080245
365.996601	2449.713423
366.384474	2451.576130
366.772284	2450.426747
367.160031	2450.777107
367.547715	2453.078394
367.935336	2451.422375
368.322893	2452.748198
368.710388	2454.726851
369.097820	2455.475462
369.485189	2454.991512
369.872495	2456.856738
370.259738	2456.410596
370.646918	2460.743468
371.034035	2455.218363
371.421090	2457.660803
371.808081	2459.253807
372.195010	2458.474949
372.581875	2458.122068
372.968678	2460.645166
373.355418	2460.438478
373.742096	2462.475104
374.128710	2463.763119
374.515262	2465.409056
374.901751	2465.134313
375.288177	2464.610033
375.674540	2463.904272
376.060841	2468.829479
376.447079	2464.476443
376.833254	2467.594396
377.219367	2465.275465
377.605417	2466.883593
377.991404	2465.784622
378.377329	2466.946608
378.763191	2463.629529
379.148991	2472.272587
379.534727	2472.413739
379.920402	2473.230406
380.306013	2474.190746
380.691563	2476.829790
381.077049	2475.934985
381.462474	2477.217959
381.847835	2478.400109
382.233134	2480.875316
382.618371	2480.361118
383.003545	2479.123515
383.388657	2480.436736
383.773706	2481.981849
384.158693	2482.710296
384.543618	2485.747591
384.928480	2486.314721
385.313280	2488.086687
385.698017	2486.624752
386.082692	2491.739002
386.467305	2487.910246
386.851856	2491.345792
387.236344	2492.243118
387.620770	2496.036586
388.005133	2493.936946
388.389435	2496.875938
388.773674	2498.957935
389.157851	2500.321567
389.541965	2499.099087
389.926018	2500.808038
390.310008	2497.793428
390.693936	2505.720643
391.077802	2506.575118
391.461606	2509.428411
391.845348	2509.617455
392.229027	2512.241375
392.612645	2516.032323
392.996200	2519.046933
393.379694	2525.368540
393.763125	2529.063706
394.146494	2533.502442
394.529801	2542.949564
394.913047	2548.696479
395.296230	2556.880792
395.679351	2565.251628
396.062410	2577.915007
396.445408	2586.177458
396.828343	2603.196393
397.211217	2619.265071
397.594028	2630.310239
397.976778	2654.137253
398.359466	2681.551048
398.742092	2700.876311
399.124656	2734.929305
399.507158	2772.185953
399.889598	2806.677527
400.271977	2851.352233
400.654294	2894.852349
401.036549	2951.913170
401.418742	3001.026611
401.800874	3075.970925
402.182944	3140.830410
402.564952	3235.586458
402.946898	3281.138324
403.328783	3352.536186
403.710606	3446.462965
404.092367	3554.981363
404.474067	3683.515663
404.855705	3738.451637
405.237282	3813.809325
405.618797	3979.232268
406.000250	4121.266777
406.381642	4293.535607
406.762972	4392.581678
407.144240	4450.542344
407.525447	4620.865288
407.906593	4716.725349
408.287677	4895.920724
408.668700	5056.925096
409.049661	5176.725597
409.430560	5347.913099
409.811399	5468.288291
410.192176	5643.501155
410.572891	5801.979908
410.953545	6109.102124
411.334138	6052.411828
411.714669	6412.748464
412.095139	6294.041894
412.475547	6627.446165
412.855894	6699.443924
413.236180	6980.853735
413.616405	6979.578323
413.996568	7248.551607
414.376670	7386.671661
414.756711	7461.870553
415.136691	7747.325889
415.516609	7981.863051
415.896466	8166.490270
416.276262	8459.033469
416.655997	8853.685239
417.035670	9029.447588
417.415283	9555.769255
417.794834	9763.598384
418.174324	9754.607487
418.553753	9843.336835
418.933121	10301.935642
419.312428	10330.738274
419.691674	10409.929760
420.070859	10858.058090
420.449983	10758.427246
420.829045	11280.978130
421.208047	11242.383057
421.586988	11698.950278
421.965867	12015.108762
422.344686	12143.827064
422.723444	12716.638252
423.102141	11820.482415
423.480777	12883.588664
423.859352	12592.174684
424.237866	13616.653092
424.616319	13493.855626
424.994712	14137.447134
425.373044	14083.569803
425.751314	14753.448408
426.129524	14130.187873
426.507673	15140.984589
426.885762	14988.419109
427.263789	15248.066259
427.641756	15483.115098
428.019662	15616.277177
428.397508	15728.679784
428.775292	16071.049747
429.153016	16118.749145
429.530679	16264.383039
429.908282	16349.182808
430.285824	16164.563151
430.663305	16859.206425
431.040726	16557.805919
431.418086	16446.484639
431.795385	17084.256136
432.172624	17527.429011
432.549802	17159.944019
432.926920	17380.386115
433.303977	17305.129250
433.680974	17587.007888
434.057910	17885.887817
434.434786	17950.147405
434.811601	17903.499088
435.188355	18923.274100
435.565050	18617.482749
435.941683	18600.952805
436.318257	19453.537949
436.694770	19288.619122
437.071222	19881.352950
437.447614	19005.971708
437.823946	19036.465648
438.200218	19201.293734
438.576429	18997.744545
438.952580	19278.398182
439.328670	19249.514892
439.704700	19663.464198
440.080670	19259.110728
440.456580	19830.601134
440.832429	19995.988788
441.208218	19033.871974
441.583947	19476.145004
441.959616	19588.076263
442.335224	19817.426078
442.710773	19946.088927
443.086261	20458.013059
443.461689	19848.104020
443.837057	19973.054059
444.212365	20604.133424
444.587612	20607.263980
444.962800	20210.361335
445.337927	20608.178950
445.712995	19393.644001
446.088002	21171.162408
446.462949	21364.175586
446.837837	21542.110673
447.212664	21498.905464
447.587431	24229.103646
447.962139	27073.884735
448.336786	29408.619522
448.711374	27896.265806
449.085901	24324.288193
449.460369	24263.955663
449.834776	24177.179762
450.209124	26586.412720
450.583412	26156.906412
450.957640	26677.304724
451.331808	25373.145621
451.705917	24042.470049
452.079965	24053.719383
452.453954	24410.413786
452.827883	24302.664163
453.201752	24115.816317
453.575562	24266.040181
453.949311	25339.896691
454.323001	25402.003706
454.696632	25181.813668
455.070202	26692.357609
455.443713	26840.123911
455.817164	27399.689467
456.190556	27916.715247
456.563888	27375.620478
456.937160	27804.756261
457.310373	26185.547728
457.683526	26596.568124
458.056619	26578.495588
458.429653	26522.390066
458.802628	27081.096106
459.175542	27203.190331
459.548398	28475.161667
459.921194	30032.689162
460.293930	30703.235720
460.666607	32694.335214
461.039224	34421.568112
461.411782	34791.624092
461.784280	33571.558997
462.156719	33070.755651
462.529099	32499.620646
462.901419	31229.325494
463.273680	30193.869974
463.645882	30294.274635
464.018024	30272.033064
464.390106	31104.476278
464.762130	33765.658544
465.134094	37792.396125
465.505999	43051.005183
465.877845	47582.243798
466.249631	48684.182055
466.621358	46897.231648
466.993026	44718.928907
467.364634	42623.147333
467.736184	40706.586340
468.107674	39476.869956
468.479105	38708.250271
468.850477	38008.273456
469.221790	36635.758828
469.593043	34944.449192
469.964238	34072.102724
470.335373	33993.770755
470.706449	35621.435824
471.077467	38126.208730
471.448425	42656.877693
471.819324	45515.416091
472.190164	43718.048140
472.560945	40202.780987
472.931667	37140.050653
473.302330	36055.068316
473.672934	35243.152681
474.043479	35739.247589
474.413965	34979.089480
474.784393	34615.740755
475.154761	35486.910113
475.525070	35519.324732
475.895321	35066.853448
476.265513	35660.224982
476.635645	36593.108146
477.005719	36438.579136
477.375734	36875.589201
477.745691	37559.202430
478.115588	38862.131492
478.485427	40801.702831
478.855207	44119.326507
479.224928	46721.706233
479.594591	48349.550263
479.964194	47299.976991
480.333739	47402.841735
480.703226	47414.010411
481.072653	48047.048264
481.442022	48565.520855
481.811333	48828.590948
482.180584	47525.243471
482.549777	47015.645832
482.918912	46506.837133
483.287988	46206.880917
483.657005	45383.431122
484.025964	44749.964770
484.394864	44747.827321
484.763706	44326.273434
485.132489	43456.064416
485.501213	43286.646358
485.869879	43431.776136
486.238487	43047.645254
486.607036	43247.355605
486.975527	42721.404463
487.343959	42925.659414
487.712333	43004.974408
488.080648	42915.125923
488.448905	43342.439328
488.817104	43170.704861
489.185244	44098.544350
489.553326	45765.648886
489.921350	48480.400973
490.289315	51415.917789
490.657222	52064.681522
491.025070	52349.660469
491.392861	51405.684247
491.760593	50132.389608
492.128267	48397.078261
492.495883	46860.753859
492.863440	45484.463406
493.230939	44163.161860
493.598380	43091.836009
493.965763	42766.179991
494.333088	41992.317505
494.700354	41514.532067
495.067563	41251.396439
495.434713	41120.122273
495.801805	41190.312778
496.168839	40818.857878
496.535815	40496.569351
496.902733	40538.360516
497.269593	40131.776335
497.636395	40079.464281
498.003139	40465.266306
498.369825	39932.176889
498.736453	40236.554197
499.103023	39771.379205
499.469535	39654.280763
499.835989	39741.706974
500.202385	39427.272564
500.568723	39437.342269
500.935003	39634.612701
501.301226	39432.603584
501.667390	40046.235516
502.033497	40296.264144
502.399546	39712.559022
502.765537	39065.799148
503.131470	39438.058113
503.497345	39782.678952
503.863163	38466.042993
504.228923	39067.659334
504.594625	39460.884457
504.960269	38769.447358
505.325856	39442.625398
505.691385	38816.168772
506.056856	38952.317734
506.422270	39372.434893
506.787625	38957.721851
507.152924	39143.720263
507.518164	39239.119059
507.883347	38489.338165
508.248472	38726.368177
508.613540	39179.421715
508.978550	39469.391405
509.343503	39228.779652
509.708398	39426.423130
510.073236	39943.264907
510.438016	39941.359351
510.802738	39415.312427
511.167403	40017.153099
511.532010	40237.035627
511.896561	40536.901102
512.261053	41355.256812
512.625488	40898.288818
512.989866	40783.244646
513.354186	40612.498245
513.718449	40606.320311
514.082655	41253.276790
514.446803	40950.253032
514.810894	41453.153499
515.174927	41385.670093
515.538904	41288.791719
515.902822	41928.390633
516.266684	41393.962791
516.630488	41802.699545
516.994235	41656.221258
517.357925	42202.115205
517.721558	42369.577295
518.085133	42675.585415
518.448651	42808.074500
518.812112	42572.730753
519.175516	42677.117926
519.538863	43024.546687
519.902152	42975.723113
520.265385	43418.424640
520.628560	43446.897077
520.991678	43257.286678
521.354739	43484.408303
521.717743	43805.383610
522.080690	43696.378740
522.443580	44246.824849
522.806413	44298.589937
523.169189	44242.822173
523.531908	44411.133697
523.894569	44268.642963
524.257174	44439.843068
524.619722	44744.416981
524.982213	44734.082615
525.344647	44642.038708
525.707025	44693.226584
526.069345	45089.317603
526.431608	45009.475809
526.793815	45324.701679
527.155964	44858.526018
527.518057	45029.244693
527.880093	44821.319783
528.242072	45340.823289
528.603995	45051.145986
528.965860	45054.188323
529.327669	45157.537018
529.689421	45047.836469
530.051117	45022.345874
530.412755	45154.046019
530.774337	45233.285395
531.135862	45050.480554
531.497331	45253.760042
531.858743	45154.338406
532.220098	45507.274627
532.581396	45225.085959
532.942638	44872.061517
533.303824	45181.825297
533.664953	45145.123176
534.026025	44882.839503
534.387040	45361.005549
534.747999	45319.458879
535.108902	45469.329863
535.469748	45001.505744
535.830537	45130.740764
536.191270	45324.651268
536.551947	44966.535260
536.912567	45281.541841
537.273131	45391.189457
537.633638	44903.167956
537.994089	45249.192756
538.354483	44852.307755
538.714821	45420.039981
539.075103	45765.384225
539.435328	45530.809254
539.795497	45436.017918
540.155609	45405.839050
540.515665	45855.167175
540.875665	45338.844636
541.235609	45666.045768
541.595496	45625.865251
541.955328	46304.414641
542.315102	45685.514704
542.674821	45474.365975
543.034483	45505.268248
543.394090	45476.102653
543.753640	45434.056909
544.113134	46431.444156
544.472571	45475.976624
544.831953	46703.830302
545.191278	45917.027174
545.550548	45639.501572
545.909761	46099.179186
546.268918	46302.612429
546.628019	46614.402753
546.987064	46163.239648
547.346053	45464.076980
547.704986	46319.807804
548.063863	45898.551345
548.422684	46099.355626
548.781449	45947.264015
549.140158	46345.915940
549.498811	46175.472008
549.857408	45615.654394
550.215949	46459.556151
550.574434	46392.229021
550.932864	46170.680391
551.291237	46859.957357
551.649555	46489.374576
552.007817	46733.507574
552.366022	46381.962711
552.724173	46544.754171
553.082267	46955.698951
553.440305	47246.686953
553.798288	46559.365956
554.156215	46868.930611
554.514086	47076.611026
554.871902	46841.410952
555.229661	46849.978393
555.587365	46667.624735
555.945014	46763.686442
556.302606	46688.038887
556.660143	46928.874971
557.017625	46987.932088
557.375050	46800.025599
557.732421	47145.982344
558.089735	47122.107439
558.446994	47048.617498
558.804197	47511.508847
559.161345	47427.193029
559.518437	46701.710496
559.875474	46995.100609
560.232455	47157.929878
560.589381	47333.956888
560.946251	47027.313582
561.303065	47708.260041
561.659825	47524.310857
562.016528	47195.539407
562.373177	46903.638955
562.729770	47388.174498
563.086307	46911.624142
563.442789	47362.081486
563.799216	47425.607586
564.155587	47211.189669
564.511904	47234.812516
564.868164	47332.719285
565.224370	47557.703461
565.580520	47305.386149
565.936615	47502.792692
566.292654	47231.727329
566.648638	47463.811970
567.004567	47422.340918
567.360441	47459.131259
567.716260	47311.070050
568.072023	47611.162377
568.427732	47598.685521
568.783385	47156.979621
569.138982	47554.920744
569.494525	47510.082201
569.850013	47280.097201
570.205445	47223.474961
570.560823	47197.172740
570.916145	47070.571723
571.271412	47098.230014
571.626625	46854.875874
571.981782	46901.151145
572.336884	46598.364322
572.691931	46908.783452
573.046923	46530.727161
573.401860	46381.314923
573.756743	46365.014352
574.111570	46489.072107
574.466342	46335.294229
574.821059	46447.447299
575.175722	45964.492158
575.530330	45998.991294
575.884882	45716.036370
576.239380	45680.415577
576.593823	45643.446275
576.948211	45571.619915
577.302544	45103.894100
577.656823	45131.960724
578.011047	45356.561772
578.365216	45068.096866
578.719330	44889.735802
579.073389	44737.339201
579.427394	44826.436554
579.781344	44794.944466
580.135239	44453.151714
580.489080	44536.418973
580.842866	44031.776788
581.196597	44489.395090
581.550273	44424.613742
581.903895	44275.849292
582.257463	44710.502618
582.610975	44104.056852
582.964434	44374.784457
583.317837	44019.322617
583.671186	43873.978590
584.024481	44089.848359
584.377721	43633.664266
584.730906	43909.183488
585.084037	43926.643524
585.437113	43633.928926
585.790135	43682.376935
586.143103	43282.157211
586.496016	43418.880865
586.848874	43433.848051
587.201679	43450.912356
587.554428	42947.094400
587.907124	43120.384063
588.259765	42890.610792
588.612352	43130.960404
588.964884	42545.369891
589.317362	42812.329234
589.669786	42756.581634
590.022155	42520.869883
590.374470	42934.126032
590.726731	42474.566885
591.078937	41991.825993
591.431090	42092.192845
591.783188	41737.542631
592.135232	41435.264964
592.487222	41677.389063
592.839157	41754.196083
593.191038	41431.486619
593.542866	41201.047915
593.894639	40604.881062
594.246358	40899.009703
594.598022	40861.284228
594.949633	40479.373975
595.301190	40428.627200
595.652692	40252.111198
596.004141	40581.825344
596.355535	39617.727357
596.706876	39573.783618
597.058162	39388.745546
597.409395	39864.902691
597.760573	39945.740114
598.111698	39517.244558
598.462768	39523.959374
598.813785	39575.311088
599.164748	39023.244248
599.515657	39416.633209
599.866511	38898.205989
600.217312	39505.115541
600.568060	38474.738983
600.918753	39215.687776
601.269392	39159.221811
601.619978	38836.093932
601.970510	39040.303513
602.320988	39215.226510
602.671412	39524.115650
603.021783	39257.393241
603.372100	38909.989686
603.722363	39013.560192
604.072572	39088.653219
604.422728	39102.889438
604.772830	38927.588354
605.122878	39010.522896
605.472872	38957.679001
605.822813	39228.555321
606.172701	39057.201460
606.522534	39296.323552
606.872314	39560.875744
607.222041	39300.432092
607.571714	39687.252430
607.921333	39147.123042
608.270899	39445.864340
608.620411	39762.554665
608.969870	39569.715407
609.319276	39576.198331
609.668627	39621.530907
610.017926	40088.649264
610.367171	40242.583417
610.716362	40355.674142
611.065500	40293.075614
611.414585	40482.534778
611.763616	40756.395461
612.112594	40691.034381
612.461518	40925.080030
612.810389	41201.126053
613.159207	41062.753942
613.507971	41149.038331
613.856682	41604.136056
614.205340	41485.716832
614.553945	42184.922350
614.902496	41649.085505
615.250994	42089.846188
615.599439	42183.614170
615.947830	42380.304870
616.296169	42440.549179
616.644454	42563.381934
616.992686	42729.727408
617.340864	43252.926080
617.688990	42988.189886
618.037063	43578.133435
618.385082	43530.877659
618.733048	43841.843755
619.080961	43849.854148
619.428821	43860.201117
619.776628	43967.930574
620.124382	43798.721725
620.472083	43915.386628
620.819731	44035.804670
621.167326	43711.335843
621.514868	43684.118654
621.862357	43248.678908
622.209793	43261.022173
622.557176	42936.049232
622.904506	42679.368801
623.251783	42332.890298
623.599007	42118.149747
623.946179	41909.970257
624.293297	41860.418236
624.640363	41262.807091
624.987376	41256.475402
625.334336	41013.345593
625.681243	40676.243635
626.028097	40637.772070
626.374899	40489.715902
626.721647	40458.014606
627.068343	40349.712977
627.414987	40136.525102
627.761577	39898.691025
628.108115	40216.944108
628.454600	39696.727278
628.801032	39869.217919
629.147412	39835.217857
629.493739	39843.127427
629.840014	39498.884675
630.186236	39838.920584
630.532405	39461.514602
630.878521	39680.076347
631.224585	39542.072240
631.570597	39257.322665
631.916556	39433.110220
632.262462	39358.884271
632.608316	39396.582020
632.954117	39279.554154
633.299866	39273.068709
633.645562	39194.207419
633.991206	38677.985703
634.336797	38268.828013
634.682336	38263.292826
635.027823	38021.700569
635.373257	37829.420879
635.718639	37607.869730
636.063968	37455.483211
636.409245	36909.228821
636.754470	36931.689682
637.099642	36696.852571
637.444762	36224.551908
637.789829	36368.973404
638.134845	36035.662394
638.479808	35972.501778
638.824719	35878.950565
639.169577	35499.684397
639.514383	35543.986057
639.859137	35264.149086
640.203839	35497.680538
640.548489	35128.945340
640.893086	35192.264753
641.237632	34954.733146
641.582125	35067.009724
641.926566	34996.625134
642.270955	34970.685877
642.615292	34987.581304
642.959576	34962.625072
643.303809	34952.182322
643.647990	35105.829129
643.992118	35070.868727
644.336195	35076.187145
644.680219	35162.615207
645.024192	35467.388245
645.368112	35974.160318
645.711981	35992.792422
646.055797	36855.994236
646.399562	36789.975286
646.743274	37728.718790
647.086935	38170.071809
647.430544	38060.804800
647.774101	38181.026237
648.117606	38413.005013
648.461059	38710.433090
648.804460	38327.469235
649.147810	37710.139618
649.491108	37440.677342
649.834354	37100.056659
650.177548	36275.391945
650.520690	35822.653480
650.863781	35836.541859
651.206820	35678.708373
651.549807	35251.402529
651.892742	34788.460768
652.235626	34581.838996
652.578458	34462.293073
652.921238	33851.945454
653.263967	34180.676575
653.606644	33862.836867
653.949269	33813.972962
654.291843	33429.842080
654.634365	33838.049513
654.976836	33425.854528
655.319255	33436.602268
655.661622	33423.586008
656.003938	33199.325238
656.346203	33054.888619
656.688416	33282.451345
657.030577	33080.117073
657.372687	32924.973043
657.714746	33185.840152
658.056753	33314.082065
658.398708	32764.934053
658.740612	32834.751513
659.082465	33084.414657
659.424266	32921.335851
659.766016	33020.933927
660.107715	32912.173554
660.449362	33028.783004
660.790958	33021.677497
661.132503	33052.216807
661.473996	33080.981631
661.815438	33188.844680
662.156829	33385.716861
662.498168	33148.913700
662.839456	33180.461241
663.180693	33337.271372
663.521879	33498.613501
663.863013	33432.239149
664.204097	33445.991417
664.545129	33907.602313
664.886110	33868.155284
665.227040	33935.769760
665.567918	34043.985689
665.908746	34116.283397
666.249522	34277.217192
666.590248	34269.690749
666.930922	34389.496291
667.271545	34359.997979
667.612118	34431.242086
667.952639	34228.043257
668.293109	34278.447234
668.633528	34157.240251
668.973896	34081.857357
669.314213	34120.538131
669.654480	33864.497927
669.994695	33887.198242
670.334859	33775.755975
670.674973	33686.275494
671.015035	33833.078935
671.355047	33796.195333
671.695008	33723.522059
672.034918	33627.173007
672.374777	33719.968046
672.714585	33553.577202
673.054342	33784.220072
673.394049	33552.581574
673.733705	33817.562264
674.073310	33494.567975
674.412864	33560.788572
674.752368	33159.575740
675.091820	33452.232365
675.431223	33025.632283
675.770574	32762.660492
676.109875	32623.212095
676.449125	32347.423171
676.788324	32280.484209
677.127473	31731.096743
677.466571	31659.842553
677.805619	31311.576961
678.144616	31306.112350
678.483562	31236.342781
678.822458	30915.680026
679.161303	30848.562103
679.500098	30754.148853
679.838842	30641.287501
680.177535	30802.238941
680.516179	31072.291032
680.854771	31305.157051
681.193314	32181.838911
681.531805	33294.187151
681.870247	34095.813792
682.208638	34816.613092
682.546978	35036.543511
682.885268	35120.269514
683.223508	34585.859316
683.561697	34261.776138
683.899836	34074.371244
684.237925	33560.019796
684.575963	33418.970832
684.913951	32957.836325
685.251889	33105.516927
685.589776	33109.290231
685.927614	33099.679271
686.265401	33244.524224
686.603137	33354.562530
686.940824	33859.930641
687.278460	34249.158130
687.616046	34387.525200
687.953582	34991.803270
688.291068	34874.520826
688.628504	35147.295140
688.965889	35056.342642
689.303224	34681.006053
689.640510	34314.700692
689.977745	33589.034157
690.314930	32791.770635
690.652065	32259.669285
690.989150	31517.845852
691.326185	30626.239657
691.663170	29915.815051
692.000105	29157.297838
692.336990	28478.844230
692.673825	28023.302883
693.010610	27513.117949
693.347345	26944.316999
693.684030	26299.868494
694.020665	26021.685022
694.357251	25352.718865
694.693786	25305.127853
695.030272	25067.707150
695.366707	24526.914851
695.703093	24236.846859
696.039429	24238.086983
696.375716	23963.288645
696.711952	23950.612664
697.048139	23786.182828
697.384276	23609.044244
697.720363	23732.479416
698.056400	23535.110682
698.392388	23321.164112
698.728326	23275.730713
699.064214	23073.824940
699.400053	23025.346684
699.735842	22658.005365
700.071581	22376.106563
700.407270	22097.502154
700.742910	21897.753995
701.078501	21635.508130
701.414042	21347.252433
701.749533	21052.090355
702.084974	20703.439113
702.420366	20910.650701
702.755709	20476.534258
703.091002	20178.584422
703.426246	20207.770182
703.761440	20098.520817
704.096584	19824.506379
704.431679	19789.805596
704.766725	19694.288334
705.101721	19629.948087
705.436668	19732.661597
705.771565	19399.085926
706.106413	19756.276882
706.441212	19735.966073
706.775961	19866.680672
707.110661	19936.309089
707.445311	20295.839140
707.779913	20131.928543
708.114465	20383.527490
708.448967	20674.999444
708.783421	21363.527798
709.117825	21643.916775
709.452180	21860.731761
709.786485	22255.381010
710.120742	23068.231780
710.454949	23077.797369
710.789107	23548.537795
711.123216	24255.332770
711.457275	24372.605132
711.791286	24921.924543
712.125247	24979.101310
712.459159	24677.007645
712.793023	25330.520144
713.126837	24220.468150
713.460602	24474.189423
713.794318	24107.097641
714.127985	23705.579819
714.461602	22802.134474
714.795171	22762.889091
715.128691	21746.204307
715.462162	21210.642205
715.795584	20793.650562
716.128957	20521.236690
716.462281	20114.773497
716.795556	19879.313803
717.128782	19391.672909
717.461960	18845.630248
717.795088	18778.782028
718.128167	18374.325213
718.461198	17920.707067
718.794180	17769.026309
719.127113	17410.627997
719.459997	17210.519395
719.792833	16861.502671
720.125619	16829.796333
720.458357	16524.141093
720.791046	16354.629775
721.123686	16193.340578
721.456278	15955.382993
721.788821	15915.240285
722.121315	15659.149670
722.453761	15732.463170
722.786158	15656.513146
723.118506	15665.700649
723.450805	15534.766760
723.783056	15691.405492
724.115259	15600.538694
724.447412	15528.908939
724.779518	15771.837102
725.111574	15799.946576
725.443582	15990.839949
725.775542	15970.811444
726.107453	16447.588652
726.439315	16332.541959
726.771129	16732.381077
727.102895	17095.933968
727.434612	17309.976320
727.766281	17428.947550
728.097901	17687.755348
728.429473	17734.970795
728.760996	17711.473977
729.092471	17799.011092
729.423897	17656.127148
729.755276	17530.683076
730.086606	17643.922515
730.417887	18163.335281
730.749120	18686.375157
731.080305	18864.136324
731.411442	19194.652014
731.742530	19264.093908
732.073570	19354.476756
732.404562	19647.216560
732.735506	19458.107755
733.066401	19175.263737
733.397249	18650.167070
733.728048	18010.195109
734.058798	17174.623859
734.389501	16501.831467
734.720156	16042.539502
735.050762	15518.844276
735.381320	15159.999822
735.711831	14925.686991
736.042293	14578.699330
736.372707	14591.435806
736.703073	14385.315628
737.033391	14576.758486
737.363661	14542.037539
737.693883	14649.948478
738.024056	14815.873016
738.354182	15002.516696
738.684260	15290.477486
739.014290	15518.907290
739.344272	15703.373192
739.674207	15980.583721
740.004093	16098.420692
740.333931	16088.908035
740.663722	16121.897346
740.993464	16113.365193
741.323159	15939.596620
741.652806	15659.731923
741.982405	15442.775785
742.311956	15106.697181
742.641460	14985.628831
742.970915	14669.122507
743.300323	14341.628988
743.629683	14133.028563
743.958996	13859.361965
744.288260	13581.856528
744.617477	13291.909523
744.946647	13212.917163
745.275768	12944.853807
745.604842	12762.810180
745.933869	12587.478849
746.262847	12546.746326
746.591778	12474.078093
746.920662	12363.447452
747.249498	12366.114222
747.578286	12483.724341
747.907027	12631.352011
748.235720	12846.813447
748.564365	12876.808312
748.892963	12779.524126
749.221514	12845.873272
749.550017	12694.084130
749.878473	12655.957883
750.206881	12432.047473
750.535242	12344.401973
750.863555	12259.037594
751.191821	12155.416677
751.520039	12182.754854
751.848210	12086.224319
752.176334	12114.379164
752.504411	12031.245496
752.832440	11872.970909
753.160421	11935.846700
753.488356	11808.643265
753.816243	11713.342772
754.144082	11580.016856
754.471875	11520.596776
754.799620	11464.786161
755.127318	11439.217429
755.454969	11398.971377
755.782572	11356.958401
756.110129	11366.846624
756.437638	11284.917792
756.765100	11277.598037
757.092515	11276.534353
757.419882	11305.097531
757.747203	11291.219234
758.074477	11372.172603
758.401703	11333.060811
758.728882	11497.669608
759.056014	11537.212419
759.383099	11647.780046
759.710138	11752.419276
760.037129	11829.049856
760.364073	11855.382323
760.690970	11836.195692
761.017820	11840.193327
761.344623	12025.768282
761.671379	12340.699245
761.998088	12974.400010
762.324751	14532.890365
762.651366	17388.298206
762.977935	21072.499466
763.304456	23280.088791
763.630931	23755.855247
763.957359	22555.062483
764.283740	20641.190946
764.610074	18756.701774
764.936362	16637.163763
765.262602	15114.258912
765.588796	13645.123008
765.914943	12608.203033
766.241044	11773.597164
766.567097	11145.003088
766.893104	10596.263409
767.219064	10239.889120
767.544978	9856.537097
767.870845	9547.837000
768.196665	9357.982105
768.522438	9153.248244
768.848165	8995.082042
769.173846	8830.148091
769.499479	8707.932878
769.825066	8561.202534
770.150607	8366.303964
770.476101	8305.346332
770.801548	8198.972945
771.126949	8065.941936
771.452303	7970.250753
771.777611	7804.938716
772.102872	7781.658668
772.428087	7670.259250
772.753256	7544.525311
773.078378	7457.303267
773.403453	7313.327913
773.728482	7212.938376
774.053465	7146.858931
774.378401	7063.233751
774.703291	6967.648433
775.028135	6867.147989
775.352932	6838.368042
775.677683	6748.524598
776.002388	6665.355642
776.327046	6664.037380
776.651658	6582.128713
776.976224	6501.951681
777.300743	6486.374516
777.625216	6424.310350
777.949643	6377.969544
778.274024	6384.127313
778.598359	6311.650644
778.922647	6318.882179
779.246889	6276.909532
779.571086	6286.956552
779.895236	6295.566843
780.219339	6290.712212
780.543397	6286.759947
780.867409	6336.523697
781.191374	6337.990673
781.515294	6303.607483
781.839167	6353.585482
782.162995	6326.292676
782.486776	6280.128309
782.810511	6235.413275
783.134201	6161.903169
783.457844	6157.711450
783.781441	6104.002997
784.104993	6057.682355
784.428498	6033.361308
784.751958	6009.156208
785.075372	5990.166181
785.398739	5949.279903
785.722061	5972.295291
786.045337	5971.977698
786.368568	6078.030972
786.691752	6108.040961
787.014891	6353.532550
787.337983	6635.111240
787.661030	7073.651295
787.984031	7496.727611
788.306987	7762.078826
788.629897	7850.462856
788.952760	7760.657221
789.275579	7579.457987
789.598351	7280.331041
789.921078	7018.649786
790.243759	6741.547641
790.566395	6538.857969
790.888984	6339.364387
791.211529	6203.250713
791.534027	6041.520415
791.856480	5901.761987
792.178888	5842.379715
792.501249	5774.505620
792.823566	5671.903015
793.145836	5667.713817
793.468062	5646.258666
793.790241	5606.007573
794.112375	5650.785622
794.434464	5744.493110
794.756507	5772.678201
795.078505	5899.453138
795.400457	6112.204954
795.722364	6357.051276
796.044226	6552.804321
796.366042	6708.278547
796.687812	6655.227964
797.009538	6684.126378
797.331218	6589.887048
797.652852	6522.829620
797.974442	6398.691207
798.295986	6330.108829
798.617484	6199.648809
798.938938	6091.584114
799.260346	6020.902096
799.581709	5879.563266
799.903026	5835.682542
800.224299	5766.772490
800.545526	5642.492924
800.866708	5577.010856
801.187845	5533.477972
801.508936	5455.932423
801.829983	5429.171458
802.150984	5320.194314
802.471940	5293.080468
802.792851	5278.135968
803.113717	5254.629068
803.434538	5230.184512
803.755314	5194.679666
804.076045	5187.816135
804.396731	5149.629395
804.717372	5166.015665
805.037967	5167.696890
805.358518	5196.076066
805.679024	5255.622175
805.999485	5264.345892
806.319901	5286.902534
806.640272	5302.015914
806.960598	5351.303275
807.280879	5341.601574
807.601115	5378.704467
807.921306	5342.604764
808.241453	5336.207540
808.561554	5347.351010
808.881611	5311.871369
809.201623	5307.979599
809.521590	5259.826497
809.841513	5242.747068
810.161390	5260.212145
810.481223	5171.087066
810.801011	5155.890508
811.120755	5135.551973
811.440453	5073.208023
811.760107	5049.466709
812.079716	5023.721536
812.399281	4974.083815
812.718801	4967.250531
813.038276	4930.313997
813.357707	4895.918204
813.677093	4919.198252
813.996434	4856.554354
814.315731	4875.418352
814.634983	4875.937591
814.954191	4879.678127
815.273354	4937.810192
815.592473	4981.564887
815.911547	5055.725301
816.230577	5106.837560
816.549562	5200.056057
816.868502	5247.760495
817.187399	5303.684536
817.506250	5384.038007
817.825058	5409.967182
818.143821	5562.996448
818.462539	5731.509618
818.781213	5962.399506
819.099843	6332.891546
819.418429	6955.975641
819.736970	7579.289108
820.055466	8292.138509
820.373919	9202.523003
820.692327	10652.074023
821.010691	13357.699101
821.329011	19596.857953
821.647286	29223.445338
821.965517	39617.293817
822.283704	45102.202792
822.601847	46596.665453
822.919945	41971.492499
823.237999	36809.454304
823.556010	31587.393611
823.873976	26855.464142
824.191897	22633.853197
824.509775	19549.009842
824.827609	16780.224147
825.145398	15219.964347
825.463144	14457.686432
825.780845	14753.271967
826.098502	16017.772313
826.416116	18493.150251
826.733685	20799.886469
827.051210	21325.182261
827.368692	19892.294774
827.686129	17310.379612
828.003522	14823.323841
828.320872	12592.076382
828.638177	10936.831160
828.955439	9687.592908
829.272656	8631.887072
829.589830	7785.500027
829.906960	7053.320322
830.224046	6515.041037
830.541088	6105.953923
830.858086	5848.285427
831.175041	5645.646166
831.491952	5589.402012
831.808819	5624.485922
832.125642	5863.088775
832.442421	6423.488642
832.759157	7535.037860
833.075849	9310.698602
833.392497	11168.348671
833.709101	12290.259980
834.025662	12028.180474
834.342179	10975.385905
834.658653	9657.449328
834.975083	8552.080566
835.291469	7647.241341
835.607811	6904.618886
835.924110	6384.586058
836.240366	5890.331170
836.556578	5440.226708
836.872746	5085.508438
837.188871	4814.795956
837.504952	4590.570474
837.820990	4421.593518
838.136984	4310.284841
838.452935	4263.525618
838.768842	4292.348416
839.084706	4572.813010
839.400526	5318.066948
839.716303	6224.685699
840.032037	6795.097298
840.347727	6647.381408
840.663373	6038.715013
840.978977	5460.227486
841.294537	5018.849261
841.610054	4684.898024
841.925527	4446.975728
842.240957	4241.939398
842.556344	4053.916962
842.871687	3896.842170
843.186987	3746.431783
843.502244	3628.191520
843.817458	3539.285731
844.132629	3472.346769
844.447756	3417.957760
844.762840	3377.336143
845.077881	3336.838033
845.392879	3304.451140
845.707833	3278.907614
846.022745	3252.154210
846.337613	3241.177098
846.652438	3214.287583
846.967221	3208.767520
847.281960	3187.095599
847.596656	3177.961029
847.911309	3167.914009
848.225919	3152.629231
848.540485	3143.073723
848.855009	3136.041314
849.169490	3124.247534
849.483928	3117.510032
849.798323	3115.017182
850.112675	3100.659976
850.426984	3105.935543
850.741251	3094.842484
851.055474	3094.943307
851.369654	3093.022628
851.683792	3093.955241
851.997887	3095.412134
852.311938	3093.927515
852.625947	3091.321238
852.939914	3088.510795
853.253837	3091.293512
853.567718	3091.696804
853.881555	3084.588777
854.195350	3091.195209
854.509103	3087.237903
854.822812	3082.428643
855.136479	3079.081317
855.450103	3082.385793
855.763685	3077.279104
856.077224	3079.918148
856.390720	3085.841504
856.704173	3099.908844
857.017584	3106.974021
857.330953	3110.764968
857.644278	3120.635548
857.957561	3119.264354
858.270802	3117.406689
858.584000	3118.079683
858.897155	3111.773199
859.210268	3103.160388
859.523339	3090.038264
859.836367	3084.324117
860.149352	3081.150710
860.462295	3079.093919
860.775195	3069.104873
861.088054	3064.126734
861.400869	3066.420459
861.713642	3063.002556
862.026373	3076.379258
862.339062	3073.397416
862.651708	3082.955443
862.964312	3099.513113
863.276873	3104.692899
863.589392	3142.751090
863.901869	3165.335459
864.214303	3185.419416
864.526696	3202.899617
864.839045	3224.367370
865.151353	3236.519072
865.463619	3235.306674
865.775842	3238.038980
866.088023	3243.165833
866.400162	3235.268866
866.712258	3233.446488
867.024313	3239.314392
867.336325	3233.214595
867.648296	3238.613671
867.960224	3236.324987
868.272110	3236.808938
868.583954	3235.641911
868.895755	3243.188518
869.207515	3241.184660
869.519233	3262.155860
869.830909	3265.084770
870.142542	3280.263684
870.454134	3286.502112
870.765684	3300.478711
871.077191	3314.888849
871.388657	3327.869821
871.700081	3345.410515
872.011463	3363.006663
872.322803	3386.987432
872.634101	3402.405801
872.945357	3424.382711
873.256571	3451.967905
873.567744	3466.161273
873.878874	3471.913230
874.189963	3492.619769
874.501010	3490.631034
874.812015	3489.698421
875.122979	3508.869929
875.433900	3503.014629
875.744780	3505.026049
876.055618	3511.324971
876.366415	3513.485105
876.677169	3515.562061
876.987882	3531.383722
877.298554	3557.897671
877.609183	3595.139195
877.919771	3640.960763
878.230317	3708.580280
878.540822	3814.036177
878.851285	3970.175835
879.161707	4190.938044
879.472087	4573.017177
879.782425	5200.580337
880.092722	6400.117853
880.402977	8352.032458
880.713191	10750.847871
881.023363	13159.690140
881.333494	14524.244787
881.643583	14991.776518
881.953631	14578.515328
882.263637	13730.129465
882.573602	12679.396728
882.883526	11702.075793
883.193408	10739.386808
883.503248	9812.762237
883.813048	8972.235533
884.122806	8200.414715
884.432522	7423.802279
884.742197	6760.754438
885.051831	6189.884094
885.361424	5683.548081
885.670975	5291.489984
885.980485	4959.346002
886.289954	4689.745094
886.599382	4467.742761
886.908768	4291.771203
887.218113	4124.021768
887.527417	3991.905729
887.836680	3864.901419
888.145901	3763.261675
888.455082	3685.096064
888.764221	3615.709623
889.073319	3557.065880
889.382376	3526.929863
889.691392	3501.401459
890.000366	3493.239831
890.309300	3489.348061
890.618193	3491.271261
890.927044	3486.709017
891.235855	3491.510716
891.544625	3510.193232
891.853353	3536.986964
892.162041	3595.202209
892.470687	3689.101261
892.779293	3808.735404
893.087858	3986.625120
893.396381	4265.887399
893.704864	4684.955998
894.013306	5259.980252
894.321707	5842.256207
894.630068	6206.502257
894.938387	6243.524491
895.246665	6065.027316
895.554903	5740.056895
895.863100	5398.629627
896.171256	5125.532679
896.479371	4881.147623
896.787446	4654.739322
897.095480	4452.745328
897.403473	4302.783604
897.711425	4157.144669
898.019336	4034.455588
898.327207	3910.385230
898.635038	3809.778922
898.942827	3699.511244
899.250576	3613.753655
899.558284	3528.389277
899.865952	3474.411122
900.173579	3409.168509
900.481165	3361.892568
900.788711	3319.357832
901.096216	3287.069242
901.403681	3258.874068
901.711105	3249.774786
902.018489	3242.694485
902.325832	3276.717232
902.633135	3339.736697
902.940397	3507.649970
903.247619	3918.662804
903.554800	4682.246377
903.861941	5663.373383
904.169041	6375.363267
904.476101	6592.546257
904.783121	6311.353216
905.090100	5907.697945
905.397039	5481.226412
905.703938	5119.316937
906.010796	4791.082368
906.317614	4532.120816
906.624391	4291.314979
906.931129	4092.328034
907.237826	3908.530085
907.544483	3734.388467
907.851099	3563.412693
908.157675	3400.588465
908.464211	3256.575302
908.770707	3155.820281
909.077163	3075.812128
909.383578	3011.340812
909.689954	2965.793987
909.996289	2941.775409
910.302584	2920.526946
910.608839	2905.872312
910.915054	2892.669530
911.221229	2886.660474
911.527363	2892.392266
911.833458	2900.894172
912.139513	2912.871954
912.445527	2929.364088
912.751502	2961.924901
913.057436	3006.970131
913.363331	3062.584141
913.669186	3150.927841
913.975000	3270.740945
914.280775	3460.999132
914.586510	3733.672623
914.892205	4112.689254
915.197859	4615.839258
915.503475	5217.357297
915.809050	5720.908072
916.114585	6016.831364
916.420081	6079.046765
916.725536	6012.032186
917.030952	5768.489003
917.336328	5563.888732
917.641665	5350.181618
917.946961	5115.092450
918.252218	4910.164505
918.557435	4676.625491
918.862612	4477.499914
919.167750	4305.478101
919.472848	4109.732617
919.777906	3940.775826
920.082925	3780.842699
920.387904	3623.309162
920.692843	3512.335722
920.997743	3409.450813
921.302603	3316.930517
921.607423	3247.672625
921.912204	3183.360104
922.216946	3133.613998
922.521647	3082.443766
922.826310	3040.566901
923.130932	3001.563494
923.435516	2963.953966
923.740059	2933.265942
924.044564	2903.833165
924.349028	2877.709906
924.653454	2848.481296
924.957840	2822.302584
925.262186	2803.504121
925.566493	2779.815739
925.870761	2753.538725
926.174989	2743.799215
926.479178	2727.508727
926.783328	2712.687734
927.087438	2700.856146
927.391509	2689.120340
927.695541	2677.548372
927.999533	2665.880621
928.303486	2656.685556
928.607400	2651.183137
928.911275	2644.760707
929.215110	2639.175108
929.518906	2637.398102
929.822663	2635.321146
930.126381	2635.245529
930.430060	2637.945067
930.733699	2640.700057
931.037299	2643.550830
931.340861	2643.830614
931.644383	2649.403610
931.947866	2645.990748
932.251309	2638.403812
932.554714	2640.316930
932.858080	2638.058493
933.161407	2635.908441
933.464694	2631.021042
933.767943	2631.378964
934.071153	2625.382512
934.374323	2620.797582
934.677455	2616.908332
934.980548	2614.155862
935.283602	2613.379524
935.586617	2610.609410
935.889593	2614.818774
936.192530	2615.312807
936.495428	2621.195833
936.798287	2632.079684
937.101108	2646.971253
937.403890	2666.538492
937.706632	2693.707790
938.009336	2728.970661
938.312002	2756.611308
938.614628	2781.698610
938.917216	2802.400108
939.219765	2809.387147
939.522275	2818.950216
939.824747	2820.782676
940.127179	2812.520225
940.429573	2808.517548
940.731929	2808.830100
941.034246	2796.247380
941.336524	2798.987247
941.638763	2787.758077
941.940964	2781.837242
942.243126	2764.445261
942.545250	2754.115937
942.847335	2742.445666
943.149381	2731.559294
943.451389	2715.684700
943.753359	2700.364634
944.055290	2692.881041
944.357182	2683.441480
944.659036	2678.491067
944.960851	2672.479491
945.262628	2669.459840
945.564367	2670.314316
945.866067	2669.830365
946.167729	2668.617967
946.469352	2666.183090
946.770937	2664.564880
947.072484	2655.626914
947.373992	2656.758653
947.675462	2655.326965
947.976893	2647.319092
948.278286	2645.869761
948.579641	2640.533699
948.880958	2639.573360
949.182236	2638.975983
949.483476	2634.149078
949.784678	2635.497587
950.085841	2636.042031
950.386967	2638.280304
950.688054	2646.260450
950.989103	2652.040133
951.290114	2663.917092
951.591087	2673.772547
951.892021	2684.109433
952.192917	2695.530167
952.493776	2709.007692
952.794596	2711.762683
953.095378	2715.425081
953.396122	2715.959443
953.696828	2710.880481
953.997496	2702.338246
954.298126	2694.751309
954.598718	2687.968437
954.899272	2677.775223
955.199788	2662.256031
955.500266	2652.677839
955.800706	2637.211579
956.101108	2617.460338
956.401472	2607.292331
956.701798	2592.635176
957.002087	2579.303845
957.302337	2571.043914
957.602550	2557.672254
957.902724	2546.430481
958.202861	2542.362269
958.502960	2527.364837
958.803022	2521.030627
959.103045	2513.022754
959.403031	2507.492608
959.702979	2502.053203
960.002889	2500.009015
960.302762	2492.023828
960.602596	2486.730616
960.902393	2484.351192
961.202153	2482.324648
961.501875	2478.178299
961.801559	2475.841724
962.101205	2474.967084
962.400814	2474.029429
962.700385	2467.186063
962.999918	2468.320322
963.299414	2466.074488
963.598873	2466.949128
963.898293	2465.479632
964.197677	2462.182717
964.497022	2460.057871
964.796331	2463.150619
965.095601	2461.287913
965.394835	2459.006791
965.694030	2458.999229
965.993189	2458.817747
966.292309	2456.113168
966.591393	2455.220884
966.890439	2456.758436
967.189447	2456.672736
967.488419	2458.752212
967.787353	2459.755402
968.086249	2456.743312
968.385108	2455.293981
968.683930	2458.175000
968.982714	2461.948304
969.281462	2461.781946
969.580172	2460.045268
969.878844	2466.631536
970.177480	2468.879890
970.476078	2472.446507
970.774639	2473.452217
971.073162	2475.211580
971.371649	2477.827938
971.670098	2478.425315
971.968510	2479.211735
972.266885	2478.868937
972.565223	2484.996459
972.863524	2487.849752
973.161788	2485.210708
973.460014	2487.101141
973.758204	2487.209526
974.056356	2489.893940
974.354471	2491.184476
974.652550	2491.721358
974.950591	2489.049547
975.248595	2486.022334
975.546563	2486.223980
975.844493	2486.770945
976.142386	2482.687611
976.440243	2481.729792
976.738062	2481.331540
977.035845	2478.397589
977.333590	2473.074130
977.631299	2472.781743
977.928971	2470.379634
978.226606	2466.407204
978.524204	2468.101032
978.821765	2466.326546
979.119290	2466.830661
979.416777	2466.608851
979.714228	2463.531226
980.011642	2466.760085
980.309020	2473.553040
980.606360	2472.242340
980.903664	2485.787920
981.200931	2498.879797
981.498162	2515.946623
981.795356	2547.355532
982.092513	2584.158476
982.389633	2631.991464
982.686717	2674.359842
982.983764	2708.901828
983.280775	2726.210630
983.577749	2726.986967
983.874686	2717.151676
984.171587	2701.604758
984.468451	2686.120854
984.765279	2667.937412
985.062070	2646.986376
985.358824	2626.733541
985.655543	2606.694954
985.952224	2583.051943
986.248869	2553.372149
986.545478	2525.204702
986.842050	2508.757938
987.138586	2488.187510
987.435086	2473.323668
987.731549	2460.688015
988.027975	2458.190124
988.324366	2449.234514
988.620719	2445.315017
988.917037	2441.090530
989.213318	2440.475509
989.509563	2436.268666
989.805772	2437.155909
990.101944	2436.538368
990.398080	2436.271187
990.694180	2433.062492
990.990244	2437.012236
991.286271	2432.329004
991.582262	2433.312029
991.878217	2436.372010
992.174136	2434.864705
992.470019	2437.844027
992.765865	2441.105653
993.061676	2442.494491
993.357450	2442.249995
993.653188	2446.716458
993.948890	2453.083435
994.244556	2456.587037
994.540186	2464.420990
994.835780	2479.388176
995.131337	2493.372336
995.426859	2510.907990
995.722345	2532.678213
996.017795	2549.813095
996.313208	2565.344890
996.608586	2573.574573
996.903928	2580.024730
997.199234	2575.863257
997.494504	2573.685479
997.789738	2565.009653
998.084936	2554.506409
998.380099	2544.164482
998.675225	2529.842564
998.970316	2522.714372
999.265371	2505.831548
999.560390	2492.202789
999.855373	2479.854482
1000.150320	2470.296455
1000.445232	2459.289095
1000.740108	2454.502520
1001.034948	2446.003134
1001.329752	2441.950047
1001.624521	2437.765889
1001.919254	2430.216761
1002.213951	2430.647780
1002.508613	2424.789959
1002.803239	2426.617377
1003.097829	2420.956161
1003.392384	2421.946748
1003.686903	2420.053795
1003.981386	2421.987077
1004.275834	2418.410379
1004.570246	2417.815522
1004.864623	2417.006417
1005.158964	2416.739236
1005.453270	2413.868299
1005.747540	2415.882240
1006.041775	2416.247724
1006.335974	2415.761252
1006.630138	2415.247055
1006.924266	2414.783268
1007.218359	2411.677918
1007.512416	2410.861251
1007.806438	2412.048443
1008.100425	2411.864440
1008.394376	2414.266550
1008.688292	2412.872671
1008.982172	2411.153638
1009.276017	2411.360325
1009.569827	2410.803278
1009.863602	2413.084400
1010.157341	2411.052815
1010.451045	2412.229924
1010.744714	2410.324368
1011.038347	2408.315468
1011.331945	2412.398803
1011.625508	2409.255643
1011.919036	2408.658267
1012.212528	2408.204563
1012.505986	2409.759759
1012.799408	2409.694224
1013.092795	2410.105078
1013.386147	2409.336302
1013.679464	2409.565674
1013.972745	2407.140879
1014.265992	2409.790006
1014.559204	2410.296642
1014.852380	2405.807494
1015.145521	2408.554923
1015.438628	2407.513925
1015.731699	2409.295972
1016.024736	2409.033832
1016.317737	2408.421332
1016.610703	2408.965777
1016.903635	2406.369583
1017.196531	2406.402350
1017.489393	2407.861764
1017.782219	2401.598131
1018.075011	2411.067938
1018.367768	2408.764131
1018.660490	2409.570715
1018.953177	2409.570715
1019.245829	2409.570715
