Dividing Wavelength (nm)	Counts (n)	Blue Motor Position (mm): 49.600000	Red Motor Position (mm): 0.000000	
326.493990	1977.039715
326.888308	1977.039715
327.282561	1977.039715
327.676750	1953.167331
328.070874	1953.255552
328.464933	1957.686726
328.858929	1967.499332
329.252859	1978.557103
329.646726	1994.131747
330.040528	2010.026506
330.434265	2031.862263
330.827938	2049.697866
331.221547	2067.581359
331.615091	2089.792683
332.008571	2108.036619
332.401986	2130.910854
332.795338	2154.624442
333.188625	2171.542554
333.581847	2189.108455
333.975006	2210.251054
334.368100	2227.411142
334.761129	2243.454614
335.154095	2258.189907
335.546996	2296.900927
335.939833	2383.528115
336.332606	2398.578479
336.725315	2410.957033
337.117960	2420.666295
337.510540	2426.065371
337.903056	2440.876281
338.295508	2444.962136
338.687896	2454.472273
339.080220	2458.081739
339.472480	2466.059365
339.864676	2468.199335
340.256807	2470.757720
340.648875	2472.315437
341.040879	2477.764924
341.432818	2475.723257
341.824694	2475.143524
342.216506	2474.578915
342.608253	2478.495891
342.999937	2473.404326
343.391557	2474.276446
343.783113	2472.890128
344.174605	2470.157823
344.566033	2469.741928
344.957397	2467.249077
345.348697	2464.484004
345.739934	2465.517441
346.131106	2463.216154
346.522215	2460.320011
346.913260	2458.729527
347.304241	2458.742130
347.695159	2455.263734
348.086012	2457.915381
348.476802	2452.677622
348.867528	2455.251131
349.258191	2448.679987
349.648789	2452.917077
350.039324	2448.604370
350.429796	2448.891715
350.820203	2447.071859
351.210548	2448.377518
351.600828	2447.994390
351.991045	2448.075048
352.381198	2445.246961
352.771288	2447.308793
353.161314	2446.923145
353.551276	2447.717127
353.941175	2444.347115
354.331010	2447.056735
354.720782	2450.953547
355.110490	2449.607559
355.500135	2450.053701
355.889717	2448.299380
356.279235	2451.276181
356.668689	2448.919442
357.058080	2448.800975
357.447408	2447.029009
357.836672	2449.864658
358.225873	2450.446911
358.615010	2448.284256
359.004084	2453.700976
359.393095	2455.911522
359.782043	2456.357664
360.170927	2454.462190
360.559748	2459.457974
360.948505	2457.164249
361.337199	2460.743468
361.725830	2460.337655
362.114398	2464.156329
362.502903	2462.475104
362.891344	2462.394446
363.279722	2460.708180
363.668037	2464.279838
364.056289	2464.395784
364.444478	2465.731690
364.832603	2465.633387
365.220665	2467.049952
365.608665	2469.673872
365.996601	2467.642287
366.384474	2469.920889
366.772284	2467.354941
367.160031	2471.733183
367.547715	2473.210242
367.935336	2474.445324
368.322893	2472.512042
368.710388	2472.232258
369.097820	2477.230562
369.485189	2476.451703
369.872495	2479.693165
370.259738	2479.841879
370.646918	2482.712817
371.034035	2483.426140
371.421090	2488.121975
371.808081	2488.616008
372.195010	2491.207161
372.581875	2498.380723
372.968678	2500.288799
373.355418	2505.944974
373.742096	2515.376973
374.128710	2522.391738
374.515262	2535.365148
374.901751	2544.333361
375.288177	2558.632593
375.674540	2572.664645
376.060841	2593.277923
376.447079	2612.187291
376.833254	2635.885756
377.219367	2657.131698
377.605417	2686.241841
377.991404	2708.453165
378.377329	2747.751480
378.763191	2777.716098
379.148991	2820.369301
379.534727	2867.819162
379.920402	2909.181829
380.306013	2953.349898
380.691563	3014.229393
381.077049	3064.784604
381.462474	3115.480968
381.847835	3187.423274
382.233134	3255.776279
382.618371	3308.839465
383.003545	3392.142012
383.388657	3468.581027
383.773706	3555.969429
384.158693	3627.538690
384.543618	3718.455900
384.928480	3794.458856
385.313280	3893.434350
385.698017	3997.123323
386.082692	4114.685551
386.467305	4174.897093
386.851856	4297.346720
387.236344	4449.632416
387.620770	4512.036859
388.005133	4632.369201
388.389435	4773.985295
388.773674	4862.702041
389.157851	4995.889326
389.541965	5123.196104
389.926018	5152.485208
390.310008	5330.324513
390.693936	5451.254232
391.077802	5568.624897
391.461606	5700.947623
391.845348	5815.039017
392.229027	5933.405309
392.612645	6157.078785
392.996200	6278.958762
393.379694	6452.281193
393.763125	6672.743453
394.146494	6777.808661
394.529801	6912.931749
394.913047	7153.765312
395.296230	7158.405694
395.679351	7220.921043
396.062410	7476.890671
396.445408	7380.473562
396.828343	7533.510390
397.211217	7673.732605
397.594028	7561.128351
397.976778	7764.894310
398.359466	7935.837317
398.742092	7910.255982
399.124656	8059.801810
399.507158	8249.835666
399.889598	8268.119931
400.271977	8480.854103
400.654294	8514.692848
401.036549	8716.530566
401.418742	8740.869257
401.800874	9040.160040
402.182944	9126.746898
402.564952	9492.142332
402.946898	9310.249940
403.328783	9367.149443
403.710606	9564.001460
404.092367	9818.357918
404.474067	10171.039562
404.855705	9966.083890
405.237282	9917.424153
405.618797	10347.134627
406.000250	10585.742521
406.381642	10948.352717
406.762972	10897.532845
407.144240	10701.721827
407.525447	10952.551998
407.906593	10891.327185
408.287677	11149.628346
408.668700	11296.459514
409.049661	11272.267017
409.430560	11436.724578
409.811399	11399.997252
410.192176	11564.989176
410.572891	11641.569344
410.953545	12117.214813
411.334138	11601.338416
411.714669	12185.058661
412.095139	11512.218378
412.475547	12003.299859
412.855894	11854.447189
413.236180	12173.096003
413.616405	11864.312727
413.996568	12132.492029
414.376670	12105.554624
414.756711	11979.886220
415.136691	12263.176381
415.516609	12431.613934
415.896466	12495.724808
416.276262	12787.496710
416.655997	13227.312178
417.035670	13270.358590
417.415283	13904.082040
417.794834	13994.512779
418.174324	13746.185540
418.553753	13643.799706
418.933121	14124.030103
419.312428	13944.181899
419.691674	13839.265405
420.070859	14304.543740
420.449983	13953.472745
420.829045	14503.656714
421.208047	14258.155042
421.586988	14699.603844
421.965867	14942.037973
422.344686	14941.284321
422.723444	15502.077398
423.102141	14205.003637
423.480777	15375.007554
423.859352	14882.990938
424.237866	15975.318236
424.616319	15686.558423
424.994712	16332.917525
425.373044	16122.698889
425.751314	16787.087678
426.129524	15922.900318
426.507673	16991.226682
426.885762	16702.353444
427.263789	16887.149541
427.641756	17068.021100
428.019662	17117.323584
428.397508	17163.445101
428.775292	17445.255683
429.153016	17406.118685
429.530679	17489.910224
429.908282	17505.230290
430.285824	17236.352788
430.663305	17925.115556
431.040726	17536.583747
431.418086	17369.106534
431.795385	18009.544801
432.172624	18425.147606
432.549802	17980.749730
432.926920	18164.802257
433.303977	18044.961427
433.680974	18306.680491
434.057910	18593.670858
434.434786	18620.308315
434.811601	18531.868833
435.188355	19551.109482
435.565050	19209.122646
435.941683	19154.920160
436.318257	20016.796151
436.694770	19839.526497
437.071222	20423.503840
437.447614	19514.394759
437.823946	19531.456544
438.200218	19676.263688
438.576429	19465.437593
438.952580	19739.275591
439.328670	19689.685760
439.704700	20105.044070
440.080670	19678.209573
440.456580	20267.893503
440.832429	20437.639236
441.208218	19451.513926
441.583947	19889.043230
441.959616	19985.246090
442.335224	20215.296625
442.710773	20349.494661
443.086261	20869.832478
443.461689	20246.904659
443.837057	20376.941223
444.212365	21006.639312
444.587612	21000.428610
444.962800	20592.652196
445.337927	21004.978251
445.712995	19753.610112
446.088002	21579.359759
446.462949	21764.385228
446.837837	21935.242535
447.212664	21877.203731
447.587431	24654.193903
447.962139	27533.441361
448.336786	29919.653890
448.711374	28411.315453
449.085901	24794.153978
449.460369	24707.587284
449.834776	24611.969199
450.209124	27047.106126
450.583412	26611.673942
450.957640	27145.506928
451.331808	25815.310266
451.705917	24459.229799
452.079965	24485.879859
452.453954	24839.942778
452.827883	24730.723660
453.201752	24543.674167
453.575562	24694.140006
453.949311	25791.248838
454.323001	25848.750760
454.696632	25614.095131
455.070202	27146.323595
455.443713	27288.348023
455.817164	27865.852525
456.190556	28392.501867
456.563888	27843.759668
456.937160	28278.695298
457.310373	26639.251574
457.683526	27071.089415
458.056619	27043.647894
458.429653	26988.008679
458.802628	27550.719916
459.175542	27662.494899
459.548398	28958.424318
459.921194	30514.484838
460.293930	31168.627482
460.666607	33175.772968
461.039224	34934.865958
461.411782	35325.520093
461.784280	34135.364164
462.156719	33628.516474
462.529099	33073.283789
462.901419	31798.620478
463.273680	30734.561450
463.645882	30826.958238
464.018024	30804.313375
464.390106	31613.675667
464.762130	34284.597441
465.134094	38284.087586
465.505999	43569.394595
465.877845	48148.325045
466.249631	49327.695426
466.621358	47584.545084
466.993026	45472.906561
467.364634	43366.566291
467.736184	41416.884917
468.107674	40181.172081
468.479105	39409.063917
468.850477	38701.905978
469.221790	37293.024466
469.593043	35579.826140
469.964238	34701.813416
470.335373	34601.829691
470.706449	36268.939268
471.077467	38766.752861
471.448425	43315.222139
471.819324	46194.101592
472.190164	44411.234520
472.560945	40868.682122
472.931667	37790.200702
473.302330	36690.483073
473.672934	35861.475406
474.043479	36353.439089
474.413965	35573.292805
474.784393	35191.531265
475.154761	36092.708091
475.525070	36115.269775
475.895321	35658.571484
476.265513	36258.005005
476.635645	37209.764769
477.005719	37043.724285
477.375734	37487.517223
477.745691	38170.107098
478.115588	39492.356381
478.485427	41435.325458
478.855207	44741.614099
479.224928	47360.778347
479.594591	49020.159835
479.964194	48007.560906
480.333739	48129.496336
480.703226	48140.052512
481.072653	48808.118822
481.442022	49294.819541
481.811333	49572.498898
482.180584	48276.934962
482.549777	47756.030015
482.918912	47232.773369
483.287988	46949.019422
483.657005	46130.905687
484.025964	45470.610316
484.394864	45494.470097
484.763706	45065.188120
485.132489	44189.126323
485.501213	44037.755596
485.869879	44190.409296
486.238487	43775.038384
486.607036	43981.249303
486.975527	43446.599649
487.343959	43648.938962
487.712333	43719.099220
488.080648	43642.710616
488.448905	44075.627264
488.817104	43901.505811
489.185244	44841.852402
489.553326	46470.681977
489.921350	49199.047700
490.289315	52116.378554
490.657222	52763.642544
491.025070	53060.634561
491.392861	52163.520905
491.760593	50890.001935
492.128267	49188.783911
492.495883	47664.417126
492.863440	46276.070754
493.230939	44933.581237
493.598380	43865.769071
493.965763	43530.693657
494.333088	42720.660892
494.700354	42248.483738
495.067563	41969.201294
495.434713	41851.820548
495.801805	41900.926427
496.168839	41537.681046
496.535815	41217.855122
496.902733	41251.194793
497.269593	40847.544564
497.636395	40781.364296
498.003139	41185.223733
498.369825	40642.624180
498.736453	40946.598196
499.103023	40473.995064
499.469535	40358.361077
499.835989	40462.503753
500.202385	40122.566147
500.568723	40144.452316
500.935003	40329.039205
501.301226	40142.209003
501.667390	40756.748342
502.033497	41002.486948
502.399546	40450.425149
502.765537	39767.124471
503.131470	40134.949741
503.497345	40495.732519
503.863163	39175.850057
504.228923	39795.707814
504.594625	40180.007574
504.960269	39469.393925
505.325856	40156.251137
505.691385	39538.215758
506.056856	39672.582672
506.422270	40104.216347
506.787625	39696.223163
507.152924	39882.007326
507.518164	39990.230817
507.883347	39208.796518
508.248472	39464.904778
508.613540	39955.078851
508.978550	40219.999048
509.343503	39983.057255
509.708398	40187.839007
510.073236	40697.658457
510.438016	40697.986132
510.802738	40159.590901
511.167403	40786.977621
511.532010	41003.427123
511.896561	41307.479276
512.261053	42132.958136
512.625488	41685.646473
512.989866	41559.395816
513.354186	41412.181521
513.718449	41400.896898
514.082655	42076.761873
514.446803	41751.592327
514.810894	42267.486368
515.174927	42205.961605
515.538904	42089.359717
515.902822	42755.631377
516.266684	42203.307438
516.630488	42623.026345
516.994235	42482.088287
517.357925	43050.720358
517.721558	43227.616967
518.085133	43530.161815
518.448651	43645.747911
518.812112	43431.912247
519.175516	43524.243501
519.538863	43873.597983
519.902152	43840.331409
520.265385	44295.955934
520.628560	44334.452706
520.991678	44118.459428
521.354739	44351.877454
521.717743	44679.872567
522.080690	44564.639352
522.443580	45122.082583
522.806413	45172.529409
523.169189	45112.842148
523.531908	45305.883052
523.894569	45155.490309
524.257174	45325.147821
524.619722	45622.134797
524.982213	45611.008971
525.344647	45526.872113
525.707025	45571.773670
526.069345	45962.959647
526.431608	45883.563995
526.793815	46207.193469
527.155964	45750.532986
527.518057	45908.462253
527.880093	45690.568461
528.242072	46215.385344
528.603995	45905.974444
528.965860	45924.762824
529.327669	46009.693664
529.689421	45913.014415
530.051117	45865.816613
530.412755	46015.493511
530.774337	46081.041114
531.135862	45881.287914
531.497331	46090.508401
531.858743	45999.318969
532.220098	46336.468818
532.581396	46034.586882
532.942638	45699.077928
533.303824	45998.005749
533.664953	45963.824205
534.026025	45673.451223
534.387040	46141.817265
534.747999	46096.025944
535.108902	46270.848118
535.469748	45777.382171
535.830537	45911.237409
536.191270	46086.135200
536.551947	45754.190343
536.912567	46063.949082
537.273131	46186.630602
537.633638	45668.475604
537.994089	45999.818043
538.354483	45601.095542
538.714821	46170.798858
539.075103	46521.335491
539.435328	46292.383928
539.795497	46158.750501
540.155609	46165.263672
540.515665	46625.309289
540.875665	46078.666731
541.235609	46403.322080
541.595496	46360.623507
541.955328	47031.820374
542.315102	46403.349806
542.674821	46201.562500
543.034483	46240.235712
543.394090	46197.733743
543.753640	46165.566141
544.113134	47162.978594
544.472571	46176.906216
544.831953	47416.024352
545.191278	46650.263001
545.550548	46360.477313
545.909761	46807.610015
546.268918	47017.828651
546.628019	47323.516659
546.987064	46883.118938
547.346053	46160.610687
547.704986	47032.160652
548.063863	46605.689118
548.422684	46791.080072
548.781449	46658.873292
549.140158	47055.234013
549.498811	46903.616270
549.857408	46344.121289
550.215949	47162.199736
550.574434	47089.501256
550.932864	46874.072588
551.291237	47575.387828
551.649555	47192.728963
552.007817	47425.174047
552.366022	47088.326667
552.724173	47262.793440
553.082267	47659.280190
553.440305	47974.228797
553.798288	47280.480328
554.156215	47590.135724
554.514086	47789.878842
554.871902	47538.804175
555.229661	47548.445382
555.587365	47385.689209
555.945014	47459.741238
556.302606	47396.028616
556.660143	47630.404461
557.017625	47714.879076
557.375050	47508.738733
557.732421	47869.236686
558.089735	47827.949636
558.446994	47771.670194
558.804197	48230.700020
559.161345	48181.463070
559.518437	47421.831762
559.875474	47730.514214
560.232455	47877.809168
560.589381	48060.855985
560.946251	47759.740304
561.303065	48446.627762
561.659825	48250.247094
562.016528	47924.787681
562.373177	47639.791089
562.729770	48119.194738
563.086307	47640.955596
563.442789	48093.061396
563.799216	48152.983071
564.155587	47936.541131
564.511904	47973.049167
564.868164	48051.819717
565.224370	48303.322882
565.580520	48026.394657
565.936615	48238.148324
566.292654	47965.565574
566.648638	48210.421978
567.004567	48145.759098
567.360441	48191.482363
567.716260	48047.048264
568.072023	48334.381431
568.427732	48317.753185
568.783385	47889.018174
569.138982	48286.092218
569.494525	48254.272455
569.850013	47998.111263
570.205445	47968.227303
570.560823	47941.703272
570.916145	47817.864808
571.271412	47852.895786
571.626625	47606.048126
571.981782	47644.199578
572.336884	47340.555759
572.691931	47653.561001
573.046923	47266.884336
573.401860	47111.120244
573.756743	47087.444465
574.111570	47218.406080
574.466342	47067.766321
574.821059	47183.143209
575.175722	46703.313583
575.530330	46723.929382
575.884882	46439.691484
576.239380	46417.296158
576.593823	46401.895433
576.948211	46305.463201
577.302544	45826.495613
577.656823	45840.091604
578.011047	46069.033086
578.365216	45797.498896
578.719330	45612.027284
579.073389	45462.688142
579.427394	45534.237239
579.781344	45518.713006
580.135239	45167.415159
580.489080	45252.744249
580.842866	44727.844187
581.196597	45193.316607
581.550273	45126.624662
581.903895	44991.030227
582.257463	45410.345842
582.610975	44805.828317
582.964434	45064.101752
583.317837	44716.587291
583.671186	44566.302933
584.024481	44797.434796
584.377721	44334.850957
584.730906	44605.790291
585.084037	44639.308923
585.437113	44345.414695
585.790135	44390.888423
586.143103	43984.238707
586.496016	44119.838184
586.848874	44141.971370
587.201679	44139.145803
587.554428	43642.733301
587.907124	43825.621322
588.259765	43586.446298
588.612352	43821.285929
588.964884	43217.746388
589.317362	43518.204198
589.669786	43465.864419
590.022155	43212.667426
590.374470	43636.023526
590.726731	43167.980117
591.078937	42696.571739
591.431090	42785.981643
591.783188	42444.907257
592.135232	42124.138637
592.487222	42369.037891
592.839157	42457.626088
593.191038	42138.463076
593.542866	41892.832855
593.894639	41292.073510
594.246358	41561.167782
594.598022	41562.826321
594.949633	41170.243945
595.301190	41114.718156
595.652692	40951.951901
596.004141	41267.039140
596.355535	40317.878091
596.706876	40248.302606
597.058162	40090.859810
597.409395	40546.005426
597.760573	40638.634107
598.111698	40202.155884
598.462768	40213.170805
598.813785	40265.467735
599.164748	39715.644208
599.515657	40107.667017
599.866511	39577.282179
600.217312	40206.045134
600.568060	39149.651181
600.918753	39899.086756
601.269392	39851.523469
601.619978	39495.350826
601.970510	39723.130322
602.320988	39906.346017
602.671412	40212.830527
603.021783	39953.332092
603.372100	39598.881003
603.722363	39714.557840
604.072572	39791.047267
604.422728	39803.272065
604.772830	39604.844688
605.122878	39706.794463
605.472872	39634.252259
605.822813	39921.953429
606.172701	39744.938353
606.522534	39993.762145
606.872314	40236.917160
607.222041	39996.048309
607.571714	40398.100493
607.921333	39843.750010
608.270899	40129.984205
608.620411	40462.208846
608.969870	40270.892016
609.319276	40250.732442
609.668627	40297.486623
610.017926	40781.386981
610.367171	40939.147370
610.716362	41023.667356
611.065500	40976.494758
611.414585	41157.336070
611.763616	41440.795110
612.112594	41373.256251
612.461518	41597.844696
612.810389	41881.961607
613.159207	41745.522778
613.507971	41823.393481
613.856682	42298.655822
614.205340	42170.366018
614.553945	42875.318451
614.902496	42322.069461
615.250994	42796.868015
615.599439	42865.765465
615.947830	43060.626226
616.296169	43114.070018
616.644454	43236.963267
616.992686	43415.447839
617.340864	43929.741313
617.688990	43643.242458
618.037063	44237.218930
618.385082	44214.324530
618.733048	44535.443510
619.080961	44520.020099
619.428821	44547.706116
619.776628	44653.020861
620.124382	44482.337474
620.472083	44612.447135
620.819731	44746.650212
621.167326	44408.121608
621.514868	44376.896701
621.862357	43934.512765
622.209793	43963.748937
622.557176	43632.908092
622.904506	43366.120149
623.251783	43056.303436
623.599007	42820.087570
623.946179	42600.041204
624.293297	42542.803944
624.640363	41945.459980
624.987376	41929.673607
625.334336	41697.024357
625.681243	41347.959741
626.028097	41306.130767
626.374899	41157.696513
626.721647	41115.950718
627.068343	41004.730261
627.414987	40786.884359
627.761577	40535.096369
628.108115	40873.955169
628.454600	40336.847953
628.801032	40515.546774
629.147412	40466.705555
629.493739	40471.847532
629.840014	40113.025763
630.186236	40469.415175
630.532405	40073.843395
630.878521	40290.108895
631.224585	40170.147077
631.570597	39867.980316
631.916556	40041.953056
632.262462	39984.559519
632.608316	40003.496613
632.954117	39889.279191
633.299866	39882.587059
633.645562	39803.259462
633.991206	39292.280547
634.336797	38871.117348
634.682336	38865.199034
635.027823	38615.374573
635.373257	38439.213972
635.718639	38201.916778
636.063968	38061.253463
636.409245	37480.963723
636.754470	37536.466827
637.099642	37277.217928
637.444762	36796.047355
637.789829	36948.554862
638.134845	36602.023426
638.479808	36556.222023
638.824719	36458.809287
639.169577	36059.194501
639.514383	36120.784798
639.859137	35812.203168
640.203839	36055.083440
640.548489	35687.147264
640.893086	35751.409373
641.237632	35504.067680
641.582125	35614.078260
641.926566	35546.393208
642.270955	35510.142271
642.615292	35532.930807
642.959576	35503.568606
643.303809	35489.528992
643.647990	35646.596223
643.992118	35603.282629
644.336195	35599.269871
644.680219	35686.454106
645.024192	35976.663250
645.368112	36480.866855
645.711981	36506.244024
646.055797	37361.556432
646.399562	37281.709596
646.743274	38233.050944
647.086935	38679.429994
647.430544	38576.015764
647.774101	38686.981643
648.117606	38949.368659
648.461059	39252.115153
648.804460	38868.634580
649.147810	38263.423896
649.491108	38002.156016
649.834354	37637.194122
650.177548	36821.681623
650.520690	36356.942691
650.863781	36375.690742
651.206820	36224.504018
651.549807	35795.479140
651.892742	35293.677645
652.235626	35111.966734
652.578458	34967.512471
652.921238	34375.290320
653.263967	34698.370308
653.606644	34353.847772
653.949269	34317.438038
654.291843	33918.143365
654.634365	34316.500383
654.976836	33919.005403
655.319255	33912.991306
655.661622	33913.107253
656.003938	33686.330947
656.346203	33542.416087
656.688416	33757.784262
657.030577	33551.898497
657.372687	33398.433171
657.714746	33659.499406
658.056753	33793.614263
658.398708	33249.847682
658.740612	33282.990748
659.082465	33565.620518
659.424266	33390.289187
659.766016	33498.386649
660.107715	33372.002402
660.449362	33506.492825
660.790958	33476.497959
661.132503	33509.850233
661.473996	33524.368756
661.815438	33646.170595
662.156829	33837.744523
662.498168	33617.988024
662.839456	33644.257477
663.180693	33781.512973
663.521879	33948.612099
663.863013	33887.493150
664.204097	33893.477000
664.545129	34355.523955
664.886110	34305.412366
665.227040	34373.311667
665.567918	34488.033205
665.908746	34565.283846
666.249522	34724.213783
666.590248	34720.627002
666.930922	34835.477090
667.271545	34797.166841
667.612118	34898.907408
667.952639	34654.358514
668.293109	34714.711208
668.633528	34609.746823
668.973896	34562.054987
669.314213	34573.435392
669.654480	34324.417516
669.994695	34345.698747
670.334859	34226.422526
670.674973	34141.146367
671.015035	34297.096982
671.355047	34258.879995
671.695008	34173.513096
672.034918	34078.653704
672.374777	34166.195861
672.714585	33985.702389
673.054342	34219.430446
673.394049	33987.212214
673.733705	34268.344761
674.073310	33935.903350
674.412864	33996.893750
674.752368	33604.127372
675.091820	33893.613111
675.431223	33479.280676
675.770574	33209.783112
676.109875	33049.008113
676.449125	32778.968625
676.788324	32708.042111
677.127473	32172.366583
677.466571	32088.194437
677.805619	31735.041445
678.144616	31731.628584
678.483562	31661.223830
678.822458	31316.320686
679.161303	31254.425399
679.500098	31160.541471
679.838842	31041.043439
680.177535	31194.072706
680.516179	31454.680195
680.854771	31693.086442
681.193314	32550.049829
681.531805	33675.807538
681.870247	34444.754899
682.208638	35187.788208
682.546978	35417.921923
682.885268	35512.486407
683.223508	34981.710880
683.561697	34660.473434
683.899836	34480.529447
684.237925	33960.988132
684.575963	33803.008453
684.913951	33347.842672
685.251889	33503.369830
685.589776	33471.209789
685.927614	33455.814105
686.265401	33608.775316
686.603137	33689.922769
686.940824	34202.439237
687.278460	34567.302828
687.616046	34716.309254
687.953582	35324.632850
688.291068	35198.334302
688.628504	35493.844220
688.965889	35431.845590
689.303224	35051.334256
689.640510	34704.588571
689.977745	33983.932944
690.314930	33189.999104
690.652065	32666.298837
690.989150	31933.012598
691.326185	31032.861647
691.663170	30327.878967
692.000105	29560.509487
692.336990	28885.080571
692.673825	28420.797864
693.010610	27892.437050
693.347345	27306.528944
693.684030	26657.898802
694.020665	26364.788473
694.357251	25693.505907
694.693786	25633.231351
695.030272	25398.515227
695.366707	24844.966288
695.703093	24553.690940
696.039429	24537.622262
696.375716	24283.124651
696.711952	24243.261727
697.048139	24082.073353
697.384276	23904.896960
697.720363	24021.350135
698.056400	23824.775382
698.392388	23612.973823
698.728326	23572.211053
699.064214	23361.614331
699.400053	23303.777173
699.735842	22957.775058
700.071581	22673.201923
700.407270	22375.912478
700.742910	22196.709541
701.078501	21915.587076
701.414042	21638.721866
701.749533	21340.822441
702.084974	20989.713638
702.420366	21189.290398
702.755709	20741.320864
703.091002	20447.487130
703.426246	20467.145109
703.761440	20369.739935
704.096584	20091.064950
704.431679	20038.561333
704.766725	19945.753690
705.101721	19872.924141
705.436668	19972.771754
705.771565	19635.939498
706.106413	19982.259206
706.441212	19967.279417
706.775961	20100.418811
707.110661	20166.299130
707.445311	20518.950527
707.779913	20357.600836
708.114465	20593.458781
708.448967	20868.552025
708.783421	21567.994478
709.117825	21839.321980
709.452180	22063.229870
709.786485	22462.602680
710.120742	23256.549123
710.454949	23270.787862
710.789107	23747.993567
711.123216	24450.576658
711.457275	24578.722789
711.791286	25135.959332
712.125247	25192.158115
712.459159	24898.243723
712.793023	25586.232673
713.126837	24478.718900
713.460602	24749.602781
713.794318	24385.182811
714.127985	23987.874352
714.461602	23085.976641
714.795171	23059.051839
715.128691	22029.779293
715.462162	21488.918938
715.795584	21072.907799
716.128957	20806.649177
716.462281	20389.181144
716.795556	20155.939559
717.128782	19636.463778
717.461960	19107.024157
717.795088	19031.626140
718.128167	18620.910733
718.461198	18156.083581
718.794180	18014.686777
719.127113	17651.171694
719.459997	17443.670240
719.792833	17089.221672
720.125619	17050.777833
720.458357	16727.344964
720.791046	16565.788586
721.123686	16402.558545
721.456278	16156.588046
721.788821	16112.828310
722.121315	15853.773496
722.453761	15930.313335
722.786158	15842.541805
723.118506	15849.428022
723.450805	15713.039604
723.783056	15875.183277
724.115259	15778.849347
724.447412	15700.353541
724.779518	15937.940601
725.111574	15964.678881
725.443582	16160.283212
725.775542	16136.705735
726.107453	16613.553519
726.439315	16494.466341
726.771129	16887.479736
727.102895	17257.008916
727.434612	17471.542780
727.766281	17595.131708
728.097901	17870.194705
728.429473	17905.087052
728.760996	17895.574394
729.092471	17977.190675
729.423897	17858.847068
729.755276	17714.269296
730.086606	17827.632243
730.417887	18354.805866
730.749120	18868.469196
731.080305	19053.842505
731.411442	19387.398011
731.742530	19450.150294
732.073570	19553.400687
732.404562	19856.739516
732.735506	19688.669968
733.066401	19399.380834
733.397249	18878.150732
733.728048	18236.898318
734.058798	17399.729023
734.389501	16718.152420
734.720156	16253.073210
735.050762	15714.047835
735.381320	15355.067270
735.711831	15119.726043
736.042293	14740.026336
736.372707	14757.657771
736.703073	14546.725812
737.033391	14726.384973
737.363661	14685.196226
737.693883	14785.502585
738.024056	14949.120794
738.354182	15134.179032
738.684260	15425.136787
739.014290	15638.448171
739.344272	15827.972871
739.674207	16112.258660
740.004093	16234.892289
740.333931	16230.899695
740.663722	16267.909326
740.993464	16265.892864
741.323159	16102.839264
741.652806	15822.478013
741.982405	15614.046466
742.311956	15287.959430
742.641460	15162.588454
742.970915	14856.219891
743.300323	14515.402603
743.629683	14298.630467
743.958996	14031.776988
744.288260	13760.005863
744.617477	13452.354327
744.946647	13379.174417
745.275768	13111.942851
745.604842	12922.576948
745.933869	12743.978950
746.262847	12688.624560
746.591778	12621.199127
746.920662	12509.570337
747.249498	12502.127073
747.578286	12623.621402
747.907027	12771.052467
748.235720	12984.497441
748.564365	13019.178059
748.892963	12916.338520
749.221514	12979.751195
749.550017	12830.827948
749.878473	12795.635653
750.206881	12565.988410
750.535242	12477.647230
750.863555	12387.944939
751.191821	12289.115638
751.520039	12307.281436
751.848210	12214.052858
752.176334	12245.769277
752.504411	12151.371151
752.832440	11997.212666
753.160421	12057.658621
753.488356	11930.518201
753.816243	11839.122081
754.144082	11700.019003
754.471875	11641.259313
754.799620	11581.730848
755.127318	11557.220758
755.454969	11513.735765
755.782572	11470.265896
756.110129	11479.357617
756.437638	11401.605380
756.765100	11389.284800
757.092515	11390.560212
757.419882	11404.824157
757.747203	11405.708879
758.074477	11479.511372
758.401703	11430.869278
758.728882	11599.301790
759.056014	11634.259671
759.383099	11754.113104
759.710138	11850.575583
760.037129	11935.425764
760.364073	11955.902931
760.690970	11942.150663
761.017820	11940.134202
761.344623	12129.827780
761.671379	12455.766102
761.998088	13080.196185
762.324751	14624.934273
762.651366	17487.815624
762.977935	21156.724544
763.304456	23403.448346
763.630931	23925.875722
763.957359	22769.631635
764.283740	20862.580779
764.610074	18979.765270
764.936362	16844.022470
765.262602	15314.203677
765.588796	13832.873222
765.914943	12793.528451
766.241044	11924.909917
766.567097	11288.958277
766.893104	10729.906918
767.219064	10365.592812
767.544978	9979.284152
767.870845	9657.068721
768.196665	9467.735586
768.522438	9270.812993
768.848165	9101.256304
769.173846	8936.397970
769.499479	8808.047673
769.825066	8654.940269
770.150607	8464.177966
770.476101	8406.305520
770.801548	8292.816544
771.126949	8152.433012
771.452303	8067.948315
771.777611	7901.330619
772.102872	7879.005869
772.428087	7760.440451
772.753256	7635.780278
773.078378	7544.386679
773.403453	7398.084833
773.728482	7288.759850
774.053465	7230.133752
774.378401	7146.014538
774.703291	7046.577778
775.028135	6948.877696
775.352932	6913.924856
775.677683	6826.536454
776.002388	6737.038329
776.327046	6735.939358
776.651658	6648.664382
776.976224	6575.245017
777.300743	6553.167284
777.625216	6491.713098
777.949643	6447.991171
778.274024	6450.962931
778.598359	6379.418875
778.922647	6382.080605
779.246889	6339.901270
779.571086	6344.455953
779.895236	6361.474888
780.219339	6353.872828
780.543397	6347.773032
780.867409	6397.851854
781.191374	6396.223562
781.515294	6365.966556
781.839167	6417.363640
782.162995	6389.924640
782.486776	6342.129460
782.810511	6298.266381
783.134201	6222.860802
783.457844	6212.347475
783.781441	6168.008007
784.104993	6122.791377
784.428498	6092.395740
784.751958	6076.722793
785.075372	6051.370830
785.398739	6012.740468
785.722061	6035.655033
786.045337	6032.060690
786.368568	6144.491024
786.691752	6162.314023
787.014891	6408.332413
787.337983	6687.350196
787.661030	7128.080633
787.984031	7547.474386
788.306987	7815.678894
788.629897	7912.524501
788.952760	7831.087181
789.275579	7651.980026
789.598351	7354.592278
789.921078	7092.681651
790.243759	6813.038765
790.566395	6608.869513
790.888984	6416.415903
791.211529	6270.219921
791.534027	6101.517708
791.856480	5962.313806
792.178888	5899.952213
792.501249	5832.418395
792.823566	5729.117591
793.145836	5725.538372
793.468062	5700.980391
793.790241	5665.233569
794.112375	5707.085228
794.434464	5798.372963
794.756507	5826.426984
795.078505	5944.344613
795.400457	6163.967522
795.722364	6405.718575
796.044226	6598.530107
796.366042	6761.475323
796.687812	6709.027158
797.009538	6739.833649
797.331218	6646.658003
797.652852	6583.464618
797.974442	6462.451720
798.295986	6393.884466
798.617484	6261.264312
798.938938	6149.053268
799.260346	6083.906437
799.581709	5943.457370
799.903026	5895.531121
800.224299	5822.759544
800.545526	5701.645823
800.866708	5637.575278
801.187845	5586.901600
801.508936	5511.203634
801.829983	5482.307740
802.150984	5373.549887
802.471940	5345.674827
802.792851	5327.282177
803.113717	5301.670595
803.434538	5276.979023
803.755314	5242.227829
804.076045	5232.082507
804.396731	5194.530952
804.717372	5213.634404
805.037967	5214.173808
805.358518	5239.256069
805.679024	5298.368639
805.999485	5303.757632
806.319901	5324.257484
806.640272	5343.010577
806.960598	5384.398450
807.280879	5380.993150
807.601115	5419.409263
807.921306	5384.285024
808.241453	5377.739086
808.561554	5386.011619
808.881611	5355.232854
809.201623	5354.133883
809.521590	5303.442560
809.841513	5291.432011
810.161390	5308.135874
810.481223	5221.087750
810.801011	5206.080235
811.120755	5186.868398
811.440453	5126.898832
811.760107	5098.194502
812.079716	5071.907405
812.399281	5019.436555
812.718801	5015.527141
813.038276	4983.414991
813.357707	4945.843271
813.677093	4971.452333
813.996434	4910.318260
814.315731	4926.404582
814.634983	4922.853089
814.954191	4928.637813
815.273354	4992.574767
815.592473	5031.706724
815.911547	5108.312098
816.230577	5161.569367
816.549562	5252.907513
816.868502	5301.297549
817.187399	5361.980439
817.506250	5441.469352
817.825058	5468.976408
818.143821	5624.977435
818.462539	5798.264578
818.781213	6028.428539
819.099843	6391.424383
819.418429	7022.755806
819.736970	7647.044736
820.055466	8361.897996
820.373919	9289.382083
820.692327	10761.603173
821.010691	13495.667920
821.329011	19763.682337
821.647286	29434.392421
821.965517	39890.509232
822.283704	45449.016533
822.601847	47040.841518
822.919945	42474.672749
823.237999	37355.378498
823.556010	32113.591770
823.873976	27334.335948
824.191897	23056.599317
824.509775	19930.904972
824.827609	17100.647447
825.145398	15493.527601
825.463144	14709.655904
825.780845	14992.220139
826.098502	16241.493680
826.416116	18708.830977
826.733685	20992.854276
827.051210	21518.429853
827.368692	20091.798438
827.686129	17516.348555
828.003522	15015.243089
828.320872	12779.176286
828.638177	11106.360123
828.955439	9831.515330
829.272656	8757.875589
829.589830	7902.217862
829.906960	7154.917216
830.224046	6611.432940
830.541088	6199.096802
830.858086	5930.743580
831.175041	5723.660542
831.491952	5661.193084
831.808819	5689.607548
832.125642	5937.289518
832.442421	6492.416339
832.759157	7609.767924
833.075849	9381.990600
833.392497	11248.303892
833.709101	12392.000547
834.025662	12148.664051
834.342179	11090.979562
834.658653	9781.169326
834.975083	8657.604519
835.291469	7756.687312
835.607811	6998.417115
835.924110	6464.589170
836.240366	5968.642975
836.556578	5512.007698
836.872746	5150.015043
837.188871	4869.023648
837.504952	4646.403774
837.820990	4476.630315
838.136984	4358.057335
838.452935	4307.386178
838.768842	4335.551104
839.084706	4619.526862
839.400526	5364.117888
839.716303	6277.905160
840.032037	6855.081988
840.347727	6721.695578
840.663373	6116.994050
840.978977	5531.106109
841.294537	5078.634825
841.610054	4741.641252
841.925527	4498.206453
842.240957	4289.429588
842.556344	4100.156946
842.871687	3938.227522
843.186987	3781.175416
843.502244	3663.492200
843.817458	3573.928540
844.132629	3501.139319
844.447756	3450.631999
844.762840	3404.167684
845.077881	3366.618650
845.392879	3328.820078
845.707833	3305.209834
846.022745	3279.053807
846.337613	3263.360695
846.652438	3239.382447
846.967221	3229.090932
847.281960	3211.492263
847.596656	3201.639328
847.911309	3190.952082
848.225919	3173.287879
848.540485	3166.550377
848.855009	3156.999911
849.169490	3145.495998
849.483928	3136.951242
849.798323	3131.612660
850.112675	3122.223511
850.426984	3125.918677
850.741251	3114.676904
851.055474	3111.868981
851.369654	3114.860906
851.683792	3108.798918
851.997887	3111.322016
852.311938	3112.370576
852.625947	3112.302520
852.939914	3107.790688
853.253837	3111.652212
853.567718	3108.355297
853.881555	3103.394802
854.195350	3111.773199
854.509103	3111.017026
854.822812	3105.791870
855.136479	3097.922629
855.450103	3105.035697
855.763685	3093.841815
856.077224	3098.061261
856.390720	3106.870677
856.704173	3119.511370
857.017584	3121.263171
857.330953	3130.911940
857.644278	3136.200110
857.957561	3141.465595
858.270802	3134.763381
858.584000	3135.668268
858.897155	3132.121817
859.210268	3120.151597
859.523339	3107.780605
859.836367	3105.635594
860.149352	3101.698453
860.462295	3099.271138
860.775195	3087.106833
861.088054	3082.554672
861.400869	3085.579364
861.713642	3079.940833
862.026373	3094.020776
862.339062	3091.863162
862.651708	3101.678289
862.964312	3121.202677
863.276873	3126.553862
863.589392	3157.541835
863.901869	3183.748273
864.214303	3205.458002
864.526696	3224.178327
864.839045	3242.669279
865.151353	3255.753594
865.463619	3257.959099
865.775842	3256.814757
866.088023	3261.850870
866.400162	3257.139912
866.712258	3255.773759
867.024313	3257.495313
867.336325	3255.400713
867.648296	3259.053029
867.960224	3255.327617
868.272110	3258.153183
868.583954	3256.280395
868.895755	3266.403032
869.207515	3262.244080
869.519233	3281.397944
869.830909	3290.119140
870.142542	3301.912919
870.454134	3308.400884
870.765684	3320.088800
871.077191	3342.264835
871.388657	3351.815301
871.700081	3370.248280
872.011463	3388.149418
872.322803	3407.618354
872.634101	3429.018052
872.945357	3449.311217
873.256571	3476.528406
873.567744	3495.362157
873.878874	3496.393073
874.189963	3514.999972
874.501010	3516.177081
874.812015	3515.609952
875.122979	3530.677960
875.433900	3528.787528
875.744780	3530.229298
876.055618	3540.576266
876.366415	3538.685833
876.677169	3547.336453
876.987882	3564.836819
877.298554	3584.782144
877.609183	3621.464100
877.919771	3672.835978
878.230317	3742.300558
878.540822	3844.464582
878.851285	4006.336032
879.161707	4233.175352
879.472087	4616.744145
879.782425	5256.055714
880.092722	6467.762576
880.402977	8436.605375
880.713191	10853.828562
881.023363	13293.852888
881.333494	14662.120344
881.643583	15154.757022
881.953631	14763.316467
882.263637	13918.502261
882.573602	12874.996018
882.883526	11889.584031
883.193408	10909.009032
883.503248	9973.839706
883.813048	9122.827401
884.122806	8333.163419
884.432522	7549.427833
884.742197	6863.790581
885.051831	6283.125275
885.361424	5767.468169
885.670975	5360.654615
885.980485	5027.812433
886.289954	4747.955297
886.599382	4526.731822
886.908768	4336.934901
887.218113	4168.719159
887.527417	4030.084907
887.836680	3902.710073
888.145901	3798.915236
888.455082	3725.828588
888.764221	3649.016526
889.073319	3592.474945
889.382376	3558.807599
889.691392	3532.218033
890.000366	3524.351312
890.309300	3516.489633
890.618193	3520.731764
890.927044	3512.164323
891.235855	3519.547093
891.544625	3536.137530
891.853353	3568.635328
892.162041	3625.418885
892.470687	3720.900860
892.779293	3845.099767
893.087858	4022.719782
893.396381	4303.527174
893.704864	4727.490733
894.013306	5305.322911
894.321707	5889.270008
894.630068	6253.672334
894.938387	6297.283356
895.246665	6119.842302
895.554903	5798.514115
895.863100	5452.627947
896.171256	5176.803734
896.479371	4934.543525
896.787446	4702.839491
897.095480	4500.830374
897.403473	4349.777240
897.711425	4196.062377
898.019336	4073.774067
898.327207	3943.906382
898.635038	3846.218903
898.942827	3734.922829
899.250576	3646.256495
899.558284	3558.845407
899.865952	3502.762571
900.173579	3435.788322
900.481165	3388.918194
900.788711	3347.353880
901.096216	3316.058397
901.403681	3284.652009
901.711105	3273.022067
902.018489	3269.122734
902.325832	3303.400060
902.633135	3361.738813
902.940397	3536.051830
903.247619	3946.565591
903.554800	4716.006985
903.861941	5706.833170
904.169041	6432.308141
904.476101	6661.753738
904.783121	6384.470112
905.090100	5976.426516
905.397039	5554.320622
905.703938	5181.907903
906.010796	4846.661090
906.317614	4590.073921
906.624391	4342.530582
906.931129	4140.783605
907.237826	3951.503401
907.544483	3776.010753
907.851099	3599.754371
908.157675	3434.185235
908.464211	3286.388686
908.770707	3183.798685
909.077163	3101.096035
909.383578	3038.260573
909.689954	2993.800117
909.996289	2959.031279
910.302584	2937.014039
910.608839	2924.937955
910.915054	2911.906573
911.221229	2907.225861
911.527363	2911.336922
911.833458	2918.389497
912.139513	2929.195210
912.445527	2946.574588
912.751502	2977.413846
913.057436	3025.201464
913.363331	3083.961153
913.669186	3176.330215
913.975000	3297.043165
914.280775	3493.872496
914.586510	3769.328704
914.892205	4155.624762
915.197859	4661.998583
915.503475	5261.381693
915.809050	5770.155104
916.114585	6064.359363
916.420081	6129.798581
916.725536	6068.646864
917.030952	5829.847407
917.336328	5614.595178
917.641665	5399.897477
917.946961	5165.418288
918.252218	4962.511846
918.557435	4729.524839
918.862612	4527.303993
919.167750	4350.566181
919.472848	4153.187364
919.777906	3980.416939
920.082925	3813.532062
920.387904	3657.989780
920.692843	3543.177501
920.997743	3438.318981
921.302603	3340.518076
921.607423	3273.425359
921.912204	3205.019422
922.216946	3154.993532
922.521647	3105.174329
922.826310	3061.666651
923.130932	3023.142153
923.435516	2980.168837
923.740059	2954.743778
924.044564	2923.130702
924.349028	2895.215312
924.653454	2867.614995
924.957840	2837.352948
925.262186	2816.890905
925.566493	2795.395425
925.870761	2769.483894
926.174989	2756.772625
926.479178	2744.265522
926.783328	2726.129971
927.087438	2714.308465
927.391509	2702.824717
927.695541	2690.201668
927.999533	2677.472754
928.303486	2666.452792
928.607400	2661.310815
928.911275	2656.960299
929.215110	2650.086686
929.518906	2646.986376
929.822663	2647.674494
930.126381	2646.666263
930.430060	2649.287663
930.733699	2648.924700
931.037299	2652.529125
931.340861	2653.010555
931.644383	2657.235042
931.947866	2657.671102
932.251309	2651.188178
932.554714	2654.641368
932.858080	2650.631131
933.161407	2644.828762
933.464694	2640.873977
933.767943	2641.294914
934.071153	2638.129069
934.374323	2632.939201
934.677455	2629.425517
934.980548	2626.002573
935.283602	2624.838067
935.586617	2622.675412
935.889593	2625.526184
936.192530	2623.570217
936.495428	2632.525827
936.798287	2642.262815
937.101108	2657.154384
937.403890	2674.821107
937.706632	2700.863708
938.009336	2738.669841
938.312002	2765.241763
938.614628	2791.629683
938.917216	2811.882519
939.219765	2822.625217
939.522275	2831.926146
939.824747	2835.278514
940.127179	2826.040599
940.429573	2819.910556
940.731929	2821.911894
941.034246	2809.409833
941.336524	2810.919658
941.638763	2804.154430
941.940964	2797.956331
942.243126	2777.675769
942.545250	2771.054214
942.847335	2754.957809
943.149381	2741.485326
943.451389	2726.835733
943.753359	2715.407437
944.055290	2703.913606
944.357182	2696.046886
944.659036	2691.416586
944.960851	2685.077335
945.262628	2680.159689
945.564367	2680.104237
945.866067	2680.094154
946.167729	2678.276818
946.469352	2678.208763
946.770937	2675.937723
947.072484	2669.353976
947.373992	2668.416321
947.675462	2665.621002
947.976893	2660.269817
948.278286	2656.897285
948.579641	2653.577685
948.880958	2647.883702
949.182236	2651.611635
949.483476	2646.638537
949.784678	2646.600728
950.085841	2646.477220
950.386967	2651.210863
950.688054	2654.686739
950.989103	2662.986999
951.290114	2673.016374
951.591087	2684.507684
951.892021	2696.939170
952.192917	2709.847044
952.493776	2721.015721
952.794596	2724.327759
953.095378	2728.262379
953.396122	2724.368088
953.696828	2721.033365
953.997496	2715.898949
954.298126	2706.411498
954.598718	2697.914633
954.899272	2686.955165
955.199788	2678.284380
955.500266	2662.344252
955.800706	2649.138949
956.101108	2632.916516
956.401472	2619.461676
956.701798	2604.877618
957.002087	2588.138467
957.302337	2579.755028
957.602550	2567.752041
957.902724	2559.108982
958.202861	2546.596839
958.502960	2539.718184
958.803022	2531.531350
959.103045	2521.917870
959.403031	2518.096675
959.702979	2509.688031
960.002889	2509.390603
960.302762	2502.658142
960.602596	2496.996926
960.902393	2491.045844
961.202153	2491.161790
961.501875	2485.941676
961.801559	2485.795482
962.101205	2482.072590
962.400814	2479.665439
962.700385	2480.285501
962.999918	2474.951960
963.299414	2476.975983
963.598873	2472.259984
963.898293	2470.611527
964.197677	2472.280149
964.497022	2470.046918
964.796331	2468.368213
965.095601	2466.772688
965.394835	2467.228913
965.694030	2464.950311
965.993189	2464.010136
966.292309	2464.645321
966.591393	2466.586165
966.890439	2463.372430
967.189447	2465.005764
967.488419	2462.951493
967.787353	2465.025928
968.086249	2463.324539
968.385108	2464.184056
968.683930	2466.197997
968.982714	2466.934005
969.281462	2471.657566
969.580172	2469.613378
969.878844	2471.675210
970.177480	2473.986579
970.476078	2479.390696
970.774639	2481.132415
971.073162	2480.993783
971.371649	2482.929586
971.670098	2483.784062
971.968510	2486.584423
972.266885	2486.402941
972.565223	2490.919815
972.863524	2490.947541
973.161788	2494.425937
973.460014	2496.255876
973.758204	2496.316370
974.056356	2496.263438
974.354471	2495.547594
974.652550	2494.572131
974.950591	2495.802173
975.248595	2496.709580
975.546563	2494.186483
975.844493	2492.822851
976.142386	2490.065339
976.440243	2487.569968
976.738062	2487.396048
977.035845	2484.706593
977.333590	2480.792137
977.631299	2481.649133
977.928971	2477.021354
978.226606	2476.723926
978.524204	2475.171250
978.821765	2473.477423
979.119290	2472.920375
979.416777	2474.825931
979.714228	2474.004223
980.011642	2475.627475
980.309020	2483.146356
980.606360	2481.465131
980.903664	2494.788901
981.200931	2507.762310
981.498162	2528.095804
981.795356	2560.162584
982.092513	2596.842019
982.389633	2642.542599
982.686717	2684.822757
982.983764	2721.625700
983.280775	2740.136817
983.577749	2740.451889
983.874686	2732.030642
984.171587	2712.377703
984.468451	2694.882379
984.765279	2676.323371
985.062070	2660.237049
985.358824	2641.196611
985.655543	2617.611573
985.952224	2594.084508
986.248869	2564.986968
986.545478	2535.760878
986.842050	2515.548372
987.138586	2493.788232
987.435086	2480.877837
987.731549	2468.365693
988.027975	2463.944601
988.324366	2459.034517
988.620719	2457.605350
988.917037	2450.431788
989.213318	2447.749894
989.509563	2443.764862
989.805772	2442.920469
990.101944	2443.628751
990.398080	2441.526590
990.694180	2438.045673
990.990244	2441.075406
991.286271	2440.268822
991.582262	2442.333174
991.878217	2442.043308
992.174136	2442.174378
992.470019	2444.750408
992.765865	2446.343412
993.061676	2447.039091
993.357450	2448.513629
993.653188	2451.399689
993.948890	2458.303550
994.244556	2465.288068
994.540186	2474.193267
994.835780	2488.439567
995.131337	2505.087978
995.426859	2516.551562
995.722345	2541.883360
996.017795	2559.179559
996.313208	2576.044739
996.608586	2583.805595
996.903928	2586.948755
997.199234	2586.006059
997.494504	2581.153948
997.789738	2575.507856
998.084936	2564.608881
998.380099	2550.753270
998.675225	2542.626930
998.970316	2525.756709
999.265371	2514.956037
999.560390	2499.131855
999.855373	2486.470997
1000.150320	2477.656539
1000.445232	2469.845271
1000.740108	2459.178190
1001.034948	2455.674588
1001.329752	2449.330296
1001.624521	2443.991714
1001.919254	2439.174891
1002.213951	2437.087854
1002.508613	2434.494180
1002.803239	2430.398243
1003.097829	2427.179466
1003.392384	2429.596699
1003.686903	2427.784404
1003.981386	2428.616195
1004.275834	2427.166863
1004.570246	2428.432192
1004.864623	2422.463466
1005.158964	2423.254927
1005.453270	2420.378949
1005.747540	2421.225863
1006.041775	2422.440781
1006.335974	2422.828950
1006.630138	2422.017324
1006.924266	2421.813157
1007.218359	2417.712179
1007.512416	2418.707807
1007.806438	2418.990111
1008.100425	2418.274267
1008.394376	2419.169072
1008.688292	2418.319638
1008.982172	2419.733682
1009.276017	2419.985739
1009.569827	2417.129926
1009.863602	2415.794020
1010.157341	2417.991963
1010.451045	2417.974319
1010.744714	2416.698907
1011.038347	2417.533218
1011.331945	2416.277971
1011.625508	2415.060532
1011.919036	2418.390214
1012.212528	2416.419123
1012.505986	2414.508526
1012.799408	2413.568350
1013.092795	2414.258988
1013.386147	2415.451221
1013.679464	2415.947775
1013.972745	2415.224369
1014.265992	2414.087589
1014.559204	2417.079514
1014.852380	2414.306879
1015.145521	2414.994997
1015.438628	2410.717578
1015.731699	2414.032137
1016.024736	2415.887281
1016.317737	2414.206056
1016.610703	2416.071283
1016.903635	2413.948958
1017.196531	2411.977866
1017.489393	2413.593556
1017.782219	2414.004410
1018.075011	2417.147570
1018.367768	2415.015162
1018.660490	2416.840059
1018.953177	2416.840059
1019.245829	2416.840059
