Dividing Wavelength (nm)	Counts (n)	Blue Motor Position (mm): 5.000000	Red Motor Position (mm): 0.000000	
326.493990	1977.528707
326.888308	1977.528707
327.282561	1977.528707
327.676750	1951.160952
328.070874	1954.697322
328.464933	1960.794597
328.858929	1969.707357
329.252859	1982.373256
329.646726	1996.317088
330.040528	2013.192350
330.434265	2033.798067
330.827938	2051.661395
331.221547	2071.271484
331.615091	2093.001377
332.008571	2113.244131
332.401986	2135.069806
332.795338	2152.658392
333.188625	2171.219920
333.581847	2192.793538
333.975006	2209.510004
334.368100	2227.060782
334.761129	2244.097361
335.154095	2259.543456
335.546996	2274.503080
335.939833	2290.221398
336.332606	2300.850671
336.725315	2313.430870
337.117960	2319.782724
337.510540	2327.273879
337.903056	2336.978100
338.295508	2344.058401
338.687896	2347.408247
339.080220	2356.114320
339.472480	2361.662110
339.864676	2363.444158
340.256807	2368.676875
340.648875	2368.414735
341.040879	2372.278780
341.432818	2370.794160
341.824694	2368.941536
342.216506	2373.513862
342.608253	2371.951105
342.999937	2371.394057
343.391557	2371.147041
343.783113	2370.496732
344.174605	2368.419777
344.566033	2368.467668
344.957397	2366.262163
345.348697	2366.095805
345.739934	2361.493231
346.131106	2360.779908
346.522215	2357.656913
346.913260	2356.565503
347.304241	2353.472755
347.695159	2353.830677
348.086012	2350.548886
348.476802	2352.787158
348.867528	2349.540655
349.258191	2348.106447
349.648789	2347.708196
350.039324	2343.924810
350.429796	2344.950685
350.820203	2344.791888
351.210548	2348.071159
351.600828	2340.247288
351.991045	2342.631754
352.381198	2342.470437
352.771288	2342.916579
353.161314	2343.105623
353.551276	2341.283245
353.941175	2344.161744
354.331010	2341.684017
354.720782	2344.179388
355.110490	2341.157217
355.500135	2342.858606
355.889717	2344.859944
356.279235	2340.345591
356.668689	2341.023626
357.058080	2342.442711
357.447408	2340.249809
357.836672	2340.146465
358.225873	2340.534634
358.615010	2340.869871
359.004084	2345.306086
359.393095	2346.740294
359.782043	2347.264574
360.170927	2346.344564
360.559748	2349.961592
360.948505	2347.665346
361.337199	2347.899760
361.725830	2348.925635
362.114398	2350.243896
362.502903	2350.765656
362.891344	2350.075018
363.279722	2349.109637
363.668037	2350.322034
364.056289	2350.594257
364.444478	2353.311438
364.832603	2352.192302
365.220665	2356.068950
365.608665	2354.791017
365.996601	2354.082735
366.384474	2353.613908
366.772284	2354.816223
367.160031	2355.060719
367.547715	2355.794207
367.935336	2355.806810
368.322893	2356.399145
368.710388	2356.215143
369.097820	2357.208250
369.485189	2356.782273
369.872495	2356.620956
370.259738	2359.761595
370.646918	2357.185565
371.034035	2357.241018
371.421090	2360.858046
371.808081	2358.498786
372.195010	2355.610205
372.581875	2358.236646
372.968678	2357.906450
373.355418	2355.312777
373.742096	2358.866790
374.128710	2359.151615
374.515262	2358.085411
374.901751	2356.875534
375.288177	2361.115145
375.674540	2358.554238
376.060841	2359.610360
376.447079	2360.089270
376.833254	2361.107583
377.219367	2355.557273
377.605417	2359.789321
377.991404	2355.947962
378.377329	2356.061388
378.763191	2356.212623
379.148991	2361.221009
379.534727	2360.172449
379.920402	2361.173118
380.306013	2360.638756
380.691563	2364.832996
381.077049	2361.720083
381.462474	2362.619929
381.847835	2360.132120
382.233134	2361.861235
382.618371	2362.143540
383.003545	2362.330063
383.388657	2361.594054
383.773706	2362.609847
384.158693	2364.845598
384.543618	2365.306864
384.928480	2364.046576
385.313280	2361.899044
385.698017	2364.396936
386.082692	2364.843078
386.467305	2363.134127
386.851856	2364.941380
387.236344	2367.267873
387.620770	2366.962883
388.005133	2367.530013
388.389435	2365.062368
388.773674	2365.548839
389.157851	2370.075796
389.541965	2365.569004
389.926018	2370.975642
390.310008	2365.745444
390.693936	2367.658562
391.077802	2370.690816
391.461606	2368.969262
391.845348	2367.426669
392.229027	2369.768285
392.612645	2367.033459
392.996200	2365.558922
393.379694	2366.247039
393.763125	2369.551516
394.146494	2369.657380
394.529801	2369.796012
394.913047	2367.935826
395.296230	2370.814325
395.679351	2370.390868
396.062410	2370.141331
396.445408	2371.260467
396.828343	2368.724766
397.211217	2364.550691
397.594028	2368.455065
397.976778	2366.466329
398.359466	2369.203676
398.742092	2367.351052
399.124656	2373.297093
399.507158	2372.379603
399.889598	2372.777854
400.271977	2370.048069
400.654294	2373.496218
401.036549	2371.686444
401.418742	2372.112422
401.800874	2372.666949
402.182944	2373.176105
402.564952	2372.498070
402.946898	2372.704757
403.328783	2373.468492
403.710606	2374.219624
404.092367	2373.329860
404.474067	2373.357587
404.855705	2371.230220
405.237282	2374.668287
405.618797	2375.074100
406.000250	2374.738863
406.381642	2376.026878
406.762972	2377.337578
407.144240	2374.232227
407.525447	2376.536034
407.906593	2375.139635
408.287677	2373.085364
408.668700	2371.951105
409.049661	2376.170551
409.430560	2374.567464
409.811399	2376.911600
410.192176	2374.854809
410.572891	2376.876312
410.953545	2375.868081
411.334138	2378.378576
411.714669	2373.949922
412.095139	2377.203987
412.475547	2379.041488
412.855894	2375.805067
413.236180	2379.192722
413.616405	2377.466127
413.996568	2377.410674
414.376670	2375.825232
414.756711	2377.062835
415.136691	2379.515356
415.516609	2375.752135
415.896466	2380.311858
416.276262	2380.790768
416.655997	2375.111908
417.035670	2375.268184
417.415283	2378.519728
417.794834	2373.440766
418.174324	2378.996117
418.553753	2377.100643
418.933121	2378.693648
419.312428	2378.794471
419.691674	2378.275232
420.070859	2380.047198
420.449983	2380.962167
420.829045	2380.652136
421.208047	2380.090048
421.586988	2380.208515
421.965867	2378.308000
422.344686	2379.820346
422.723444	2381.042826
423.102141	2380.921838
423.480777	2382.421581
423.859352	2378.912938
424.237866	2381.246993
424.616319	2380.170706
424.994712	2383.810419
425.373044	2381.977960
425.751314	2382.290511
426.129524	2381.604914
426.507673	2380.062321
426.885762	2381.559544
427.263789	2383.094575
427.641756	2381.541900
428.019662	2383.311345
428.397508	2381.075593
428.775292	2385.418547
429.153016	2382.204812
429.530679	2383.535676
429.908282	2382.592981
430.285824	2381.526777
430.663305	2381.882178
431.040726	2384.059956
431.418086	2380.213556
431.795385	2384.420399
432.172624	2385.547097
432.549802	2383.873434
432.926920	2383.495347
433.303977	2381.131046
433.680974	2385.600029
434.057910	2386.756974
434.434786	2382.623228
434.811601	2386.154556
435.188355	2385.146325
435.565050	2383.419730
435.941683	2382.991232
436.318257	2383.117261
436.694770	2383.208001
437.071222	2384.218753
437.447614	2380.233721
437.823946	2382.076262
438.200218	2382.124153
438.576429	2382.804709
438.952580	2385.428630
439.328670	2388.251676
439.704700	2384.599360
440.080670	2385.844525
440.456580	2384.102806
440.832429	2386.078938
441.208218	2386.187323
441.583947	2389.572458
441.959616	2385.617673
442.335224	2385.176572
442.710773	2388.085318
443.086261	2385.589947
443.461689	2385.088352
443.837057	2387.626573
444.212365	2384.261603
444.587612	2385.244628
444.962800	2387.374515
445.337927	2386.404093
445.712995	2386.250338
446.088002	2386.787221
446.462949	2385.078269
446.837837	2388.342417
447.212664	2386.204967
447.587431	2388.203785
447.962139	2387.949207
448.336786	2389.958106
448.711374	2387.576161
449.085901	2386.217570
449.460369	2387.636655
449.834776	2386.688918
450.209124	2384.992570
450.583412	2387.447612
450.957640	2387.460215
451.331808	2389.403579
451.705917	2385.668084
452.079965	2390.253014
452.453954	2390.532798
452.827883	2386.809906
453.201752	2388.271840
453.575562	2389.562376
453.949311	2388.415513
454.323001	2388.748229
454.696632	2389.360730
455.070202	2390.333672
455.443713	2386.570451
455.817164	2385.358053
456.190556	2384.798485
456.563888	2388.143291
456.937160	2383.394524
457.310373	2391.193189
457.683526	2387.447612
458.056619	2390.822664
458.429653	2385.594988
458.802628	2387.387118
459.175542	2387.883672
459.548398	2391.306615
459.921194	2389.088507
460.293930	2390.242932
460.666607	2386.895605
461.039224	2389.786707
461.411782	2391.790566
461.784280	2393.436503
462.156719	2387.734958
462.529099	2389.393497
462.901419	2391.699825
463.273680	2391.122613
463.645882	2388.120606
464.018024	2392.758467
464.390106	2388.791079
464.762130	2389.249824
465.134094	2391.692263
465.505999	2390.290823
465.877845	2390.822664
466.249631	2390.532798
466.621358	2391.374671
466.993026	2394.437172
467.364634	2394.800135
467.736184	2393.212171
468.107674	2392.120761
468.479105	2395.878942
468.850477	2390.046327
469.221790	2390.195041
469.593043	2392.077912
469.964238	2394.263252
470.335373	2393.378529
470.706449	2394.389281
471.077467	2392.715617
471.448425	2392.087994
471.819324	2389.791748
472.190164	2395.989847
472.560945	2393.910371
472.931667	2393.086142
473.302330	2390.406769
473.672934	2392.055226
474.043479	2393.922974
474.413965	2391.094887
474.784393	2386.663712
475.154761	2391.775442
475.525070	2392.256873
475.895321	2392.599671
476.265513	2386.202447
476.635645	2392.728220
477.005719	2393.832233
477.375734	2392.541698
477.745691	2394.795093
478.115588	2393.411297
478.485427	2392.292161
478.855207	2392.024979
479.224928	2393.040772
479.594591	2394.452295
479.964194	2396.055382
480.333739	2393.945659
480.703226	2394.676626
481.072653	2393.960783
481.442022	2395.372306
481.811333	2392.198899
482.180584	2394.220402
482.549777	2395.957079
482.918912	2390.678991
483.287988	2396.438510
483.657005	2392.206461
484.025964	2395.105124
484.394864	2395.427758
484.763706	2392.302243
485.132489	2394.545556
485.501213	2396.098232
485.869879	2394.754764
486.238487	2394.167470
486.607036	2396.032697
486.975527	2395.785680
487.343959	2395.659651
487.712333	2392.014897
488.080648	2392.428272
488.448905	2396.007491
488.817104	2392.907181
489.185244	2393.794424
489.553326	2395.762995
489.921350	2394.681667
490.289315	2392.937428
490.657222	2396.907337
491.025070	2397.030845
491.392861	2396.433468
491.760593	2394.442213
492.128267	2397.108983
492.495883	2392.892058
492.863440	2394.971534
493.230939	2394.169990
493.598380	2395.218550
493.965763	2389.499361
494.333088	2396.650238
494.700354	2392.849208
495.067563	2396.471277
495.434713	2389.118754
495.801805	2396.357851
496.168839	2394.366595
496.535815	2396.675444
496.902733	2395.107645
497.269593	2396.987995
497.636395	2394.147305
498.003139	2395.561349
498.369825	2397.986144
498.736453	2395.773077
499.103023	2394.240567
499.469535	2393.244939
499.835989	2396.030176
500.202385	2397.303068
500.568723	2397.348438
500.935003	2394.835423
501.301226	2398.575959
501.667390	2395.392470
502.033497	2398.674261
502.399546	2394.790052
502.765537	2394.664023
503.131470	2393.519682
503.497345	2396.816596
503.863163	2397.214847
504.228923	2395.679816
504.594625	2397.774415
504.960269	2395.349620
505.325856	2395.082439
505.691385	2394.681668
506.056856	2397.749210
506.422270	2397.098901
506.787625	2397.686195
507.152924	2396.544374
507.518164	2392.271996
507.883347	2396.927502
508.248472	2398.558315
508.613540	2395.480690
508.978550	2396.015053
509.343503	2394.656462
509.708398	2395.868859
510.073236	2396.123437
510.438016	2395.818448
510.802738	2396.274672
511.167403	2398.744837
511.532010	2395.299209
511.896561	2396.614950
512.261053	2397.928171
512.625488	2393.156718
512.989866	2391.427603
513.354186	2397.847512
513.718449	2391.087325
514.082655	2398.147461
514.446803	2395.843653
514.810894	2397.376164
515.174927	2398.071843
515.538904	2398.573438
515.902822	2396.950187
516.266684	2397.262738
516.630488	2396.708211
516.994235	2397.900444
517.357925	2397.224930
517.721558	2397.300547
518.085133	2395.518499
518.448651	2398.281051
518.812112	2398.039076
519.175516	2396.332645
519.538863	2398.979251
519.902152	2400.156361
520.265385	2396.292316
520.628560	2396.932543
520.991678	2398.344066
521.354739	2397.991185
521.717743	2399.979920
522.080690	2399.100239
522.443580	2396.753582
522.806413	2401.008316
523.169189	2399.992523
523.531908	2400.317678
523.894569	2396.935063
524.257174	2400.242060
524.619722	2399.821124
524.982213	2399.793397
525.344647	2396.960269
525.707025	2396.824158
526.069345	2397.529919
526.431608	2398.664179
526.793815	2396.446071
527.155964	2401.028480
527.518057	2398.946484
527.880093	2399.891700
528.242072	2397.078736
528.603995	2397.885321
528.965860	2400.146278
529.327669	2397.487070
529.689421	2398.991854
530.051117	2398.404560
530.412755	2395.831051
530.774337	2399.740465
531.135862	2397.784498
531.497331	2396.932543
531.858743	2395.657131
532.220098	2396.067985
532.581396	2395.407594
532.942638	2395.697460
533.303824	2397.240053
533.664953	2398.255846
534.026025	2397.572769
534.387040	2397.144271
534.747999	2399.937070
535.108902	2399.090157
535.469748	2398.495300
535.830537	2397.091339
536.191270	2398.149981
536.551947	2400.428583
536.912567	2398.583521
537.273131	2400.063099
537.633638	2401.759448
537.994089	2397.847512
538.354483	2398.906154
538.714821	2400.690723
539.075103	2399.317008
539.435328	2400.156361
539.795497	2398.822975
540.155609	2400.892369
540.515665	2400.090826
540.875665	2399.432955
541.235609	2401.189797
541.595496	2399.125445
541.955328	2402.215672
542.315102	2399.367420
542.674821	2398.815414
543.034483	2401.973697
543.394090	2398.964128
543.753640	2404.280024
544.113134	2398.563356
544.472571	2402.808008
544.831953	2400.985630
545.191278	2400.448747
545.550548	2401.615775
545.909761	2400.037893
546.268918	2401.416649
546.628019	2403.163409
546.987064	2403.927144
547.346053	2402.755075
547.704986	2403.226423
548.063863	2401.588048
548.422684	2401.963614
548.781449	2397.648387
549.140158	2402.059396
549.498811	2402.505538
549.857408	2401.948491
550.215949	2402.475291
550.574434	2397.328273
550.932864	2399.982441
551.291237	2401.459499
551.649555	2400.809190
552.007817	2403.624674
552.366022	2403.236506
552.724173	2403.906979
553.082267	2401.000754
553.440305	2403.518810
553.798288	2401.580487
554.156215	2402.326577
554.514086	2405.068965
554.871902	2403.463357
555.229661	2401.492266
555.587365	2405.167267
555.945014	2403.082750
556.302606	2400.355486
556.660143	2405.767165
557.017625	2405.454613
557.375050	2404.390930
557.732421	2405.356311
558.089735	2406.230951
558.446994	2403.954870
558.804197	2405.895714
559.161345	2402.883625
559.518437	2405.061403
559.875474	2404.895045
560.232455	2406.800601
560.589381	2405.994017
560.946251	2408.716240
561.303065	2406.092319
561.659825	2407.481157
562.016528	2405.552916
562.373177	2407.476116
562.729770	2406.140210
563.086307	2408.680952
563.442789	2404.194325
563.799216	2402.233316
564.155587	2408.106260
564.511904	2404.862278
564.868164	2405.812535
565.224370	2408.378482
565.580520	2407.113153
565.936615	2407.861764
566.292654	2409.578277
566.648638	2406.011661
567.004567	2402.336660
567.360441	2406.059552
567.716260	2405.762124
568.072023	2406.193142
568.427732	2403.536454
568.783385	2403.022257
569.138982	2403.775909
569.494525	2403.007133
569.850013	2401.552760
570.205445	2405.389078
570.560823	2407.332443
570.916145	2403.055024
571.271412	2405.104253
571.626625	2404.585014
571.981782	2405.174829
572.336884	2406.735066
572.691931	2404.398492
573.046923	2407.226579
573.401860	2405.994017
573.756743	2406.704819
574.111570	2406.762793
574.466342	2406.941754
574.821059	2407.150962
575.175722	2407.186250
575.530330	2404.693399
575.884882	2408.386044
576.239380	2407.092988
576.593823	2409.971487
576.948211	2408.691034
577.302544	2404.161557
577.656823	2404.204407
578.011047	2405.139541
578.365216	2406.621640
578.719330	2402.845816
579.073389	2403.715415
579.427394	2406.994686
579.781344	2403.377658
580.135239	2406.881260
580.489080	2403.954870
580.842866	2404.479150
581.196597	2408.456620
581.550273	2402.823131
581.903895	2405.416805
582.257463	2400.894890
582.610975	2407.002248
582.964434	2403.828841
583.317837	2404.096022
583.671186	2403.843965
584.024481	2406.558626
584.377721	2405.830179
584.730906	2404.945457
585.084037	2404.113666
585.437113	2405.260529
585.790135	2403.745662
586.143103	2401.721639
586.496016	2404.930333
586.848874	2396.930022
587.201679	2403.541495
587.554428	2402.490415
587.907124	2402.583676
588.259765	2400.778943
588.612352	2401.073851
588.964884	2406.926630
589.317362	2404.310271
589.669786	2403.980076
590.022155	2402.336660
590.374470	2401.555281
590.726731	2404.227092
591.078937	2405.053842
591.431090	2404.758934
591.783188	2403.720456
592.135232	2404.887483
592.487222	2402.767678
592.839157	2404.751372
593.191038	2402.568553
593.542866	2404.070817
593.894639	2401.230126
594.246358	2401.179715
594.598022	2404.726167
594.949633	2402.603841
595.301190	2403.112997
595.652692	2400.811711
596.004141	2401.101577
596.355535	2403.929664
596.706876	2399.773233
597.058162	2401.900600
597.409395	2402.248439
597.760573	2401.043604
598.111698	2402.923954
598.462768	2403.697771
598.813785	2405.830179
599.164748	2402.359345
599.515657	2400.342883
599.866511	2403.097874
600.217312	2401.464540
600.568060	2401.799777
600.918753	2403.904458
601.269392	2402.097205
601.619978	2400.670558
601.970510	2401.038563
602.320988	2404.383368
602.671412	2403.700292
603.021783	2402.490415
603.372100	2401.976217
603.722363	2402.472771
604.072572	2399.619478
604.422728	2403.405384
604.772830	2396.713252
605.122878	2395.337018
605.472872	2397.839950
605.822813	2394.553118
606.172701	2404.310271
606.522534	2400.912534
606.872314	2402.729870
607.222041	2401.305744
607.571714	2400.007647
607.921333	2401.406567
608.270899	2403.511248
608.620411	2402.593758
608.969870	2401.784653
609.319276	2402.044273
609.668627	2402.792884
610.017926	2402.923954
610.367171	2400.844478
610.716362	2401.454458
611.065500	2403.463358
611.414585	2402.147616
611.763616	2401.164591
612.112594	2400.035373
612.461518	2401.381361
612.810389	2401.421690
613.159207	2401.504869
613.507971	2399.984961
613.856682	2403.531413
614.205340	2401.870353
614.553945	2400.945301
614.902496	2400.294992
615.250994	2398.921278
615.599439	2400.902451
615.947830	2402.828172
616.296169	2401.832544
616.644454	2401.676268
616.992686	2399.811042
617.340864	2403.196176
617.688990	2400.809190
618.037063	2403.027298
618.385082	2400.892369
618.733048	2404.569891
619.080961	2401.073851
619.428821	2404.859757
619.776628	2400.668038
620.124382	2400.547050
620.472083	2403.738100
620.819731	2401.638460
621.167326	2399.790877
621.514868	2404.602658
621.862357	2400.978069
622.209793	2404.738769
622.557176	2403.823800
622.904506	2401.469581
623.251783	2396.032697
623.599007	2400.151319
623.946179	2397.721483
624.293297	2396.153684
624.640363	2400.841958
624.987376	2400.917575
625.334336	2402.679458
625.681243	2402.906310
626.028097	2400.985630
626.374899	2402.704664
626.721647	2402.979407
627.068343	2398.833058
627.414987	2402.830693
627.761577	2402.868501
628.108115	2403.659962
628.454600	2401.245250
628.801032	2400.254663
629.147412	2402.243398
629.493739	2401.792215
629.840014	2402.470250
630.186236	2401.320867
630.532405	2402.969324
630.878521	2401.504869
631.224585	2401.517472
631.570597	2400.065620
631.916556	2401.399005
632.262462	2403.475960
632.608316	2404.519479
632.954117	2401.663666
633.299866	2403.957391
633.645562	2401.865312
633.991206	2401.857750
634.336797	2402.213151
634.682336	2404.080899
635.027823	2403.264232
635.373257	2401.792215
635.718639	2404.587535
636.063968	2404.153996
636.409245	2404.587535
636.754470	2402.497977
637.099642	2402.359345
637.444762	2402.414798
637.789829	2403.218862
638.134845	2403.498646
638.479808	2401.134344
638.824719	2402.407236
639.169577	2400.985630
639.514383	2402.649211
639.859137	2403.785991
640.203839	2406.150293
640.548489	2402.873543
640.893086	2399.818603
641.237632	2397.106463
641.582125	2399.838768
641.926566	2399.422873
642.270955	2403.070147
642.615292	2402.331618
642.959576	2403.327246
643.303809	2405.988976
643.647990	2404.642988
643.992118	2404.799263
644.336195	2403.629716
644.680219	2402.351783
645.024192	2403.304561
645.368112	2403.995199
645.711981	2406.127607
646.055797	2403.964952
646.399562	2405.653739
646.743274	2408.111301
647.086935	2409.890829
647.430544	2407.178688
647.774101	2405.822617
648.117606	2406.805642
648.461059	2404.988307
648.804460	2413.543145
649.147810	2409.490057
649.491108	2408.751528
649.834354	2407.740777
650.177548	2407.934861
650.520690	2409.593401
650.863781	2408.990983
651.206820	2412.834863
651.549807	2407.907135
651.892742	2409.903432
652.235626	2406.039387
652.578458	2411.751014
652.921238	2409.144738
653.263967	2408.481826
653.606644	2409.137176
653.949269	2410.271436
654.291843	2408.610376
654.634365	2410.082392
654.976836	2413.616241
655.319255	2411.471230
655.661622	2411.007444
656.003938	2409.820252
656.346203	2411.977866
656.688416	2410.778072
657.030577	2413.349060
657.372687	2411.435942
657.714746	2411.740932
658.056753	2412.030798
658.398708	2406.500653
658.740612	2413.220511
659.082465	2410.914183
659.424266	2409.182547
659.766016	2409.182547
660.107715	2415.617579
660.449362	2414.896694
660.790958	2414.135480
661.132503	2415.481468
661.473996	2417.815523
661.815438	2416.524987
662.156829	2417.618917
662.498168	2415.269740
662.839456	2416.882909
663.180693	2416.701428
663.521879	2419.814340
663.863013	2419.317786
664.204097	2419.141346
664.545129	2420.903229
664.886110	2420.608322
665.227040	2422.239135
665.567918	2422.231573
665.908746	2423.065884
666.249522	2425.876328
666.590248	2425.951945
666.930922	2427.063519
667.271545	2424.840370
667.612118	2427.799528
667.952639	2427.519744
668.293109	2430.010074
668.633528	2427.461770
668.973896	2427.602923
669.314213	2431.308171
669.654480	2428.888417
669.994695	2427.008067
670.334859	2430.315063
670.674973	2427.073602
671.015035	2429.954621
671.355047	2433.334715
671.695008	2431.802204
672.034918	2432.215578
672.374777	2435.336053
672.714585	2434.128696
673.054342	2435.625919
673.394049	2435.363779
673.733705	2440.173040
674.073310	2438.925354
674.412864	2437.841506
674.752368	2437.370158
675.091820	2440.631785
675.431223	2440.520879
675.770574	2438.126331
676.109875	2434.842020
676.449125	2435.857812
676.788324	2436.029211
677.127473	2437.549119
677.466571	2436.808070
677.805619	2439.217741
678.144616	2441.047680
678.483562	2441.897114
678.822458	2438.154058
679.161303	2439.560540
679.500098	2441.695468
679.838842	2442.948195
680.177535	2441.140941
680.516179	2441.120777
680.854771	2443.837959
681.193314	2450.424226
681.531805	2449.090841
681.870247	2454.948662
682.208638	2458.595937
682.546978	2456.975206
682.885268	2456.743313
683.223508	2456.831533
683.561697	2460.372943
683.899836	2460.264558
684.237925	2460.536781
684.575963	2462.633901
684.913951	2457.998560
685.251889	2462.177676
685.589776	2461.136678
685.927614	2462.540639
686.265401	2464.458798
686.603137	2466.112297
686.940824	2468.012812
687.278460	2475.382979
687.616046	2475.919862
687.953582	2477.056642
688.291068	2478.672332
688.628504	2479.917497
688.965889	2478.997486
689.303224	2482.748105
689.640510	2479.491519
689.977745	2478.992445
690.314930	2474.909110
690.652065	2478.206025
690.989150	2476.446662
691.326185	2470.319140
691.663170	2469.878039
692.000105	2469.063893
692.336990	2467.768316
692.673825	2465.711525
693.010610	2467.140692
693.347345	2462.563325
693.684030	2456.733230
694.020665	2460.672892
694.357251	2457.368416
694.693786	2462.659107
695.030272	2459.188272
695.366707	2461.434106
695.703093	2455.493106
696.039429	2460.158694
696.375716	2462.412090
696.711952	2461.814713
697.048139	2463.528706
697.384276	2461.731534
697.720363	2462.684312
698.056400	2464.504169
698.392388	2462.265897
698.728326	2462.727162
699.064214	2464.267235
699.400053	2462.938891
699.735842	2464.852008
700.071581	2462.112141
700.407270	2462.384364
700.742910	2459.460494
701.078501	2463.253963
701.414042	2458.187603
701.749533	2459.737758
702.084974	2459.919239
702.420366	2459.616770
702.755709	2458.275823
703.091002	2459.188272
703.426246	2459.667182
703.761440	2456.513940
704.096584	2459.543673
704.431679	2460.272120
704.766725	2455.878755
705.101721	2457.539815
705.436668	2456.849177
705.771565	2459.704990
706.106413	2461.204734
706.441212	2463.208592
706.775961	2463.483335
707.110661	2463.069961
707.445311	2466.911320
707.779913	2465.099025
708.114465	2469.452061
708.448967	2468.463995
708.783421	2473.832824
709.117825	2474.062197
709.452180	2479.045377
709.786485	2481.807929
710.120742	2486.816316
710.454949	2489.044506
710.789107	2487.945534
711.123216	2490.408138
711.457275	2494.269662
711.791286	2495.895434
712.125247	2500.321567
712.459159	2501.433141
712.793023	2505.478667
713.126837	2500.871053
713.460602	2503.200066
713.794318	2498.302585
714.127985	2500.258553
714.461602	2494.746051
714.795171	2496.603716
715.128691	2489.415031
715.462162	2491.318066
715.795584	2485.762715
716.128957	2484.827581
716.462281	2482.700214
716.795556	2482.329689
717.128782	2476.844913
717.461960	2477.545634
717.795088	2478.934472
718.128167	2476.524800
718.461198	2475.138483
718.794180	2475.047742
719.127113	2469.389047
719.459997	2474.795684
719.792833	2471.097998
720.125619	2473.704275
720.458357	2469.903245
720.791046	2472.229737
721.123686	2468.892493
721.456278	2469.205045
721.788821	2471.410550
722.121315	2468.340487
722.453761	2469.782257
722.786158	2467.417956
723.118506	2469.809983
723.450805	2471.486167
723.783056	2471.271918
724.115259	2473.573205
724.447412	2471.992803
724.779518	2477.341467
725.111574	2476.978504
725.443582	2478.384986
725.775542	2478.168216
726.107453	2483.176603
726.439315	2482.700214
726.771129	2491.998622
727.102895	2488.835298
727.434612	2491.625577
727.766281	2491.451657
728.097901	2494.194044
728.429473	2493.740341
728.760996	2497.259066
729.092471	2492.051554
729.423897	2497.052379
729.755276	2496.003819
730.086606	2500.074550
730.417887	2504.185611
730.749120	2507.963956
731.080305	2510.214831
731.411442	2512.488392
731.742530	2512.639626
732.073570	2515.359329
732.404562	2520.246728
732.735506	2515.671880
733.066401	2520.339989
733.397249	2511.359173
733.728048	2510.247599
734.058798	2502.476660
734.389501	2495.948366
734.720156	2496.674292
735.050762	2491.330669
735.381320	2487.895123
735.711831	2489.747747
736.042293	2482.859010
736.372707	2487.305308
736.703073	2484.114257
737.033391	2486.866727
737.363661	2488.099289
737.693883	2494.645228
738.024056	2495.782008
738.354182	2493.115238
738.684260	2496.636483
739.014290	2504.815756
739.344272	2507.043946
739.674207	2507.681652
740.004093	2509.574605
740.333931	2508.957063
740.663722	2511.633916
740.993464	2511.795233
741.323159	2510.371107
741.652806	2509.602331
741.982405	2509.443535
742.311956	2505.171157
742.641460	2508.273987
742.970915	2503.986486
743.300323	2502.355673
743.629683	2499.071361
743.958996	2497.047338
744.288260	2495.708911
744.617477	2491.784373
744.946647	2488.505102
745.275768	2488.663899
745.604842	2487.920328
745.933869	2487.063332
746.262847	2486.619711
746.591778	2489.291522
746.920662	2486.856645
747.249498	2489.735144
747.578286	2492.792604
747.907027	2493.400063
748.235720	2496.205465
748.564365	2495.267810
748.892963	2497.160763
749.221514	2501.458347
749.550017	2496.800321
749.878473	2495.797131
750.206881	2496.225629
750.535242	2494.642707
750.863555	2497.274189
751.191821	2493.160608
751.520039	2494.360402
751.848210	2497.677482
752.176334	2497.470794
752.504411	2497.415342
752.832440	2496.583551
753.160421	2500.039262
753.488356	2497.223778
753.816243	2497.216216
754.144082	2491.706235
754.471875	2493.778149
754.799620	2497.546412
755.127318	2501.067658
755.454969	2495.933243
755.782572	2497.942142
756.110129	2495.890393
756.437638	2496.213027
756.765100	2500.039262
757.092515	2500.097236
757.419882	2499.726711
757.747203	2499.988851
758.074477	2500.946670
758.401703	2503.487412
758.728882	2505.549243
759.056014	2507.197701
759.383099	2508.563853
759.710138	2509.748525
760.037129	2509.128463
760.364073	2512.876561
760.690970	2511.790192
761.017820	2512.856396
761.344623	2515.132477
761.671379	2520.771007
761.998088	2527.314425
762.324751	2548.620862
762.651366	2585.443970
762.977935	2634.045734
763.304456	2661.567914
763.630931	2669.600992
763.957359	2656.340237
764.283740	2633.486166
764.610074	2610.495984
764.936362	2582.774679
765.262602	2565.536454
765.588796	2546.992569
765.914943	2533.769623
766.241044	2521.428878
766.567097	2517.884947
766.893104	2507.061590
767.219064	2503.905827
767.544978	2498.383243
767.870845	2496.298726
768.196665	2491.975937
768.522438	2491.582727
768.848165	2486.274392
769.173846	2489.241111
769.499479	2489.508292
769.825066	2483.731130
770.150607	2484.603249
770.476101	2481.754997
770.801548	2482.349853
771.126949	2476.121508
771.452303	2478.238793
771.777611	2474.462968
772.102872	2475.448514
772.428087	2476.648308
772.753256	2476.068576
773.078378	2472.544809
773.403453	2469.986424
773.728482	2469.600775
774.053465	2468.032977
774.378401	2468.920220
774.703291	2466.755044
775.028135	2465.950980
775.352932	2465.807307
775.677683	2462.366720
776.002388	2462.394446
776.327046	2464.693212
776.651658	2463.992492
776.976224	2462.162553
777.300743	2461.333283
777.625216	2462.684312
777.949643	2463.687502
778.274024	2462.817903
778.598359	2458.074177
778.922647	2457.232304
779.246889	2456.899588
779.571086	2455.760288
779.895236	2461.078705
780.219339	2461.040896
780.543397	2463.311936
780.867409	2463.490897
781.191374	2461.741617
781.515294	2460.710701
781.839167	2466.114817
782.162995	2463.405197
782.486776	2463.402677
782.810511	2464.148767
783.134201	2464.688171
783.457844	2462.901082
783.781441	2461.083746
784.104993	2462.023921
784.428498	2459.717593
784.751958	2463.679940
785.075372	2459.626852
785.398739	2462.480146
785.722061	2462.565845
786.045337	2462.142388
786.368568	2461.802110
786.691752	2463.425362
787.014891	2470.679582
787.337983	2473.202680
787.661030	2483.146356
787.984031	2488.926039
788.306987	2494.257059
788.629897	2499.555312
788.952760	2495.590444
789.275579	2496.092039
789.598351	2492.598519
789.921078	2487.320431
790.243759	2479.292394
790.566395	2477.543113
790.888984	2474.415077
791.211529	2471.483646
791.534027	2470.092288
791.856480	2463.848819
792.178888	2465.318315
792.501249	2464.962914
792.823566	2463.435444
793.145836	2462.568366
793.468062	2460.181379
793.790241	2460.932511
794.112375	2464.698253
794.434464	2461.028293
794.756507	2466.334108
795.078505	2470.344346
795.400457	2472.229737
795.722364	2474.107567
796.044226	2476.960860
796.366042	2482.511170
796.687812	2484.361274
797.009538	2488.825216
797.331218	2484.666264
797.652852	2485.921511
797.974442	2484.300780
798.295986	2482.430512
798.617484	2478.478247
798.938938	2477.288535
799.260346	2474.707464
799.581709	2469.996506
799.903026	2471.677731
800.224299	2473.641260
800.545526	2465.998871
800.866708	2466.588686
801.187845	2466.719756
801.508936	2465.124231
801.829983	2463.543829
802.150984	2460.234312
802.471940	2462.265897
802.792851	2460.506534
803.113717	2459.152984
803.434538	2458.956379
803.755314	2461.655917
804.076045	2458.805144
804.396731	2458.699280
804.717372	2460.060392
805.037967	2462.737244
805.358518	2460.020062
805.679024	2464.652883
805.999485	2462.734724
806.319901	2464.615074
806.640272	2462.999384
806.960598	2462.926288
807.280879	2465.086422
807.601115	2466.661783
807.921306	2465.151957
808.241453	2467.896865
808.561554	2467.556588
808.881611	2467.312092
809.201623	2466.094653
809.521590	2467.528861
809.841513	2467.289406
810.161390	2467.244036
810.481223	2464.123562
810.801011	2464.035342
811.120755	2462.896041
811.440453	2463.737913
811.760107	2462.586010
812.079716	2456.982767
812.399281	2458.182562
812.718801	2458.767336
813.038276	2457.691049
813.357707	2459.924281
813.677093	2458.989147
813.996434	2459.911678
814.315731	2459.052161
814.634983	2458.784980
814.954191	2461.068622
815.273354	2462.661627
815.592473	2464.133644
815.911547	2467.783439
816.230577	2470.455251
816.549562	2469.008440
816.868502	2474.094964
817.187399	2474.717547
817.506250	2475.355253
817.825058	2478.626961
818.143821	2484.172231
818.462539	2490.372850
818.781213	2493.926863
819.099843	2506.270128
819.418429	2524.584640
819.736970	2536.383461
820.055466	2560.318859
820.373919	2586.391707
820.692327	2624.913684
821.010691	2689.947089
821.329011	2810.468475
821.647286	2980.025164
821.965517	3152.210815
822.283704	3255.809047
822.601847	3314.538489
822.919945	3255.935076
823.237999	3176.365503
823.556010	3084.087182
823.873976	2993.598471
824.191897	2906.691499
824.509775	2839.162723
824.827609	2777.585028
825.145398	2745.475399
825.463144	2729.280692
825.780845	2738.410222
826.098502	2768.634460
826.416116	2819.217397
826.733685	2873.462733
827.051210	2891.431926
827.368692	2864.678523
827.686129	2807.380768
828.003522	2745.780389
828.320872	2685.737726
828.638177	2647.112405
828.955439	2609.195367
829.272656	2579.936510
829.589830	2552.278219
829.906960	2540.728936
830.224046	2520.173631
830.541088	2511.099554
830.858086	2503.689058
831.175041	2500.682009
831.491952	2496.172697
831.808819	2498.269817
832.125642	2505.317350
832.442421	2524.337624
832.759157	2557.478169
833.075849	2611.897425
833.392497	2660.375681
833.709101	2690.247038
834.025662	2688.825433
834.342179	2661.507420
834.658653	2623.847480
834.975083	2591.402614
835.291469	2568.649366
835.607811	2542.430325
835.924110	2525.124044
836.240366	2509.937568
836.556578	2496.823006
836.872746	2483.910091
837.188871	2473.119501
837.504952	2468.746300
837.820990	2462.162553
838.136984	2462.969138
838.452935	2457.975875
838.768842	2457.113837
839.084706	2470.087247
839.400526	2494.609940
839.716303	2519.185565
840.032037	2542.148020
840.347727	2537.835313
840.663373	2518.096675
840.978977	2501.768378
841.294537	2484.610811
841.610054	2474.941878
841.925527	2465.842595
842.240957	2457.698611
842.556344	2453.249793
842.871687	2444.589091
843.186987	2441.811415
843.502244	2437.987700
843.817458	2435.303285
844.132629	2430.640218
844.447756	2430.690629
844.762840	2423.096131
845.077881	2423.819537
845.392879	2422.100503
845.707833	2424.273241
846.022745	2421.266192
846.337613	2425.747778
846.652438	2422.889444
846.967221	2423.693508
847.281960	2424.323652
847.596656	2426.357758
847.911309	2421.351892
848.225919	2423.590164
848.540485	2419.095976
848.855009	2421.707293
849.169490	2419.267375
849.483928	2419.930287
849.798323	2417.465162
850.112675	2419.670667
850.426984	2419.731161
850.741251	2418.115471
851.055474	2420.136974
851.369654	2421.263672
851.683792	2419.232087
851.997887	2421.619073
852.311938	2417.787796
852.625947	2419.201840
852.939914	2420.013466
853.253837	2419.847108
853.567718	2416.797209
853.881555	2416.822415
854.195350	2418.748136
854.509103	2418.785945
854.822812	2420.618404
855.136479	2418.128074
855.450103	2418.460790
855.763685	2420.583116
856.077224	2420.562951
856.390720	2420.179824
856.704173	2422.977664
857.017584	2419.355595
857.330953	2421.359454
857.644278	2422.168559
857.957561	2425.735175
858.270802	2421.412386
858.584000	2422.478590
858.897155	2422.576892
859.210268	2423.174269
859.523339	2421.538415
859.836367	2421.500606
860.149352	2425.074784
860.462295	2421.871131
860.775195	2416.068763
861.088054	2417.843249
861.400869	2419.010276
861.713642	2416.043557
862.026373	2420.031110
862.339062	2419.529515
862.651708	2421.629155
862.964312	2422.224012
863.276873	2421.356933
863.589392	2423.620411
863.901869	2425.074784
864.214303	2425.314239
864.526696	2425.730134
864.839045	2425.341965
865.151353	2428.714497
865.463619	2429.853798
865.775842	2428.543098
866.088023	2429.863880
866.400162	2429.657193
866.712258	2428.911102
867.024313	2431.726587
867.336325	2428.056627
867.648296	2428.507810
867.960224	2427.721390
868.272110	2430.403284
868.583954	2426.892120
868.895755	2431.358582
869.207515	2430.819179
869.519233	2428.772470
869.830909	2428.858170
870.142542	2431.774478
870.454134	2430.693150
870.765684	2432.167688
871.077191	2431.414035
871.388657	2432.928902
871.700081	2435.083995
872.011463	2432.636515
872.322803	2436.530806
872.634101	2437.695313
872.945357	2438.839655
873.256571	2441.143462
873.567744	2435.799839
873.878874	2440.057093
874.189963	2438.030549
874.501010	2442.217228
874.812015	2439.996599
875.122979	2441.645057
875.433900	2442.824687
875.744780	2447.840635
876.055618	2443.832918
876.366415	2446.930707
876.677169	2445.806529
876.987882	2446.282918
877.298554	2443.049018
877.609183	2449.872220
877.919771	2447.558330
878.230317	2454.691563
878.540822	2463.856381
878.851285	2469.174798
879.161707	2478.768114
879.472087	2497.306957
879.782425	2523.548683
880.092722	2569.309757
880.402977	2626.360495
880.713191	2678.992662
881.023363	2724.867162
881.333494	2752.863210
881.643583	2772.942126
881.953631	2778.028650
882.263637	2770.580345
882.573602	2751.880185
882.883526	2732.759088
883.193408	2706.517362
883.503248	2681.603980
883.813048	2654.202788
884.122806	2631.063892
884.432522	2601.842844
884.742197	2577.849472
885.051831	2560.858263
885.361424	2541.180119
885.670975	2522.739578
885.980485	2512.173320
886.289954	2501.065137
886.599382	2491.091214
886.908768	2484.555358
887.218113	2474.662094
887.527417	2470.165385
887.836680	2466.437451
888.145901	2458.974023
888.455082	2456.541666
888.764221	2453.315328
889.073319	2451.092179
889.382376	2450.746860
889.691392	2447.767538
890.000366	2445.131015
890.309300	2445.073041
890.618193	2451.301387
890.927044	2445.365428
891.235855	2447.036571
891.544625	2446.744184
891.853353	2446.812239
892.162041	2449.857096
892.470687	2457.199537
892.779293	2463.558952
893.087858	2469.134469
893.396381	2480.771972
893.704864	2501.806187
894.013306	2523.059691
894.321707	2547.143804
894.630068	2568.019222
894.938387	2570.484346
895.246665	2563.953531
895.554903	2552.820143
895.863100	2538.495704
896.171256	2525.983561
896.479371	2516.823784
896.787446	2507.270797
897.095480	2495.545074
897.403473	2489.780514
897.711425	2484.232724
898.019336	2475.597228
898.327207	2470.331743
898.635038	2462.689353
898.942827	2456.687860
899.250576	2454.280709
899.558284	2453.161573
899.865952	2444.858792
900.173579	2443.653957
900.481165	2445.408278
900.788711	2440.750252
901.096216	2439.676486
901.403681	2437.788574
901.711105	2438.353183
902.018489	2437.450817
902.325832	2440.513318
902.633135	2444.699996
902.940397	2449.360543
903.247619	2471.987762
903.554800	2501.067658
903.861941	2540.605427
904.169041	2566.494273
904.476101	2579.477765
904.783121	2572.329408
905.090100	2554.760987
905.397039	2542.740356
905.703938	2523.147912
906.010796	2509.309944
906.317614	2497.160763
906.624391	2486.425626
906.931129	2478.110243
907.237826	2468.562298
907.544483	2458.444702
907.851099	2450.676284
908.157675	2444.034564
908.464211	2436.301434
908.770707	2428.427151
909.077163	2423.849784
909.383578	2419.234607
909.689954	2421.435071
909.996289	2415.834349
910.302584	2417.442477
910.608839	2418.186047
910.915054	2419.234607
911.221229	2420.091603
911.527363	2419.239648
911.833458	2417.805440
912.139513	2415.667991
912.445527	2419.093455
912.751502	2422.859197
913.057436	2424.263158
913.363331	2429.465629
913.669186	2433.606937
913.975000	2440.644388
914.280775	2450.789710
914.586510	2461.408900
914.892205	2482.523773
915.197859	2503.429438
915.503475	2527.707635
915.809050	2548.913249
916.114585	2560.591082
916.420081	2561.415310
916.725536	2567.646177
917.030952	2559.492110
917.336328	2549.061963
917.641665	2540.718853
917.946961	2529.497245
918.252218	2522.679084
918.557435	2508.939419
918.862612	2502.148985
919.167750	2489.689773
919.472848	2483.234576
919.777906	2474.657053
920.082925	2471.090436
920.387904	2458.797583
920.692843	2452.538990
920.997743	2447.223093
921.302603	2445.458690
921.607423	2440.016764
921.912204	2434.151382
922.216946	2435.862853
922.521647	2427.988571
922.826310	2427.476894
923.130932	2423.995977
923.435516	2424.079156
923.740059	2422.178641
924.044564	2420.038671
924.349028	2418.627148
924.653454	2411.899728
924.957840	2414.700089
925.262186	2411.869482
925.566493	2413.044070
925.870761	2407.150962
926.174989	2410.967115
926.479178	2409.996693
926.783328	2410.999883
927.087438	2407.813873
927.391509	2407.990314
927.695541	2406.377144
927.999533	2406.999727
928.303486	2403.289438
928.607400	2407.695406
928.911275	2402.137534
929.215110	2403.929664
929.518906	2402.069478
929.822663	2404.227092
930.126381	2403.680127
930.430060	2403.682648
930.733699	2404.070817
931.037299	2404.527041
931.340861	2403.203738
931.644383	2404.010323
931.947866	2403.155847
932.251309	2403.087792
932.554714	2402.697102
932.858080	2404.660632
933.161407	2406.351939
933.464694	2403.281876
933.767943	2404.632905
934.071153	2404.181722
934.374323	2400.108470
934.677455	2403.891856
934.980548	2401.179715
935.283602	2403.372617
935.586617	2402.354304
935.889593	2403.612072
936.192530	2404.161557
936.495428	2403.523851
936.798287	2404.365724
937.101108	2407.085427
937.403890	2405.936043
937.706632	2408.285221
938.009336	2411.264543
938.312002	2411.672877
938.614628	2410.488205
938.917216	2412.998700
939.219765	2413.369225
939.522275	2416.303176
939.824747	2419.242169
940.127179	2413.855696
940.429573	2408.136507
940.731929	2413.706982
941.034246	2410.793195
941.336524	2413.049112
941.638763	2414.846283
941.940964	2415.491551
942.243126	2412.902918
942.545250	2410.798236
942.847335	2410.268915
943.149381	2411.380490
943.451389	2411.463669
943.753359	2406.319171
944.055290	2406.014181
944.357182	2409.114491
944.659036	2407.095509
944.960851	2409.439645
945.262628	2405.401681
945.564367	2406.702299
945.866067	2406.054511
946.167729	2405.757083
946.469352	2405.389078
946.770937	2404.285066
947.072484	2403.783471
947.373992	2405.099212
947.675462	2407.203894
947.976893	2404.300189
948.278286	2403.657442
948.579641	2404.494273
948.880958	2402.946639
949.182236	2404.242216
949.483476	2403.334808
949.784678	2405.517628
950.085841	2404.776578
950.386967	2405.252967
950.688054	2405.368914
950.989103	2408.133987
951.290114	2406.026784
951.591087	2404.380848
951.892021	2407.113153
952.192917	2411.138514
952.493776	2408.257495
952.794596	2407.914696
953.095378	2409.653894
953.396122	2409.101888
953.696828	2408.166754
953.997496	2406.588873
954.298126	2406.041908
954.598718	2410.223545
954.899272	2407.317320
955.199788	2405.147103
955.500266	2405.162226
955.800706	2402.316495
956.101108	2397.114024
956.401472	2400.486556
956.701798	2398.207955
957.002087	2396.057903
957.302337	2399.748027
957.602550	2396.715773
957.902724	2397.343397
958.202861	2397.537481
958.502960	2400.342883
958.803022	2398.081926
959.103045	2395.349620
959.403031	2395.142933
959.702979	2397.252656
960.002889	2395.054713
960.302762	2393.892727
960.602596	2395.687378
960.902393	2395.611760
961.202153	2392.355175
961.501875	2394.626215
961.801559	2392.811399
962.101205	2395.475649
962.400814	2393.565052
962.700385	2391.727551
962.999918	2392.105638
963.299414	2393.580175
963.598873	2393.345762
963.898293	2393.607902
964.197677	2390.005997
964.497022	2393.670916
964.796331	2392.771070
965.095601	2393.113869
965.394835	2391.626728
965.694030	2389.809392
965.993189	2392.801317
966.292309	2390.346275
966.591393	2390.608415
966.890439	2390.615977
967.189447	2392.135885
967.488419	2392.871893
967.787353	2393.272665
968.086249	2392.700494
968.385108	2391.621687
968.683930	2392.148488
968.982714	2391.747716
969.281462	2390.752088
969.580172	2391.762839
969.878844	2390.293343
970.177480	2394.860628
970.476078	2393.116389
970.774639	2394.946328
971.073162	2391.354506
971.371649	2389.174207
971.670098	2392.584548
971.968510	2390.018600
972.266885	2390.174876
972.565223	2392.763508
972.863524	2391.977088
973.161788	2394.384239
973.460014	2391.364588
973.758204	2396.378016
974.056356	2397.804662
974.354471	2395.309291
974.652550	2394.180073
974.950591	2395.430279
975.248595	2393.650752
975.546563	2394.779970
975.844493	2392.861811
976.142386	2395.125289
976.440243	2393.602861
976.738062	2395.354662
977.035845	2393.900289
977.333590	2393.862480
977.631299	2393.078581
977.928971	2390.999105
978.226606	2392.574465
978.524204	2392.844167
978.821765	2392.655124
979.119290	2393.098745
979.416777	2393.209651
979.714228	2393.554970
980.011642	2395.402552
980.309020	2395.697460
980.606360	2394.298540
980.903664	2393.834754
981.200931	2393.257542
981.498162	2397.240053
981.795356	2398.485218
982.092513	2400.884807
982.389633	2402.071999
982.686717	2401.663666
982.983764	2406.306568
983.280775	2404.879922
983.577749	2406.263718
983.874686	2403.760786
984.171587	2405.424366
984.468451	2404.406053
984.765279	2403.493604
985.062070	2402.944119
985.358824	2401.925806
985.655543	2402.039232
985.952224	2397.116545
986.248869	2394.197717
986.545478	2391.714948
986.842050	2395.649569
987.138586	2388.118085
987.435086	2390.555483
987.731549	2388.695297
988.027975	2393.527243
988.324366	2390.759650
988.620719	2390.343755
988.917037	2391.394835
989.213318	2390.583209
989.509563	2389.756460
989.805772	2391.714948
990.101944	2389.277551
990.398080	2391.472973
990.694180	2392.667727
990.990244	2388.450801
991.286271	2388.029865
991.582262	2389.915257
991.878217	2390.212685
992.174136	2388.783518
992.470019	2390.520195
992.765865	2391.745195
993.061676	2389.950545
993.357450	2390.555483
993.653188	2392.551780
993.948890	2393.025648
994.244556	2387.689587
994.540186	2392.214023
994.835780	2392.448436
995.131337	2393.801986
995.426859	2397.290465
995.722345	2397.260218
996.017795	2399.042266
996.313208	2399.753068
996.608586	2396.226781
996.903928	2397.207286
997.199234	2401.096536
997.494504	2398.651576
997.789738	2400.204252
998.084936	2396.982954
998.380099	2396.748541
998.675225	2396.607388
998.970316	2396.201575
999.265371	2396.499003
999.560390	2392.448436
999.855373	2395.223592
1000.150320	2390.343755
1000.445232	2392.350134
1000.740108	2388.849053
1001.034948	2391.639331
1001.329752	2389.227139
1001.624521	2390.326111
1001.919254	2385.660523
1002.213951	2390.255534
1002.508613	2384.039792
1002.803239	2390.255534
1003.097829	2386.275543
1003.392384	2389.552293
1003.686903	2388.274361
1003.981386	2387.218239
1004.275834	2389.534649
1004.570246	2389.557335
1004.864623	2387.548435
1005.158964	2392.524054
1005.453270	2387.530791
1005.747540	2388.677653
1006.041775	2390.510113
1006.335974	2389.895092
1006.630138	2388.322252
1006.924266	2387.871069
1007.218359	2387.664381
1007.512416	2386.451984
1007.806438	2386.862838
1008.100425	2389.794269
1008.394376	2389.113713
1008.688292	2388.044988
1008.982172	2387.918960
1009.276017	2388.334855
1009.569827	2387.296377
1009.863602	2389.181769
1010.157341	2386.235214
1010.451045	2389.708569
1010.744714	2389.065822
1011.038347	2390.915926
1011.331945	2386.893085
1011.625508	2391.170504
1011.919036	2388.302087
1012.212528	2389.567417
1012.505986	2387.009031
1012.799408	2389.401059
1013.092795	2388.304608
1013.386147	2387.346789
1013.679464	2386.867879
1013.972745	2390.873076
1014.265992	2385.796634
1014.559204	2388.309649
1014.852380	2388.453322
1015.145521	2388.758312
1015.438628	2386.421737
1015.731699	2388.627242
1016.024736	2385.910060
1016.317737	2389.504403
1016.610703	2389.418703
1016.903635	2385.642879
1017.196531	2386.159597
1017.489393	2387.613970
1017.782219	2382.834956
1018.075011	2387.538353
1018.367768	2388.445760
1018.660490	2387.956768
1018.953177	2387.956768
1019.245829	2387.956768
