Dividing Wavelength (nm)	Counts (n)	Blue Motor Position (mm): 40.400000	Red Motor Position (mm): 0.000000	
326.493990	1972.694241
326.888308	1972.694241
327.282561	1972.694241
327.676750	1947.186002
328.070874	1947.528801
328.464933	1953.300922
328.858929	1961.762499
329.252859	1977.178347
329.646726	1991.389360
330.040528	2004.962667
330.434265	2026.800945
330.827938	2043.346012
331.221547	2062.267983
331.615091	2084.007959
332.008571	2106.877153
332.401986	2126.661162
332.795338	2145.038688
333.188625	2167.355876
333.581847	2184.652075
333.975006	2202.805270
334.368100	2222.942159
334.761129	2237.755589
335.154095	2252.448032
335.546996	2294.902109
335.939833	2373.687782
336.332606	2392.703015
336.725315	2404.610220
337.117960	2413.361663
337.510540	2419.408527
337.903056	2429.712646
338.295508	2435.459561
338.687896	2441.166147
339.080220	2448.329627
339.472480	2455.820781
339.864676	2461.290433
340.256807	2465.144395
340.648875	2464.118521
341.040879	2465.882924
341.432818	2466.936526
341.824694	2469.595734
342.216506	2467.349900
342.608253	2470.069603
342.999937	2465.610702
343.391557	2465.613223
343.783113	2463.690023
344.174605	2460.877059
344.566033	2461.098869
344.957397	2459.130299
345.348697	2459.778087
345.739934	2456.085442
346.131106	2456.783642
346.522215	2457.670885
346.913260	2451.626541
347.304241	2452.138218
347.695159	2448.090172
348.086012	2447.717127
348.476802	2445.282249
348.867528	2445.496498
349.258191	2442.302927
349.648789	2443.895932
350.039324	2439.356373
350.429796	2441.503904
350.820203	2439.883173
351.210548	2438.937957
351.600828	2435.283121
351.991045	2437.642381
352.381198	2436.971907
352.771288	2440.523400
353.161314	2435.575508
353.551276	2437.728080
353.941175	2434.131217
354.331010	2437.808739
354.720782	2439.512649
355.110490	2440.382248
355.500135	2437.526434
355.889717	2436.850919
356.279235	2437.541557
356.668689	2439.376538
357.058080	2440.674635
357.447408	2438.403595
357.836672	2435.971238
358.225873	2438.627926
358.615010	2437.226485
359.004084	2443.253185
359.393095	2442.262598
359.782043	2445.458690
360.170927	2444.742846
360.559748	2444.926848
360.948505	2446.971036
361.337199	2448.319544
361.725830	2448.599328
362.114398	2449.642847
362.502903	2447.328958
362.891344	2449.678135
363.279722	2447.545727
363.668037	2451.508074
364.056289	2452.092848
364.444478	2452.294494
364.832603	2449.836932
365.220665	2453.685853
365.608665	2451.510595
365.996601	2455.515792
366.384474	2450.693928
366.772284	2456.947479
367.160031	2456.037551
367.547715	2456.738271
367.935336	2455.712397
368.322893	2456.453446
368.710388	2460.362861
369.097820	2460.791359
369.485189	2459.347068
369.872495	2464.385702
370.259738	2461.320680
370.646918	2463.057358
371.034035	2461.129116
371.421090	2460.294805
371.808081	2463.566514
372.195010	2464.055506
372.581875	2463.445527
372.968678	2463.712708
373.355418	2466.170270
373.742096	2466.591207
374.128710	2466.649180
374.515262	2470.576239
374.901751	2471.150930
375.288177	2469.038687
375.674540	2471.050107
376.060841	2471.939871
376.447079	2472.973307
376.833254	2471.599593
377.219367	2469.651187
377.605417	2475.854327
377.991404	2472.771661
378.377329	2474.082361
378.763191	2474.097485
379.148991	2478.952116
379.534727	2477.591004
379.920402	2480.018320
380.306013	2481.603763
380.691563	2480.109061
381.077049	2482.329689
381.462474	2483.831953
381.847835	2482.911942
382.233134	2484.915801
382.618371	2487.877479
383.003545	2489.457880
383.388657	2489.168014
383.773706	2493.858808
384.158693	2490.158601
384.543618	2493.100114
384.928480	2491.522233
385.313280	2494.720845
385.698017	2497.468274
386.082692	2500.147647
386.467305	2501.236536
386.851856	2502.338028
387.236344	2505.818945
387.620770	2507.359018
388.005133	2506.557474
388.389435	2509.796416
388.773674	2514.391427
389.157851	2516.299504
389.541965	2519.515760
389.926018	2520.052643
390.310008	2525.819723
390.693936	2534.671989
391.077802	2542.447969
391.461606	2548.935934
391.845348	2559.149312
392.229027	2569.781105
392.612645	2586.661409
392.996200	2602.278903
393.379694	2625.959724
393.763125	2647.276243
394.146494	2668.653256
394.529801	2697.939839
394.913047	2734.420149
395.296230	2758.887389
395.679351	2789.346040
396.062410	2838.393947
396.445408	2874.108001
396.828343	2919.932090
397.211217	2973.660707
397.594028	3013.664784
397.976778	3083.935948
398.359466	3154.406237
398.742092	3207.139227
399.124656	3289.002524
399.507158	3378.956874
399.889598	3447.869447
400.271977	3551.666804
400.654294	3631.369967
401.036549	3746.073861
401.418742	3831.959999
401.800874	3979.441476
402.182944	4086.591201
402.564952	4266.270527
402.946898	4320.165503
403.328783	4427.955454
403.710606	4587.523097
404.092367	4760.729581
404.474067	4987.299200
404.855705	5035.406931
405.237282	5134.011900
405.618797	5391.440942
406.000250	5606.743581
406.381642	5867.550196
406.762972	5982.750644
407.144240	6027.989958
407.525447	6266.696155
407.906593	6366.798347
408.287677	6614.200533
408.668700	6821.644014
409.049661	6944.927952
409.430560	7163.121693
409.811399	7291.383771
410.192176	7501.544433
410.572891	7686.058226
410.953545	8099.112728
411.334138	7938.236906
411.714669	8421.582737
412.095139	8155.482910
412.475547	8582.960154
412.855894	8618.157490
413.236180	8954.851114
413.616405	8886.863593
413.996568	9191.840798
414.376670	9307.807501
414.756711	9342.200773
415.136691	9661.888064
415.516609	9906.051310
415.896466	10072.086753
416.276262	10394.609694
416.655997	10849.757830
417.035670	10995.374080
417.415283	11601.590474
417.794834	11793.643312
418.174324	11709.713142
418.553753	11735.738098
418.933121	12238.472207
419.312428	12185.905575
419.691674	12215.484545
420.070859	12709.706665
420.449983	12500.357628
420.829045	13088.221702
421.208047	12950.210033
421.586988	13433.875977
421.965867	13740.226896
422.344686	13818.241273
422.723444	14401.306168
423.102141	13288.108493
423.480777	14430.559983
423.859352	14050.255337
424.237866	15117.460045
424.616319	14908.511780
424.994712	15578.236630
425.373044	15430.649289
425.751314	16118.245030
426.129524	15345.514283
426.507673	16401.482259
426.885762	16179.116962
427.263789	16387.276287
427.641756	16593.376300
428.019662	16687.918100
428.397508	16752.825476
428.775292	17049.051238
429.153016	17052.088533
429.530679	17148.659397
429.908282	17194.198660
430.285824	16953.261753
430.663305	17648.661200
431.040726	17289.300027
431.418086	17140.540618
431.795385	17773.696938
432.172624	18186.506945
432.549802	17771.567051
432.926920	17970.175910
433.303977	17867.051546
433.680974	18124.967059
434.057910	18419.672913
434.434786	18457.920147
434.811601	18368.681642
435.188355	19391.746006
435.565050	19056.743689
435.941683	19025.443165
436.318257	19875.008658
436.694770	19697.491987
437.071222	20282.417068
437.447614	19388.285254
437.823946	19396.976203
438.200218	19557.315142
438.576429	19342.851855
438.952580	19618.003073
439.328670	19580.043185
439.704700	19981.959257
440.080670	19575.102854
440.456580	20148.844135
440.832429	20316.328910
441.208218	19350.045582
441.583947	19777.684142
441.959616	19881.857065
442.335224	20115.426326
442.710773	20238.458206
443.086261	20762.571848
443.461689	20141.852054
443.837057	20271.886097
444.212365	20892.648741
444.587612	20897.062271
444.962800	20493.059161
445.337927	20904.629043
445.712995	19664.805145
446.088002	21477.767906
446.462949	21667.703459
446.837837	21836.985406
447.212664	21796.217594
447.587431	24570.137704
447.962139	27450.837014
448.336786	29813.842591
448.711374	28275.325287
449.085901	24658.627598
449.460369	24587.300312
449.834776	24506.102447
450.209124	26938.156709
450.583412	26507.654773
450.957640	27027.508640
451.331808	25694.877100
451.705917	24351.545712
452.079965	24385.291195
452.453954	24732.006633
452.827883	24633.225224
453.201752	24443.151039
453.575562	24589.117648
453.949311	25680.804719
454.323001	25750.980102
454.696632	25517.090728
455.070202	27041.765023
455.443713	27188.606273
455.817164	27757.581143
456.190556	28288.260888
456.563888	27728.128202
456.937160	28168.505758
457.310373	26526.233946
457.683526	26948.067617
458.056619	26924.598526
458.429653	26870.282613
458.802628	27435.625332
459.175542	27568.953769
459.548398	28842.891155
459.921194	30424.464954
460.293930	31086.812075
460.666607	33090.582509
461.039224	34835.169579
461.411782	35198.568716
461.784280	34000.276364
462.156719	33486.587829
462.529099	32915.162958
462.901419	31627.833747
463.273680	30589.600551
463.645882	30684.545642
464.018024	30667.118373
464.390106	31512.958454
464.762130	34199.185172
465.134094	38262.806355
465.505999	43539.122466
465.877845	48098.382334
466.249631	49213.435153
466.621358	47423.515507
466.993026	45252.106543
467.364634	43151.908919
467.736184	41203.230735
468.107674	39970.098969
468.479105	39201.685971
468.850477	38512.731639
469.221790	37093.805628
469.593043	35399.194036
469.964238	34525.499060
470.335373	34437.233498
470.706449	36100.786540
471.077467	38633.033735
471.448425	43194.574724
471.819324	46054.910293
472.190164	44254.210139
472.560945	40697.235000
472.931667	37606.007023
473.302330	36503.665473
473.672934	35702.260644
474.043479	36192.177618
474.413965	35408.442033
474.784393	35064.347995
475.154761	35930.330005
475.525070	35971.044884
475.895321	35513.214854
476.265513	36099.493484
476.635645	37074.066990
477.005719	36888.824751
477.375734	37339.430808
477.745691	38047.342398
478.115588	39354.344712
478.485427	41312.825420
478.855207	44653.966078
479.224928	47268.285777
479.594591	48890.183766
479.964194	47858.514152
480.333739	47963.571798
480.703226	47978.720465
481.072653	48629.319178
481.442022	49135.221651
481.811333	49395.083050
482.180584	48101.528014
482.549777	47579.430834
482.918912	47067.736074
483.287988	46751.640605
483.657005	45942.747141
484.025964	45298.636393
484.394864	45307.922199
484.763706	44867.582451
485.132489	43995.359492
485.501213	43845.556565
485.869879	43984.087472
486.238487	43596.158081
486.607036	43794.028411
486.975527	43262.002678
487.343959	43462.786794
487.712333	43563.539295
488.080648	43464.967093
488.448905	43908.676852
488.817104	43704.618506
489.185244	44669.263459
489.553326	46328.168558
489.921350	49055.624353
490.289315	51993.152590
490.657222	52622.059217
491.025070	52896.285384
491.392861	51978.573573
491.760593	50696.638397
492.128267	48976.037136
492.495883	47444.136347
492.863440	46053.987762
493.230939	44717.073762
493.598380	43643.635668
493.965763	43326.582379
494.333088	42510.303625
494.700354	42048.992678
495.067563	41765.369800
495.434713	41627.516928
495.801805	41702.851931
496.168839	41344.597292
496.535815	41014.736952
496.902733	41066.370970
497.269593	40645.331280
497.636395	40585.558319
498.003139	40973.023924
498.369825	40434.953848
498.736453	40740.256207
499.103023	40288.737701
499.469535	40156.813225
499.835989	40260.552610
500.202385	39911.772819
500.568723	39939.574783
500.935003	40121.444490
501.301226	39932.824678
501.667390	40545.123224
502.033497	40795.169496
502.399546	40225.206560
502.765537	39550.039784
503.131470	39924.665570
503.497345	40267.572417
503.863163	38955.642375
504.228923	39562.937576
504.594625	39955.673708
504.960269	39265.789283
505.325856	39936.839957
505.691385	39307.736724
506.056856	39440.792939
506.422270	39871.831757
506.787625	39453.597470
507.152924	39643.301130
507.518164	39748.888097
507.883347	38973.803132
508.248472	39220.144156
508.613540	39686.796205
508.978550	39976.886883
509.343503	39732.711035
509.708398	39934.901633
510.073236	40456.489657
510.438016	40452.708792
510.802738	39908.037324
511.167403	40526.730574
511.532010	40751.639132
511.896561	41042.448174
512.261053	41869.394010
512.625488	41419.004722
512.989866	41296.305558
513.354186	41136.596763
513.718449	41134.925621
514.082655	41796.231744
514.446803	41476.857004
514.810894	41985.718635
515.174927	41912.964703
515.538904	41814.410145
515.902822	42469.223262
516.266684	41924.934923
516.630488	42356.495500
516.994235	42199.508928
517.357925	42760.022222
517.721558	42931.585290
518.085133	43234.263729
518.448651	43364.973286
518.812112	43141.851817
519.175516	43247.607663
519.538863	43589.481073
519.902152	43540.602045
520.265385	43994.515099
520.628560	44026.687743
520.991678	43842.738560
521.354739	44072.005195
521.717743	44390.021345
522.080690	44291.885203
522.443580	44829.551987
522.806413	44880.245830
523.169189	44837.378378
523.531908	45010.887332
523.894569	44869.427514
524.257174	45030.447009
524.619722	45321.263612
524.982213	45327.955744
525.344647	45244.607827
525.707025	45294.868131
526.069345	45689.885384
526.431608	45607.674248
526.793815	45931.863290
527.155964	45482.741852
527.518057	45643.887376
527.880093	45436.272496
528.242072	45956.675849
528.603995	45668.848649
528.965860	45666.149112
529.327669	45758.566064
529.689421	45661.549059
530.051117	45635.907230
530.412755	45767.932528
530.774337	45845.843561
531.135862	45646.266801
531.497331	45865.163783
531.858743	45781.253777
532.220098	46121.045191
532.581396	45834.102714
532.942638	45494.749881
533.303824	45791.570499
533.664953	45764.602846
534.026025	45488.786196
534.387040	45961.301107
534.747999	45905.245997
535.108902	46066.802375
535.469748	45600.152846
535.830537	45728.603967
536.191270	45907.983344
536.551947	45577.654176
536.912567	45862.169338
537.273131	45994.839904
537.633638	45495.168297
537.994089	45829.542990
538.354483	45444.645853
538.714821	46011.755496
539.075103	46355.753752
539.435328	46109.657224
539.795497	46008.435896
540.155609	45998.424164
540.515665	46454.063814
540.875665	45929.100737
541.235609	46240.119765
541.595496	46201.496965
541.955328	46864.542286
542.315102	46279.118131
542.674821	46061.612507
543.034483	46078.850733
543.394090	46055.059007
543.753640	46014.346649
544.113134	47003.166455
544.472571	46036.719290
544.831953	47269.397352
545.191278	46503.290681
545.550548	46216.126393
545.909761	46674.087494
546.268918	46858.908797
546.628019	47180.617591
546.987064	46750.788650
547.346053	46039.343210
547.704986	46901.778769
548.063863	46471.037379
548.422684	46653.832138
548.781449	46512.183276
549.140158	46912.551715
549.498811	46755.996162
549.857408	46197.728702
550.215949	47026.081020
550.574434	46968.654716
550.932864	46733.096720
551.291237	47441.673743
551.649555	47048.080615
552.007817	47297.169068
552.366022	46943.879965
552.724173	47121.862943
553.082267	47521.797842
553.440305	47836.721244
553.798288	47139.436405
554.156215	47460.477247
554.514086	47650.717790
554.871902	47410.302643
555.229661	47420.158098
555.587365	47255.375382
555.945014	47358.008233
556.302606	47271.355840
556.660143	47492.755755
557.017625	47583.284796
557.375050	47369.373515
557.732421	47724.580776
558.089735	47705.817602
558.446994	47634.863361
558.804197	48098.145400
559.161345	48038.657264
559.518437	47290.875188
559.875474	47590.607072
560.232455	47754.557998
560.589381	47916.525230
560.946251	47623.296434
561.303065	48305.689704
561.659825	48112.379098
562.016528	47795.351015
562.373177	47514.372223
562.729770	47991.376282
563.086307	47507.465842
563.442789	47968.862489
563.799216	48003.769959
564.155587	47802.370821
564.511904	47829.225048
564.868164	47923.837423
565.224370	48182.231846
565.580520	47904.655833
565.936615	48108.837687
566.292654	47834.987087
566.648638	48071.379393
567.004567	48032.852375
567.360441	48056.971776
567.716260	47938.534907
568.072023	48212.133450
568.427732	48211.163028
568.783385	47753.486753
569.138982	48157.469698
569.494525	48109.465311
569.850013	47873.025113
570.205445	47841.681739
570.560823	47811.875917
570.916145	47658.861774
571.271412	47696.700675
571.626625	47460.378944
571.981782	47529.427629
572.336884	47194.382462
572.691931	47529.415026
573.046923	47119.302037
573.401860	46977.524626
573.756743	46960.651884
574.111570	47089.987727
574.466342	46923.637212
574.821059	47037.559727
575.175722	46565.589260
575.530330	46575.860611
575.884882	46308.066957
576.239380	46266.875689
576.593823	46240.570948
576.948211	46158.500964
577.302544	45689.774479
577.656823	45721.412761
578.011047	45931.157528
578.365216	45660.719789
578.719330	45472.306664
579.073389	45314.959649
579.427394	45400.810499
579.781344	45374.974586
580.135239	45020.526018
580.489080	45107.743021
580.842866	44593.222694
581.196597	45053.923662
581.550273	44989.964023
581.903895	44858.667171
582.257463	45275.038752
582.610975	44669.618860
582.964434	44955.248117
583.317837	44589.376294
583.671186	44415.693421
584.024481	44656.466490
584.377721	44186.124316
584.730906	44471.128469
585.084037	44498.401111
585.437113	44211.529210
585.790135	44252.596970
586.143103	43845.831308
586.496016	43973.080113
586.848874	44003.916851
587.201679	44020.920663
587.554428	43490.505579
587.907124	43691.816496
588.259765	43444.462200
588.612352	43679.017006
588.964884	43072.752721
589.317362	43363.952453
589.669786	43308.388855
590.022155	43076.810850
590.374470	43494.253677
590.726731	43021.038044
591.078937	42536.696586
591.431090	42624.878969
591.783188	42285.387505
592.135232	41971.487458
592.487222	42211.690877
592.839157	42294.615337
593.191038	41977.221770
593.542866	41739.511202
593.894639	41136.533749
594.246358	41427.010075
594.598022	41406.071642
594.949633	41000.228511
595.301190	40958.407098
595.652692	40797.848869
596.004141	41114.655141
596.355535	40138.657510
596.706876	40100.145615
597.058162	39921.308162
597.409395	40390.770655
597.760573	40456.615686
598.111698	40052.998224
598.462768	40050.792719
598.813785	40100.069998
599.164748	39564.742309
599.515657	39959.174789
599.866511	39417.769989
600.217312	40034.776973
600.568060	39001.801700
600.918753	39756.013768
601.269392	39709.783867
601.619978	39351.864464
601.970510	39568.808000
602.320988	39756.790106
602.671412	40061.240510
603.021783	39796.000201
603.372100	39455.818098
603.722363	39551.852079
604.072572	39625.614242
604.422728	39653.280094
604.772830	39456.223911
605.122878	39549.006347
605.472872	39487.292542
605.822813	39769.188824
606.172701	39604.128844
606.522534	39840.269093
606.872314	40105.413621
607.222041	39857.035971
607.571714	40242.895968
607.921333	39700.303977
608.270899	39987.614458
608.620411	40316.070837
608.969870	40124.302824
609.319276	40134.697683
609.668627	40161.317496
610.017926	40659.020533
610.367171	40813.166415
610.716362	40901.479869
611.065500	40841.835457
611.414585	41036.257637
611.763616	41313.652169
612.112594	41257.458427
612.461518	41483.677685
612.810389	41756.429314
613.159207	41624.577935
613.507971	41702.299925
613.856682	42193.986344
614.205340	42062.041704
614.553945	42763.422480
614.902496	42211.403531
615.250994	42672.812781
615.599439	42764.942388
615.947830	42962.958911
616.296169	43018.446891
616.644454	43140.321827
616.992686	43309.013958
617.340864	43819.861803
617.688990	43555.007142
618.037063	44143.352646
618.385082	44121.322803
618.733048	44413.722329
619.080961	44421.962095
619.428821	44430.947952
619.776628	44538.755548
620.124382	44352.512639
620.472083	44493.140667
620.819731	44614.829080
621.167326	44277.117143
621.514868	44264.128610
621.862357	43821.926156
622.209793	43827.751209
622.557176	43498.553781
622.904506	43257.158129
623.251783	42902.066814
623.599007	42690.527395
623.946179	42462.538692
624.293297	42417.674943
624.640363	41829.664677
624.987376	41807.289515
625.334336	41556.968500
625.681243	41219.904351
626.028097	41174.138236
626.374899	41019.833558
626.721647	41005.456187
627.068343	40898.445094
627.414987	40663.214773
627.761577	40434.306059
628.108115	40778.921857
628.454600	40229.070604
628.801032	40410.610116
629.147412	40372.506554
629.493739	40365.441377
629.840014	40019.600579
630.186236	40367.024300
630.532405	39972.536367
630.878521	40200.260410
631.224585	40068.542622
631.570597	39781.748859
631.916556	39944.058889
632.262462	39890.937730
632.608316	39887.303058
632.954117	39791.067432
633.299866	39790.006269
633.645562	39699.285664
633.991206	39181.380203
634.336797	38761.802448
634.682336	38771.199159
635.027823	38519.796816
635.373257	38331.272786
635.718639	38099.687219
636.063968	37946.786503
636.409245	37382.099134
636.754470	37415.970647
637.099642	37185.680657
637.444762	36716.046764
637.789829	36853.357713
638.134845	36492.103587
638.479808	36448.525333
638.824719	36351.740220
639.169577	35963.102547
639.514383	36027.674686
639.859137	35724.277883
640.203839	35977.936142
640.548489	35603.393534
640.893086	35658.422770
641.237632	35425.556750
641.582125	35535.879882
641.926566	35479.716387
642.270955	35419.464516
642.615292	35456.101101
642.959576	35415.476963
643.303809	35422.711019
643.647990	35566.552782
643.992118	35534.367535
644.336195	35533.389552
644.680219	35622.176874
645.024192	35929.619203
645.368112	36441.346730
645.711981	36464.228527
646.055797	37330.220620
646.399562	37260.027594
646.743274	38206.579846
647.086935	38655.774380
647.430544	38543.210455
647.774101	38653.336982
648.117606	38905.828213
648.461059	39198.240342
648.804460	38796.054568
649.147810	38172.904938
649.491108	37922.334386
649.834354	37570.794564
650.177548	36744.942658
650.520690	36284.859232
650.863781	36281.557276
651.206820	36134.592518
651.549807	35708.700718
651.892742	35220.999330
652.235626	35029.264085
652.578458	34890.823918
652.921238	34288.864778
653.263967	34632.986543
653.606644	34302.473373
653.949269	34258.973256
654.291843	33847.035370
654.634365	34260.127681
654.976836	33863.651013
655.319255	33864.349213
655.661622	33857.455435
656.003938	33620.984990
656.346203	33496.770959
656.688416	33712.837334
657.030577	33503.947042
657.372687	33348.969370
657.714746	33603.797176
658.056753	33737.299533
658.398708	33195.849363
658.740612	33234.721700
659.082465	33509.613299
659.424266	33333.520754
659.766016	33464.802482
660.107715	33328.676205
660.449362	33456.504743
660.790958	33448.476706
661.132503	33473.748010
661.473996	33512.186808
661.815438	33614.776809
662.156829	33806.229750
662.498168	33566.512802
662.839456	33601.203502
663.180693	33752.838890
663.521879	33921.243675
663.863013	33868.001529
664.204097	33864.568503
664.545129	34336.722972
664.886110	34295.468690
665.227040	34348.849468
665.567918	34488.713761
665.908746	34540.186462
666.249522	34698.178744
666.590248	34692.830080
666.930922	34823.905121
667.271545	34769.879075
667.612118	34877.217843
667.952639	34649.387937
668.293109	34699.131522
668.633528	34601.106286
668.973896	34519.721898
669.314213	34551.829007
669.654480	34284.345384
669.994695	34311.658355
670.334859	34204.801017
670.674973	34090.434880
671.015035	34253.818677
671.355047	34210.626070
671.695008	34156.723533
672.034918	34048.913417
672.374777	34131.326200
672.714585	33963.304542
673.054342	34197.282136
673.394049	33956.183912
673.733705	34242.176132
674.073310	33903.791200
674.412864	33974.672344
674.752368	33565.413831
675.091820	33861.563975
675.431223	33436.075467
675.770574	33171.664427
676.109875	33026.874927
676.449125	32752.318565
676.788324	32664.237005
677.127473	32132.143216
677.466571	32061.204099
677.805619	31703.645139
678.144616	31702.170602
678.483562	31619.898971
678.822458	31297.542388
679.161303	31234.805229
679.500098	31142.441208
679.838842	31026.298064
680.177535	31189.649093
680.516179	31452.008383
680.854771	31704.781919
681.193314	32571.207552
681.531805	33721.639188
681.870247	34498.740616
682.208638	35239.815437
682.546978	35458.959436
682.885268	35542.357764
683.223508	35007.007390
683.561697	34663.467879
683.899836	34470.845391
684.237925	33957.988645
684.575963	33816.652336
684.913951	33344.104656
685.251889	33501.250025
685.589776	33499.896475
685.927614	33484.102540
686.265401	33629.791886
686.603137	33725.228490
686.940824	34248.041514
687.278460	34613.767143
687.616046	34770.186586
687.953582	35377.592692
688.291068	35227.215073
688.628504	35514.354155
688.965889	35440.423113
689.303224	35049.010284
689.640510	34683.347669
689.977745	33951.845999
690.314930	33147.968484
690.652065	32609.301031
690.989150	31872.612013
691.326185	30959.686778
691.663170	30260.645098
692.000105	29508.981333
692.336990	28805.019486
692.673825	28360.503143
693.010610	27847.752262
693.347345	27264.843643
693.684030	26608.840813
694.020665	26323.098131
694.357251	25648.485882
694.693786	25603.296979
695.030272	25364.920978
695.366707	24826.084647
695.703093	24516.996381
696.039429	24513.293653
696.375716	24253.759930
696.711952	24223.253387
697.048139	24059.947729
697.384276	23874.960068
697.720363	24010.856973
698.056400	23808.028668
698.392388	23587.125307
698.728326	23548.200037
699.064214	23342.707483
699.400053	23279.468729
699.735842	22922.744080
700.071581	22642.776039
700.407270	22346.368796
700.742910	22150.590545
701.078501	21886.030791
701.414042	21596.527408
701.749533	21302.124024
702.084974	20940.917789
702.420366	21157.813433
702.755709	20714.043181
703.091002	20417.935886
703.426246	20440.023702
703.761440	20340.019812
704.096584	20053.805782
704.431679	20019.243631
704.766725	19930.511762
705.101721	19867.754438
705.436668	19955.641914
705.771565	19639.720364
706.106413	19981.026644
706.441212	19953.060843
706.775961	20105.023905
707.110661	20172.797177
707.445311	20519.817605
707.779913	20358.132678
708.114465	20607.052252
708.448967	20900.888507
708.783421	21607.998554
709.117825	21878.884956
709.452180	22096.504006
709.786485	22498.732630
710.120742	23316.369975
710.454949	23317.531961
710.789107	23784.970431
711.123216	24498.500387
711.457275	24629.361179
711.791286	25164.391440
712.125247	25230.506173
712.459159	24914.181331
712.793023	25567.308182
713.126837	24470.408558
713.460602	24722.229316
713.794318	24343.928528
714.127985	23941.548669
714.461602	23035.108878
714.795171	23006.540660
715.128691	21984.867654
715.462162	21422.741191
715.795584	21001.855257
716.128957	20747.980228
716.462281	20320.840742
716.795556	20099.675241
717.128782	19597.452809
717.461960	19052.214212
717.795088	18970.431573
718.128167	18581.105783
718.461198	18119.993961
718.794180	17972.741857
719.127113	17605.705528
719.459997	17402.310093
719.792833	17056.123977
720.125619	17019.875560
720.458357	16711.215792
720.791046	16535.014862
721.123686	16361.349633
721.456278	16142.876107
721.788821	16091.839466
722.121315	15825.961450
722.453761	15907.610499
722.786158	15827.030175
723.118506	15838.085425
723.450805	15701.843202
723.783056	15858.461769
724.115259	15757.981491
724.447412	15688.882395
724.779518	15932.430620
725.111574	15957.096985
725.443582	16159.887481
725.775542	16139.692619
726.107453	16611.892458
726.439315	16492.701937
726.771129	16897.735964
727.102895	17278.156557
727.434612	17485.189183
727.766281	17603.656299
728.097901	17866.892750
728.429473	17899.524138
728.760996	17887.959732
729.092471	17979.020614
729.423897	17845.520778
729.755276	17703.549283
730.086606	17827.942274
730.417887	18358.884159
730.749120	18874.626965
731.080305	19051.135405
731.411442	19377.726557
731.742530	19443.846331
732.073570	19546.796775
732.404562	19842.460448
732.735506	19649.888371
733.066401	19366.343632
733.397249	18835.923507
733.728048	18194.605558
734.058798	17353.915017
734.389501	16667.566962
734.720156	16204.935232
735.050762	15671.029149
735.381320	15313.291228
735.711831	15079.525362
736.042293	14724.401279
736.372707	14734.937291
736.703073	14524.650599
737.033391	14707.773033
737.363661	14686.106154
737.693883	14779.995124
738.024056	14953.153718
738.354182	15150.928265
738.684260	15433.361430
739.014290	15662.065977
739.344272	15839.562483
739.674207	16128.118130
740.004093	16237.632156
740.333931	16235.918163
740.663722	16273.081550
740.993464	16259.377173
741.323159	16074.994450
741.652806	15795.769980
741.982405	15583.393730
742.311956	15253.283853
742.641460	15125.079749
742.970915	14817.158510
743.300323	14477.745183
743.629683	14264.184262
743.958996	13988.808713
744.288260	13709.092730
744.617477	13418.596240
744.946647	13340.944827
745.275768	13066.285121
745.604842	12886.356258
745.933869	12707.360008
746.262847	12664.588338
746.591778	12589.674272
746.920662	12485.309784
747.249498	12488.291627
747.578286	12601.876385
747.907027	12747.424578
748.235720	12981.881082
748.564365	13003.752128
748.892963	12899.117939
749.221514	12963.095222
749.550017	12814.091318
749.878473	12778.357098
750.206881	12550.214640
750.535242	12457.964045
750.863555	12374.230480
751.191821	12266.581681
751.520039	12290.315433
751.848210	12197.525435
752.176334	12227.076678
752.504411	12132.771813
752.832440	11974.489665
753.160421	12032.243644
753.488356	11908.634552
753.816243	11823.179432
754.144082	11675.823985
754.471875	11624.217693
754.799620	11562.030019
755.127318	11536.332737
755.454969	11500.716985
755.782572	11452.084974
756.110129	11462.434463
756.437638	11379.343645
756.765100	11375.598067
757.092515	11369.798220
757.419882	11389.504090
757.747203	11398.668908
758.074477	11464.876902
758.401703	11425.218145
758.728882	11591.235944
759.056014	11629.284052
759.383099	11743.899726
759.710138	11848.402846
760.037129	11923.836151
760.364073	11949.331787
760.690970	11927.382603
761.017820	11931.075248
761.344623	12118.833023
761.671379	12453.152264
761.998088	13088.128441
762.324751	14655.307225
762.651366	17559.163075
762.977935	21234.809496
763.304456	23470.321772
763.630931	23937.820736
763.957359	22752.267380
764.283740	20814.631844
764.610074	18926.419780
764.936362	16770.217457
765.262602	15248.051135
765.588796	13765.614147
765.914943	12731.560067
766.241044	11870.001669
766.567097	11235.975750
766.893104	10681.320277
767.219064	10324.628396
767.544978	9940.126989
767.870845	9621.752918
768.196665	9433.087735
768.522438	9234.957786
768.848165	9067.964524
769.173846	8901.293896
769.499479	8775.910317
769.825066	8619.216132
770.150607	8435.458513
770.476101	8376.797126
770.801548	8260.222964
771.126949	8121.203064
771.452303	8031.299127
771.777611	7867.839713
772.102872	7845.547731
772.428087	7727.158753
772.753256	7600.794670
773.078378	7510.283274
773.403453	7367.603496
773.728482	7266.614061
774.053465	7199.460851
774.378401	7118.242821
774.703291	7017.820516
775.028135	6925.932884
775.352932	6887.095835
775.677683	6803.160624
776.002388	6714.073353
776.327046	6713.377674
776.651658	6628.265353
776.976224	6547.768208
777.300743	6534.078955
777.625216	6469.000179
777.949643	6424.035607
778.274024	6428.741525
778.598359	6361.273242
778.922647	6363.579570
779.246889	6320.144988
779.571086	6329.826524
779.895236	6339.135015
780.219339	6334.081258
780.543397	6335.081927
780.867409	6385.586727
781.191374	6383.189658
781.515294	6350.810327
781.839167	6403.240848
782.162995	6374.468462
782.486776	6318.355379
782.810511	6279.248628
783.134201	6203.901022
783.457844	6193.783426
783.781441	6145.647969
784.104993	6096.663077
784.428498	6071.842956
784.751958	6053.810748
785.075372	6026.943919
785.398739	5984.346169
785.722061	6014.966138
786.045337	6015.364389
786.368568	6125.077540
786.691752	6147.132588
787.014891	6399.200363
787.337983	6685.641245
787.661030	7120.566793
787.984031	7549.886578
788.306987	7812.621434
788.629897	7897.839620
788.952760	7815.376425
789.275579	7634.746842
789.598351	7337.454876
789.921078	7071.276912
790.243759	6785.277130
790.566395	6583.555359
790.888984	6386.789042
791.211529	6246.355099
791.534027	6079.742444
791.856480	5943.603564
792.178888	5885.012753
792.501249	5813.783770
792.823566	5711.554211
793.145836	5706.102203
793.468062	5688.012022
793.790241	5644.446371
794.112375	5688.385068
794.434464	5786.097753
794.756507	5818.461961
795.078505	5942.297905
795.400457	6159.503580
795.722364	6396.052162
796.044226	6598.096568
796.366042	6754.488283
796.687812	6695.121135
797.009538	6728.155816
797.331218	6631.632843
797.652852	6565.956691
797.974442	6444.918587
798.295986	6371.300097
798.617484	6240.822433
798.938938	6130.973170
799.260346	6059.897942
799.581709	5924.028763
799.903026	5868.452563
800.224299	5792.442045
800.545526	5681.390467
800.866708	5612.029231
801.187845	5563.485440
801.508936	5487.406867
801.829983	5462.357373
802.150984	5350.847050
802.471940	5324.484336
802.792851	5306.358868
803.113717	5285.685096
803.434538	5258.566209
803.755314	5230.607969
804.076045	5215.948294
804.396731	5183.654663
804.717372	5198.699986
805.037967	5199.541859
805.358518	5229.388010
805.679024	5284.777688
805.999485	5294.141631
806.319901	5317.071320
806.640272	5337.288867
806.960598	5381.318305
807.280879	5370.540318
807.601115	5410.713273
807.921306	5373.834712
808.241453	5367.994535
808.561554	5376.365371
808.881611	5341.888920
809.201623	5339.769115
809.521590	5288.823214
809.841513	5271.832005
810.161390	5285.972442
810.481223	5199.551941
810.801011	5185.711453
811.120755	5159.845293
811.440453	5103.507878
811.760107	5075.859670
812.079716	5053.849992
812.399281	5001.142208
812.718801	4990.807843
813.038276	4959.106547
813.357707	4923.601700
813.677093	4947.572387
813.996434	4887.161720
814.315731	4903.285850
814.634983	4905.188886
814.954191	4907.651489
815.273354	4968.616683
815.592473	5009.749978
815.911547	5084.351493
816.230577	5143.756450
816.549562	5224.866095
816.868502	5279.519765
817.187399	5338.755843
817.506250	5416.545888
817.825058	5442.709476
818.143821	5602.957675
818.462539	5774.838336
818.781213	6005.536659
819.099843	6376.827722
819.418429	7006.871130
819.736970	7637.118704
820.055466	8356.750978
820.373919	9277.414384
820.692327	10746.855278
821.010691	13481.388852
821.329011	19787.340472
821.647286	29452.787591
821.965517	39877.087160
822.283704	45379.773764
822.601847	46864.479272
822.919945	42228.508166
823.237999	37060.818838
823.556010	31816.415751
823.873976	27057.611890
824.191897	22816.678203
824.509775	19717.616273
824.827609	16912.403201
825.145398	15347.087123
825.463144	14591.960086
825.780845	14892.856476
826.098502	16152.681152
826.416116	18647.485176
826.733685	20963.378650
827.051210	21482.680510
827.368692	20038.745335
827.686129	17435.395186
828.003522	14935.091263
828.320872	12692.483563
828.638177	11018.868377
828.955439	9758.292570
829.272656	8688.395886
829.589830	7841.061104
829.906960	7102.774041
830.224046	6562.304375
830.541088	6146.575541
830.858086	5889.305296
831.175041	5679.149674
831.491952	5624.380058
831.808819	5661.031767
832.125642	5907.498820
832.442421	6468.322144
832.759157	7595.758558
833.075849	9379.452379
833.392497	11246.181566
833.709101	12379.304401
834.025662	12114.358999
834.342179	11047.625639
834.658653	9728.446419
834.975083	8611.765307
835.291469	7701.874846
835.607811	6949.457429
835.924110	6425.467295
836.240366	5926.506490
836.556578	5474.637624
836.872746	5117.623109
837.188871	4841.831664
837.504952	4614.256336
837.820990	4447.857929
838.136984	4331.863500
838.452935	4283.324750
838.768842	4315.172240
839.084706	4599.130353
839.400526	5351.489798
839.716303	6265.501401
840.032037	6837.286715
840.347727	6682.563621
840.663373	6082.066416
840.978977	5498.789792
841.294537	5045.448909
841.610054	4708.863670
841.925527	4467.203357
842.240957	4260.417747
842.556344	4076.324891
842.871687	3917.465530
843.186987	3763.145729
843.502244	3642.924292
843.817458	3556.491189
844.132629	3482.575270
844.447756	3436.506686
844.762840	3386.745456
845.077881	3349.105681
845.392879	3313.207625
845.707833	3290.323307
846.022745	3263.295160
846.337613	3254.589088
846.652438	3227.802917
846.967221	3217.108109
847.281960	3196.381405
847.596656	3188.033254
847.911309	3178.986903
848.225919	3160.516116
848.540485	3152.593942
848.855009	3144.066831
849.169490	3133.669451
849.483928	3124.265178
849.798323	3121.396762
850.112675	3110.757407
850.426984	3113.837552
850.741251	3103.351952
851.055474	3100.269286
851.369654	3103.795573
851.683792	3102.452106
851.997887	3101.690892
852.311938	3102.016046
852.625947	3103.460337
852.939914	3094.845005
853.253837	3101.040583
853.567718	3099.750047
853.881555	3094.129161
854.195350	3098.698967
854.509103	3095.258379
854.822812	3097.330293
855.136479	3086.907708
855.450103	3093.554469
855.763685	3084.984508
856.077224	3089.342585
856.390720	3098.139399
856.704173	3111.979887
857.017584	3112.917541
857.330953	3120.365846
857.644278	3126.536218
857.957561	3127.665437
858.270802	3125.369191
858.584000	3126.087556
858.897155	3121.139663
859.210268	3112.872171
859.523339	3093.761157
859.836367	3093.766198
860.149352	3091.409458
860.462295	3085.171030
860.775195	3076.157447
861.088054	3073.931778
861.400869	3072.981520
861.713642	3072.139648
862.026373	3080.608786
862.339062	3081.793457
862.651708	3090.197061
862.964312	3105.905296
863.276873	3116.756380
863.589392	3149.435660
863.901869	3174.855678
864.214303	3194.700180
864.526696	3216.878736
864.839045	3235.546129
865.151353	3246.757655
865.463619	3246.840834
865.775842	3249.086668
866.088023	3254.735281
866.400162	3247.826380
866.712258	3244.355545
867.024313	3245.351173
867.336325	3243.513673
867.648296	3248.600197
867.960224	3243.942171
868.272110	3243.387644
868.583954	3247.289497
868.895755	3256.416506
869.207515	3251.463572
869.519233	3271.038373
869.830909	3274.617592
870.142542	3291.523101
870.454134	3297.948052
870.765684	3309.761996
871.077191	3328.731858
871.388657	3340.588652
871.700081	3355.926362
872.011463	3378.770351
872.322803	3394.493710
872.634101	3416.183274
872.945357	3433.542488
873.256571	3465.826037
873.567744	3480.909169
873.878874	3485.068121
874.189963	3502.157632
874.501010	3502.286182
874.812015	3501.663599
875.122979	3517.651619
875.433900	3513.981659
875.744780	3518.551465
876.055618	3527.214688
876.366415	3522.476003
876.677169	3527.706200
876.987882	3543.747152
877.298554	3566.823033
877.609183	3607.890793
877.919771	3656.358967
878.230317	3726.307497
878.540822	3830.881192
878.851285	3987.653515
879.161707	4211.203483
879.472087	4593.776648
879.782425	5239.523250
880.092722	6443.567558
880.402977	8421.769259
880.713191	10823.448048
881.023363	13245.848500
881.333494	14615.613179
881.643583	15078.781792
881.953631	14668.414225
882.263637	13813.996621
882.573602	12761.091147
882.883526	11778.802155
883.193408	10807.114710
883.503248	9871.945383
883.813048	9029.298874
884.122806	8247.519256
884.432522	7471.030329
884.742197	6799.561240
885.051831	6226.477829
885.361424	5717.076795
885.670975	5315.417821
885.980485	4986.711905
886.289954	4711.243094
886.599382	4490.463241
886.908768	4307.368533
887.218113	4141.214623
887.527417	4005.282430
887.836680	3880.518914
888.145901	3780.361269
888.455082	3701.653734
888.764221	3632.763846
889.073319	3571.165987
889.382376	3536.747510
889.691392	3513.706916
890.000366	3507.060155
890.309300	3502.044207
890.618193	3503.821213
890.927044	3500.370543
891.235855	3505.073940
891.544625	3518.261598
891.853353	3550.613203
892.162041	3610.227368
892.470687	3700.658106
892.779293	3824.849452
893.087858	4001.332686
893.396381	4285.545378
893.704864	4705.617167
894.013306	5290.640550
894.321707	5870.826946
894.630068	6235.403192
894.938387	6280.791221
895.246665	6091.810966
895.554903	5769.421616
895.863100	5429.415954
896.171256	5150.531761
896.479371	4907.815327
896.787446	4678.268907
897.095480	4477.129389
897.403473	4321.347653
897.711425	4174.881969
898.019336	4056.132549
898.327207	3926.506840
898.635038	3824.917508
898.942827	3714.054973
899.250576	3626.880820
899.558284	3539.109290
899.865952	3484.800940
900.173579	3417.516659
900.481165	3371.984958
900.788711	3331.610357
901.096216	3298.956283
901.403681	3270.062909
901.711105	3257.041609
902.018489	3252.547420
902.325832	3287.621248
902.633135	3348.742718
902.940397	3524.260572
903.247619	3938.247687
903.554800	4705.967527
903.861941	5696.650040
904.169041	6414.147384
904.476101	6626.342153
904.783121	6344.085428
905.090100	5935.845228
905.397039	5511.969889
905.703938	5143.786697
906.010796	4814.518693
906.317614	4554.107808
906.624391	4309.962207
906.931129	4109.720015
907.237826	3926.499278
907.544483	3749.837083
907.851099	3575.738314
908.157675	3409.458375
908.464211	3267.549894
908.770707	3166.303360
909.077163	3086.900146
909.383578	3022.985877
909.689954	2978.434680
909.996289	2948.989300
910.302584	2927.786207
910.608839	2915.364804
910.915054	2898.923081
911.221229	2897.098183
911.527363	2899.964079
911.833458	2904.312074
912.139513	2922.477872
912.445527	2930.271496
912.751502	2968.657362
913.057436	3015.172089
913.363331	3074.057807
913.669186	3163.414779
913.975000	3281.554220
914.280775	3474.965649
914.586510	3748.115529
914.892205	4135.742451
915.197859	4643.396725
915.503475	5244.924846
915.809050	5749.985447
916.114585	6047.990736
916.420081	6114.274348
916.725536	6045.024017
917.030952	5798.231810
917.336328	5590.508545
917.641665	5375.747830
917.946961	5140.366274
918.252218	4937.220377
918.557435	4704.561045
918.862612	4498.763501
919.167750	4327.941482
919.472848	4128.347078
919.777906	3957.923311
920.082925	3794.347951
920.387904	3636.968169
920.692843	3522.145807
920.997743	3422.953544
921.302603	3327.335458
921.607423	3260.819954
921.912204	3188.784386
922.216946	3141.279073
922.521647	3093.080601
922.826310	3047.863971
923.130932	3008.522807
923.435516	2969.632825
923.740059	2943.418825
924.044564	2909.219638
924.349028	2887.162069
924.653454	2851.412727
924.957840	2827.552945
925.262186	2808.530151
925.566493	2786.437295
925.870761	2759.356216
926.174989	2749.561254
926.479178	2733.550550
926.783328	2716.337530
927.087438	2702.600386
927.391509	2694.133768
927.695541	2681.296469
927.999533	2669.986641
928.303486	2661.988850
928.607400	2655.268992
928.911275	2650.555513
929.215110	2640.984883
929.518906	2639.417084
929.822663	2638.930612
930.126381	2639.593524
930.430060	2641.763741
930.733699	2642.746766
931.037299	2646.935965
931.340861	2646.711633
931.644383	2653.260092
931.947866	2647.190543
932.251309	2649.237252
932.554714	2643.833135
932.858080	2643.608803
933.161407	2641.166364
933.464694	2633.067751
933.767943	2632.346866
934.071153	2628.563480
934.374323	2627.036010
934.677455	2623.620628
934.980548	2620.429578
935.283602	2614.448249
935.586617	2615.151490
935.889593	2618.634927
936.192530	2618.186264
936.495428	2626.879734
936.798287	2633.055148
937.101108	2648.937303
937.403890	2671.977897
937.706632	2699.409335
938.009336	2733.250601
938.312002	2760.931577
938.614628	2784.433436
938.917216	2801.646456
939.219765	2816.023827
939.522275	2824.787872
939.824747	2825.415496
940.127179	2822.035402
940.429573	2816.023827
940.731929	2812.116932
941.034246	2803.564615
941.336524	2802.866415
941.638763	2793.300826
941.940964	2788.201698
942.243126	2772.180912
942.545250	2759.971237
942.847335	2746.176119
943.149381	2732.701115
943.451389	2718.011193
943.753359	2706.015767
944.055290	2698.988399
944.357182	2689.563962
944.659036	2682.211439
944.960851	2678.785975
945.262628	2672.300530
945.564367	2675.720953
945.866067	2673.931344
946.167729	2671.478822
946.469352	2672.068637
946.770937	2668.179387
947.072484	2660.980619
947.373992	2660.443737
947.675462	2660.368119
947.976893	2651.848569
948.278286	2652.461069
948.579641	2643.870943
948.880958	2641.972949
949.182236	2641.773823
949.483476	2637.115797
949.784678	2637.887094
950.085841	2640.064872
950.386967	2644.526293
950.688054	2648.715492
950.989103	2658.563386
951.290114	2665.973882
951.591087	2676.577949
951.892021	2690.496575
952.192917	2703.991744
952.493776	2715.397355
952.794596	2718.023796
953.095378	2717.789382
953.396122	2718.411965
953.696828	2713.015409
953.997496	2710.366283
954.298126	2696.092256
954.598718	2691.035979
954.899272	2679.617765
955.199788	2670.599141
955.500266	2653.759167
955.800706	2642.562764
956.101108	2622.095679
956.401472	2610.402723
956.701798	2599.203800
957.002087	2582.724268
957.302337	2571.588359
957.602550	2560.500341
957.902724	2551.804351
958.202861	2540.872608
958.502960	2530.056813
958.803022	2526.679240
959.103045	2517.660616
959.403031	2511.091992
959.702979	2506.456651
960.002889	2500.911382
960.302762	2494.824189
960.602596	2490.156080
960.902393	2487.680874
961.202153	2484.446973
961.501875	2479.373052
961.801559	2475.735860
962.101205	2478.117805
962.400814	2475.803915
962.700385	2470.939202
962.999918	2470.757720
963.299414	2467.806125
963.598873	2467.412915
963.898293	2463.725311
964.197677	2466.397122
964.497022	2463.770681
964.796331	2459.851184
965.095601	2462.144909
965.394835	2459.639455
965.694030	2463.221195
965.993189	2461.187090
966.292309	2460.751030
966.591393	2455.699794
966.890439	2457.794393
967.189447	2460.161215
967.488419	2458.860597
967.787353	2462.984261
968.086249	2458.737089
968.385108	2459.445371
968.683930	2461.855042
968.982714	2460.062912
969.281462	2461.940742
969.580172	2465.164560
969.878844	2467.259159
970.177480	2471.357617
970.476078	2472.948102
970.774639	2476.363483
971.073162	2478.097640
971.371649	2477.195274
971.670098	2477.648978
971.968510	2481.404637
972.266885	2479.322641
972.565223	2485.278764
972.863524	2486.954947
973.161788	2489.830926
973.460014	2487.370843
973.758204	2490.440905
974.056356	2490.279588
974.354471	2493.957110
974.652550	2491.018118
974.950591	2490.677840
975.248595	2489.457880
975.546563	2489.427633
975.844493	2488.530308
976.142386	2483.073259
976.440243	2485.064515
976.738062	2480.333392
977.035845	2478.024543
977.333590	2477.394399
977.631299	2476.199646
977.928971	2476.388689
978.226606	2472.166723
978.524204	2470.316619
978.821765	2467.957359
979.119290	2465.671196
979.416777	2467.100363
979.714228	2466.593727
980.011642	2471.511373
980.309020	2474.437762
980.606360	2476.900366
980.903664	2487.060812
981.200931	2500.883656
981.498162	2520.541635
981.795356	2549.717313
982.092513	2588.771132
982.389633	2633.932308
982.686717	2679.224555
982.983764	2714.159751
983.280775	2730.354458
983.577749	2729.242884
983.874686	2721.010679
984.171587	2704.115252
984.468451	2688.404496
984.765279	2671.393123
985.062070	2650.971408
985.358824	2633.995323
985.655543	2611.884822
985.952224	2585.738878
986.248869	2557.843653
986.545478	2530.475229
986.842050	2508.601662
987.138586	2490.040134
987.435086	2476.771817
987.731549	2465.663634
988.027975	2458.394290
988.324366	2453.595112
988.620719	2448.236365
988.917037	2445.317537
989.213318	2440.951898
989.509563	2439.132042
989.805772	2437.705395
990.101944	2436.026691
990.398080	2436.167843
990.694180	2435.104160
990.990244	2434.111052
991.286271	2437.133224
991.582262	2436.490477
991.878217	2435.396547
992.174136	2436.089705
992.470019	2440.241095
992.765865	2439.313523
993.061676	2442.484409
993.357450	2444.886519
993.653188	2446.058587
993.948890	2454.936059
994.244556	2458.356482
994.540186	2470.404839
994.835780	2480.598052
995.131337	2497.599344
995.426859	2511.104595
995.722345	2535.186187
996.017795	2554.287119
996.313208	2568.215827
996.608586	2578.212435
996.903928	2581.635378
997.199234	2580.566654
997.494504	2577.657908
997.789738	2569.382854
998.084936	2559.812223
998.380099	2548.832590
998.675225	2533.421783
998.970316	2521.267561
999.265371	2508.226096
999.560390	2493.886534
999.855373	2481.626448
1000.150320	2475.166209
1000.445232	2462.790177
1000.740108	2456.105607
1001.034948	2447.195367
1001.329752	2444.261416
1001.624521	2439.653801
1001.919254	2432.046700
1002.213951	2432.127358
1002.508613	2427.381112
1002.803239	2425.440268
1003.097829	2423.922880
1003.392384	2424.043868
1003.686903	2424.981523
1003.981386	2423.070925
1004.275834	2423.607808
1004.570246	2422.723086
1004.864623	2419.526994
1005.158964	2418.859041
1005.453270	2417.651685
1005.747540	2418.942220
1006.041775	2414.543814
1006.335974	2418.198650
1006.630138	2415.630182
1006.924266	2415.657909
1007.218359	2417.165214
1007.512416	2415.930131
1007.806438	2412.562640
1008.100425	2416.782086
1008.394376	2415.312590
1008.688292	2414.596746
1008.982172	2415.436098
1009.276017	2415.113464
1009.569827	2412.880233
1009.863602	2413.220511
1010.157341	2410.604152
1010.451045	2414.057342
1010.744714	2410.485685
1011.038347	2412.348391
1011.331945	2409.837897
1011.625508	2409.893349
1011.919036	2411.078020
1012.212528	2412.146745
1012.505986	2409.953843
1012.799408	2411.710685
1013.092795	2411.546848
1013.386147	2411.914852
1013.679464	2411.360325
1013.972745	2413.898546
1014.265992	2409.888308
1014.559204	2409.585839
1014.852380	2410.652043
1015.145521	2409.643812
1015.438628	2411.420819
1015.731699	2410.697413
1016.024736	2408.746487
1016.317737	2411.015006
1016.610703	2410.536096
1016.903635	2409.916034
1017.196531	2408.348236
1017.489393	2409.212793
1017.782219	2407.483678
1018.075011	2414.211097
1018.367768	2413.044070
1018.660490	2413.502815
1018.953177	2413.502815
1019.245829	2413.502815
