Dividing Wavelength (nm)	Counts (n)	Blue Motor Position (mm): 11.600000	Red Motor Position (mm): 0.000000	
326.493990	1975.081227
326.888308	1975.081227
327.282561	1975.081227
327.676750	1950.109872
328.070874	1951.541559
328.464933	1957.681685
328.858929	1967.552264
329.252859	1979.421661
329.646726	1995.442447
330.040528	2012.993225
330.434265	2029.457633
330.827938	2050.887578
331.221547	2066.983982
331.615091	2087.922415
332.008571	2108.371855
332.401986	2131.820783
332.795338	2150.447846
333.188625	2169.354693
333.581847	2187.389421
333.975006	2206.482792
334.368100	2224.628425
334.761129	2238.804149
335.154095	2255.059350
335.546996	2287.204268
335.939833	2332.748572
336.332606	2345.485047
336.725315	2359.260000
337.117960	2367.240147
337.510540	2374.010416
337.903056	2385.819319
338.295508	2389.660678
338.687896	2399.080074
339.080220	2405.192473
339.472480	2412.416447
339.864676	2412.464338
340.256807	2416.802251
340.648875	2418.201171
341.040879	2420.341141
341.432818	2421.563620
341.824694	2421.392221
342.216506	2420.767118
342.608253	2420.406676
342.999937	2419.842066
343.391557	2418.599422
343.783113	2418.876685
344.174605	2413.109605
344.566033	2412.910480
344.957397	2414.458114
345.348697	2412.703792
345.739934	2409.328740
346.131106	2408.827145
346.522215	2406.770354
346.913260	2403.730539
347.304241	2401.605692
347.695159	2399.831206
348.086012	2401.454458
348.476802	2395.430279
348.867528	2395.657131
349.258191	2395.084960
349.648789	2396.007491
350.039324	2392.579506
350.429796	2394.633777
350.820203	2389.605226
351.210548	2387.997098
351.600828	2387.326624
351.991045	2391.488097
352.381198	2388.360061
352.771288	2387.034237
353.161314	2390.437016
353.551276	2388.138250
353.941175	2388.934752
354.331010	2390.215205
354.720782	2388.831408
355.110490	2391.392315
355.500135	2388.228991
355.889717	2391.460370
356.279235	2388.491131
356.668689	2390.416851
357.058080	2392.289640
357.447408	2388.528939
357.836672	2387.104813
358.225873	2387.659340
358.615010	2385.940307
359.004084	2393.224774
359.393095	2390.424413
359.782043	2391.901471
360.170927	2392.735782
360.559748	2395.826009
360.948505	2394.411966
361.337199	2396.403222
361.725830	2396.360372
362.114398	2396.372975
362.502903	2397.119065
362.891344	2395.889024
363.279722	2398.417162
363.668037	2397.540002
364.056289	2395.581513
364.444478	2398.719632
364.832603	2400.821793
365.220665	2397.502193
365.608665	2402.056876
365.996601	2401.552760
366.384474	2398.979251
366.772284	2398.780126
367.160031	2400.640311
367.547715	2401.031001
367.935336	2401.835065
368.322893	2400.020249
368.710388	2401.429252
369.097820	2403.060065
369.485189	2401.499828
369.872495	2404.063255
370.259738	2402.245919
370.646918	2403.783471
371.034035	2404.746331
371.421090	2407.193811
371.808081	2403.186094
372.195010	2408.020561
372.581875	2404.796743
372.968678	2403.803635
373.355418	2403.748183
373.742096	2406.409912
374.128710	2405.492422
374.515262	2404.408574
374.901751	2406.021743
375.288177	2408.204563
375.674540	2404.630385
376.060841	2408.249933
376.447079	2407.019892
376.833254	2406.087278
377.219367	2403.486043
377.605417	2405.971332
377.991404	2402.117369
378.377329	2404.890004
378.763191	2401.981258
379.148991	2409.439645
379.534727	2409.215314
379.920402	2408.444018
380.306013	2406.780437
380.691563	2407.682803
381.077049	2410.717578
381.462474	2408.801939
381.847835	2411.821591
382.233134	2411.289749
382.618371	2410.649522
383.003545	2410.412588
383.388657	2410.452917
383.773706	2411.713206
384.158693	2409.787485
384.543618	2412.514749
384.928480	2412.600449
385.313280	2410.140366
385.698017	2413.981725
386.082692	2413.255799
386.467305	2414.513567
386.851856	2414.281674
387.236344	2413.283525
387.620770	2413.661612
388.005133	2415.851993
388.389435	2413.689338
388.773674	2413.742270
389.157851	2417.434915
389.541965	2413.931313
389.926018	2416.230080
390.310008	2411.451066
390.693936	2415.778896
391.077802	2412.350912
391.461606	2414.700089
391.845348	2418.347364
392.229027	2416.119174
392.612645	2417.767632
392.996200	2418.569175
393.379694	2416.265368
393.763125	2415.761252
394.146494	2419.143867
394.529801	2417.238310
394.913047	2418.697724
395.296230	2418.581778
395.679351	2418.727971
396.062410	2419.426171
396.445408	2418.425502
396.828343	2419.847108
397.211217	2413.099523
397.594028	2415.428536
397.976778	2415.539442
398.359466	2417.644123
398.742092	2415.448701
399.124656	2421.319124
399.507158	2420.381470
399.889598	2421.374577
400.271977	2421.465318
400.654294	2422.342479
401.036549	2420.956161
401.418742	2422.511357
401.800874	2424.774835
402.182944	2422.390370
402.564952	2422.965061
402.946898	2423.196954
403.328783	2422.317273
403.710606	2422.977664
404.092367	2423.602767
404.474067	2424.283323
404.855705	2424.850453
405.237282	2422.904567
405.618797	2425.737696
406.000250	2423.905236
406.381642	2424.777356
406.762972	2424.807603
407.144240	2424.648807
407.525447	2425.427665
407.906593	2424.502613
408.287677	2425.281471
408.668700	2425.878848
409.049661	2424.371543
409.430560	2424.563107
409.811399	2423.880031
410.192176	2425.367171
410.572891	2425.392377
410.953545	2425.294074
411.334138	2424.134609
411.714669	2424.384146
412.095139	2427.459250
412.475547	2427.161822
412.855894	2429.689960
413.236180	2425.508323
413.616405	2428.951431
413.996568	2429.430341
414.376670	2429.042172
414.756711	2429.505958
415.136691	2425.180648
415.516609	2429.062337
415.896466	2427.245001
416.276262	2431.819848
416.655997	2426.461101
417.035670	2424.989084
417.415283	2429.301792
417.794834	2424.086718
418.174324	2429.243818
418.553753	2427.988571
418.933121	2428.099476
419.312428	2430.025197
419.691674	2430.730959
420.070859	2429.775660
420.449983	2430.892276
420.829045	2427.146698
421.208047	2428.553180
421.586988	2430.526792
421.965867	2433.596855
422.344686	2429.465629
422.723444	2427.209713
423.102141	2428.601071
423.480777	2430.083170
423.859352	2428.036462
424.237866	2432.192893
424.616319	2433.490990
424.994712	2430.501586
425.373044	2429.616864
425.751314	2431.093922
426.129524	2428.817841
426.507673	2431.378747
426.885762	2433.654828
427.263789	2430.718356
427.641756	2432.139961
428.019662	2432.165167
428.397508	2430.796494
428.775292	2432.644077
429.153016	2430.592327
429.530679	2431.477049
429.908282	2432.344128
430.285824	2433.412852
430.663305	2432.235743
431.040726	2430.083170
431.418086	2433.249015
431.795385	2432.999478
432.172624	2435.018460
432.549802	2434.864705
432.926920	2431.318253
433.303977	2434.499221
433.680974	2434.181628
434.057910	2434.118614
434.434786	2436.379572
434.811601	2434.758841
435.188355	2434.186670
435.565050	2434.559715
435.941683	2434.685744
436.318257	2431.562749
436.694770	2433.438058
437.071222	2433.934612
437.447614	2431.388829
437.823946	2432.654159
438.200218	2435.338573
438.576429	2434.239602
438.952580	2434.194231
439.328670	2433.730445
439.704700	2434.537030
440.080670	2433.065013
440.456580	2437.276897
440.832429	2433.816145
441.208218	2435.525096
441.583947	2436.727411
441.959616	2437.455858
442.335224	2437.602051
442.710773	2438.476692
443.086261	2434.138779
443.461689	2436.876125
443.837057	2436.566094
444.212365	2436.392174
444.587612	2438.091043
444.962800	2439.154727
445.337927	2439.575663
445.712995	2437.476022
446.088002	2436.946701
446.462949	2434.955446
446.837837	2437.591969
447.212664	2439.507608
447.587431	2439.787392
447.962139	2438.738832
448.336786	2443.669080
448.711374	2442.698658
449.085901	2441.516507
449.460369	2439.172371
449.834776	2441.319902
450.209124	2440.377207
450.583412	2443.885850
450.957640	2442.781837
451.331808	2445.015068
451.705917	2442.922989
452.079965	2442.348298
452.453954	2444.460541
452.827883	2444.773093
453.201752	2444.140428
453.575562	2441.292176
453.949311	2443.200253
454.323001	2443.230500
454.696632	2442.744028
455.070202	2445.725871
455.443713	2447.046653
455.817164	2441.387958
456.190556	2443.737136
456.563888	2445.980449
456.937160	2444.614296
457.310373	2447.424740
457.683526	2446.638320
458.056619	2449.055553
458.429653	2446.431632
458.802628	2446.638320
459.175542	2449.758794
459.548398	2450.388938
459.921194	2455.939248
460.293930	2452.576799
460.666607	2453.413630
461.039224	2453.453960
461.411782	2454.394135
461.784280	2453.542180
462.156719	2454.744495
462.529099	2455.533436
462.901419	2453.781635
463.273680	2453.685853
463.645882	2452.536470
464.018024	2454.356326
464.390106	2454.469752
464.762130	2458.129630
465.134094	2459.851184
465.505999	2462.424693
465.877845	2465.933336
466.249631	2470.881228
466.621358	2468.274952
466.993026	2468.753862
467.364634	2467.339818
467.736184	2464.589868
468.107674	2461.635752
468.479105	2465.371247
468.850477	2462.396967
469.221790	2461.464353
469.593043	2464.279838
469.964238	2459.979733
470.335373	2460.314970
470.706449	2461.978551
471.077467	2463.095166
471.448425	2465.255301
471.819324	2468.000209
472.190164	2467.236474
472.560945	2466.709674
472.931667	2461.759261
473.302330	2462.170115
473.672934	2465.910651
474.043479	2460.466205
474.413965	2462.270938
474.784393	2459.631894
475.154761	2461.310598
475.525070	2458.099383
475.895321	2460.390587
476.265513	2456.261882
476.635645	2460.952676
477.005719	2463.233798
477.375734	2464.403346
477.745691	2465.293109
478.115588	2467.536423
478.485427	2467.629684
478.855207	2472.083544
479.224928	2470.911475
479.594591	2474.026908
479.964194	2473.898359
480.333739	2472.754017
480.703226	2474.049594
481.072653	2472.736373
481.442022	2478.417753
481.811333	2476.575212
482.180584	2475.118318
482.549777	2474.001703
482.918912	2474.024388
483.287988	2475.163689
483.657005	2474.528503
484.025964	2472.834676
484.394864	2472.774182
484.763706	2474.097485
485.132489	2473.084213
485.501213	2472.751497
485.869879	2473.411888
486.238487	2475.355253
486.607036	2471.526496
486.975527	2475.095633
487.343959	2474.200828
487.712333	2477.832980
488.080648	2472.559933
488.448905	2476.635706
488.817104	2475.985397
489.185244	2477.936323
489.553326	2478.274081
489.921350	2482.344812
490.289315	2487.267499
490.657222	2488.797489
491.025070	2490.057778
491.392861	2492.225474
491.760593	2490.503920
492.128267	2489.422592
492.495883	2487.970740
492.863440	2485.740029
493.230939	2487.358240
493.598380	2486.839001
493.965763	2485.934114
494.333088	2485.114926
494.700354	2485.929073
495.067563	2486.977633
495.434713	2485.611480
495.801805	2492.452326
496.168839	2491.912922
496.535815	2495.295537
496.902733	2495.817296
497.269593	2493.856287
497.636395	2497.155722
498.003139	2502.148985
498.369825	2498.068171
498.736453	2504.109994
499.103023	2502.811897
499.469535	2504.593945
499.835989	2509.877074
500.202385	2508.216014
500.568723	2512.737929
500.935003	2511.875892
501.301226	2519.470390
501.667390	2518.124402
502.033497	2525.101359
502.399546	2520.839063
502.765537	2520.776049
503.131470	2525.577748
503.497345	2529.482121
503.863163	2525.502130
504.228923	2531.153264
504.594625	2535.695343
504.960269	2537.749614
505.325856	2539.786240
505.691385	2544.330840
506.056856	2544.340922
506.422270	2548.583053
506.787625	2550.135729
507.152924	2550.523898
507.518164	2555.933056
507.883347	2557.382387
508.248472	2560.457491
508.613540	2564.724828
508.978550	2569.287072
509.343503	2568.712381
509.708398	2574.303020
510.073236	2579.329051
510.438016	2580.654874
510.802738	2581.534555
511.167403	2587.344485
511.532010	2590.132243
511.896561	2596.494179
512.261053	2604.582711
512.625488	2599.483584
512.989866	2600.990889
513.354186	2605.482557
513.718449	2605.132197
514.082655	2614.934720
514.446803	2618.607201
514.810894	2622.309928
515.174927	2624.563324
515.538904	2628.916360
515.902822	2634.358286
516.266684	2633.566825
516.630488	2638.570170
516.994235	2639.807773
517.357925	2645.726088
517.721558	2648.914618
518.085133	2650.764721
518.448651	2658.981802
518.812112	2659.150681
519.175516	2663.090342
519.538863	2666.815755
519.902152	2670.024449
520.265385	2673.981755
520.628560	2675.168947
520.991678	2677.760100
521.354739	2682.521470
521.717743	2683.570030
522.080690	2688.548169
522.443580	2691.192254
522.806413	2696.354396
523.169189	2700.062165
523.531908	2701.917309
523.894569	2705.264635
524.257174	2708.178422
524.619722	2709.085830
524.982213	2715.130173
525.344647	2715.765359
525.707025	2720.378015
526.069345	2722.734754
526.431608	2725.184755
526.793815	2730.205744
527.155964	2731.518965
527.518057	2733.752196
527.880093	2733.469891
528.242072	2735.912330
528.603995	2737.492732
528.965860	2741.800398
529.327669	2745.538413
529.689421	2743.574884
530.051117	2745.029257
530.412755	2748.437077
530.774337	2751.643251
531.135862	2752.631317
531.497331	2753.324476
531.858743	2751.484454
532.220098	2759.754467
532.581396	2757.717841
532.942638	2758.912595
533.303824	2760.540887
533.664953	2766.650766
534.026025	2766.164294
534.387040	2770.590427
534.747999	2775.561005
535.108902	2778.424381
535.469748	2777.128804
535.830537	2778.116870
536.191270	2782.422016
536.551947	2781.365894
536.912567	2783.692386
537.273131	2787.478293
537.633638	2784.307407
537.994089	2789.242697
538.354483	2786.487706
538.714821	2792.151442
539.075103	2800.043369
539.435328	2798.105045
539.795497	2797.076650
540.155609	2801.732155
540.515665	2806.382620
540.875665	2803.720891
541.235609	2809.858495
541.595496	2806.450675
541.955328	2815.018116
542.315102	2813.203301
542.674821	2813.238589
543.034483	2815.358394
543.394090	2815.197077
543.753640	2820.379383
544.113134	2828.767863
544.472571	2820.351657
544.831953	2832.780622
545.191278	2830.617967
545.550548	2830.736434
545.909761	2834.918071
546.268918	2839.084585
546.628019	2845.635564
546.987064	2842.668845
547.346053	2839.462671
547.704986	2848.619927
548.063863	2847.712520
548.422684	2852.975484
548.781449	2853.187213
549.140158	2862.427648
549.498811	2861.910929
549.857408	2859.715507
550.215949	2865.444778
550.574434	2868.217413
550.932864	2872.835110
551.291237	2879.312993
551.649555	2884.102089
552.007817	2890.763973
552.366022	2892.450239
552.724173	2894.262534
553.082267	2907.218300
553.440305	2911.417581
553.798288	2911.755338
554.156215	2920.917635
554.514086	2930.611774
554.871902	2929.427103
555.229661	2936.547733
555.587365	2942.894545
555.945014	2951.769497
556.302606	2953.765794
556.660143	2967.772640
557.017625	2977.093733
557.375050	2980.685555
557.732421	2992.534787
558.089735	3002.150788
558.446994	3007.663290
558.804197	3021.745753
559.161345	3030.081301
559.518437	3026.355888
559.875474	3041.002961
560.232455	3052.534600
560.589381	3066.596899
560.946251	3077.251378
561.303065	3092.750405
561.659825	3104.266921
562.016528	3111.316975
562.373177	3120.340640
562.729770	3140.545585
563.086307	3147.310813
563.442789	3164.722959
563.799216	3180.539579
564.155587	3195.010211
564.511904	3209.042263
564.868164	3228.952300
565.224370	3249.739498
565.580520	3262.367588
565.936615	3282.343160
566.292654	3301.802014
566.648638	3325.994511
567.004567	3343.935978
567.360441	3370.016387
567.716260	3386.379973
568.072023	3415.038932
568.427732	3439.647325
568.783385	3455.093420
569.138982	3485.012668
569.494525	3517.598687
569.850013	3537.002088
570.205445	3565.749268
570.560823	3593.185748
570.916145	3620.158441
571.271412	3653.661950
571.626625	3678.950898
571.981782	3711.851988
572.336884	3737.519023
572.691931	3780.283131
573.046923	3800.029331
573.401860	3827.576716
573.756743	3861.654916
574.111570	3905.581010
574.466342	3938.605609
574.821059	3977.475426
575.175722	3998.544928
575.530330	4038.002039
575.884882	4067.946493
576.239380	4103.844550
576.593823	4146.215448
576.948211	4183.741797
577.302544	4211.027042
577.656823	4256.765431
578.011047	4309.846261
578.365216	4346.926468
578.719330	4386.411305
579.073389	4428.275567
579.427394	4485.412005
579.781344	4533.701218
580.135239	4569.697577
580.489080	4626.120691
580.842866	4657.433818
581.196597	4736.322835
581.550273	4788.065238
581.903895	4840.107590
582.257463	4930.936579
582.610975	4959.396413
582.964434	5031.489954
583.317837	5075.010235
583.671186	5121.708964
584.024481	5199.108320
584.377721	5233.872117
584.730906	5308.098066
585.084037	5374.769846
585.437113	5416.172843
585.790135	5482.063244
586.143103	5517.043810
586.496016	5588.988638
586.848874	5659.030429
587.201679	5730.713116
587.554428	5763.115132
587.907124	5850.039748
588.259765	5902.339199
588.612352	5997.644733
588.964884	6022.706829
589.317362	6120.064113
589.669786	6192.142531
590.022155	6243.811837
590.374470	6348.559452
590.726731	6377.089862
591.078937	6404.536424
591.431090	6480.819164
591.783188	6519.472212
592.135232	6562.271608
592.487222	6653.120762
592.839157	6740.947744
593.191038	6777.077694
593.542866	6826.276835
593.894639	6836.311251
594.246358	6939.521315
594.598022	7012.570154
594.949633	7043.011162
595.301190	7115.850794
595.652692	7167.502456
596.004141	7280.933459
596.355535	7241.713282
596.706876	7303.041439
597.058162	7356.301229
597.409395	7490.070767
597.760573	7586.639110
598.111698	7598.354752
598.462768	7683.305756
598.813785	7770.235413
599.164748	7778.187833
599.515657	7919.032630
599.866511	7922.972292
600.217312	8089.443795
600.568060	8023.931480
600.918753	8220.516316
601.269392	8302.243502
601.619978	8327.149322
601.970510	8446.899411
602.320988	8569.001199
602.671412	8706.574287
603.021783	8747.848734
603.372100	8773.737580
603.722363	8879.538796
604.072572	8982.630392
604.422728	9077.164630
604.772830	9121.879664
605.122878	9228.411848
605.472872	9319.029109
605.822813	9454.585736
606.172701	9520.256847
606.522534	9658.964195
606.872314	9805.119848
607.222041	9858.296459
607.571714	10029.461277
607.921333	10023.316110
608.270899	10178.470223
608.620411	10340.843267
608.969870	10405.367516
609.319276	10509.754689
609.668627	10620.743252
610.017926	10822.157513
610.367171	10967.723351
610.716362	11096.993659
611.065500	11192.526045
611.414585	11340.899806
611.763616	11525.494257
612.112594	11623.615275
612.461518	11784.823813
612.810389	11967.069087
613.159207	12053.958414
613.507971	12188.542098
613.856682	12424.974734
614.205340	12518.631811
614.553945	12822.908296
614.902496	12800.361735
615.250994	13054.680385
615.599439	13202.030791
615.947830	13390.212023
616.296169	13534.736863
616.644454	13702.816494
616.992686	13882.536149
617.340864	14173.078010
617.688990	14224.565834
618.037063	14534.407753
618.385082	14666.140664
618.733048	14886.204674
619.080961	15020.959757
619.428821	15165.124154
619.776628	15317.767772
620.124382	15387.522218
620.472083	15547.699840
620.819731	15709.455344
621.167326	15715.507249
621.514868	15829.840618
621.862357	15786.645492
622.209793	15910.882208
622.557176	15905.009263
622.904506	15931.127481
623.251783	15925.128508
623.599007	15956.129084
623.946179	15990.663508
624.293297	16076.695840
624.640363	15986.864999
624.987376	16102.574603
625.334336	16128.884385
625.681243	16126.580578
626.028097	16226.080352
626.374899	16290.279446
626.721647	16401.071405
627.068343	16486.110629
627.414987	16517.668252
627.761577	16547.300154
628.108115	16798.881457
628.454600	16701.262034
628.801032	16893.085499
629.147412	17000.719175
629.493739	17134.614742
629.840014	17112.413500
630.186236	17376.544756
630.532405	17337.301894
630.878521	17551.830717
631.224585	17624.965256
631.570597	17609.622504
631.916556	17811.082135
632.262462	17912.938649
632.608316	18026.538530
632.954117	18097.608717
633.299866	18211.521150
633.645562	18285.966389
633.991206	18176.679215
634.336797	18091.566894
634.682336	18186.403601
635.027823	18181.286830
635.373257	18207.362198
635.718639	18206.996714
636.063968	18236.101816
636.409245	18075.190706
636.754470	18202.356332
637.099642	18180.618877
637.444762	18069.963029
637.789829	18224.797029
638.134845	18176.855656
638.479808	18247.893075
638.824719	18309.548907
639.169577	18215.299495
639.514383	18345.550307
639.859137	18293.765054
640.203839	18517.572121
640.548489	18436.641437
640.893086	18573.884330
641.237632	18534.114667
641.582125	18695.542495
641.926566	18752.532740
642.270955	18837.960133
642.615292	18943.002655
642.959576	19028.117497
643.303809	19117.471949
643.647990	19286.413617
643.992118	19360.145533
644.336195	19454.006777
644.680219	19593.220761
645.024192	19854.342448
645.368112	20216.824094
645.711981	20324.145219
646.055797	20890.105479
646.399562	20955.063267
646.743274	21563.706976
647.086935	21898.726937
647.430544	21945.685285
647.774101	22103.196137
648.117606	22345.698323
648.461059	22603.906222
648.804460	22481.234785
649.147810	22229.812278
649.491108	22181.671779
649.834354	22074.290161
650.177548	21677.763082
650.520690	21512.564470
650.863781	21611.068617
651.206820	21615.618258
651.549807	21451.422836
651.892742	21263.826378
652.235626	21231.976368
652.578458	21232.273796
652.921238	20973.241667
653.263967	21243.036659
653.606644	21144.557719
653.949269	21201.563087
654.291843	21041.909744
654.634365	21361.483610
654.976836	21207.504087
655.319255	21287.366046
655.661622	21361.055112
656.003938	21301.624949
656.346203	21293.619597
656.688416	21504.423007
657.030577	21463.970268
657.372687	21441.325405
657.714746	21671.413749
658.056753	21815.563022
658.398708	21546.592259
658.740612	21665.228253
659.082465	21912.547261
659.424266	21877.632229
659.766016	22020.556502
660.107715	22024.876771
660.449362	22175.604751
660.790958	22233.610787
661.132503	22317.031801
661.473996	22403.076736
661.815438	22549.993603
662.156829	22750.087081
662.498168	22677.935567
662.839456	22762.218618
663.180693	22939.039610
663.521879	23125.277477
663.863013	23153.497856
664.204097	23228.238003
664.545129	23601.326237
664.886110	23657.575432
665.227040	23757.448251
665.567918	23909.272682
665.908746	24019.885679
666.249522	24203.134142
666.590248	24251.924950
666.930922	24407.207612
667.271545	24448.555156
667.612118	24580.441823
667.952639	24492.960159
668.293109	24598.395892
668.633528	24599.242806
668.973896	24613.937769
669.314213	24707.602408
669.654480	24585.661937
669.994695	24677.279867
670.334859	24675.482696
670.674973	24663.814945
671.015035	24837.628889
671.355047	24873.839497
671.695008	24899.173816
672.034918	24883.067329
672.374777	25003.192984
672.714585	24946.537977
673.054342	25166.208776
673.394049	25055.076539
673.733705	25322.595451
674.073310	25129.057993
674.412864	25248.734985
674.752368	25003.797923
675.091820	25298.460927
675.431223	25054.708535
675.770574	24906.034826
676.109875	24867.525452
676.449125	24714.730599
676.788324	24721.425252
677.127473	24389.167843
677.466571	24387.161463
677.805619	24188.250136
678.144616	24249.900927
678.483562	24245.368929
678.822458	24062.740528
679.161303	24038.694224
679.500098	24031.198029
679.838842	24005.488144
680.177535	24170.434698
680.516179	24435.077631
680.854771	24643.115968
681.193314	25368.333839
681.531805	26256.660764
681.870247	26886.845324
682.208638	27506.546805
682.546978	27727.364467
682.885268	27848.480709
683.223508	27481.774575
683.561697	27264.649558
683.899836	27174.049941
684.237925	26827.833578
684.575963	26740.369558
684.913951	26423.666630
685.251889	26601.208506
685.589776	26608.792922
685.927614	26641.716698
686.265401	26793.485676
686.603137	26905.583293
686.940824	27336.249066
687.278460	27658.310742
687.616046	27782.055945
687.953582	28298.343196
688.291068	28213.913951
688.628504	28474.312232
688.965889	28467.257137
689.303224	28202.878865
689.640510	27980.337129
689.977745	27447.976159
690.314930	26855.602773
690.652065	26499.001633
690.989150	25946.811284
691.326185	25277.938389
691.663170	24757.265335
692.000105	24198.259347
692.336990	23700.120250
692.673825	23380.196024
693.010610	23000.876923
693.347345	22567.178896
693.684030	22062.960168
694.020665	21883.384186
694.357251	21367.981658
694.693786	21358.083352
695.030272	21192.433557
695.366707	20775.184815
695.703093	20568.893238
696.039429	20584.251113
696.375716	20394.234901
696.711952	20382.100844
697.048139	20271.293762
697.384276	20149.602828
697.720363	20273.431211
698.056400	20115.910277
698.392388	19964.501742
698.728326	19956.486307
699.064214	19818.411624
699.400053	19785.054309
699.735842	19518.341982
700.071581	19316.746240
700.407270	19105.088354
700.742910	18953.969686
701.078501	18752.978882
701.414042	18554.319612
701.749533	18317.957552
702.084974	18037.790386
702.420366	18249.904495
702.755709	17885.446716
703.091002	17648.779667
703.426246	17695.430504
703.761440	17627.503477
704.096584	17407.298315
704.431679	17388.449441
704.766725	17328.573136
705.101721	17285.806508
705.436668	17396.699289
705.771565	17115.826362
706.106413	17441.668902
706.441212	17429.774300
706.775961	17567.541472
707.110661	17647.332856
707.445311	17975.998442
707.779913	17845.603957
708.114465	18065.327688
708.448967	18344.658023
708.783421	18947.769066
709.117825	19207.668273
709.452180	19396.540143
709.786485	19746.471838
710.120742	20435.879873
710.454949	20467.003957
710.789107	20868.196624
711.123216	21471.663069
711.457275	21569.847102
711.791286	22051.166388
712.125247	22108.025563
712.459159	21851.244309
712.793023	22447.877470
713.126837	21506.197493
713.460602	21738.508986
713.794318	21442.875560
714.127985	21131.969958
714.461602	20383.945906
714.795171	20355.791062
715.128691	19501.423870
715.462162	19055.458195
715.795584	18708.367191
716.128957	18506.012755
716.462281	18154.122572
716.795556	17954.124876
717.128782	17539.936114
717.461960	17063.176551
717.795088	17004.673960
718.128167	16668.300449
718.461198	16287.315248
718.794180	16166.224212
719.127113	15856.750297
719.459997	15705.697164
719.792833	15415.162865
720.125619	15391.245110
720.458357	15114.397544
720.791046	14976.466533
721.123686	14846.140104
721.456278	14642.119566
721.788821	14604.056334
722.121315	14381.696079
722.453761	14466.700015
722.786158	14405.452517
723.118506	14410.198763
723.450805	14296.661896
723.783056	14446.608497
724.115259	14359.373850
724.447412	14305.488957
724.779518	14528.423903
725.111574	14560.107555
725.443582	14746.579836
725.775542	14723.090579
726.107453	15141.523993
726.439315	15053.308842
726.771129	15409.118521
727.102895	15746.558236
727.434612	15929.839467
727.766281	16039.235026
728.097901	16272.738751
728.429473	16305.763350
728.760996	16292.759694
729.092471	16389.617903
729.423897	16290.652491
729.755276	16192.763366
730.086606	16310.111345
730.417887	16773.713497
730.749120	17246.881238
731.080305	17412.891475
731.411442	17733.014827
731.742530	17806.111558
732.073570	17906.256599
732.404562	18184.540895
732.735506	18007.278802
733.066401	17760.642871
733.397249	17287.533103
733.728048	16729.376549
734.058798	16003.644479
734.389501	15396.510595
734.720156	14988.318286
735.050762	14516.841852
735.381320	14196.857132
735.711831	13989.675792
736.042293	13672.975383
736.372707	13690.241335
736.703073	13498.170853
737.033391	13673.131659
737.363661	13645.014624
737.693883	13742.712185
738.024056	13905.622113
738.354182	14074.369697
738.684260	14323.768180
739.014290	14527.254355
739.344272	14701.680799
739.674207	14958.822495
740.004093	15064.459874
740.333931	15058.667588
740.663722	15093.920377
740.993464	15105.646101
741.323159	14947.873109
741.652806	14711.362335
741.982405	14514.359084
742.311956	14218.050143
742.641460	14110.759266
742.970915	13834.534282
743.300323	13534.966235
743.629683	13344.024972
743.958996	13094.223196
744.288260	12836.360615
744.617477	12554.839899
744.946647	12490.023263
745.275768	12244.456056
745.604842	12092.528282
745.933869	11940.797113
746.262847	11894.000082
746.591778	11834.108654
746.920662	11749.356775
747.249498	11757.674679
747.578286	11861.429187
747.907027	11991.448107
748.235720	12192.509487
748.564365	12221.118035
748.892963	12134.027061
749.221514	12187.745596
749.550017	12060.169116
749.878473	12025.838858
750.206881	11834.859786
750.535242	11756.391706
750.863555	11678.906650
751.191821	11586.096488
751.520039	11610.218409
751.848210	11530.432067
752.176334	11557.901314
752.504411	11474.550876
752.832440	11327.903711
753.160421	11384.354552
753.488356	11282.515682
753.816243	11193.529235
754.144082	11059.089223
754.471875	11011.500731
754.799620	10955.236413
755.127318	10936.087590
755.454969	10898.263813
755.782572	10863.048832
756.110129	10868.485717
756.437638	10795.509974
756.765100	10796.205653
757.092515	10794.849583
757.419882	10810.477160
757.747203	10816.952522
758.074477	10890.228213
758.401703	10838.831129
758.728882	11000.664771
759.056014	11033.767507
759.383099	11143.944445
759.710138	11248.427400
760.037129	11322.204687
760.364073	11334.510143
760.690970	11331.044350
761.017820	11331.523259
761.344623	11513.985302
761.671379	11819.290182
761.998088	12410.688104
762.324751	13902.975507
762.651366	16604.308042
762.977935	20062.552184
763.304456	22153.012820
763.630931	22614.631277
763.957359	21508.024911
764.283740	19707.191167
764.610074	17914.385460
764.936362	15923.575833
765.262602	14495.127082
765.588796	13096.345521
765.914943	12122.445010
766.241044	11321.940026
766.567097	10730.123688
766.893104	10210.453823
767.219064	9861.104382
767.544978	9504.505762
767.870845	9202.971665
768.196665	9031.063278
768.522438	8841.588990
768.848165	8694.593985
769.173846	8535.858133
769.499479	8421.305473
769.825066	8273.138400
770.150607	8100.844364
770.476101	8041.630971
770.801548	7936.976617
771.126949	7802.685320
771.452303	7717.421765
771.777611	7560.994761
772.102872	7544.172430
772.428087	7429.022394
772.753256	7309.726009
773.078378	7235.900832
773.403453	7094.877073
773.728482	6999.742938
774.053465	6938.702127
774.378401	6857.400918
774.703291	6773.841273
775.028135	6679.919536
775.352932	6644.598691
775.677683	6563.612555
776.002388	6481.464432
776.327046	6484.237067
776.651658	6397.831690
776.976224	6327.167316
777.300743	6312.666437
777.625216	6248.943732
777.949643	6209.297577
778.274024	6213.862342
778.598359	6151.904041
778.922647	6148.450850
779.246889	6117.488083
779.571086	6121.664679
779.895236	6133.574405
780.219339	6123.045955
780.543397	6125.322036
780.867409	6175.773904
781.191374	6174.584192
781.515294	6140.899202
781.839167	6192.303848
782.162995	6162.457696
782.486776	6119.728876
782.810511	6078.545170
783.134201	6007.608573
783.457844	5994.781358
783.781441	5950.666220
784.104993	5910.513430
784.428498	5883.812958
784.751958	5866.937696
785.075372	5845.991702
785.398739	5803.968643
785.722061	5828.115770
786.045337	5829.650802
786.368568	5935.643582
786.691752	5956.095543
787.014891	6195.502460
787.337983	6464.717719
787.661030	6886.853860
787.984031	7289.947042
788.306987	7544.981536
788.629897	7632.795915
788.952760	7555.333545
789.275579	7380.312245
789.598351	7097.528720
789.921078	6845.453384
790.243759	6577.263999
790.566395	6372.404110
790.888984	6188.696902
791.211529	6052.653804
791.534027	5900.405916
791.856480	5768.673005
792.178888	5707.085228
792.501249	5640.025279
792.823566	5543.716555
793.145836	5539.968457
793.468062	5523.410788
793.790241	5483.147092
794.112375	5526.838772
794.434464	5620.508452
794.756507	5650.452906
795.078505	5769.575371
795.400457	5971.357636
795.722364	6206.106527
796.044226	6391.260546
796.366042	6543.170676
796.687812	6491.677810
797.009538	6522.113776
797.331218	6430.553819
797.652852	6361.628643
797.974442	6246.917188
798.295986	6175.168966
798.617484	6052.278238
798.938938	5945.496517
799.260346	5885.816817
799.581709	5751.306230
799.903026	5705.220001
800.224299	5634.439681
800.545526	5517.500035
800.866708	5458.647084
801.187845	5411.449281
801.508936	5335.910112
801.829983	5307.215864
802.150984	5206.523857
802.471940	5177.305329
802.792851	5164.977188
803.113717	5141.074557
803.434538	5115.112614
803.755314	5085.495835
804.076045	5076.930915
804.396731	5041.610071
804.717372	5056.143717
805.037967	5060.738729
805.358518	5085.662193
805.679024	5139.602540
805.999485	5154.040404
806.319901	5169.234442
806.640272	5184.791443
806.960598	5233.478907
807.280879	5228.064707
807.601115	5262.911683
807.921306	5227.570674
808.241453	5220.679417
808.561554	5231.485130
808.881611	5201.669226
809.201623	5194.104974
809.521590	5151.272811
809.841513	5134.301766
810.161390	5147.255011
810.481223	5059.276794
810.801011	5049.035690
811.120755	5022.773799
811.440453	4972.490810
811.760107	4947.259835
812.079716	4921.890228
812.399281	4872.524729
812.718801	4864.574830
813.038276	4832.848328
813.357707	4803.024862
813.677093	4823.683510
813.996434	4760.502729
814.315731	4779.558291
814.634983	4777.100728
814.954191	4781.857057
815.273354	4839.260676
815.592473	4879.519330
815.911547	4953.538592
816.230577	5005.117158
816.549562	5084.868212
816.868502	5133.958968
817.187399	5191.826373
817.506250	5272.346203
817.825058	5297.441067
818.143821	5441.083704
818.462539	5606.930104
818.781213	5825.693496
819.099843	6183.998547
819.418429	6793.181660
819.736970	7386.510344
820.055466	8081.559430
820.373919	8965.508113
820.692327	10375.942301
821.010691	12979.831853
821.329011	18976.380135
821.647286	28172.304267
821.965517	38127.587485
822.283704	43381.412489
822.601847	44821.733157
822.919945	40395.375749
823.237999	35445.650789
823.556010	30442.991194
823.873976	25905.791416
824.191897	21848.653156
824.509775	18889.710098
824.827609	16225.687142
825.145398	14733.011570
825.463144	14021.956820
825.780845	14315.404906
826.098502	15532.566297
826.416116	17912.658865
826.733685	20116.588312
827.051210	20626.430447
827.368692	19239.853520
827.686129	16749.105104
828.003522	14357.296895
828.320872	12203.300076
828.638177	10615.238312
828.955439	9412.136700
829.272656	8393.062409
829.589830	7572.654950
829.906960	6870.996910
830.224046	6357.169743
830.541088	5958.684175
830.858086	5713.605961
831.175041	5516.325446
831.491952	5463.461386
831.808819	5493.531869
832.125642	5729.601542
832.442421	6267.298573
832.759157	7340.204825
833.075849	9056.591681
833.392497	10852.772440
833.709101	11922.222982
834.025662	11675.362719
834.342179	10649.775257
834.658653	9384.165858
834.975083	8312.167013
835.291469	7434.421470
835.607811	6728.339818
835.924110	6224.600000
836.240366	5752.755561
836.556578	5314.812883
836.872746	4972.306808
837.188871	4709.816448
837.504952	4493.886185
837.820990	4335.278882
838.136984	4224.154207
838.452935	4178.556970
838.768842	4206.719376
839.084706	4480.174246
839.400526	5198.906673
839.716303	6079.699594
840.032037	6621.318643
840.347727	6476.854297
840.663373	5894.255709
840.978977	5334.808619
841.294537	4907.739710
841.610054	4584.533692
841.925527	4351.070296
842.240957	4154.646778
842.556344	3979.622957
842.871687	3824.713341
843.186987	3682.197401
843.502244	3565.429154
843.817458	3483.023933
844.132629	3410.900145
844.447756	3366.638814
844.762840	3321.069304
845.077881	3285.256947
845.392879	3254.987339
845.707833	3228.783421
846.022745	3201.777960
846.337613	3191.272195
846.652438	3166.913340
846.967221	3159.507885
847.281960	3142.287303
847.596656	3129.875983
847.911309	3118.883747
848.225919	3107.992334
848.540485	3097.950355
848.855009	3092.427771
849.169490	3078.950247
849.483928	3070.937333
849.798323	3068.106725
850.112675	3056.645661
850.426984	3059.211609
850.741251	3050.624003
851.055474	3046.175185
851.369654	3048.947819
851.683792	3045.504711
851.997887	3048.473951
852.311938	3047.594270
852.625947	3047.571584
852.939914	3044.173847
853.253837	3049.973694
853.567718	3044.367931
853.881555	3040.299720
854.195350	3045.088816
854.509103	3041.469268
854.822812	3041.658311
855.136479	3039.644370
855.450103	3041.312992
855.763685	3035.021632
856.077224	3036.826365
856.390720	3040.801315
856.704173	3051.528890
857.017584	3060.174469
857.330953	3063.181517
857.644278	3070.153433
857.957561	3072.865574
858.270802	3069.820717
858.584000	3071.663259
858.897155	3065.087073
859.210268	3054.351936
859.523339	3043.823487
859.836367	3040.314843
860.149352	3034.078936
860.462295	3033.910058
860.775195	3019.573016
861.088054	3018.703417
861.400869	3020.271216
861.713642	3019.018489
862.026373	3025.569468
862.339062	3028.014428
862.651708	3036.773433
862.964312	3053.588202
863.276873	3062.679922
863.589392	3091.570775
863.901869	3119.090434
864.214303	3136.164822
864.526696	3157.141063
864.839045	3174.563291
865.151353	3185.278263
865.463619	3182.498067
865.775842	3188.701207
866.088023	3191.572144
866.400162	3184.272553
866.712258	3186.578881
867.024313	3183.254240
867.336325	3179.927079
867.648296	3184.685928
867.960224	3183.050073
868.272110	3186.712472
868.583954	3186.251206
868.895755	3193.686908
869.207515	3190.032072
869.519233	3206.632591
869.830909	3211.804815
870.142542	3221.652709
870.454134	3229.645458
870.765684	3242.371851
871.077191	3261.112341
871.388657	3268.558125
871.700081	3287.159983
872.011463	3308.652942
872.322803	3330.342507
872.634101	3343.199969
872.945357	3364.755943
873.256571	3389.616393
873.567744	3401.498393
873.878874	3409.927202
874.189963	3423.674429
874.501010	3424.685180
874.812015	3423.777773
875.122979	3439.286882
875.433900	3436.158846
875.744780	3438.308898
876.055618	3447.128397
876.366415	3445.916000
876.677169	3449.626289
876.987882	3464.555666
877.298554	3485.211794
877.609183	3520.497350
877.919771	3568.715987
878.230317	3632.605050
878.540822	3730.017786
878.851285	3878.046228
879.161707	4090.689659
879.472087	4451.573260
879.782425	5053.812183
880.092722	6200.896494
880.402977	8069.523676
880.713191	10354.789619
881.023363	12636.640182
881.333494	13939.201239
881.643583	14380.594587
881.953631	13982.134225
882.263637	13167.882015
882.573602	12159.250474
882.883526	11246.635270
883.193408	10331.922946
883.503248	9441.269528
883.813048	8637.795305
884.122806	7905.033346
884.432522	7163.653535
884.742197	6532.427977
885.051831	5991.844885
885.361424	5508.196585
885.670975	5129.595849
885.980485	4817.467768
886.289954	4559.668201
886.599382	4353.240513
886.908768	4183.956046
887.218113	4023.601983
887.527417	3895.115575
887.836680	3778.556536
888.145901	3681.257226
888.455082	3605.650000
888.764221	3539.767161
889.073319	3486.469562
889.382376	3453.684418
889.691392	3427.578803
890.000366	3421.862134
890.309300	3419.482709
890.618193	3417.259561
890.927044	3414.260074
891.235855	3421.695776
891.544625	3436.937705
891.853353	3458.791107
892.162041	3520.189840
892.470687	3611.306175
892.779293	3727.343454
893.087858	3893.394021
893.396381	4161.777490
893.704864	4564.119540
894.013306	5108.780925
894.321707	5662.365152
894.630068	6001.412995
894.938387	6039.246855
895.246665	5868.591194
895.554903	5560.271705
895.863100	5229.519080
896.171256	4973.239422
896.479371	4741.933639
896.787446	4524.894322
897.095480	4333.262420
897.403473	4192.440308
897.711425	4051.479564
898.019336	3934.681071
898.327207	3815.273780
898.635038	3715.257288
898.942827	3612.511011
899.250576	3528.792569
899.558284	3449.671659
899.865952	3397.190727
900.173579	3336.293589
900.481165	3292.745581
900.788711	3252.441556
901.096216	3222.308059
901.403681	3194.422917
901.711105	3187.345137
902.018489	3181.499919
902.325832	3212.399671
902.633135	3269.039555
902.940397	3434.066768
903.247619	3825.078824
903.554800	4556.348601
903.861941	5481.370085
904.169041	6156.380585
904.476101	6361.351380
904.783121	6093.325833
905.090100	5703.775711
905.397039	5304.672602
905.703938	4956.689313
906.010796	4646.393691
906.317614	4400.894540
906.624391	4177.586548
906.931129	3985.700068
907.237826	3815.558605
907.544483	3652.126918
907.851099	3483.618789
908.157675	3332.162363
908.464211	3192.134233
908.770707	3097.617639
909.077163	3020.397245
909.383578	2960.813327
909.689954	2918.893612
909.996289	2891.749519
910.302584	2872.313350
910.608839	2859.791124
910.915054	2848.377952
911.221229	2843.984586
911.527363	2847.006758
911.833458	2853.676205
912.139513	2866.947042
912.445527	2881.692417
912.751502	2913.731470
913.057436	2956.374591
913.363331	3009.273939
913.669186	3094.119078
913.975000	3202.037579
914.280775	3386.168244
914.586510	3642.720125
914.892205	4003.780167
915.197859	4486.573991
915.503475	5052.143562
915.809050	5527.665522
916.114585	5798.977901
916.420081	5861.833528
916.725536	5798.020082
917.030952	5571.858797
917.336328	5371.551069
917.641665	5166.565151
917.946961	4951.207059
918.252218	4755.764045
918.557435	4536.867062
918.862612	4345.832537
919.167750	4180.591076
919.472848	3996.808251
919.777906	3835.297243
920.082925	3682.588090
920.387904	3535.588044
920.692843	3432.075512
920.997743	3335.950790
921.302603	3246.233375
921.607423	3182.069569
921.912204	3120.653192
922.216946	3071.809452
922.521647	3026.325642
922.826310	2985.900629
923.130932	2951.247737
923.435516	2910.976480
923.740059	2887.194837
924.044564	2854.996987
924.349028	2832.573935
924.653454	2804.459420
924.957840	2780.750873
925.262186	2760.049375
925.566493	2741.160171
925.870761	2716.559341
926.174989	2703.883359
926.479178	2692.139991
926.783328	2676.366221
927.087438	2666.951866
927.391509	2654.898467
927.695541	2641.526807
927.999533	2630.214457
928.303486	2624.228087
928.607400	2618.037550
928.911275	2612.678804
929.215110	2606.042125
929.518906	2601.777309
929.822663	2605.981631
930.126381	2601.368975
930.430060	2607.975407
930.733699	2607.027670
931.037299	2609.485233
931.340861	2608.151848
931.644383	2614.014710
931.947866	2612.051180
932.251309	2610.750562
932.554714	2613.492950
932.858080	2607.720829
933.161407	2604.466764
933.464694	2600.267483
933.767943	2598.876125
934.071153	2595.420414
934.374323	2590.936307
934.677455	2585.706110
934.980548	2582.704103
935.283602	2579.535738
935.586617	2579.187898
935.889593	2582.499936
936.192530	2581.254771
936.495428	2589.330700
936.798287	2598.392174
937.101108	2614.884309
937.403890	2632.114972
937.706632	2660.171514
938.009336	2689.833663
938.312002	2717.922973
938.614628	2741.903742
938.917216	2757.992584
939.219765	2768.629419
939.522275	2778.658794
939.824747	2778.363887
940.127179	2772.455654
940.429573	2763.179931
940.731929	2765.584562
941.034246	2755.615680
941.336524	2755.098962
941.638763	2750.385483
941.940964	2741.260994
942.243126	2726.613922
942.545250	2716.826522
942.847335	2704.276569
943.149381	2690.625125
943.451389	2676.381344
943.753359	2663.861639
944.055290	2657.166987
944.357182	2648.355050
944.659036	2641.350366
944.960851	2641.163844
945.262628	2637.521610
945.564367	2636.223513
945.866067	2634.136475
946.167729	2634.602782
946.469352	2634.915333
946.770937	2632.152781
947.072484	2625.153139
947.373992	2623.028293
947.675462	2622.960237
947.976893	2619.368415
948.278286	2614.176027
948.579641	2609.092023
948.880958	2606.591611
949.182236	2607.017588
949.483476	2602.956939
949.784678	2604.885180
950.085841	2603.942484
950.386967	2608.040942
950.688054	2611.105964
950.989103	2622.042747
951.290114	2629.972482
951.591087	2641.158802
951.892021	2650.608445
952.192917	2664.597647
952.493776	2674.362362
952.794596	2679.211952
953.095378	2680.873012
953.396122	2678.543999
953.696828	2674.289266
953.997496	2669.099398
954.298126	2663.475991
954.598718	2654.124650
954.899272	2644.685090
955.199788	2631.774695
955.500266	2620.908487
955.800706	2606.780654
956.101108	2586.031265
956.401472	2577.720922
956.701798	2562.932698
957.002087	2553.684701
957.302337	2544.245140
957.602550	2532.557225
957.902724	2520.897036
958.202861	2512.044770
958.502960	2504.760303
958.803022	2497.012049
959.103045	2489.853611
959.403031	2484.774648
959.702979	2483.174082
960.002889	2478.006899
960.302762	2475.077989
960.602596	2465.514920
960.902393	2466.102215
961.202153	2458.550566
961.501875	2460.264558
961.801559	2457.660803
962.101205	2451.649227
962.400814	2452.571758
962.700385	2449.108485
962.999918	2450.333485
963.299414	2448.579164
963.598873	2446.277877
963.898293	2444.941971
964.197677	2444.130346
964.497022	2442.020623
964.796331	2441.377876
965.095601	2441.012392
965.394835	2437.488625
965.694030	2439.303441
965.993189	2441.302258
966.292309	2438.935437
966.591393	2438.955601
966.890439	2437.047524
967.189447	2438.537185
967.488419	2440.450303
967.787353	2439.366455
968.086249	2439.391661
968.385108	2439.300920
968.683930	2439.973914
968.982714	2443.754780
969.281462	2442.199584
969.580172	2441.793771
969.878844	2447.006324
970.177480	2449.226952
970.476078	2454.343723
970.774639	2456.390432
971.073162	2459.213478
971.371649	2455.621656
971.670098	2459.838581
971.968510	2458.328755
972.266885	2457.701132
972.565223	2462.848150
972.863524	2466.500466
973.161788	2466.762606
973.460014	2469.071454
973.758204	2466.278655
974.056356	2471.024901
974.354471	2470.326702
974.652550	2469.623461
974.950591	2472.292752
975.248595	2471.282000
975.546563	2464.325208
975.844493	2464.206741
976.142386	2462.795218
976.440243	2462.391925
976.738062	2462.971658
977.035845	2459.813375
977.333590	2456.617284
977.631299	2453.136367
977.928971	2450.774586
978.226606	2449.683177
978.524204	2451.697117
978.821765	2447.608742
979.119290	2448.080090
979.416777	2447.565892
979.714228	2448.410285
980.011642	2451.838270
980.309020	2453.126285
980.606360	2458.522840
980.903664	2463.838737
981.200931	2477.870788
981.498162	2496.865856
981.795356	2523.331914
982.092513	2560.770043
982.389633	2605.752258
982.686717	2644.541417
982.983764	2673.896056
983.280775	2693.780887
983.577749	2693.788449
983.874686	2680.666325
984.171587	2667.990344
984.468451	2653.436533
984.765279	2634.746455
985.062070	2616.290791
985.358824	2599.586927
985.655543	2579.739905
985.952224	2555.998591
986.248869	2531.324663
986.545478	2505.934892
986.842050	2488.278250
987.138586	2467.871660
987.435086	2456.052674
987.731549	2446.429112
988.027975	2439.948708
988.324366	2436.941660
988.620719	2431.068716
988.917037	2431.401432
989.213318	2426.216605
989.509563	2424.404311
989.805772	2425.036975
990.101944	2423.973292
990.398080	2421.966913
990.694180	2422.178641
990.990244	2421.384659
991.286271	2422.773497
991.582262	2422.922211
991.878217	2424.124527
992.174136	2423.063364
992.470019	2422.687798
992.765865	2424.689136
993.061676	2427.484456
993.357450	2428.704415
993.653188	2433.440579
993.948890	2437.886877
994.244556	2441.206476
994.540186	2454.936059
994.835780	2463.208592
995.131337	2475.509008
995.426859	2491.915443
995.722345	2511.006292
996.017795	2529.656041
996.313208	2541.359080
996.608586	2550.934752
996.903928	2554.934907
997.199234	2553.672098
997.494504	2549.016593
997.789738	2541.996786
998.084936	2534.205682
998.380099	2522.323683
998.675225	2511.994359
998.970316	2501.009684
999.265371	2486.130719
999.560390	2476.708802
999.855373	2463.075002
1000.150320	2456.811368
1000.445232	2446.605552
1000.740108	2439.374017
1001.034948	2435.089036
1001.329752	2431.671134
1001.624521	2424.757191
1001.919254	2418.793506
1002.213951	2419.590009
1002.508613	2415.811664
1002.803239	2416.351067
1003.097829	2408.191960
1003.392384	2414.170768
1003.686903	2412.960891
1003.981386	2413.298649
1004.275834	2410.193298
1004.570246	2410.485685
1004.864623	2411.017527
1005.158964	2407.481157
1005.453270	2405.245405
1005.747540	2407.566857
1006.041775	2407.541651
1006.335974	2403.859088
1006.630138	2406.515776
1006.924266	2407.455951
1007.218359	2406.719943
1007.512416	2404.781619
1007.806438	2408.645664
1008.100425	2404.763975
1008.394376	2403.912020
1008.688292	2402.717267
1008.982172	2404.506876
1009.276017	2404.501835
1009.569827	2404.232133
1009.863602	2405.505025
1010.157341	2402.243398
1010.451045	2404.625343
1010.744714	2402.099725
1011.038347	2401.474622
1011.331945	2404.209448
1011.625508	2403.128121
1011.919036	2398.528068
1012.212528	2400.846999
1012.505986	2403.017215
1012.799408	2403.299520
1013.092795	2401.749365
1013.386147	2402.689540
1013.679464	2399.395146
1013.972745	2401.857750
1014.265992	2397.850033
1014.559204	2402.679458
1014.852380	2398.931360
1015.145521	2399.417832
1015.438628	2399.407749
1015.731699	2401.338511
1016.024736	2398.649056
1016.317737	2402.190466
1016.610703	2403.354973
1016.903635	2402.407236
1017.196531	2400.050496
1017.489393	2402.041752
1017.782219	2399.511093
1018.075011	2405.825138
1018.367768	2406.916548
1018.660490	2404.700961
1018.953177	2404.700961
1019.245829	2404.700961
