Dividing Wavelength (nm)	Counts (n)	Blue Motor Position (mm): 23.200000	Red Motor Position (mm): 0.000000	
326.493990	1972.026288
326.888308	1972.026288
327.282561	1972.026288
327.676750	1947.778338
328.070874	1949.809923
328.464933	1957.306119
328.858929	1967.612758
329.252859	1976.948975
329.646726	1991.984216
330.040528	2007.528614
330.434265	2027.541995
330.827938	2046.927752
331.221547	2065.335525
331.615091	2086.672209
332.008571	2108.641557
332.401986	2130.641153
332.795338	2150.195788
333.188625	2166.377892
333.581847	2187.026458
333.975006	2204.794005
334.368100	2221.283619
334.761129	2237.649725
335.154095	2253.385687
335.546996	2289.487910
335.939833	2358.312263
336.332606	2372.533358
336.725315	2381.587270
337.117960	2391.861142
337.510540	2399.748027
337.903056	2409.240520
338.295508	2415.776376
338.687896	2426.937490
339.080220	2429.952100
339.472480	2436.677000
339.864676	2439.127000
340.256807	2441.140941
340.648875	2443.820315
341.040879	2446.126642
341.432818	2447.560851
341.824694	2444.818463
342.216506	2448.024637
342.608253	2448.894236
342.999937	2445.375511
343.391557	2446.517332
343.783113	2442.398709
344.174605	2441.519028
344.566033	2440.616661
344.957397	2440.457865
345.348697	2433.861515
345.739934	2435.104160
346.131106	2434.214396
346.522215	2431.920671
346.913260	2431.106525
347.304241	2430.196596
347.695159	2426.753488
348.086012	2425.788107
348.476802	2424.553025
348.867528	2422.428178
349.258191	2421.538415
349.648789	2422.120668
350.039324	2415.431057
350.429796	2419.098496
350.820203	2416.797209
351.210548	2417.407189
351.600828	2415.441139
351.991045	2413.926272
352.381198	2414.488361
352.771288	2415.171437
353.161314	2411.428381
353.551276	2417.455080
353.941175	2413.860737
354.331010	2414.009451
354.720782	2418.349885
355.110490	2418.755698
355.500135	2415.141190
355.889717	2414.233783
356.279235	2416.456932
356.668689	2413.860737
357.058080	2414.816036
357.447408	2415.524318
357.836672	2414.173289
358.225873	2415.370563
358.615010	2413.931313
359.004084	2418.594381
359.393095	2419.642941
359.782043	2419.809299
360.170927	2419.600091
360.559748	2419.584968
360.948505	2419.653023
361.337199	2421.036820
361.725830	2422.826429
362.114398	2425.039496
362.502903	2424.663930
362.891344	2426.604774
363.279722	2425.064702
363.668037	2423.166707
364.056289	2426.229208
364.444478	2424.656368
364.832603	2425.546132
365.220665	2425.828437
365.608665	2426.355237
365.996601	2426.887079
366.384474	2429.095104
366.772284	2430.425969
367.160031	2426.624939
367.547715	2430.667944
367.935336	2430.544436
368.322893	2431.096442
368.710388	2430.957811
369.097820	2430.171391
369.485189	2432.054262
369.872495	2431.459405
370.259738	2431.650969
370.646918	2431.708942
371.034035	2433.458223
371.421090	2429.541246
371.808081	2431.439241
372.195010	2433.586772
372.581875	2435.888059
372.968678	2432.790270
373.355418	2434.211875
373.742096	2433.110383
374.128710	2436.137596
374.515262	2437.463420
374.901751	2436.677000
375.288177	2433.327153
375.674540	2434.927719
376.060841	2436.818152
376.447079	2435.620878
376.833254	2436.314037
377.219367	2432.737338
377.605417	2432.417225
377.991404	2432.321443
378.377329	2436.931578
378.763191	2433.049889
379.148991	2439.885694
379.534727	2438.252360
379.920402	2437.536516
380.306013	2439.794953
380.691563	2440.077258
381.077049	2438.879984
381.462474	2438.920313
381.847835	2441.153544
382.233134	2440.604058
382.618371	2441.461055
383.003545	2440.533482
383.388657	2440.379727
383.773706	2442.658329
384.158693	2443.442228
384.543618	2443.195212
384.928480	2440.987186
385.313280	2442.595314
385.698017	2442.945674
386.082692	2446.842486
386.467305	2443.946343
386.851856	2444.818463
387.236344	2445.244441
387.620770	2446.363577
388.005133	2443.719492
388.389435	2446.799637
388.773674	2445.423402
389.157851	2450.111675
389.541965	2446.666046
389.926018	2447.412137
390.310008	2449.690738
390.693936	2449.859617
391.077802	2449.572271
391.461606	2449.597477
391.845348	2447.941458
392.229027	2446.645881
392.612645	2449.254678
392.996200	2448.354833
393.379694	2451.974381
393.763125	2450.857765
394.146494	2451.863476
394.529801	2452.947324
394.913047	2452.445729
395.296230	2453.375822
395.679351	2453.479165
396.062410	2453.547221
396.445408	2452.465893
396.828343	2454.036213
397.211217	2448.102775
397.594028	2453.262396
397.976778	2450.824998
398.359466	2451.903805
398.742092	2447.397013
399.124656	2452.695266
399.507158	2455.689711
399.889598	2454.212653
400.271977	2455.856069
400.654294	2458.482511
401.036549	2456.055195
401.418742	2454.633590
401.800874	2457.819599
402.182944	2455.218363
402.564952	2457.023097
402.946898	2457.018055
403.328783	2456.972685
403.710606	2456.690380
404.092367	2458.754733
404.474067	2461.391256
404.855705	2459.621811
405.237282	2458.432099
405.618797	2457.118878
406.000250	2457.754064
406.381642	2462.185238
406.762972	2463.062399
407.144240	2460.937552
407.525447	2459.926801
407.906593	2461.913016
408.287677	2461.560135
408.668700	2464.287399
409.049661	2463.248922
409.430560	2463.755557
409.811399	2463.483335
410.192176	2463.392594
410.572891	2462.734724
410.953545	2463.289251
411.334138	2464.665486
411.714669	2464.357975
412.095139	2467.054993
412.475547	2464.678089
412.855894	2467.143213
413.236180	2464.536936
413.616405	2468.602627
413.996568	2467.138172
414.376670	2467.470888
414.756711	2464.849488
415.136691	2466.913840
415.516609	2467.828810
415.896466	2467.589355
416.276262	2469.555405
416.655997	2468.897534
417.035670	2462.240691
417.415283	2469.469705
417.794834	2465.550208
418.174324	2472.214614
418.553753	2468.433748
418.933121	2472.723770
419.312428	2470.919037
419.691674	2470.984572
420.070859	2472.091105
420.449983	2475.841724
420.829045	2473.505149
421.208047	2474.478092
421.586988	2474.498256
421.965867	2473.177474
422.344686	2475.398102
422.723444	2475.004892
423.102141	2472.617906
423.480777	2474.669656
423.859352	2477.858185
424.237866	2477.709471
424.616319	2479.168885
424.994712	2477.873309
425.373044	2478.437918
425.751314	2477.691827
426.129524	2479.118474
426.507673	2478.979842
426.885762	2477.361632
427.263789	2481.951602
427.641756	2481.286170
428.019662	2480.504791
428.397508	2477.880871
428.775292	2478.672332
429.153016	2480.968577
429.530679	2483.340440
429.908282	2482.251551
430.285824	2482.123002
430.663305	2484.883033
431.040726	2481.661736
431.418086	2483.237097
431.795385	2485.719865
432.172624	2486.241624
432.549802	2482.057467
432.926920	2485.180461
433.303977	2483.040492
433.680974	2485.482931
434.057910	2484.699031
434.434786	2482.304483
434.811601	2486.828919
435.188355	2489.591471
435.565050	2490.118272
435.941683	2487.438898
436.318257	2490.408138
436.694770	2486.435709
437.071222	2489.762870
437.447614	2488.585761
437.823946	2488.444608
438.200218	2490.597181
438.576429	2489.916625
438.952580	2491.529795
439.328670	2493.132882
439.704700	2494.463746
440.080670	2492.472490
440.456580	2495.741679
440.832429	2497.553973
441.208218	2497.826196
441.583947	2496.318891
441.959616	2495.000629
442.335224	2495.040958
442.710773	2495.295537
443.086261	2500.059427
443.461689	2496.961638
443.837057	2499.862822
444.212365	2499.308295
444.587612	2501.692761
444.962800	2497.995074
445.337927	2501.939777
445.712995	2501.155878
446.088002	2503.474809
446.462949	2504.508245
446.837837	2507.389265
447.212664	2505.438338
447.587431	2513.625172
447.962139	2520.506347
448.336786	2525.471883
448.711374	2523.120185
449.085901	2518.368898
449.460369	2518.736902
449.834776	2521.693539
450.209124	2525.963396
450.583412	2529.093952
450.957640	2528.637728
451.331808	2527.697553
451.705917	2526.293592
452.079965	2525.577748
452.453954	2530.134951
452.827883	2532.763912
453.201752	2528.000022
453.575562	2530.397091
453.949311	2533.681403
454.323001	2534.586290
454.696632	2538.420087
455.070202	2542.947043
455.443713	2547.080789
455.817164	2546.959802
456.190556	2548.066335
456.563888	2553.394835
456.937160	2552.878116
457.310373	2553.228477
457.683526	2555.749053
458.056619	2559.781977
458.429653	2560.122254
458.802628	2564.598799
459.175542	2566.690878
459.548398	2572.475602
459.921194	2581.526994
460.293930	2593.512337
460.666607	2603.551795
461.039224	2610.039760
461.411782	2617.082252
461.784280	2615.058228
462.156719	2619.086110
462.529099	2617.430091
462.901419	2619.864969
463.273680	2619.338168
463.645882	2625.173304
464.018024	2631.038686
464.390106	2643.447486
464.762130	2670.503359
465.134094	2706.514842
465.505999	2751.305493
465.877845	2795.763429
466.249631	2810.410502
466.621358	2805.450006
466.993026	2802.949594
467.364634	2806.170891
467.736184	2802.289203
468.107674	2809.999648
468.479105	2820.492809
468.850477	2830.595282
469.221790	2833.219202
469.593043	2836.886642
469.964238	2846.984073
470.335373	2863.967720
470.706449	2910.681572
471.077467	2968.314564
471.448425	3062.440468
471.819324	3138.360245
472.190164	3136.789925
472.560945	3115.062552
472.931667	3098.283072
473.302330	3115.392748
473.672934	3136.714308
474.043479	3181.333561
474.413965	3203.554967
474.784393	3232.254256
475.154761	3303.011891
475.525070	3344.825742
475.895321	3379.624827
476.265513	3444.683438
476.635645	3527.824667
477.005719	3580.938264
477.375734	3654.014830
477.745691	3738.393663
478.115588	3856.124770
478.485427	4010.048841
478.855207	4243.983586
479.224928	4462.368891
479.594591	4629.309221
479.964194	4662.719468
480.333739	4755.764045
480.703226	4865.235221
481.072653	5032.911560
481.442022	5190.833266
481.811333	5328.161858
482.180584	5369.532087
482.549777	5460.136745
482.918912	5549.710487
483.287988	5671.620711
483.657005	5737.087655
484.025964	5819.928936
484.394864	5961.522345
484.763706	6063.555299
485.132489	6129.407892
485.501213	6257.727942
485.869879	6426.392347
486.238487	6544.869545
486.607036	6725.184056
486.975527	6833.644481
487.343959	7021.586258
487.712333	7203.758435
488.080648	7368.762962
488.448905	7605.457738
488.817104	7771.014271
489.185244	8094.232891
489.553326	8564.912823
489.921350	9215.267039
490.289315	9942.604716
490.657222	10308.907558
491.025070	10613.383168
491.392861	10681.456389
491.760593	10689.912924
492.128267	10601.176014
492.495883	10550.651049
492.863440	10538.756447
493.230939	10525.392348
493.598380	10560.776207
493.965763	10737.803886
494.333088	10817.615433
494.700354	10967.967847
495.067563	11156.272587
495.434713	11370.720751
495.801805	11646.544963
496.168839	11813.938997
496.535815	11990.308806
496.902733	12247.886562
497.269593	12414.791604
497.636395	12678.564937
498.003139	13054.912278
498.369825	13190.690716
498.736453	13538.908418
499.103023	13682.752701
499.469535	13919.810440
499.835989	14221.987284
500.202385	14404.408998
500.568723	14693.927504
500.935003	15048.915476
501.301226	15272.175577
501.667390	15769.876093
502.033497	16160.807492
502.399546	16247.893424
502.765537	16281.769978
503.131470	16722.870940
503.497345	17174.207964
503.863163	16948.770085
504.228923	17483.772619
504.594625	17980.424575
504.960269	17981.405080
505.325856	18593.496939
505.691385	18627.580180
506.056856	18983.672164
506.422270	19489.090687
506.787625	19602.940105
507.152924	20000.465333
507.518164	20352.930207
507.883347	20289.275558
508.248472	20702.592200
508.613540	21259.571644
508.978550	21719.234134
509.343503	21901.552504
509.708398	22299.463380
510.073236	22907.764291
510.438016	23212.217216
510.802738	23210.283933
511.167403	23864.499674
511.532010	24302.830521
511.896561	24768.444093
512.261053	25578.401241
512.625488	25624.643745
512.989866	25837.425808
513.354186	26047.672170
513.718449	26330.589286
514.082655	27050.458493
514.446803	27141.791598
514.810894	27759.171627
515.174927	28010.936933
515.538904	28218.718171
515.902822	28951.767475
516.266684	28864.190030
516.630488	29428.890001
516.994235	29594.522152
517.357925	30258.011095
517.721558	30644.949899
518.085133	31138.710754
518.448651	31501.706598
518.812112	31597.967431
519.175516	31919.552717
519.538863	32413.762235
519.902152	32632.276089
520.265385	33229.355392
520.628560	33506.565921
520.991678	33588.950978
521.354739	33990.776310
521.717743	34469.764063
522.080690	34633.982170
522.443580	35289.667407
522.806413	35551.320936
523.169189	35722.591617
523.531908	36078.302994
523.894569	36180.305701
524.257174	36515.595364
524.619722	36967.857440
524.982213	37172.024171
525.344647	37291.978427
525.707025	37509.973043
526.069345	38053.898419
526.431608	38170.424690
526.793815	38605.824107
527.155964	38379.486381
527.518057	38702.929333
527.880093	38696.027993
528.242072	39319.643930
528.603995	39209.734173
528.965860	39381.146007
529.327669	39612.424063
529.689421	39695.567813
530.051117	39816.797481
530.412755	40075.738869
530.774337	40271.622984
531.135862	40241.305484
531.497331	40549.834182
531.858743	40606.327873
532.220098	41039.796527
532.581396	40905.885837
532.942638	40713.273431
533.303824	41107.453853
533.664953	41193.022398
534.026025	41054.506614
534.387040	41608.468928
534.747999	41662.636126
535.108902	41902.065728
535.469748	41569.352095
535.830537	41787.094653
536.191270	42055.914182
536.551947	41825.498163
536.912567	42206.778272
537.273131	42402.662387
537.633638	42013.286185
537.994089	42414.771239
538.354483	42130.765234
538.714821	42742.176537
539.075103	43126.241884
539.435328	42999.555167
539.795497	42970.475271
540.155609	43037.709140
540.515665	43540.889391
540.875665	43067.981269
541.235609	43469.294924
541.595496	43502.533772
541.955328	44201.252818
542.315102	43670.704143
542.674821	43520.165207
543.034483	43624.007935
543.394090	43631.380623
543.753640	43658.244932
544.113134	44664.650803
544.472571	43775.066110
544.831953	45010.252146
545.191278	44319.583823
545.550548	44092.310963
545.909761	44574.416670
546.268918	44813.052290
546.628019	45148.089895
546.987064	44765.937666
547.346053	44106.428714
547.704986	44993.034085
548.063863	44607.552174
548.422684	44838.089181
548.781449	44723.781017
549.140158	45136.089429
549.498811	45024.311924
549.857408	44510.394016
550.215949	45343.157343
550.574434	45302.709646
550.932864	45108.327794
551.291237	45835.544484
551.649555	45459.998687
552.007817	45721.765641
552.366022	45422.033757
552.724173	45612.279342
553.082267	46022.125149
553.440305	46318.731518
553.798288	45686.311206
554.156215	45998.335944
554.514086	46203.621811
554.871902	45992.788154
555.229661	46025.008689
555.587365	45857.218925
555.945014	45979.756772
556.302606	45919.565395
556.660143	46132.279402
557.017625	46232.404279
557.375050	46063.147539
557.732421	46419.423525
558.089735	46402.679333
558.446994	46335.180803
558.804197	46793.020916
559.161345	46746.662465
559.518437	46027.665377
559.875474	46344.522061
560.232455	46525.368414
560.589381	46677.069336
560.946251	46393.554844
561.303065	47075.522136
561.659825	46883.015594
562.016528	46589.340657
562.373177	46317.360324
562.729770	46793.996379
563.086307	46342.122472
563.442789	46785.300389
563.799216	46837.930035
564.155587	46633.896895
564.511904	46674.268975
564.868164	46771.225487
565.224370	47021.856533
565.580520	46753.349556
565.936615	46981.880183
566.292654	46708.016980
566.648638	46954.090822
567.004567	46910.129440
567.360441	46941.127495
567.716260	46809.863411
568.072023	47115.281717
568.427732	47115.165770
568.783385	46672.617997
569.138982	47066.352278
569.494525	47042.006025
569.850013	46800.496947
570.205445	46780.181097
570.560823	46726.422233
570.916145	46623.524721
571.271412	46646.714028
571.626625	46416.333298
571.981782	46468.582337
572.336884	46168.086718
572.691931	46480.628174
573.046923	46099.968126
573.401860	45953.212576
573.756743	45935.286233
574.111570	46052.425004
574.466342	45910.390495
574.821059	46028.497168
575.175722	45571.549339
575.530330	45589.422750
575.884882	45320.540207
576.239380	45276.641839
576.593823	45252.940854
576.948211	45177.565522
577.302544	44707.656887
577.656823	44762.300474
578.011047	44977.376262
578.365216	44711.246188
578.719330	44502.849929
579.073389	44365.498652
579.427394	44457.449298
579.781344	44432.379640
580.135239	44082.717647
580.489080	44174.653170
580.842866	43659.200230
581.196597	44116.180827
581.550273	44074.283797
581.903895	43914.131380
582.257463	44353.757804
582.610975	43757.099438
582.964434	44021.074418
583.317837	43684.564796
583.671186	43520.843242
584.024481	43741.769289
584.377721	43290.041575
584.730906	43566.788319
585.084037	43600.899286
585.437113	43321.856297
585.790135	43359.765774
586.143103	42971.783451
586.496016	43096.645270
586.848874	43108.809574
587.201679	43125.689878
587.554428	42621.115748
587.907124	42813.846621
588.259765	42575.662184
588.612352	42842.626569
588.964884	42227.532703
589.317362	42524.270142
589.669786	42464.950884
590.022155	42241.993252
590.374470	42652.638083
590.726731	42188.554501
591.078937	41730.777403
591.431090	41826.340036
591.783188	41481.396563
592.135232	41167.309993
592.487222	41400.818760
592.839157	41500.633606
593.191038	41180.409432
593.542866	40955.263939
593.894639	40340.301143
594.246358	40633.885340
594.598022	40600.507861
594.949633	40215.381351
595.301190	40202.574299
595.652692	40034.494668
596.004141	40356.500891
596.355535	39395.909026
596.706876	39351.279691
597.058162	39166.324797
597.409395	39629.793358
597.760573	39715.336698
598.111698	39290.884147
598.462768	39301.470570
598.813785	39352.968477
599.164748	38826.586316
599.515657	39216.144000
599.866511	38702.301709
600.217312	39297.475456
600.568060	38290.482290
600.918753	39008.783698
601.269392	38980.754883
601.619978	38651.338164
601.970510	38840.716670
602.320988	39029.233139
602.671412	39328.395373
603.021783	39075.717618
603.372100	38730.491841
603.722363	38854.171510
604.072572	38911.033205
604.422728	38934.502296
604.772830	38770.369889
605.122878	38855.116726
605.472872	38801.438520
605.822813	39064.705218
606.172701	38900.610619
606.522534	39119.474834
606.872314	39393.645547
607.222041	39155.781224
607.571714	39537.366323
607.921333	39018.923979
608.270899	39282.077251
608.620411	39613.260894
608.969870	39431.537380
609.319276	39426.612173
609.668627	39484.091409
610.017926	39957.750663
610.367171	40114.245722
610.716362	40213.826155
611.065500	40175.508344
611.414585	40347.240291
611.763616	40651.052990
612.112594	40572.436195
612.461518	40806.045785
612.810389	41072.705180
613.159207	40951.654473
613.507971	41030.649354
613.856682	41480.829433
614.205340	41375.416386
614.553945	42066.019175
614.902496	41522.156813
615.250994	41990.774912
615.599439	42066.838362
615.947830	42277.551031
616.296169	42327.458454
616.644454	42453.900675
616.992686	42640.680466
617.340864	43143.041529
617.688990	42864.923592
618.037063	43464.924243
618.385082	43438.919451
618.733048	43746.664250
619.080961	43742.260802
619.428821	43767.239719
619.776628	43863.424934
620.124382	43671.258670
620.472083	43813.076410
620.819731	43947.763438
621.167326	43616.073159
621.514868	43596.677320
621.862357	43155.929239
622.209793	43188.777398
622.557176	42858.070143
622.904506	42611.451856
623.251783	42263.070317
623.599007	42057.048441
623.946179	41826.156033
624.293297	41776.145267
624.640363	41194.146576
624.987376	41181.654597
625.334336	40950.061468
625.681243	40593.246078
626.028097	40568.824209
626.374899	40414.912741
626.721647	40406.357902
627.068343	40299.805554
627.414987	40046.480012
627.761577	39844.425524
628.108115	40169.403507
628.454600	39625.450404
628.801032	39796.819388
629.147412	39789.139190
629.493739	39790.578440
629.840014	39428.439591
630.186236	39768.374678
630.532405	39408.567363
630.878521	39615.247109
631.224585	39489.694652
631.570597	39199.896361
631.916556	39368.810303
632.262462	39329.653141
632.608316	39339.455664
632.954117	39226.548942
633.299866	39221.800175
633.645562	39138.164912
633.991206	38640.691247
634.336797	38227.540963
634.682336	38224.919563
635.027823	37978.460072
635.373257	37799.599934
635.718639	37547.922849
636.063968	37418.496265
636.409245	36839.686104
636.754470	36902.314878
637.099642	36671.651843
637.444762	36198.320264
637.789829	36344.793510
638.134845	35995.902814
638.479808	35933.216066
638.824719	35845.003435
639.169577	35456.700999
639.514383	35536.903236
639.859137	35229.871761
640.203839	35475.093648
640.548489	35112.503617
640.893086	35179.356879
641.237632	34928.463693
641.582125	35050.734359
641.926566	34974.232329
642.270955	34945.122186
642.615292	34959.877643
642.959576	34940.990960
643.303809	34939.602122
643.647990	35089.468064
643.992118	35041.440992
644.336195	35058.908590
644.680219	35127.135566
645.024192	35445.819668
645.368112	35950.570238
645.711981	35966.240665
646.055797	36838.483788
646.399562	36769.218335
646.743274	37685.080042
647.086935	38138.650297
647.430544	38032.027373
647.774101	38151.545569
648.117606	38400.465143
648.461059	38683.417547
648.804460	38292.244173
649.147810	37691.820065
649.491108	37430.900024
649.834354	37074.518173
650.177548	36258.856960
650.520690	35810.108568
650.863781	35828.786043
651.206820	35676.893557
651.549807	35253.378661
651.892742	34787.755007
652.235626	34577.163325
652.578458	34445.808500
652.921238	33850.110474
653.263967	34186.766289
653.606644	33865.034810
653.949269	33824.680373
654.291843	33423.880916
654.634365	33818.875484
654.976836	33424.135494
655.319255	33413.964966
655.661622	33419.011161
656.003938	33197.028993
656.346203	33056.252251
656.688416	33279.338432
657.030577	33081.808381
657.372687	32911.374531
657.714746	33183.939637
658.056753	33304.045127
658.398708	32759.577827
658.740612	32813.014057
659.082465	33091.106789
659.424266	32918.374173
659.766016	33029.541698
660.107715	32919.941972
660.449362	33038.567883
660.790958	33021.402755
661.132503	33055.362488
661.473996	33080.734615
661.815438	33193.560679
662.156829	33379.181005
662.498168	33154.176665
662.839456	33192.605380
663.180693	33330.107893
663.521879	33498.489993
663.863013	33444.463947
664.204097	33435.914150
664.545129	33912.194804
664.886110	33874.275245
665.227040	33934.280099
665.567918	34036.355902
665.908746	34116.585866
666.249522	34283.453099
666.590248	34269.153867
666.930922	34377.926843
667.271545	34351.168398
667.612118	34428.280408
667.952639	34221.552771
668.293109	34286.447545
668.633528	34173.956717
668.973896	34084.912296
669.314213	34131.779904
669.654480	33872.919174
669.994695	33905.442178
670.334859	33777.981644
670.674973	33696.723286
671.015035	33855.035681
671.355047	33803.832681
671.695008	33741.201386
672.034918	33631.026969
672.374777	33731.386259
672.714585	33561.751433
673.054342	33789.354488
673.394049	33569.156887
673.733705	33840.340717
674.073310	33494.749457
674.412864	33566.434664
674.752368	33174.510159
675.091820	33458.921976
675.431223	33042.547874
675.770574	32770.910341
676.109875	32640.959477
676.449125	32346.644312
676.788324	32285.827832
677.127473	31740.858937
677.466571	31682.159742
677.805619	31335.822390
678.144616	31331.106391
678.483562	31261.767840
678.822458	30927.141089
679.161303	30860.925533
679.500098	30769.957912
679.838842	30654.399542
680.177535	30817.143112
680.516179	31080.135067
680.854771	31335.247698
681.193314	32187.772349
681.531805	33318.750173
681.870247	34089.325827
682.208638	34819.002599
682.546978	35050.663783
682.885268	35142.926980
683.223508	34593.874750
683.561697	34257.902011
683.899836	34083.137810
684.237925	33571.465736
684.575963	33427.797893
684.913951	32969.917450
685.251889	33137.545898
685.589776	33105.083388
685.927614	33091.817592
686.265401	33246.454986
686.603137	33341.271528
686.940824	33850.657439
687.278460	34233.412086
687.616046	34363.882188
687.953582	34987.185573
688.291068	34845.272052
688.628504	35118.754648
688.965889	35054.323660
689.303224	34666.880740
689.640510	34322.746373
689.977745	33581.777416
690.314930	32790.260810
690.652065	32275.911883
690.989150	31509.369152
691.326185	30628.596396
691.663170	29925.748645
692.000105	29165.880402
692.336990	28495.845521
692.673825	28034.398463
693.010610	27514.935285
693.347345	26954.298483
693.684030	26288.805682
694.020665	26029.614757
694.357251	25353.283475
694.693786	25304.671628
695.030272	25067.739918
695.366707	24539.802561
695.703093	24247.455967
696.039429	24238.316355
696.375716	23977.920594
696.711952	23937.505664
697.048139	23794.523417
697.384276	23623.335915
697.720363	23734.427822
698.056400	23539.083111
698.392388	23317.433658
698.728326	23280.923102
699.064214	23066.880751
699.400053	23005.242562
699.735842	22664.765552
700.071581	22379.148899
700.407270	22092.924786
700.742910	21909.552815
701.078501	21623.053960
701.414042	21360.916480
701.749533	21065.358672
702.084974	20706.463806
702.420366	20919.152607
702.755709	20476.128445
703.091002	20184.981646
703.426246	20196.543532
703.761440	20099.362689
704.096584	19826.636266
704.431679	19788.837695
704.766725	19703.279232
705.101721	19632.990423
705.436668	19722.954855
705.771565	19406.703110
706.106413	19745.672815
706.441212	19740.551003
706.775961	19863.177070
707.110661	19945.146231
707.445311	20292.224632
707.779913	20126.836978
708.114465	20376.507684
708.448967	20655.349026
708.783421	21353.659739
709.117825	21618.103547
709.452180	21851.871933
709.786485	22244.850040
710.120742	23041.274210
710.454949	23056.932033
710.789107	23521.015615
711.123216	24231.798143
711.457275	24347.709393
711.791286	24892.151488
712.125247	24958.273783
712.459159	24646.806092
712.793023	25295.532016
713.126837	24202.821591
713.460602	24447.410814
713.794318	24068.810078
714.127985	23673.003883
714.461602	22792.704996
714.795171	22731.550758
715.128691	21726.659754
715.462162	21191.478258
715.795584	20777.150865
716.128957	20521.148470
716.462281	20106.652198
716.795556	19873.927330
717.128782	19378.039109
717.461960	18841.446091
717.795088	18758.841744
718.128167	18359.733594
718.461198	17894.956853
718.794180	17753.280265
719.127113	17396.812715
719.459997	17206.042851
719.792833	16852.587390
720.125619	16824.873647
720.458357	16515.969383
720.791046	16341.210223
721.123686	16184.904207
721.456278	15948.070799
721.788821	15906.309881
722.121315	15649.453010
722.453761	15723.479834
722.786158	15645.190715
723.118506	15652.828063
723.450805	15521.536252
723.783056	15680.695561
724.115259	15583.023205
724.447412	15520.132291
724.779518	15750.200470
725.111574	15783.517456
725.443582	15978.045500
725.775542	15960.940865
726.107453	16420.053869
726.439315	16306.998433
726.771129	16700.399997
727.102895	17070.687870
727.434612	17275.106658
727.766281	17407.830157
728.097901	17669.902101
728.429473	17689.106377
728.760996	17671.918563
729.092471	17754.172550
729.423897	17632.257285
729.755276	17502.354312
730.086606	17613.521837
730.417887	18135.624058
730.749120	18654.905754
731.080305	18818.758378
731.411442	19160.790584
731.742530	19217.022134
732.073570	19320.663216
732.404562	19607.192319
732.735506	19421.730789
733.066401	19142.904570
733.397249	18625.082288
733.728048	17984.293661
734.058798	17156.042166
734.389501	16472.678474
734.720156	16007.442989
735.050762	15493.552807
735.381320	15139.252953
735.711831	14898.525254
736.042293	14554.166555
736.372707	14557.523964
736.703073	14360.064488
737.033391	14546.627510
737.363661	14508.408002
737.693883	14619.792296
738.024056	14789.628769
738.354182	14978.641791
738.684260	15260.830460
739.014290	15478.376413
739.344272	15665.302398
739.674207	15946.361848
740.004093	16057.620114
740.333931	16049.130811
740.663722	16077.935964
740.993464	16073.232567
741.323159	15896.807306
741.652806	15629.051461
741.982405	15407.810342
742.311956	15079.167440
742.641460	14940.371872
742.970915	14648.998221
743.300323	14317.383559
743.629683	14101.256691
743.958996	13826.160925
744.288260	13557.066654
744.617477	13262.398608
744.946647	13187.635776
745.275768	12910.800813
745.604842	12725.082185
745.933869	12557.917523
746.262847	12507.879030
746.591778	12432.705344
746.920662	12336.343688
747.249498	12342.443484
747.578286	12456.973458
747.907027	12601.639450
748.235720	12814.517295
748.564365	12846.644568
748.892963	12748.826019
749.221514	12804.490440
749.550017	12662.148420
749.878473	12618.524795
750.206881	12403.973288
750.535242	12311.984833
750.863555	12226.532234
751.191821	12134.460600
751.520039	12143.897640
751.848210	12058.102243
752.176334	12083.093763
752.504411	11987.636994
752.832440	11838.549910
753.160421	11903.956361
753.488356	11775.018769
753.816243	11685.339163
754.144082	11544.101155
754.471875	11491.123670
754.799620	11436.563262
755.127318	11405.298025
755.454969	11363.481654
755.782572	11320.284007
756.110129	11333.456542
756.437638	11245.720300
756.765100	11247.721638
757.092515	11241.679816
757.419882	11265.060687
757.747203	11261.055490
758.074477	11338.429640
758.401703	11297.021602
758.728882	11456.959770
759.056014	11495.953095
759.383099	11608.201947
759.710138	11711.623739
760.037129	11798.860906
760.364073	11808.781897
760.690970	11802.180506
761.017820	11800.232100
761.344623	11986.601037
761.671379	12301.713482
761.998088	12922.458481
762.324751	14474.297034
762.651366	17325.135069
762.977935	20980.218624
763.304456	23185.904913
763.630931	23658.135000
763.957359	22478.918375
764.283740	20563.010211
764.610074	18693.972176
764.936362	16577.945328
765.262602	15064.757302
765.588796	13605.091206
765.914943	12581.958786
766.241044	11739.760939
766.567097	11101.129926
766.893104	10565.416589
767.219064	10204.671620
767.544978	9822.131222
767.870845	9513.995734
768.196665	9326.421961
768.522438	9131.770408
768.848165	8966.811252
769.173846	8804.486098
769.499479	8683.379938
769.825066	8524.654168
770.150607	8342.640788
770.476101	8285.625338
770.801548	8168.005137
771.126949	8038.805405
771.452303	7939.799664
771.777611	7777.096423
772.102872	7760.115297
772.428087	7644.196484
772.753256	7518.313832
773.078378	7434.955832
773.403453	7293.140613
773.728482	7190.827875
774.053465	7128.005016
774.378401	7041.818929
774.703291	6945.563138
775.028135	6850.774322
775.352932	6812.766542
775.677683	6730.016002
776.002388	6649.894423
776.327046	6642.350337
776.651658	6554.286420
776.976224	6484.766388
777.300743	6469.937834
777.625216	6398.481999
777.949643	6356.211924
778.274024	6362.137800
778.598359	6294.341842
778.922647	6292.637932
779.246889	6255.275421
779.571086	6264.067193
779.895236	6270.877792
780.219339	6274.008348
780.543397	6270.434170
780.867409	6314.995450
781.191374	6311.811961
781.515294	6281.635614
781.839167	6334.126629
782.162995	6311.078473
782.486776	6256.881028
782.810511	6212.503751
783.134201	6141.496578
783.457844	6126.559640
783.781441	6080.896868
784.104993	6038.470517
784.428498	6009.292319
784.751958	5988.353886
785.075372	5967.541483
785.398739	5924.716881
785.722061	5951.737465
786.045337	5951.455161
786.368568	6061.473302
786.691752	6082.401653
787.014891	6325.924671
787.337983	6603.104954
787.661030	7042.038219
787.984031	7462.407436
788.306987	7728.976089
788.629897	7811.887947
788.952760	7727.428455
789.275579	7546.629993
789.598351	7249.126299
789.921078	6989.927812
790.243759	6712.440019
790.566395	6507.083576
790.888984	6318.993085
791.211529	6178.160890
791.534027	6015.855901
791.856480	5875.805086
792.178888	5816.165715
792.501249	5751.971662
792.823566	5653.056662
793.145836	5645.683974
793.468062	5628.720492
793.790241	5587.768678
794.112375	5626.217559
794.434464	5726.760852
794.756507	5750.527371
795.078505	5877.173759
795.400457	6091.831131
795.722364	6327.666390
796.044226	6521.158477
796.366042	6675.805954
796.687812	6625.364169
797.009538	6652.089846
797.331218	6558.087450
797.652852	6496.686196
797.974442	6370.296907
798.295986	6301.233100
798.617484	6171.473800
798.938938	6064.865999
799.260346	5993.866388
799.581709	5858.914700
799.903026	5808.482997
800.224299	5736.001287
800.545526	5619.283452
800.866708	5555.230551
801.187845	5504.932438
801.508936	5431.606335
801.829983	5407.212192
802.150984	5295.401920
802.471940	5271.574906
802.792851	5254.765179
803.113717	5232.458073
803.434538	5207.307756
803.755314	5173.189227
804.076045	5162.421323
804.396731	5126.825735
804.717372	5143.552284
805.037967	5147.857429
805.358518	5180.413201
805.679024	5231.046550
805.999485	5243.397377
806.319901	5260.617958
806.640272	5280.903561
806.960598	5326.765458
807.280879	5315.659797
807.601115	5354.819480
807.921306	5314.611237
808.241453	5309.930525
808.561554	5320.484181
808.881611	5289.279438
809.201623	5281.949601
809.521590	5238.721707
809.841513	5219.799736
810.161390	5231.921190
810.481223	5150.932533
810.801011	5133.386797
811.120755	5109.547180
811.440453	5053.222368
811.760107	5026.857134
812.079716	4999.211446
812.399281	4946.748158
812.718801	4941.223053
813.038276	4910.749278
813.357707	4880.663672
813.677093	4901.034975
813.996434	4836.772866
814.315731	4857.754149
814.634983	4855.793140
814.954191	4857.917986
815.273354	4917.295217
815.592473	4955.368531
815.911547	5033.345099
816.230577	5086.688068
816.549562	5173.322818
816.868502	5221.770827
817.187399	5275.592706
817.506250	5360.568916
817.825058	5382.346700
818.143821	5536.895874
818.462539	5707.486000
818.781213	5930.347850
819.099843	6292.272449
819.418429	6919.175218
819.736970	7531.836727
820.055466	8239.085406
820.373919	9140.988158
820.692327	10579.143651
821.010691	13252.021393
821.329011	19438.217883
821.647286	28978.092380
821.965517	39283.375348
822.283704	44754.597591
822.601847	46229.067035
822.919945	41627.378296
823.237999	36528.725049
823.556010	31337.773317
823.873976	26651.267164
824.191897	22463.268113
824.509775	19421.506458
824.827609	16654.102040
825.145398	15110.162975
825.463144	14353.778169
825.780845	14651.400331
826.098502	15899.980712
826.416116	18340.173917
826.733685	20620.406268
827.051210	21147.993265
827.368692	19729.694878
827.686129	17170.023807
828.003522	14712.993148
828.320872	12501.055828
828.638177	10858.814263
828.955439	9622.670408
829.272656	8574.985048
829.589830	7732.837613
829.906960	7006.535893
830.224046	6478.159956
830.541088	6066.451442
830.858086	5815.951466
831.175041	5617.395539
831.491952	5562.431839
831.808819	5589.200366
832.125642	5829.839845
832.442421	6377.132712
832.759157	7477.833366
833.075849	9234.743537
833.392497	11071.903836
833.709101	12179.888958
834.025662	11936.489447
834.342179	10894.677032
834.658653	9590.724616
834.975083	8487.994898
835.291469	7585.209943
835.607811	6860.544078
835.924110	6343.160376
836.240366	5857.851016
836.556578	5407.396194
836.872746	5059.571702
837.188871	4788.448366
837.504952	4566.919901
837.820990	4398.346237
838.136984	4291.809012
838.452935	4238.445878
838.768842	4268.879324
839.084706	4546.233526
839.400526	5288.246002
839.716303	6184.593403
840.032037	6742.374391
840.347727	6598.628409
840.663373	6007.457339
840.978977	5428.274132
841.294537	4989.814735
841.610054	4662.081762
841.925527	4422.747942
842.240957	4217.580542
842.556344	4038.233932
842.871687	3883.130232
843.186987	3732.815627
843.502244	3610.610496
843.817458	3526.377856
844.132629	3458.813792
844.447756	3411.525248
844.762840	3365.033207
845.077881	3327.322855
845.392879	3292.460756
845.707833	3269.369751
846.022745	3240.758682
846.337613	3229.116137
846.652438	3202.554298
846.967221	3199.723690
847.281960	3176.955318
847.596656	3166.010973
847.911309	3155.996721
848.225919	3140.679175
848.540485	3132.721714
848.855009	3126.561424
849.169490	3112.796553
849.483928	3107.790688
849.798323	3102.384050
850.112675	3091.893409
850.426984	3091.858121
850.741251	3084.540886
851.055474	3080.850762
851.369654	3085.155907
851.683792	3081.029723
851.997887	3084.745053
852.311938	3081.276739
852.625947	3083.071390
852.939914	3075.166861
853.253837	3080.848241
853.567718	3081.057449
853.881555	3074.700554
854.195350	3078.965370
854.509103	3076.590987
854.822812	3075.320616
855.136479	3068.353741
855.450103	3075.519741
855.763685	3067.552198
856.077224	3069.603947
856.390720	3078.317582
856.704173	3087.565578
857.017584	3094.781990
857.330953	3098.522526
857.644278	3107.208434
857.957561	3111.226234
858.270802	3106.911006
858.584000	3107.732714
858.897155	3102.338680
859.210268	3089.675301
859.523339	3079.877819
859.836367	3078.098292
860.149352	3071.615368
860.462295	3068.749472
860.775195	3060.466856
861.088054	3054.467883
861.400869	3054.787996
861.713642	3051.738098
862.026373	3063.438616
862.339062	3064.237639
862.651708	3073.379772
862.964312	3089.778645
863.276873	3100.501179
863.589392	3130.611991
863.901869	3153.244251
864.214303	3176.955318
864.526696	3196.320911
864.839045	3211.265412
865.151353	3223.323852
865.463619	3224.745457
865.775842	3224.816033
866.088023	3228.657392
866.400162	3224.415261
866.712258	3224.415261
867.024313	3222.454252
867.336325	3220.145404
867.648296	3225.368039
867.960224	3220.997359
868.272110	3225.993142
868.583954	3225.438616
868.895755	3232.299626
869.207515	3231.805593
869.519233	3246.684558
869.830909	3253.122112
870.142542	3263.348093
870.454134	3270.176335
870.765684	3284.324334
871.077191	3302.212868
871.388657	3313.749549
871.700081	3332.921057
872.011463	3352.815970
872.322803	3372.826831
872.634101	3388.048595
872.945357	3407.613313
873.256571	3437.182201
873.567744	3450.329530
873.878874	3456.051239
874.189963	3472.729897
874.501010	3474.847182
874.812015	3471.106645
875.122979	3487.999552
875.433900	3483.820435
875.744780	3488.120540
876.055618	3492.128257
876.366415	3493.169255
876.677169	3496.491376
876.987882	3516.708923
877.298554	3531.217364
877.609183	3574.674631
877.919771	3617.766414
878.230317	3687.001621
878.540822	3789.949544
878.851285	3943.049386
879.161707	4158.049557
879.472087	4529.696021
879.782425	5153.329602
880.092722	6328.145300
880.402977	8255.229701
880.713191	10623.483119
881.023363	13006.865041
881.333494	14354.909908
881.643583	14816.593901
881.953631	14395.377771
882.263637	13560.376171
882.573602	12520.018128
882.883526	11558.176057
883.193408	10613.073137
883.503248	9694.201861
883.813048	8869.501859
884.122806	8104.413501
884.432522	7344.578026
884.742197	6685.691657
885.051831	6124.575946
885.361424	5630.144617
885.670975	5242.011059
885.980485	4916.130710
886.289954	4649.655318
886.599382	4434.209005
886.908768	4257.158641
887.218113	4093.850462
887.527417	3959.395327
887.836680	3838.941997
888.145901	3738.731421
888.455082	3662.907426
888.764221	3595.519802
889.073319	3535.494783
889.382376	3503.301974
889.691392	3477.488746
890.000366	3471.744351
890.309300	3467.434165
890.618193	3468.928867
890.927044	3468.419710
891.235855	3469.475832
891.544625	3487.003924
891.853353	3516.083820
892.162041	3569.446954
892.470687	3663.593023
892.779293	3781.540899
893.087858	3957.441880
893.396381	4233.341710
893.704864	4643.762209
894.013306	5209.031831
894.321707	5776.907729
894.630068	6132.314117
894.938387	6174.803482
895.246665	5997.049877
895.554903	5680.457853
895.863100	5341.120144
896.171256	5073.621398
896.479371	4837.120706
896.787446	4610.437662
897.095480	4415.642436
897.403473	4270.109365
897.711425	4124.019248
898.019336	4005.131196
898.327207	3882.104357
898.635038	3777.739869
898.942827	3674.497038
899.250576	3587.867330
899.558284	3502.860873
899.865952	3451.418419
900.173579	3389.608832
900.481165	3342.887418
900.788711	3302.719504
901.096216	3267.237343
901.403681	3242.455030
901.711105	3227.520612
902.018489	3225.471383
902.325832	3257.732247
902.633135	3317.848007
902.940397	3484.606855
903.247619	3885.996128
903.554800	4633.720231
903.861941	5595.557261
904.169041	6303.022709
904.476101	6512.936356
904.783121	6238.377473
905.090100	5832.239434
905.397039	5421.582001
905.703938	5066.556220
906.010796	4742.561263
906.317614	4491.284949
906.624391	4251.010954
906.931129	4060.518353
907.237826	3877.229561
907.544483	3709.901062
907.851099	3539.855381
908.157675	3379.057697
908.464211	3241.149372
908.770707	3139.640698
909.077163	3060.955848
909.383578	3000.923267
909.689954	2954.831998
909.996289	2927.907195
910.302584	2905.791653
910.608839	2895.757236
910.915054	2883.015720
911.221229	2878.639998
911.527363	2884.792727
911.833458	2889.685167
912.139513	2901.446178
912.445527	2913.983528
912.751502	2949.934517
913.057436	2990.732575
913.363331	3047.460679
913.669186	3132.759523
913.975000	3251.259406
914.280775	3438.825617
914.586510	3702.866132
914.892205	4072.581834
915.197859	4570.325200
915.503475	5158.307741
915.809050	5646.188090
916.114585	5940.253717
916.420081	6001.821329
916.725536	5934.216935
917.030952	5696.947468
917.336328	5492.707640
917.641665	5281.924395
917.946961	5053.892842
918.252218	4856.824056
918.557435	4629.906598
918.862612	4431.456535
919.167750	4264.813633
919.472848	4073.088470
919.777906	3905.878438
920.082925	3745.625199
920.387904	3594.980398
920.692843	3483.850682
920.997743	3385.306207
921.302603	3295.818164
921.607423	3230.530181
921.912204	3164.848987
922.216946	3116.612707
922.521647	3069.004050
922.826310	3026.996115
923.130932	2988.459014
923.435516	2953.221349
923.740059	2921.162131
924.044564	2890.181720
924.349028	2865.490149
924.653454	2837.262208
924.957840	2809.447641
925.262186	2792.184210
925.566493	2768.228647
925.870761	2748.363980
926.174989	2734.712536
926.479178	2721.051009
926.783328	2702.698688
927.087438	2693.397759
927.391509	2678.191119
927.695541	2671.128462
927.999533	2657.177069
928.303486	2649.088537
928.607400	2643.467651
928.911275	2642.489667
929.215110	2636.914151
929.518906	2630.824437
929.822663	2630.708491
930.126381	2630.874849
930.430060	2634.426342
930.733699	2633.735703
931.037299	2637.188894
931.340861	2636.760396
931.644383	2640.354738
931.947866	2638.557567
932.251309	2637.914820
932.554714	2638.010602
932.858080	2634.645632
933.161407	2629.614560
933.464694	2626.872172
933.767943	2624.946452
934.071153	2618.783641
934.374323	2614.037395
934.677455	2612.250306
934.980548	2611.075717
935.283602	2609.018926
935.586617	2607.337701
935.889593	2607.940119
936.192530	2609.149996
936.495428	2614.216356
936.798287	2624.651544
937.101108	2638.839872
937.403890	2660.199241
937.706632	2686.025072
938.009336	2721.108982
938.312002	2749.783065
938.614628	2771.507917
938.917216	2788.962913
939.219765	2799.750982
939.522275	2810.281952
939.824747	2810.612148
940.127179	2802.319450
940.429573	2799.115797
940.731929	2799.148564
941.034246	2787.984929
941.336524	2785.119033
941.638763	2782.202725
941.940964	2769.592279
942.243126	2755.345978
942.545250	2748.139649
942.847335	2733.490056
943.149381	2719.795761
943.451389	2706.414018
943.753359	2692.205526
944.055290	2682.929803
944.357182	2675.005109
944.659036	2669.550581
944.960851	2666.258707
945.262628	2661.401556
945.564367	2663.044972
945.866067	2662.833243
946.167729	2660.935249
946.469352	2661.172183
946.770937	2658.152532
947.072484	2649.983342
947.373992	2650.341264
947.675462	2646.628454
947.976893	2642.948412
948.278286	2638.164357
948.579641	2636.783081
948.880958	2633.266876
949.182236	2632.162863
949.483476	2627.164559
949.784678	2627.283027
950.085841	2627.343520
950.386967	2632.840899
950.688054	2637.330046
950.989103	2648.186171
951.290114	2654.545587
951.591087	2667.345076
951.892021	2676.824966
952.192917	2694.579910
952.493776	2699.540405
952.794596	2704.072402
953.095378	2707.908721
953.396122	2705.584749
953.696828	2703.422094
953.997496	2696.177956
954.298126	2686.375432
954.598718	2678.039884
954.899272	2667.408091
955.199788	2657.030875
955.500266	2643.356746
955.800706	2630.728655
956.101108	2610.541355
956.401472	2599.808738
956.701798	2586.550503
957.002087	2570.378482
957.302337	2564.268603
957.602550	2556.749723
957.902724	2540.038298
958.202861	2535.513862
958.502960	2524.655217
958.803022	2520.428209
959.103045	2510.718947
959.403031	2504.586383
959.702979	2500.422390
960.002889	2496.389467
960.302762	2488.752119
960.602596	2484.583085
960.902393	2484.429329
961.202153	2480.847590
961.501875	2479.284832
961.801559	2475.221662
962.101205	2472.242340
962.400814	2474.238637
962.700385	2469.953656
962.999918	2465.298151
963.299414	2466.482822
963.598873	2462.936370
963.898293	2460.420834
964.197677	2461.618108
964.497022	2459.894034
964.796331	2460.078036
965.095601	2459.747840
965.394835	2456.735751
965.694030	2456.919753
965.993189	2458.389249
966.292309	2456.365226
966.591393	2454.792386
966.890439	2454.149639
967.189447	2455.929166
967.488419	2455.513271
967.787353	2455.288940
968.086249	2454.300873
968.385108	2459.717593
968.683930	2454.749536
968.982714	2457.925463
969.281462	2459.745320
969.580172	2460.569548
969.878844	2462.812862
970.177480	2468.496763
970.476078	2466.780250
970.774639	2473.527834
971.073162	2474.745273
971.371649	2476.970942
971.670098	2473.331229
971.968510	2477.623772
972.266885	2477.941364
972.565223	2483.264823
972.863524	2483.829432
973.161788	2482.818681
973.460014	2485.117447
973.758204	2484.262971
974.056356	2485.525780
974.354471	2488.525267
974.652550	2487.002838
974.950591	2488.827736
975.248595	2486.382777
975.546563	2485.939155
975.844493	2482.932107
976.142386	2481.606283
976.440243	2480.376242
976.738062	2478.019502
977.035845	2474.641929
977.333590	2471.841568
977.631299	2468.539613
977.928971	2469.512555
978.226606	2466.248408
978.524204	2465.376288
978.821765	2464.859570
979.119290	2464.415949
979.416777	2464.221864
979.714228	2463.085084
980.011642	2466.069447
980.309020	2468.673203
980.606360	2473.401805
980.903664	2482.566623
981.200931	2492.711945
981.498162	2515.591222
981.795356	2543.962836
982.092513	2582.154617
982.389633	2626.357975
982.686717	2665.598316
982.983764	2697.281968
983.280775	2716.362736
983.577749	2718.827860
983.874686	2709.524410
984.171587	2691.998839
984.468451	2677.893691
984.765279	2658.722182
985.062070	2639.404481
985.358824	2620.386728
985.655543	2597.295723
985.952224	2578.766962
986.248869	2547.668084
986.545478	2521.544825
986.842050	2502.781650
987.138586	2486.415544
987.435086	2474.473051
987.731549	2458.235494
988.027975	2457.587706
988.324366	2449.279884
988.620719	2444.604214
988.917037	2443.525407
989.213318	2439.361414
989.509563	2437.768409
989.805772	2435.285641
990.101944	2434.221958
990.398080	2434.239602
990.694180	2432.356731
990.990244	2432.422266
991.286271	2430.241967
991.582262	2435.179777
991.878217	2431.683737
992.174136	2436.414860
992.470019	2435.399067
992.765865	2437.619695
993.061676	2438.978286
993.357450	2441.415684
993.653188	2446.479523
993.948890	2451.732406
994.244556	2458.043930
994.540186	2465.005764
994.835780	2476.000520
995.131337	2491.791935
995.426859	2503.918430
995.722345	2528.030269
996.017795	2547.138763
996.313208	2559.814744
996.608586	2569.942422
996.903928	2571.512742
997.199234	2569.733214
997.494504	2570.035683
997.789738	2561.223747
998.084936	2552.174875
998.380099	2537.003523
998.675225	2528.181504
998.970316	2517.141377
999.265371	2501.196207
999.560390	2488.432006
999.855373	2477.951447
1000.150320	2466.926443
1000.445232	2460.178859
1000.740108	2453.002776
1001.034948	2446.003134
1001.329752	2445.317537
1001.624521	2436.971907
1001.919254	2427.179466
1002.213951	2431.570311
1002.508613	2425.500762
1002.803239	2425.641914
1003.097829	2420.489855
1003.392384	2422.471028
1003.686903	2424.293405
1003.981386	2420.905750
1004.275834	2418.957344
1004.570246	2417.576068
1004.864623	2418.299473
1005.158964	2418.329720
1005.453270	2419.055646
1005.747540	2417.167734
1006.041775	2419.658064
1006.335974	2414.536252
1006.630138	2414.148083
1006.924266	2417.901222
1007.218359	2416.184709
1007.512416	2412.910480
1007.806438	2413.800243
1008.100425	2414.132960
1008.394376	2414.576581
1008.688292	2411.017527
1008.982172	2413.217990
1009.276017	2415.922569
1009.569827	2414.087589
1009.863602	2413.336457
1010.157341	2412.441652
1010.451045	2414.090110
1010.744714	2412.040881
1011.038347	2413.051632
1011.331945	2413.124729
1011.625508	2413.399472
1011.919036	2410.364697
1012.212528	2411.075500
1012.505986	2405.378996
1012.799408	2410.828483
1013.092795	2411.435942
1013.386147	2411.080541
1013.679464	2408.128945
1013.972745	2409.472413
1014.265992	2407.566857
1014.559204	2409.868143
1014.852380	2410.077351
1015.145521	2410.790675
1015.438628	2410.339491
1015.731699	2410.331930
1016.024736	2409.006106
1016.317737	2408.509553
1016.610703	2411.443504
1016.903635	2406.810684
1017.196531	2404.917730
1017.489393	2408.078534
1017.782219	2405.983934
1018.075011	2410.868812
1018.367768	2409.762279
1018.660490	2408.907804
1018.953177	2408.907804
1019.245829	2408.907804
