Dividing Wavelength (nm)	Counts (n)	Blue Motor Position (mm): 37.600000	Red Motor Position (mm): 0.000000	
326.493990	1970.108129
326.888308	1970.108129
327.282561	1970.108129
327.676750	1948.438729
328.070874	1949.605756
328.464933	1954.926694
328.858929	1965.868518
329.252859	1976.606176
329.646726	1992.221150
330.040528	2004.516524
330.434265	2025.815399
330.827938	2043.963553
331.221547	2065.325443
331.615091	2084.554924
332.008571	2106.783892
332.401986	2124.501027
332.795338	2144.499284
333.188625	2165.599034
333.581847	2185.274657
333.975006	2204.143696
334.368100	2220.759339
334.761129	2237.841289
335.154095	2253.652868
335.546996	2295.363375
335.939833	2375.946219
336.332606	2389.333003
336.725315	2403.851526
337.117960	2410.891498
337.510540	2418.889288
337.903056	2428.515372
338.295508	2432.250867
338.687896	2441.161106
339.080220	2447.230655
339.472480	2454.215174
339.864676	2454.434464
340.256807	2459.523509
340.648875	2462.056689
341.040879	2462.893520
341.432818	2466.571042
341.824694	2465.174642
342.216506	2465.721608
342.608253	2469.668831
342.999937	2462.517954
343.391557	2463.695064
343.783113	2461.928139
344.174605	2459.069805
344.566033	2457.544856
344.957397	2458.971502
345.348697	2458.215329
345.739934	2455.253652
346.131106	2453.171655
346.522215	2450.794751
346.913260	2447.046653
347.304241	2447.611262
347.695159	2445.436004
348.086012	2443.749738
348.476802	2443.210335
348.867528	2440.213369
349.258191	2440.682196
349.648789	2437.665066
350.039324	2437.488625
350.429796	2436.432504
350.820203	2438.174222
351.210548	2436.629109
351.600828	2433.480908
351.991045	2438.587597
352.381198	2433.191042
352.771288	2438.128852
353.161314	2433.001998
353.551276	2433.508634
353.941175	2431.472008
354.331010	2434.234561
354.720782	2437.995261
355.110490	2437.660025
355.500135	2434.297575
355.889717	2436.228337
356.279235	2436.021650
356.668689	2436.172884
357.058080	2436.182967
357.447408	2435.527617
357.836672	2433.332194
358.225873	2437.337391
358.615010	2430.988057
359.004084	2438.955601
359.393095	2438.552309
359.782043	2440.112546
360.170927	2442.527259
360.559748	2441.551795
360.948505	2442.428956
361.337199	2442.393668
361.725830	2445.927517
362.114398	2441.007351
362.502903	2444.155551
362.891344	2443.737136
363.279722	2443.840479
363.668037	2445.909873
364.056289	2445.970367
364.444478	2445.153700
364.832603	2446.789554
365.220665	2446.829883
365.608665	2450.696448
365.996601	2450.066304
366.384474	2448.213680
366.772284	2452.440688
367.160031	2450.613269
367.547715	2450.381376
367.935336	2449.335337
368.322893	2450.414144
368.710388	2455.432613
369.097820	2455.692232
369.485189	2452.997735
369.872495	2454.777263
370.259738	2455.329269
370.646918	2455.994701
371.034035	2458.094342
371.421090	2457.423868
371.808081	2455.999742
372.195010	2458.701801
372.581875	2456.947479
372.968678	2457.691049
373.355418	2460.045268
373.742096	2457.847325
374.128710	2461.174487
374.515262	2461.539970
374.901751	2464.501648
375.288177	2463.858901
375.674540	2463.085084
376.060841	2462.669189
376.447079	2462.825465
376.833254	2464.582307
377.219367	2460.183900
377.605417	2466.681947
377.991404	2461.764302
378.377329	2466.954170
378.763191	2462.306226
379.148991	2467.097842
379.534727	2469.111783
379.920402	2468.020374
380.306013	2471.657566
380.691563	2473.137145
381.077049	2471.599593
381.462474	2475.022536
381.847835	2472.678400
382.233134	2476.766776
382.618371	2475.957670
383.003545	2478.294245
383.388657	2478.105202
383.773706	2480.633341
384.158693	2478.596714
384.543618	2480.023361
384.928480	2481.336582
385.313280	2479.814153
385.698017	2486.140801
386.082692	2484.441932
386.467305	2483.277426
386.851856	2487.668271
387.236344	2487.012921
387.620770	2487.355719
388.005133	2488.232880
388.389435	2491.935608
388.773674	2490.201451
389.157851	2494.309991
389.541965	2491.973416
389.926018	2492.767398
390.310008	2491.156749
390.693936	2496.666730
391.077802	2495.615650
391.461606	2498.673110
391.845348	2501.816269
392.229027	2500.520692
392.612645	2500.266114
392.996200	2505.773575
393.379694	2508.762979
393.763125	2509.236848
394.146494	2509.070489
394.529801	2512.571571
394.913047	2515.792868
395.296230	2515.011489
395.679351	2515.268588
396.062410	2517.012827
396.445408	2519.523322
396.828343	2521.688497
397.211217	2526.240659
397.594028	2527.148067
397.976778	2528.791483
398.359466	2539.864378
398.742092	2537.608461
399.124656	2552.124464
399.507158	2560.361709
399.889598	2569.072823
400.271977	2579.913824
400.654294	2594.681885
401.036549	2607.693103
401.418742	2624.565845
401.800874	2645.607621
402.182944	2664.106135
402.564952	2696.598892
402.946898	2715.757797
403.328783	2742.309554
403.710606	2782.487551
404.092367	2823.131853
404.474067	2876.074051
404.855705	2909.789288
405.237282	2952.046760
405.618797	3028.238759
406.000250	3099.253494
406.381642	3185.747091
406.762972	3250.573809
407.144240	3296.017290
407.525447	3389.291239
407.906593	3458.881847
408.287677	3561.154256
408.668700	3664.639062
409.049661	3752.453442
409.430560	3865.521481
409.811399	3955.997590
410.192176	4078.409408
410.572891	4195.689332
410.953545	4383.701685
411.334138	4392.279208
411.714669	4628.797544
412.095139	4599.959623
412.475547	4822.087985
412.855894	4907.364144
413.236180	5113.481801
413.616405	5157.465868
413.996568	5358.270149
414.376670	5477.800948
414.756711	5573.209826
415.136691	5793.409947
415.516609	5995.088868
415.896466	6159.813611
416.276262	6406.315952
416.655997	6711.315842
417.035670	6878.422530
417.415283	7286.075436
417.794834	7484.044068
418.174324	7547.161835
418.553753	7654.664440
418.933121	8042.442597
419.312428	8120.212478
419.691674	8235.831341
420.070859	8634.001836
420.449983	8621.524981
420.829045	9065.345645
421.208047	9094.733051
421.586988	9509.844344
421.965867	9812.444645
422.344686	9981.570315
422.723444	10479.676644
423.102141	9857.184885
423.480777	10732.624100
423.859352	10590.057749
424.237866	11447.598347
424.616319	11439.343458
424.994712	12016.643793
425.373044	12033.962677
425.751314	12664.328719
426.129524	12213.818444
426.507673	13155.016990
426.885762	13098.954318
427.263789	13388.296385
427.641756	13661.136234
428.019662	13851.167569
428.397508	14021.107386
428.775292	14379.583836
429.153016	14500.584131
429.530679	14692.221074
429.908282	14830.603268
430.285824	14743.242592
430.663305	15424.007569
431.040726	15220.881837
431.418086	15196.810327
431.795385	15819.748228
432.172624	16288.043694
432.549802	16007.977351
432.926920	16269.552742
433.303977	16268.287412
433.680974	16571.974082
434.057910	16925.028771
434.434786	17021.239192
434.811601	17035.664454
435.188355	18058.408705
435.565050	17806.776990
435.941683	17842.289398
436.318257	18720.705415
436.694770	18614.324466
437.071222	19221.745696
437.447614	18416.741482
437.823946	18495.706116
438.200218	18688.280713
438.576429	18527.921609
438.952580	18836.949381
439.328670	18839.969033
439.704700	19264.587942
440.080670	18895.378875
440.456580	19492.095215
440.832429	19690.141985
441.208218	18767.341129
441.583947	19204.830104
441.959616	19338.362708
442.335224	19573.499767
442.710773	19723.529547
443.086261	20254.247100
443.461689	19662.266924
443.837057	19802.680703
444.212365	20434.065058
444.587612	20440.300965
444.962800	20065.173584
445.337927	20475.437807
445.712995	19271.058263
446.088002	21044.090043
446.462949	21237.957697
446.837837	21408.078995
447.212664	21376.012216
447.587431	24098.762093
447.962139	26953.822094
448.336786	29255.814587
448.711374	27768.664120
449.085901	24217.425813
449.460369	24158.653521
449.834776	24072.855603
450.209124	26484.974622
450.583412	26049.509671
450.957640	26568.655255
451.331808	25271.271463
451.705917	23944.555717
452.079965	23964.632113
452.453954	24314.609177
452.827883	24219.394384
453.201752	24023.674107
453.575562	24186.029507
453.949311	25260.059937
454.323001	25320.707538
454.696632	25100.641008
455.070202	26607.210000
455.443713	26762.016273
455.817164	27315.597980
456.190556	27839.958638
456.563888	27309.251167
456.937160	27718.116470
457.310373	26105.002692
457.683526	26523.501640
458.056619	26502.830389
458.429653	26442.472654
458.802628	27009.993151
459.175542	27129.972613
459.548398	28406.912005
459.921194	29952.660845
460.293930	30629.405502
460.666607	32614.155662
461.039224	34326.744008
461.411782	34695.504412
461.784280	33496.072760
462.156719	32984.178875
462.529099	32412.360794
462.901419	31155.147436
463.273680	30134.417126
463.645882	30218.901823
464.018024	30196.793843
464.390106	31036.892049
464.762130	33690.321020
465.134094	37712.400575
465.505999	42954.817447
465.877845	47471.189699
466.249631	48564.071523
466.621358	46783.016746
466.993026	44607.925220
467.364634	42525.502704
467.736184	40589.775244
468.107674	39377.586952
468.479105	38623.803382
468.850477	37927.128523
469.221790	36542.613428
469.593043	34864.877099
469.964238	34012.133158
470.335373	33903.145933
470.706449	35566.111681
471.077467	38063.590037
471.448425	42571.281422
471.819324	45400.003915
472.190164	43608.365235
472.560945	40102.668713
472.931667	37045.937352
473.302330	35969.431715
473.672934	35166.017986
474.043479	35652.111245
474.413965	34894.118312
474.784393	34533.761511
475.154761	35403.347947
475.525070	35427.895846
475.895321	34993.918034
476.265513	35568.743163
476.635645	36511.708634
477.005719	36346.447008
477.375734	36802.535320
477.745691	37475.100861
478.115588	38766.896534
478.485427	40700.612573
478.855207	44017.807750
479.224928	46617.356869
479.594591	48232.633302
479.964194	47185.716718
480.333739	47281.667520
480.703226	47294.320816
481.072653	47946.799879
481.442022	48437.011761
481.811333	48711.061487
482.180584	47415.442099
482.549777	46910.169770
482.918912	46390.043680
483.287988	46102.886954
483.657005	45274.960614
484.025964	44618.173885
484.394864	44636.402698
484.763706	44196.330132
485.132489	43334.708719
485.501213	43187.640617
485.869879	43326.063140
486.238487	42932.835496
486.607036	43154.646265
486.975527	42613.725417
487.343959	42808.215652
487.712333	42886.429154
488.080648	42801.823469
488.448905	43239.597269
488.817104	43056.346286
489.185244	43991.699615
489.553326	45651.628068
489.921350	48356.517137
490.289315	51297.375057
490.657222	51935.506996
491.025070	52222.572981
491.392861	51293.921866
491.760593	49980.630713
492.128267	48274.568140
492.495883	46753.019360
492.863440	45366.094593
493.230939	44055.825612
493.598380	42988.474711
493.965763	42656.406346
494.333088	41873.570606
494.700354	41414.883579
495.067563	41129.864302
495.434713	40996.651812
495.801805	41077.506879
496.168839	40713.132279
496.535815	40396.615873
496.902733	40443.165887
497.269593	40051.536289
497.636395	39970.729113
498.003139	40355.976611
498.369825	39824.969191
498.736453	40127.947578
499.103023	39678.422849
499.469535	39557.026823
499.835989	39642.663424
500.202385	39299.701125
500.568723	39327.132564
500.935003	39526.306032
501.301226	39341.514976
501.667390	39936.597981
502.033497	40186.795488
502.399546	39611.264597
502.765537	38952.007703
503.131470	39336.476342
503.497345	39663.375005
503.863163	38356.337403
504.228923	38958.530956
504.594625	39355.489054
504.960269	38657.385028
505.325856	39329.131381
505.691385	38709.603820
506.056856	38836.401443
506.422270	39268.831619
506.787625	38858.459011
507.152924	39036.525168
507.518164	39125.307449
507.883347	38365.083805
508.248472	38611.991958
508.613540	39059.094414
508.978550	39354.601811
509.343503	39120.409968
509.708398	39316.004217
510.073236	39816.018622
510.438016	39801.449688
510.802738	39270.706929
511.167403	39881.523376
511.532010	40109.265062
511.896561	40407.577862
512.261053	41202.887937
512.625488	40768.726123
512.989866	40635.611935
513.354186	40484.155509
513.718449	40488.569039
514.082655	41138.537608
514.446803	40806.973357
514.810894	41328.831083
515.174927	41261.330033
515.538904	41152.730976
515.902822	41792.937350
516.266684	41237.825653
516.630488	41673.784638
516.994235	41529.247195
517.357925	42074.924373
517.721558	42244.443253
518.085133	42543.169427
518.448651	42666.854137
518.812112	42448.862042
519.175516	42560.763054
519.538863	42888.848908
519.902152	42839.750590
520.265385	43295.150785
520.628560	43334.854913
520.991678	43126.897234
521.354739	43350.394269
521.717743	43651.578006
522.080690	43552.151328
522.443580	44096.674082
522.806413	44155.837063
523.169189	44101.445534
523.531908	44255.367084
523.894569	44125.469153
524.257174	44298.128672
524.619722	44599.163694
524.982213	44579.520838
525.344647	44499.666441
525.707025	44558.789093
526.069345	44940.142299
526.431608	44867.078336
526.793815	45193.228387
527.155964	44717.923197
527.518057	44888.316717
527.880093	44689.453280
528.242072	45202.557042
528.603995	44901.824489
528.965860	44910.044090
529.327669	45007.166960
529.689421	44908.435962
530.051117	44875.335746
530.412755	45024.442994
530.774337	45071.885293
531.135862	44898.986319
531.497331	45098.673985
531.858743	45011.182239
532.220098	45343.860584
532.581396	45070.743472
532.942638	44741.339356
533.303824	45031.354416
533.664953	44999.809396
534.026025	44731.163787
534.387040	45191.254775
534.747999	45150.474361
535.108902	45323.320403
535.469748	44853.560482
535.830537	44956.589064
536.191270	45164.365261
536.551947	44807.239840
536.912567	45135.960879
537.273131	45231.773049
537.633638	44746.070479
537.994089	45097.960662
538.354483	44714.878340
538.714821	45271.920798
539.075103	45614.540299
539.435328	45403.378967
539.795497	45271.635973
540.155609	45271.777126
540.515665	45739.107211
540.875665	45197.624273
541.235609	45534.827054
541.595496	45471.031252
541.955328	46159.534400
542.315102	45541.662858
542.674821	45336.492938
543.034483	45357.486823
543.394090	45342.660790
543.753640	45314.087530
544.113134	46297.853579
544.472571	45323.287636
544.831953	46561.445432
545.191278	45796.394883
545.550548	45509.878383
545.909761	45965.437374
546.268918	46168.237952
546.628019	46480.071126
546.987064	46048.205559
547.346053	45354.656215
547.704986	46214.850981
548.063863	45775.995854
548.422684	45970.884341
548.781449	45811.498180
549.140158	46202.716924
549.498811	46080.786536
549.857408	45507.350245
550.215949	46333.844897
550.574434	46274.001360
550.932864	46048.369396
551.291237	46758.105884
551.649555	46375.235291
552.007817	46614.904348
552.366022	46258.429236
552.724173	46436.245855
553.082267	46820.946388
553.440305	47127.894684
553.798288	46453.504246
554.156215	46773.289840
554.514086	46970.661095
554.871902	46711.228195
555.229661	46736.597802
555.587365	46558.554330
555.945014	46651.611509
556.302606	46592.675380
556.660143	46794.697100
557.017625	46889.014568
557.375050	46680.998916
557.732421	47033.713327
558.089735	47017.760596
558.446994	46934.420240
558.804197	47405.228721
559.161345	47334.481168
559.518437	46602.147708
559.875474	46924.269877
560.232455	47059.067810
560.589381	47230.330930
560.946251	46919.495904
561.303065	47609.571893
561.659825	47402.052794
562.016528	47091.588294
562.373177	46826.068200
562.729770	47299.533369
563.086307	46807.499110
563.442789	47255.435876
563.799216	47302.996642
564.155587	47106.253010
564.511904	47121.716750
564.868164	47219.535299
565.224370	47473.702714
565.580520	47190.241154
565.936615	47412.243487
566.292654	47134.513719
566.648638	47365.201960
567.004567	47307.901685
567.360441	47368.975263
567.716260	47208.270841
568.072023	47512.970782
568.427732	47487.502873
568.783385	47061.490085
569.138982	47461.404819
569.494525	47410.650482
569.850013	47170.683998
570.205445	47153.755803
570.560823	47107.538504
570.916145	46980.947570
571.271412	47006.463370
571.626625	46767.873120
571.981782	46814.140830
572.336884	46507.217740
572.691931	46817.467992
573.046923	46437.571679
573.401860	46298.012376
573.756743	46269.514733
574.111570	46386.066210
574.466342	46251.868174
574.821059	46366.430916
575.175722	45904.915802
575.530330	45895.204019
575.884882	45638.347148
576.239380	45600.452795
576.593823	45567.284523
576.948211	45482.877963
577.302544	45024.309404
577.656823	45062.024796
578.011047	45262.647596
578.365216	44986.503271
578.719330	44798.493438
579.073389	44664.638200
579.427394	44744.396816
579.781344	44697.244383
580.135239	44369.413108
580.489080	44435.371565
580.842866	43943.526348
581.196597	44400.791770
581.550273	44330.056820
581.903895	44202.787850
582.257463	44630.078570
582.610975	44011.965053
582.964434	44298.718487
583.317837	43941.467037
583.671186	43781.075166
584.024481	44007.990103
584.377721	43556.837081
584.730906	43829.550901
585.084037	43848.913973
585.437113	43561.784973
585.790135	43590.506947
586.143103	43205.670304
586.496016	43319.910412
586.848874	43350.890823
587.201679	43369.782547
587.554428	42854.049823
587.907124	43059.630598
588.259765	42815.495079
588.612352	43058.521544
588.964884	42446.124695
589.317362	42738.957760
589.669786	42681.725541
590.022155	42457.086684
590.374470	42867.532389
590.726731	42397.598548
591.078937	41920.249170
591.431090	42014.140660
591.783188	41670.878413
592.135232	41354.183046
592.487222	41591.535692
592.839157	41671.006962
593.191038	41352.597603
593.542866	41128.084775
593.894639	40547.903420
594.246358	40801.516308
594.598022	40786.135748
594.949633	40399.869938
595.301190	40360.513649
595.652692	40197.870903
596.004141	40524.628413
596.355535	39540.575018
596.706876	39494.156073
597.058162	39312.871139
597.409395	39781.937902
597.760573	39860.491682
598.111698	39436.386970
598.462768	39453.317686
598.813785	39499.885344
599.164748	38956.680853
599.515657	39339.553967
599.866511	38809.806835
600.217312	39418.677397
600.568060	38409.501411
600.918753	39143.064913
601.269392	39113.160789
601.619978	38750.406920
601.970510	38947.034605
602.320988	39137.670879
602.671412	39431.663409
603.021783	39191.439826
603.372100	38839.773974
603.722363	38929.438457
604.072572	39017.744349
604.422728	39017.588073
604.772830	38838.652318
605.122878	38918.622662
605.472872	38873.859736
605.822813	39143.115325
606.172701	38970.148295
606.522534	39217.462262
606.872314	39478.601593
607.222041	39224.547603
607.571714	39619.905135
607.921333	39081.640974
608.270899	39365.195796
608.620411	39688.300990
608.969870	39508.407415
609.319276	39504.283751
609.668627	39550.064990
610.017926	40021.049911
610.367171	40173.635556
610.716362	40272.089290
611.065500	40206.680319
611.414585	40400.512685
611.763616	40685.617661
612.112594	40628.577005
612.461518	40853.031860
612.810389	41128.553603
613.159207	41009.690757
613.507971	41071.376836
613.856682	41534.439584
614.205340	41417.734352
614.553945	42107.419651
614.902496	41554.546226
615.250994	42030.088351
615.599439	42106.978550
615.947830	42312.934890
616.296169	42364.296686
616.644454	42473.185609
616.992686	42669.886391
617.340864	43189.609188
617.688990	42914.210953
618.037063	43491.836443
618.385082	43462.489366
618.733048	43763.547074
619.080961	43773.775575
619.428821	43787.298470
619.776628	43893.833174
620.124382	43721.085435
620.472083	43838.030122
620.819731	43947.707986
621.167326	43651.933407
621.514868	43605.277528
621.862357	43166.878625
622.209793	43198.403481
622.557176	42858.365051
622.904506	42613.987557
623.251783	42276.343675
623.599007	42052.622308
623.946179	41814.803355
624.293297	41793.149079
624.640363	41211.873793
624.987376	41195.079189
625.334336	40952.458537
625.681243	40611.933636
626.028097	40575.357544
626.374899	40415.169839
626.721647	40406.499055
627.068343	40280.969283
627.414987	40059.521477
627.761577	39847.987100
628.108115	40156.533441
628.454600	39629.276640
628.801032	39812.076440
629.147412	39781.663159
629.493739	39785.794385
629.840014	39446.189494
630.186236	39766.572465
630.532405	39390.106658
630.878521	39623.859920
631.224585	39490.977625
631.570597	39201.524654
631.916556	39374.612671
632.262462	39304.500303
632.608316	39327.291360
632.954117	39234.158563
633.299866	39209.361127
633.645562	39136.435796
633.991206	38643.284921
634.336797	38203.610606
634.682336	38208.099753
635.027823	37962.162022
635.373257	37778.590925
635.718639	37539.647795
636.063968	37408.338340
636.409245	36835.970773
636.754470	36891.320122
637.099642	36648.084449
637.444762	36178.289240
637.789829	36319.922978
638.134845	35961.582639
638.479808	35923.468995
638.824719	35826.199932
639.169577	35442.893278
639.514383	35497.771279
639.859137	35218.307354
640.203839	35450.588600
640.548489	35077.984316
640.893086	35159.530021
641.237632	34904.760187
641.582125	35012.986199
641.926566	34950.647290
642.270955	34932.884785
642.615292	34931.740443
642.959576	34923.601500
643.303809	34916.775778
643.647990	35068.849745
643.992118	35041.640117
644.336195	35028.407088
644.680219	35120.017457
645.024192	35410.095531
645.368112	35937.188495
645.711981	35945.098066
646.055797	36808.720816
646.399562	36737.093582
646.743274	37689.959879
647.086935	38115.435784
647.430544	38007.794547
647.774101	38121.691856
648.117606	38366.906182
648.461059	38656.346551
648.804460	38265.717621
649.147810	37657.008377
649.491108	37404.985972
649.834354	37040.145066
650.177548	36237.086738
650.520690	35778.475328
650.863781	35779.723014
651.206820	35626.151823
651.549807	35207.050457
651.892742	34729.491871
652.235626	34554.447886
652.578458	34413.983696
652.921238	33830.681867
653.263967	34123.469562
653.606644	33826.840507
653.949269	33784.759476
654.291843	33382.356932
654.634365	33790.216525
654.976836	33386.823394
655.319255	33380.234606
655.661622	33383.350039
656.003938	33152.807991
656.346203	33026.559855
656.688416	33250.752569
657.030577	33040.886814
657.372687	32887.804616
657.714746	33146.625016
658.056753	33271.784263
658.398708	32728.988105
658.740612	32788.221663
659.082465	33058.127560
659.424266	32890.098341
659.766016	32989.149452
660.107715	32881.568709
660.449362	32997.565659
660.790958	32981.451610
661.132503	33017.596683
661.473996	33036.453119
661.815438	33139.927843
662.156829	33339.852443
662.498168	33119.818681
662.839456	33140.676455
663.180693	33289.224135
663.521879	33448.801860
663.863013	33404.956424
664.204097	33407.403905
664.545129	33868.475397
664.886110	33816.274249
665.227040	33910.437962
665.567918	34010.575442
665.908746	34080.080350
666.249522	34253.029736
666.590248	34238.702777
666.930922	34349.817369
667.271545	34314.950229
667.612118	34393.284718
667.952639	34187.608162
668.293109	34229.358998
668.633528	34130.413751
668.973896	34045.629105
669.314213	34076.901903
669.654480	33814.466995
669.994695	33852.416802
670.334859	33734.940273
670.674973	33638.293792
671.015035	33802.653051
671.355047	33756.435753
671.695008	33694.462328
672.034918	33595.985908
672.374777	33676.949360
672.714585	33521.911194
673.054342	33735.099069
673.394049	33505.527444
673.733705	33791.917914
674.073310	33444.400933
674.412864	33520.597973
674.752368	33125.517705
675.091820	33415.731891
675.431223	32991.165914
675.770574	32717.408575
676.109875	32591.810747
676.449125	32311.608293
676.788324	32244.775196
677.127473	31695.763295
677.466571	31630.462709
677.805619	31288.002005
678.144616	31277.632351
678.483562	31201.831041
678.822458	30887.124410
679.161303	30818.403400
679.500098	30729.895862
679.838842	30608.693921
680.177535	30766.683683
680.516179	31040.362884
680.854771	31284.042178
681.193314	32141.250061
681.531805	33275.910448
681.870247	34074.346038
682.208638	34776.016680
682.546978	35013.606261
682.885268	35088.648877
683.223508	34569.775514
683.561697	34230.170624
683.899836	34034.755336
684.237925	33527.534601
684.575963	33378.485326
684.913951	32924.965482
685.251889	33078.793771
685.589776	33073.687082
685.927614	33074.695312
686.265401	33217.987590
686.603137	33317.026098
686.940824	33833.086497
687.278460	34210.547932
687.616046	34358.813308
687.953582	34978.149305
688.291068	34836.329045
688.628504	35096.019044
688.965889	35036.566196
689.303224	34648.636805
689.640510	34275.992192
689.977745	33566.462391
690.314930	32756.079266
690.652065	32223.294839
690.989150	31490.525319
691.326185	30592.826889
691.663170	29890.354704
692.000105	29130.809095
692.336990	28439.694629
692.673825	28005.754626
693.010610	27490.793199
693.347345	26924.679184
693.684030	26279.749249
694.020665	25994.974468
694.357251	25329.428735
694.693786	25280.905108
695.030272	25044.449787
695.366707	24515.796586
695.703093	24209.669998
696.039429	24204.291087
696.375716	23940.328710
696.711952	23923.476133
697.048139	23762.101236
697.384276	23586.981634
697.720363	23711.785480
698.056400	23520.990410
698.392388	23300.490340
698.728326	23253.821859
699.064214	23053.791395
699.400053	22986.126507
699.735842	22640.946100
700.071581	22359.634592
700.407270	22076.692271
700.742910	21883.837889
701.078501	21610.473760
701.414042	21336.227429
701.749533	21033.722911
702.084974	20686.798265
702.420366	20891.534646
702.755709	20460.616815
703.091002	20163.309726
703.426246	20183.423930
703.761440	20084.360215
704.096584	19806.993410
704.431679	19769.993862
704.766725	19683.152425
705.101721	19620.138002
705.436668	19707.198729
705.771565	19384.499348
706.106413	19729.215968
706.441212	19715.554441
706.775961	19852.625935
707.110661	19919.007849
707.445311	20271.381982
707.779913	20119.814650
708.114465	20355.017245
708.448967	20636.911006
708.783421	21333.613591
709.117825	21607.176846
709.452180	21839.836178
709.786485	22237.132033
710.120742	23051.530437
710.454949	23059.941602
710.789107	23533.013562
711.123216	24238.049174
711.457275	24353.645352
711.791286	24893.167281
712.125247	24959.103053
712.459159	24654.130889
712.793023	25307.986187
713.126837	24208.855852
713.460602	24459.660818
713.794318	24076.412138
714.127985	23684.651469
714.461602	22784.490436
714.795171	22734.479669
715.128691	21728.943396
715.462162	21188.609842
715.795584	20764.482445
716.128957	20503.471664
716.462281	20096.436299
716.795556	19865.150682
717.128782	19368.922182
717.461960	18828.888576
717.795088	18763.744266
718.128167	18356.194704
718.461198	17899.551865
718.794180	17752.264473
719.127113	17396.658960
719.459997	17193.790326
719.792833	16855.937237
720.125619	16830.272722
720.458357	16506.681057
720.791046	16330.911146
721.123686	16188.163313
721.456278	15950.074658
721.788821	15902.687812
722.121315	15640.883049
722.453761	15720.467744
722.786158	15654.892415
723.118506	15661.040102
723.450805	15530.895154
723.783056	15685.406519
724.115259	15585.190902
724.447412	15513.689696
724.779518	15757.900832
725.111574	15785.047446
725.443582	15982.736294
725.775542	15958.296780
726.107453	16420.850372
726.439315	16317.854557
726.771129	16713.678396
727.102895	17074.599805
727.434612	17291.719781
727.766281	17414.686126
728.097901	17679.835695
728.429473	17714.697794
728.760996	17692.128549
729.092471	17780.000901
729.423897	17652.837796
729.755276	17514.523658
730.086606	17631.997666
730.417887	18155.244229
730.749120	18667.029729
731.080305	18842.209825
731.411442	19164.778137
731.742530	19230.963445
732.073570	19346.746146
732.404562	19620.231263
732.735506	19444.191650
733.066401	19152.165170
733.397249	18628.573287
733.728048	17983.718969
734.058798	17155.812794
734.389501	16474.548742
734.720156	16022.561409
735.050762	15499.390463
735.381320	15138.847140
735.711831	14905.512293
736.042293	14563.044027
736.372707	14573.882508
736.703073	14370.151837
737.033391	14556.765270
737.363661	14519.939641
737.693883	14628.521054
738.024056	14804.101922
738.354182	14991.950437
738.684260	15272.077274
739.014290	15498.442726
739.344272	15691.082859
739.674207	15970.788759
740.004093	16078.036787
740.333931	16066.159828
740.663722	16097.490599
740.993464	16091.751246
741.323159	15919.711788
741.652806	15640.799870
741.982405	15429.507468
742.311956	15090.159676
742.641460	14965.338186
742.970915	14656.116330
743.300323	14322.606194
743.629683	14115.641623
743.958996	13844.263709
744.288260	13562.843816
744.617477	13269.030246
744.946647	13200.594062
745.275768	12927.532403
745.604842	12743.923497
745.933869	12571.500912
746.262847	12522.274045
746.591778	12453.419445
746.920662	12353.355062
747.249498	12347.714011
747.578286	12477.546407
747.907027	12614.295267
748.235720	12836.474041
748.564365	12864.497815
748.892963	12762.651384
749.221514	12827.520951
749.550017	12673.163341
749.878473	12643.705359
750.206881	12416.697160
750.535242	12326.838593
750.863555	12244.151067
751.191821	12146.917291
751.520039	12162.912872
751.848210	12069.843090
752.176334	12107.369439
752.504411	12010.206240
752.832440	11860.408353
753.160421	11926.031574
753.488356	11800.776545
753.816243	11696.039012
754.144082	11559.028012
754.471875	11507.280568
754.799620	11460.196191
755.127318	11421.777557
755.454969	11382.396063
755.782572	11334.593322
756.110129	11356.913031
756.437638	11267.543455
756.765100	11261.662949
757.092515	11266.746953
757.419882	11280.136258
757.747203	11287.105653
758.074477	11361.215656
758.401703	11318.340642
758.728882	11480.781743
759.056014	11517.428410
759.383099	11639.278140
759.710138	11730.230638
760.037129	11819.832106
760.364073	11835.583191
760.690970	11825.412663
761.017820	11824.089361
761.344623	12010.264213
761.671379	12324.612923
761.998088	12963.203607
762.324751	14512.503939
762.651366	17392.555461
762.977935	21040.669621
763.304456	23250.814810
763.630931	23710.835222
763.957359	22518.037728
764.283740	20602.016139
764.610074	18731.203618
764.936362	16601.462311
765.262602	15093.963227
765.588796	13637.573881
765.914943	12598.120725
766.241044	11753.412384
766.567097	11125.077927
766.893104	10588.764693
767.219064	10222.124094
767.544978	9848.052835
767.870845	9526.999390
768.196665	9348.454324
768.522438	9152.320672
768.848165	8985.584508
769.173846	8821.484868
769.499479	8697.212864
769.825066	8549.479330
770.150607	8355.919187
770.476101	8296.378119
770.801548	8191.159156
771.126949	8050.921818
771.452303	7963.414949
771.777611	7796.502345
772.102872	7775.324458
772.428087	7655.670151
772.753256	7536.759414
773.078378	7446.278264
773.403453	7303.790050
773.728482	7206.107612
774.053465	7140.524721
774.378401	7059.115128
774.703291	6963.880170
775.028135	6862.555498
775.352932	6827.706002
775.677683	6745.353713
776.002388	6660.649725
776.327046	6657.728376
776.651658	6575.517239
776.976224	6499.423543
777.300743	6478.396890
777.625216	6413.963382
777.949643	6377.593978
778.274024	6380.530450
778.598359	6306.715355
778.922647	6309.603936
779.246889	6273.849552
779.571086	6281.885151
779.895236	6291.518796
780.219339	6286.081912
780.543397	6283.422703
780.867409	6333.183933
781.191374	6328.203273
781.515294	6296.998531
781.839167	6357.172263
782.162995	6320.144988
782.486776	6275.752588
782.810511	6233.913531
783.134201	6154.343959
783.457844	6142.625797
783.781441	6095.818683
784.104993	6052.328649
784.428498	6027.231265
784.751958	6005.990363
785.075372	5984.530171
785.398739	5946.028359
785.722061	5968.960568
786.045337	5971.574406
786.368568	6079.278658
786.691752	6100.912769
787.014891	6350.550708
787.337983	6626.468181
787.661030	7065.777013
787.984031	7489.022207
788.306987	7754.562466
788.629897	7838.283428
788.952760	7752.868638
789.275579	7570.036070
789.598351	7274.185874
789.921078	7006.853486
790.243759	6731.551033
790.566395	6526.539909
790.888984	6332.377348
791.211529	6195.862902
791.534027	6032.025402
791.856480	5895.765534
792.178888	5837.237738
792.501249	5767.896667
792.823566	5663.164175
793.145836	5660.283156
793.468062	5642.475280
793.790241	5600.681594
794.112375	5645.142050
794.434464	5738.252162
794.756507	5774.578716
795.078505	5890.353856
795.400457	6108.497185
795.722364	6355.327201
796.044226	6543.778135
796.366042	6702.193874
796.687812	6648.699670
797.009538	6672.980387
797.331218	6581.538898
797.652852	6510.743454
797.974442	6391.089147
798.295986	6323.099105
798.617484	6195.741914
798.938938	6086.469864
799.260346	6016.891858
799.581709	5878.723914
799.903026	5827.858671
800.224299	5756.508700
800.545526	5642.147605
800.866708	5574.712090
801.187845	5527.768865
801.508936	5448.574859
801.829983	5421.022433
802.150984	5315.498480
802.471940	5289.332371
802.792851	5271.259834
803.113717	5244.947532
803.434538	5225.357608
803.755314	5190.021640
804.076045	5180.004867
804.396731	5148.797604
804.717372	5163.275798
805.037967	5165.907280
805.358518	5194.480540
805.679024	5253.830045
805.999485	5262.231128
806.319901	5283.711484
806.640272	5295.933762
806.960598	5348.568449
807.280879	5338.297098
807.601115	5378.548191
807.921306	5335.763918
808.241453	5333.719730
808.561554	5340.419424
808.881611	5305.204443
809.201623	5302.162107
809.521590	5254.170323
809.841513	5239.114917
810.161390	5250.961628
810.481223	5163.621117
810.801011	5156.021578
811.120755	5126.805571
811.440453	5075.458898
811.760107	5043.006470
812.079716	5017.377244
812.399281	4966.791786
812.718801	4961.780879
813.038276	4924.816618
813.357707	4891.171957
813.677093	4916.249177
813.996434	4852.153427
814.315731	4874.800810
814.634983	4870.571282
814.954191	4878.984968
815.273354	4936.867497
815.592473	4977.990709
815.911547	5052.244385
816.230577	5106.361171
816.549562	5192.403585
816.868502	5241.953086
817.187399	5296.082476
817.506250	5375.286564
817.825058	5404.409310
818.143821	5561.302621
818.462539	5727.660697
818.781213	5954.830213
819.099843	6321.566594
819.418429	6949.976668
819.736970	7572.208807
820.055466	8281.053012
820.373919	9188.679994
820.692327	10644.194700
821.010691	13349.358512
821.329011	19585.918649
821.647286	29190.700523
821.965517	39550.183457
822.283704	44997.994581
822.601847	46474.883779
822.919945	41855.813142
823.237999	36708.512760
823.556010	31511.292353
823.873976	26793.813351
824.191897	22589.523811
824.509775	19506.754890
824.827609	16743.960607
825.145398	15181.031515
825.463144	14437.534420
825.780845	14739.055914
826.098502	15987.820297
826.416116	18463.258729
826.733685	20753.008779
827.051210	21285.470572
827.368692	19848.507312
827.686129	17273.959796
828.003522	14784.781700
828.320872	12570.112074
828.638177	10914.405587
828.955439	9673.523047
829.272656	8615.752859
829.589830	7769.696009
829.906960	7041.405554
830.224046	6509.556262
830.541088	6093.963539
830.858086	5839.733109
831.175041	5638.286081
831.491952	5581.290796
831.808819	5611.303305
832.125642	5859.678434
832.442421	6414.109576
832.759157	7525.386571
833.075849	9297.896592
833.392497	11145.638273
833.709101	12267.438677
834.025662	12004.350940
834.342179	10945.685947
834.658653	9642.187235
834.975083	8535.565746
835.291469	7633.418498
835.607811	6893.800570
835.924110	6368.154417
836.240366	5886.381426
836.556578	5432.400317
836.872746	5077.424948
837.188871	4811.683044
837.504952	4588.727933
837.820990	4419.481274
838.136984	4304.447185
838.452935	4257.463631
838.768842	4287.203918
839.084706	4574.554728
839.400526	5313.976051
839.716303	6222.273507
840.032037	6788.790815
840.347727	6639.832280
840.663373	6039.050250
840.978977	5457.376713
841.294537	5014.329867
841.610054	4682.616902
841.925527	4438.652782
842.240957	4237.798090
842.556344	4052.104667
842.871687	3897.096748
843.186987	3746.217534
843.502244	3625.134060
843.817458	3543.585835
844.132629	3467.814772
844.447756	3419.525559
844.762840	3373.169629
845.077881	3335.459278
845.392879	3303.362251
845.707833	3277.695216
846.022745	3249.923500
846.337613	3240.022674
846.652438	3214.791699
846.967221	3206.078064
847.281960	3185.492512
847.596656	3175.253929
847.911309	3166.948628
848.225919	3150.375835
848.540485	3143.648415
848.855009	3136.210192
849.169490	3125.714510
849.483928	3114.833180
849.798323	3111.697582
850.112675	3102.051334
850.426984	3101.186776
850.741251	3093.982967
851.055474	3087.570620
851.369654	3092.395004
851.683792	3088.866196
851.997887	3093.120930
852.311938	3094.204778
852.625947	3092.324428
852.939914	3086.655650
853.253837	3092.442895
853.567718	3090.343254
853.881555	3083.333530
854.195350	3090.580188
854.509103	3086.179261
854.822812	3083.446956
855.136479	3079.182140
855.450103	3085.864189
855.763685	3077.737849
856.077224	3081.974939
856.390720	3088.533480
856.704173	3100.196189
857.017584	3103.964452
857.330953	3109.640791
857.644278	3115.417953
857.957561	3119.498767
858.270802	3115.695217
858.584000	3117.429374
858.897155	3109.106429
859.210268	3098.767022
859.523339	3089.854262
859.836367	3088.344437
860.149352	3080.460072
860.462295	3076.898497
860.775195	3064.275448
861.088054	3061.737227
861.400869	3064.910633
861.713642	3061.520457
862.026373	3072.129565
862.339062	3072.424473
862.651708	3083.091554
862.964312	3102.744493
863.276873	3111.281687
863.589392	3139.807056
863.901869	3162.366219
864.214303	3184.466638
864.526696	3207.502190
864.839045	3225.403327
865.151353	3237.413877
865.463619	3236.128382
865.775842	3232.097980
866.088023	3241.587952
866.400162	3232.045048
866.712258	3234.603433
867.024313	3233.141499
867.336325	3233.295254
867.648296	3235.132754
867.960224	3230.855335
868.272110	3234.923547
868.583954	3238.071747
868.895755	3244.347984
869.207515	3238.222982
869.519233	3259.514295
869.830909	3265.331787
870.142542	3276.079527
870.454134	3284.294087
870.765684	3295.941673
871.077191	3315.045125
871.388657	3325.409738
871.700081	3345.397913
872.011463	3367.838609
872.322803	3385.953995
872.634101	3403.842530
872.945357	3423.442536
873.256571	3450.599232
873.567744	3463.867548
873.878874	3470.720997
874.189963	3489.310252
874.501010	3490.338647
874.812015	3485.012668
875.122979	3498.923732
875.433900	3501.509844
875.744780	3499.687467
876.055618	3513.258253
876.366415	3510.646936
876.677169	3515.854448
876.987882	3530.715769
877.298554	3549.443656
877.609183	3587.834563
877.919771	3636.469094
878.230317	3704.431410
878.540822	3806.471926
878.851285	3965.056543
879.161707	4187.429401
879.472087	4565.357143
879.782425	5196.260068
880.092722	6388.354321
880.402977	8338.925458
880.713191	10729.307021
881.023363	13114.743212
881.333494	14472.981293
881.643583	14937.216110
881.953631	14526.014232
882.263637	13679.962423
882.573602	12642.286274
882.883526	11676.428923
883.193408	10707.882117
883.503248	9783.064800
883.813048	8947.790978
884.122806	8174.241044
884.432522	7407.620176
884.742197	6739.770635
885.051831	6169.472462
885.361424	5673.332182
885.670975	5282.080671
885.980485	4954.042708
886.289954	4680.040873
886.599382	4460.541473
886.908768	4282.780306
887.218113	4119.507415
887.527417	3988.356756
887.836680	3862.877396
888.145901	3760.887292
888.455082	3682.474664
888.764221	3614.225003
889.073319	3556.947413
889.382376	3520.076414
889.691392	3494.863083
890.000366	3487.109788
890.309300	3486.613235
890.618193	3490.124398
890.927044	3483.328923
891.235855	3490.487361
891.544625	3503.541429
891.853353	3533.957231
892.162041	3593.289091
892.470687	3681.988193
892.779293	3806.366061
893.087858	3978.617247
893.396381	4262.207357
893.704864	4680.214792
894.013306	5252.683182
894.321707	5832.398230
894.630068	6188.429721
894.938387	6231.196349
895.246665	6052.348814
895.554903	5727.852261
895.863100	5389.900869
896.171256	5118.023881
896.479371	4874.677302
896.787446	4651.439886
897.095480	4446.781643
897.403473	4296.630876
897.711425	4152.015295
898.019336	4027.818909
898.327207	3904.628232
898.635038	3803.616112
898.942827	3697.124258
899.250576	3608.805763
899.558284	3524.547917
899.865952	3471.870380
900.173579	3404.243301
900.481165	3358.119264
900.788711	3318.526042
901.096216	3283.270733
901.403681	3254.289139
901.711105	3246.261102
902.018489	3240.347828
902.325832	3274.610030
902.633135	3331.771674
902.940397	3507.143334
903.247619	3913.951846
903.554800	4675.949976
903.861941	5653.283514
904.169041	6358.939188
904.476101	6574.433391
904.783121	6294.437624
905.090100	5887.188011
905.397039	5467.806861
905.703938	5107.283702
906.010796	4783.790339
906.317614	4525.650495
906.624391	4282.999596
906.931129	4084.047939
907.237826	3904.540012
907.544483	3731.706573
907.851099	3557.602763
908.157675	3398.647621
908.464211	3256.655961
908.770707	3155.779952
909.077163	3073.657035
909.383578	3013.543796
909.689954	2969.968062
909.996289	2936.605706
910.302584	2917.587953
910.608839	2903.427352
910.915054	2893.886968
911.221229	2888.772718
911.527363	2894.615415
911.833458	2899.676733
912.139513	2911.036974
912.445527	2923.196237
912.751502	2959.127061
913.057436	3005.445182
913.363331	3061.911147
913.669186	3151.684014
913.975000	3269.546191
914.280775	3459.862352
914.586510	3731.071388
914.892205	4105.538378
915.197859	4614.185759
915.503475	5203.819278
915.809050	5706.976843
916.114585	5997.110371
916.420081	6067.038736
916.725536	5999.711606
917.030952	5754.903093
917.336328	5547.081526
917.641665	5333.374411
917.946961	5101.703145
918.252218	4902.557403
918.557435	4673.923432
918.862612	4470.527998
919.167750	4296.764466
919.472848	4107.214561
919.777906	3936.019497
920.082925	3775.831793
920.387904	3619.442597
920.692843	3505.149557
920.997743	3405.009557
921.302603	3309.837613
921.607423	3248.325454
921.912204	3181.840197
922.216946	3126.563945
922.521647	3078.844382
922.826310	3036.508772
923.130932	3001.853360
923.435516	2962.151753
923.740059	2934.717794
924.044564	2902.230078
924.349028	2874.806201
924.653454	2845.738908
924.957840	2821.874086
925.262186	2801.044038
925.566493	2780.208949
925.870761	2754.705752
926.174989	2743.695872
926.479178	2729.189952
926.783328	2712.130687
927.087438	2700.193235
927.391509	2685.233611
927.695541	2674.750531
927.999533	2664.650579
928.303486	2658.081956
928.607400	2647.344298
928.911275	2645.458907
929.215110	2637.191414
929.518906	2636.140334
929.822663	2636.873822
930.126381	2634.532206
930.430060	2637.864408
930.733699	2641.393216
931.037299	2645.887405
931.340861	2643.674338
931.644383	2646.278094
931.947866	2645.315234
932.251309	2641.494039
932.554714	2641.816673
932.858080	2640.037146
933.161407	2634.943060
933.464694	2631.696557
933.767943	2629.796042
934.071153	2625.344703
934.374323	2621.626852
934.677455	2619.774228
934.980548	2617.160390
935.283602	2613.901284
935.586617	2611.373145
935.889593	2614.680142
936.192530	2614.349946
936.495428	2620.941255
936.798287	2628.495424
937.101108	2644.523773
937.403890	2668.638132
937.706632	2692.825588
938.009336	2727.453274
938.312002	2758.262286
938.614628	2782.220369
938.917216	2801.648976
939.219765	2808.925882
939.522275	2818.458704
939.824747	2817.679846
940.127179	2813.626758
940.429573	2804.421611
940.731929	2806.853968
941.034246	2795.115641
941.336524	2796.353244
941.638763	2788.360495
941.940964	2781.973353
942.243126	2765.307298
942.545250	2758.927718
942.847335	2741.066910
943.149381	2729.194993
943.451389	2712.516335
943.753359	2698.925384
944.055290	2693.153263
944.357182	2681.430060
944.659036	2676.628361
944.960851	2672.000582
945.262628	2668.655776
945.564367	2670.793225
945.866067	2669.169974
946.167729	2667.508914
946.469352	2665.026145
946.770937	2665.326094
947.072484	2657.270330
947.373992	2655.803354
947.675462	2653.401245
947.976893	2649.471665
948.278286	2642.832466
948.579641	2643.631488
948.880958	2639.777526
949.182236	2638.552526
949.483476	2634.060858
949.784678	2635.437093
950.085841	2632.482977
950.386967	2637.423307
950.688054	2643.986890
950.989103	2651.301604
951.290114	2660.771412
951.591087	2673.817918
951.892021	2686.400638
952.192917	2697.513861
952.493776	2705.055427
952.794596	2712.768393
953.095378	2714.681511
953.396122	2709.663042
953.696828	2709.786550
953.997496	2705.231868
954.298126	2694.257276
954.598718	2687.071111
954.899272	2677.281190
955.199788	2664.764005
955.500266	2651.813281
955.800706	2633.377782
956.101108	2618.488734
956.401472	2607.249481
956.701798	2592.186513
957.002087	2576.805953
957.302337	2567.716753
957.602550	2558.753581
957.902724	2548.119267
958.202861	2540.870088
958.502960	2529.668644
958.803022	2521.920391
959.103045	2514.993845
959.403031	2507.598473
959.702979	2503.399191
960.002889	2500.719818
960.302762	2494.330156
960.602596	2489.112561
960.902393	2486.271871
961.202153	2482.949751
961.501875	2482.770790
961.801559	2480.310707
962.101205	2472.726291
962.400814	2472.343163
962.700385	2471.302165
962.999918	2470.104891
963.299414	2467.917030
963.598873	2468.065744
963.898293	2460.511575
964.197677	2462.689353
964.497022	2463.821092
964.796331	2461.189610
965.095601	2458.376646
965.394835	2462.336473
965.694030	2459.367233
965.993189	2460.652727
966.292309	2459.347068
966.591393	2456.874383
966.890439	2457.370936
967.189447	2457.663323
967.488419	2456.478652
967.787353	2458.235494
968.086249	2458.928653
968.385108	2459.999898
968.683930	2458.031327
968.982714	2458.129630
969.281462	2460.834209
969.580172	2465.477112
969.878844	2462.381843
970.177480	2468.093470
970.476078	2473.462299
970.774639	2474.208390
971.073162	2476.169399
971.371649	2477.280973
971.670098	2480.577888
971.968510	2478.183340
972.266885	2480.678711
972.565223	2485.684577
972.863524	2486.670122
973.161788	2488.114413
973.460014	2486.796151
973.758204	2487.814464
974.056356	2488.411841
974.354471	2487.443939
974.652550	2486.816316
974.950591	2492.812768
975.248595	2487.474186
975.546563	2486.849083
975.844493	2486.869248
976.142386	2482.168372
976.440243	2483.199288
976.738062	2482.511170
977.035845	2476.920531
977.333590	2474.596559
977.631299	2473.215283
977.928971	2472.658235
978.226606	2467.193624
978.524204	2468.040538
978.821765	2466.384519
979.119290	2466.974334
979.416777	2464.985599
979.714228	2464.075671
980.011642	2465.736731
980.309020	2473.048925
980.606360	2477.570840
980.903664	2486.259268
981.200931	2497.175887
981.498162	2518.973836
981.795356	2547.985677
982.092513	2587.677201
982.389633	2632.656897
982.686717	2674.687517
982.983764	2703.787577
983.280775	2728.123747
983.577749	2725.525033
983.874686	2716.040102
984.171587	2700.757844
984.468451	2681.493074
984.765279	2665.179901
985.062070	2648.125677
985.358824	2626.307563
985.655543	2605.164964
985.952224	2581.852148
986.248869	2556.414486
986.545478	2523.372243
986.842050	2505.521517
987.138586	2486.917139
987.435086	2477.706951
987.731549	2463.949642
988.027975	2458.419496
988.324366	2454.026131
988.620719	2447.603701
988.917037	2447.616303
989.213318	2440.465427
989.509563	2436.538368
989.805772	2436.387133
990.101944	2434.673141
990.398080	2433.538881
990.694180	2431.436720
990.990244	2435.399067
991.286271	2434.408480
991.582262	2434.567277
991.878217	2435.512493
992.174136	2437.649942
992.470019	2437.491146
992.765865	2439.366455
993.061676	2441.854265
993.357450	2446.303083
993.653188	2445.297373
993.948890	2453.985801
994.244556	2460.493931
994.540186	2470.316619
994.835780	2480.537559
995.131337	2493.054744
995.426859	2511.281035
995.722345	2529.635877
996.017795	2548.267981
996.313208	2565.269272
996.608586	2574.688668
996.903928	2577.118505
997.199234	2576.236303
997.494504	2572.601631
997.789738	2567.941084
998.084936	2555.870041
998.380099	2541.011240
998.675225	2534.636701
998.970316	2521.081038
999.265371	2504.977073
999.560390	2491.398725
999.855373	2480.061170
1000.150320	2467.430559
1000.445232	2459.112655
1000.740108	2454.643672
1001.034948	2446.592949
1001.329752	2445.675459
1001.624521	2439.459717
1001.919254	2430.093253
1002.213951	2430.322625
1002.508613	2427.373550
1002.803239	2425.911616
1003.097829	2423.479259
1003.392384	2424.714342
1003.686903	2423.108734
1003.981386	2421.538415
1004.275834	2418.284350
1004.570246	2419.572365
1004.864623	2420.129412
1005.158964	2419.660585
1005.453270	2418.332241
1005.747540	2416.618248
1006.041775	2416.270409
1006.335974	2415.115985
1006.630138	2416.346026
1006.924266	2416.524987
1007.218359	2417.893660
1007.512416	2414.684966
1007.806438	2415.728485
1008.100425	2415.347878
1008.394376	2414.833680
1008.688292	2414.175809
1008.982172	2413.248237
1009.276017	2411.534245
1009.569827	2413.732188
1009.863602	2414.392579
1010.157341	2412.192115
1010.451045	2412.439132
1010.744714	2410.450397
1011.038347	2412.991138
1011.331945	2412.018196
1011.625508	2411.511560
1011.919036	2410.679769
1012.212528	2409.653894
1012.505986	2407.012330
1012.799408	2410.825963
1013.092795	2409.006106
1013.386147	2409.487536
1013.679464	2410.987280
1013.972745	2409.643812
1014.265992	2409.656415
1014.559204	2409.192629
1014.852380	2407.274470
1015.145521	2408.113822
1015.438628	2404.809346
1015.731699	2410.001734
1016.024736	2408.018040
1016.317737	2409.706827
1016.610703	2411.619944
1016.903635	2404.658111
1017.196531	2405.562998
1017.489393	2410.006775
1017.782219	2406.926630
1018.075011	2411.176323
1018.367768	2409.779923
1018.660490	2412.479461
1018.953177	2412.479461
1019.245829	2412.479461
