Dividing Wavelength (nm)	Counts (n)	Blue Motor Position (mm): 44.200000	Red Motor Position (mm): 0.000000	
326.493990	1971.285238
326.888308	1971.285238
327.282561	1971.285238
327.676750	1948.557196
328.070874	1950.709769
328.464933	1961.044134
328.858929	1964.010853
329.252859	1977.226238
329.646726	1992.047230
330.040528	2007.609272
330.434265	2025.838085
330.827938	2048.278781
331.221547	2068.529096
331.615091	2086.594071
332.008571	2110.254726
332.401986	2128.319701
332.795338	2147.508853
333.188625	2168.227996
333.581847	2187.117199
333.975006	2206.898687
334.368100	2223.995760
334.761129	2240.588718
335.154095	2256.967427
335.546996	2297.442851
335.939833	2381.942672
336.332606	2395.432799
336.725315	2410.795716
337.117960	2412.497105
337.510540	2424.001018
337.903056	2434.640373
338.295508	2441.017433
338.687896	2447.139914
339.080220	2455.929166
339.472480	2459.969651
339.864676	2462.565845
340.256807	2467.554067
340.648875	2469.353759
341.040879	2470.283852
341.432818	2471.861733
341.824694	2473.900880
342.216506	2471.251753
342.608253	2473.643781
342.999937	2471.024901
343.391557	2469.121866
343.783113	2470.382154
344.174605	2465.686319
344.566033	2465.436782
344.957397	2464.746144
345.348697	2463.876545
345.739934	2463.551391
346.131106	2458.495113
346.522215	2457.910340
346.913260	2458.225412
347.304241	2459.674743
347.695159	2453.907663
348.086012	2451.636624
348.476802	2451.603856
348.867528	2451.593774
349.258191	2447.896087
349.648789	2446.865172
350.039324	2444.634461
350.429796	2447.470110
350.820203	2445.715788
351.210548	2442.759152
351.600828	2441.297217
351.991045	2440.808225
352.381198	2441.577001
352.771288	2441.965170
353.161314	2441.511466
353.551276	2442.716302
353.941175	2441.929882
354.331010	2441.657660
354.720782	2444.374842
355.110490	2444.750407
355.500135	2443.192691
355.889717	2443.164965
356.279235	2441.516507
356.668689	2446.739143
357.058080	2443.326282
357.447408	2438.441403
357.836672	2442.413833
358.225873	2445.095727
358.615010	2442.693617
359.004084	2449.826849
359.393095	2450.545214
359.782043	2451.497992
360.170927	2449.882302
360.559748	2453.143929
360.948505	2453.693414
361.337199	2454.409258
361.725830	2453.527056
362.114398	2455.500668
362.502903	2453.484207
362.891344	2458.308591
363.279722	2455.979578
363.668037	2457.741461
364.056289	2458.643827
364.444478	2458.444702
364.832603	2460.115844
365.220665	2461.779425
365.608665	2462.200362
365.996601	2463.082563
366.384474	2461.000567
366.772284	2464.544498
367.160031	2463.029631
367.547715	2462.192800
367.935336	2464.015177
368.322893	2465.494756
368.710388	2464.942749
369.097820	2470.364510
369.485189	2469.638584
369.872495	2473.109418
370.259738	2469.555405
370.646918	2472.859881
371.034035	2472.093626
371.421090	2473.424491
371.808081	2471.884418
372.195010	2475.627475
372.581875	2472.053297
372.968678	2477.606128
373.355418	2478.790799
373.742096	2477.989255
374.128710	2479.945223
374.515262	2481.409678
374.901751	2481.616366
375.288177	2480.787096
375.674540	2483.083341
376.060841	2482.443115
376.447079	2486.458394
376.833254	2483.892447
377.219367	2484.071407
377.605417	2488.779845
377.991404	2485.964361
378.377329	2490.582058
378.763191	2487.887561
379.148991	2495.784528
379.534727	2496.790239
379.920402	2498.771412
380.306013	2498.489107
380.691563	2505.418173
381.077049	2505.498832
381.462474	2511.800274
381.847835	2516.843949
382.233134	2523.513395
382.618371	2532.242153
383.003545	2539.166178
383.388657	2551.154042
383.773706	2562.675599
384.158693	2575.762434
384.543618	2593.724065
384.928480	2614.256685
385.313280	2635.119500
385.698017	2659.173366
386.082692	2689.195957
386.467305	2717.479351
386.851856	2758.138777
387.236344	2801.217958
387.620770	2839.510562
388.005133	2888.321534
388.389435	2946.564505
388.773674	2996.066116
389.157851	3060.280333
389.541965	3128.809779
389.926018	3174.321316
390.310008	3257.303749
390.693936	3335.250070
391.077802	3414.267636
391.461606	3508.123838
391.845348	3593.158021
392.229027	3686.101775
392.612645	3819.271415
392.996200	3922.115995
393.379694	4050.839338
393.763125	4203.427503
394.146494	4307.454233
394.529801	4437.019449
394.913047	4617.180205
395.296230	4691.950599
395.679351	4793.918017
396.062410	4997.346219
396.445408	5030.280077
396.828343	5185.703892
397.211217	5336.280636
397.594028	5360.183267
397.976778	5557.345315
398.359466	5737.750567
398.742092	5807.772194
399.124656	5986.612168
399.507158	6187.499628
399.889598	6286.669206
400.271977	6509.493247
400.654294	6626.349714
401.036549	6846.151584
401.418742	6953.921371
401.800874	7251.246104
402.182944	7401.391830
402.564952	7768.203828
402.946898	7724.214719
403.328783	7852.852363
403.710606	8093.670802
404.092367	8378.800985
404.474067	8747.009382
404.855705	8670.333432
405.237282	8713.233651
405.618797	9139.659814
406.000250	9426.433412
406.381642	9815.471858
406.762972	9848.163740
407.144240	9753.332075
407.525447	10042.374192
407.906593	10061.525536
408.287677	10357.068221
408.668700	10550.582994
409.049661	10586.566750
409.430560	10788.200301
409.811399	10818.946298
410.192176	11022.477843
410.572891	11143.352110
410.953545	11634.322686
411.334138	11187.124449
411.714669	11786.116869
412.095139	11176.848057
412.475547	11682.886641
412.855894	11575.378994
413.236180	11910.129254
413.616405	11640.666978
413.996568	11933.343767
414.376670	11929.913262
414.756711	11827.958446
415.136691	12123.365020
415.516609	12301.968060
415.896466	12382.848332
416.276262	12686.028366
416.655997	13135.595945
417.035670	13185.999922
417.415283	13827.864835
417.794834	13930.439713
418.174324	13689.951469
418.553753	13595.228188
418.933121	14090.980299
419.312428	13901.299323
419.691674	13823.380729
420.070859	14281.535914
420.449983	13944.537300
420.829045	14492.278830
421.208047	14237.879522
421.586988	14693.078070
421.965867	14935.824751
422.344686	14943.827583
422.723444	15499.982799
423.102141	14209.008834
423.480777	15382.097937
423.859352	14896.415531
424.237866	15990.056049
424.616319	15700.628283
424.994712	16346.493353
425.373044	16142.994575
425.751314	16805.170297
426.129524	15952.237313
426.507673	17013.493459
426.885762	16729.308493
427.263789	16911.740289
427.641756	17087.568174
428.019662	17157.168864
428.397508	17188.177002
428.775292	17476.319273
429.153016	17442.878779
429.530679	17516.643463
429.908282	17541.405610
430.285824	17266.672808
430.663305	17973.634141
431.040726	17579.357937
431.418086	17406.879899
431.795385	18042.423206
432.172624	18458.946022
432.549802	18013.124020
432.926920	18210.770018
433.303977	18092.670907
433.680974	18344.985698
434.057910	18640.977046
434.434786	18660.791301
434.811601	18577.854238
435.188355	19594.685216
435.565050	19247.705117
435.941683	19203.398416
436.318257	20069.017464
436.694770	19887.155318
437.071222	20475.369752
437.447614	19552.057219
437.823946	19577.220138
438.200218	19733.697554
438.576429	19499.755248
438.952580	19782.843763
439.328670	19735.812318
439.704700	20165.656383
440.080670	19729.006760
440.456580	20317.107768
440.832429	20473.280193
441.208218	19495.374485
441.583947	19932.893707
441.959616	20037.863133
442.335224	20263.895868
442.710773	20397.932587
443.086261	20927.470511
443.461689	20296.554984
443.837057	20423.899571
444.212365	21056.887012
444.587612	21057.323072
444.962800	20642.063065
445.337927	21060.259544
445.712995	19809.713113
446.088002	21633.073253
446.462949	21824.775731
446.837837	21987.723467
447.212664	21942.837033
447.587431	24723.968514
447.962139	27613.736859
448.336786	29993.375724
448.711374	28463.231776
449.085901	24821.887886
449.460369	24774.054898
449.834776	24670.970863
450.209124	27111.852185
450.583412	26673.685175
450.957640	27205.219396
451.331808	25880.315945
451.705917	24522.045096
452.079965	24558.918616
452.453954	24900.174485
452.827883	24785.964624
453.201752	24598.816828
453.575562	24764.970738
453.949311	25856.849373
454.323001	25920.539311
454.696632	25682.909401
455.070202	27203.880969
455.443713	27352.035440
455.817164	27915.495287
456.190556	28466.332086
456.563888	27915.996882
456.937160	28352.691875
457.310373	26713.520373
457.683526	27137.395712
458.056619	27107.269776
458.429653	27043.904993
458.802628	27611.314585
459.175542	27729.557369
459.548398	29031.115236
459.921194	30582.169890
460.293930	31247.539183
460.666607	33257.409413
461.039224	35012.386302
461.411782	35406.551600
461.784280	34206.618353
462.156719	33699.284192
462.529099	33155.353774
462.901419	31847.675946
463.273680	30819.396508
463.645882	30903.089744
464.018024	30878.675436
464.390106	31705.928782
464.762130	34370.115575
465.134094	38397.654700
465.505999	43667.984441
465.877845	48250.204244
466.249631	49408.273229
466.621358	47672.646809
466.993026	45560.748667
467.364634	43476.128208
467.736184	41514.005267
468.107674	40284.790478
468.479105	39508.357003
468.850477	38810.197525
469.221790	37399.337360
469.593043	35683.550401
469.964238	34797.875123
470.335373	34719.659101
470.706449	36377.707203
471.077467	38884.567147
471.448425	43456.467708
471.819324	46311.550394
472.190164	44517.915418
472.560945	40989.979845
472.931667	37892.828512
473.302330	36785.579399
473.672934	35956.591896
474.043479	36476.561710
474.413965	35689.662800
474.784393	35312.491231
475.154761	36183.673192
475.525070	36235.740749
475.895321	35778.671933
476.265513	36376.126802
476.635645	37321.214598
477.005719	37146.553741
477.375734	37599.030066
477.745691	38299.422776
478.115588	39618.712902
478.485427	41562.541496
478.855207	44874.128390
479.224928	47518.137965
479.594591	49145.316562
479.964194	48136.397675
480.333739	48278.913615
480.703226	48288.212023
481.072653	48918.792314
481.442022	49426.081105
481.811333	49686.350837
482.180584	48398.474661
482.549777	47871.336327
482.918912	47368.161117
483.287988	47062.667194
483.657005	46236.802686
484.025964	45600.351972
484.394864	45611.792870
484.763706	45183.279670
485.132489	44304.392305
485.501213	44144.754087
485.869879	44292.613649
486.238487	43881.452101
486.607036	44081.306124
486.975527	43545.978436
487.343959	43755.261937
487.712333	43828.116693
488.080648	43731.558432
488.448905	44188.541549
488.817104	43978.277542
489.185244	44933.122493
489.553326	46581.670541
489.921350	49300.987393
490.289315	52209.697874
490.657222	52833.971681
491.025070	53133.867403
491.392861	52228.357705
491.760593	50968.338945
492.128267	49288.301329
492.495883	47733.420440
492.863440	46355.559668
493.230939	45009.372465
493.598380	43918.983491
493.965763	43598.827372
494.333088	42785.540543
494.700354	42304.259064
495.067563	42034.154041
495.434713	41907.757191
495.801805	41972.548621
496.168839	41587.795156
496.535815	41265.063008
496.902733	41297.903604
497.269593	40875.031455
497.636395	40817.746303
498.003139	41222.636657
498.369825	40688.012209
498.736453	40980.547846
499.103023	40525.568588
499.469535	40403.000494
499.835989	40500.748467
500.202385	40161.826653
500.568723	40174.142192
500.935003	40359.717147
501.301226	40180.741062
501.667390	40767.985074
502.033497	41026.576101
502.399546	40469.785700
502.765537	39790.399479
503.131470	40165.388228
503.497345	40506.777687
503.863163	39198.709169
504.228923	39804.991098
504.594625	40204.207633
504.960269	39482.536213
505.325856	40176.907265
505.691385	39552.807377
506.056856	39688.376607
506.422270	40127.960181
506.787625	39697.445643
507.152924	39885.747863
507.518164	39979.722532
507.883347	39217.416891
508.248472	39462.411927
508.613540	39923.296897
508.978550	40235.495555
509.343503	39980.801339
509.708398	40174.149753
510.073236	40702.916380
510.438016	40711.002391
510.802738	40163.659112
511.167403	40770.913984
511.532010	41020.236850
511.896561	41329.793943
512.261053	42150.448419
512.625488	41688.169570
512.989866	41575.696387
513.354186	41429.588625
513.718449	41404.420664
514.082655	42082.292019
514.446803	41757.901331
514.810894	42280.527833
515.174927	42214.672719
515.538904	42121.519758
515.902822	42786.853763
516.266684	42227.341139
516.630488	42656.847447
516.994235	42498.164526
517.357925	43051.531984
517.721558	43232.476640
518.085133	43537.864698
518.448651	43691.725755
518.812112	43461.597082
519.175516	43566.027104
519.538863	43911.061318
519.902152	43868.836613
520.265385	44332.408518
520.628560	44376.758069
520.991678	44174.204507
521.354739	44416.890695
521.717743	44728.975926
522.080690	44636.891690
522.443580	45189.288725
522.806413	45233.204737
523.169189	45185.822932
523.531908	45353.516915
523.894569	45215.532972
524.257174	45387.398510
524.619722	45691.639706
524.982213	45666.731365
525.344647	45601.957579
525.707025	45658.083265
526.069345	46052.243523
526.431608	45968.454505
526.793815	46285.717002
527.155964	45829.348906
527.518057	46003.361975
527.880093	45792.535880
528.242072	46314.980900
528.603995	46006.139650
528.965860	46010.520413
529.327669	46106.844260
529.689421	46013.966042
530.051117	45954.276260
530.412755	46123.565767
530.774337	46182.779161
531.135862	46003.760226
531.497331	46222.206025
531.858743	46107.938191
532.220098	46444.992257
532.581396	46150.667011
532.942638	45828.882599
533.303824	46117.864222
533.664953	46090.173164
534.026025	45812.191338
534.387040	46275.276772
534.747999	46232.442088
535.108902	46401.824857
535.469748	45919.993893
535.830537	46040.505196
536.191270	46221.495222
536.551947	45883.049797
536.912567	46189.899790
537.273131	46309.312122
537.633638	45810.333673
537.994089	46148.310271
538.354483	45757.953564
538.714821	46314.315467
539.075103	46672.560024
539.435328	46431.633200
539.795497	46296.424412
540.155609	46312.218347
540.515665	46759.777027
540.875665	46208.428551
541.235609	46550.274235
541.595496	46523.508228
541.955328	47190.704940
542.315102	46569.349961
542.674821	46354.990017
543.034483	46382.209727
543.394090	46365.611728
543.753640	46325.663105
544.113134	47302.348854
544.472571	46351.219234
544.831953	47575.067715
545.191278	46792.675597
545.550548	46512.541198
545.909761	46963.127091
546.268918	47167.034202
546.628019	47475.275554
546.987064	47035.583595
547.346053	46327.538414
547.704986	47184.882407
548.063863	46753.097498
548.422684	46955.948488
548.781449	46795.158365
549.140158	47187.607151
549.498811	47050.142447
549.857408	46491.953126
550.215949	47326.856423
550.574434	47261.213038
550.932864	47018.030297
551.291237	47737.367663
551.649555	47340.616252
552.007817	47577.273220
552.366022	47224.248778
552.724173	47415.903365
553.082267	47805.597160
553.440305	48112.540415
553.798288	47433.013041
554.156215	47719.937874
554.514086	47943.137481
554.871902	47672.099844
555.229661	47696.632619
555.587365	47523.811783
555.945014	47607.719268
556.302606	47542.315338
556.660143	47760.705685
557.017625	47839.972788
557.375050	47653.765168
557.732421	47977.961772
558.089735	47966.727560
558.446994	47889.754182
558.804197	48358.279021
559.161345	48287.357548
559.518437	47559.631702
559.875474	47847.398408
560.232455	47999.870626
560.589381	48180.144808
560.946251	47873.947644
561.303065	48564.580680
561.659825	48367.572388
562.016528	48041.651709
562.373177	47770.735060
562.729770	48247.013193
563.086307	47743.099455
563.442789	48213.764263
563.799216	48254.428731
564.155587	48041.276143
564.511904	48069.786389
564.868164	48158.946756
565.224370	48414.404707
565.580520	48144.171134
565.936615	48345.522381
566.292654	48072.995083
566.648638	48314.829316
567.004567	48248.840612
567.360441	48290.309143
567.716260	48155.334770
568.072023	48436.888253
568.427732	48425.129762
568.783385	47973.255854
569.138982	48376.490189
569.494525	48325.839196
569.850013	48092.869832
570.205445	48066.807067
570.560823	48011.727420
570.916145	47898.160306
571.271412	47928.576108
571.626625	47665.067435
571.981782	47738.958147
572.336884	47411.504958
572.691931	47745.819158
573.046923	47337.762959
573.401860	47178.598609
573.756743	47179.248918
574.111570	47287.250598
574.466342	47138.075294
574.821059	47252.456554
575.175722	46778.580531
575.530330	46796.791699
575.884882	46519.543361
576.239380	46482.816035
576.593823	46458.434494
576.948211	46373.861577
577.302544	45901.923877
577.656823	45927.414471
578.011047	46147.796073
578.365216	45857.029881
578.719330	45656.021433
579.073389	45514.231420
579.427394	45597.791065
579.781344	45547.724846
580.135239	45226.389097
580.489080	45299.468184
580.842866	44777.917968
581.196597	45237.741775
581.550273	45185.757397
581.903895	45046.823197
582.257463	45450.617099
582.610975	44841.244943
582.964434	45128.951155
583.317837	44774.129541
583.671186	44623.245286
584.024481	44837.892576
584.377721	44365.420514
584.730906	44646.714378
585.084037	44673.152709
585.437113	44398.384619
585.790135	44420.338844
586.143103	44039.638467
586.496016	44160.590871
586.848874	44181.133573
587.201679	44199.231316
587.554428	43684.085886
587.907124	43862.653638
588.259765	43623.430723
588.612352	43860.929563
588.964884	43259.028397
589.317362	43536.107856
589.669786	43474.552847
590.022155	43243.771345
590.374470	43681.557748
590.726731	43195.411556
591.078937	42706.291083
591.431090	42801.382368
591.783188	42472.772234
592.135232	42153.702484
592.487222	42399.917479
592.839157	42491.048938
593.191038	42152.293482
593.542866	41918.714139
593.894639	41333.955416
594.246358	41601.217228
594.598022	41588.155599
594.949633	41179.900275
595.301190	41141.244707
595.652692	40965.283232
596.004141	41298.150621
596.355535	40330.344864
596.706876	40279.814859
597.058162	40109.068457
597.409395	40567.074928
597.760573	40659.418784
598.111698	40239.475546
598.462768	40258.899111
598.813785	40277.410228
599.164748	39724.811547
599.515657	40120.889963
599.866511	39596.683060
600.217312	40212.152492
600.568060	39191.691883
600.918753	39924.872257
601.269392	39879.136389
601.619978	39521.731184
601.970510	39744.353579
602.320988	39928.539697
602.671412	40243.004353
603.021783	39985.078758
603.372100	39625.972164
603.722363	39733.648689
604.072572	39804.895317
604.422728	39833.748361
604.772830	39639.449688
605.122878	39729.940921
605.472872	39674.566366
605.822813	39944.583169
606.172701	39780.798601
606.522534	40016.346515
606.872314	40286.968256
607.222041	40034.103979
607.571714	40433.572572
607.921333	39878.433148
608.270899	40170.850318
608.620411	40505.650989
608.969870	40307.359723
609.319276	40290.746601
609.668627	40355.984173
610.017926	40829.535042
610.367171	40996.034271
610.716362	41069.740981
611.065500	41007.061795
611.414585	41211.949411
611.763616	41499.385921
612.112594	41430.642226
612.461518	41645.012252
612.810389	41954.561784
613.159207	41811.629949
613.507971	41877.477500
613.856682	42359.517672
614.205340	42238.976122
614.553945	42965.597955
614.902496	42386.402146
615.250994	42844.126312
615.599439	42939.106692
615.947830	43142.698731
616.296169	43170.026826
616.644454	43306.127897
616.992686	43487.364940
617.340864	43999.604144
617.688990	43722.101228
618.037063	44327.637066
618.385082	44278.667297
618.733048	44588.912508
619.080961	44601.212923
619.428821	44610.932268
619.776628	44735.090846
620.124382	44546.954984
620.472083	44679.257547
620.819731	44812.598586
621.167326	44485.105068
621.514868	44455.778155
621.862357	44029.883834
622.209793	44045.138366
622.557176	43734.368875
622.904506	43478.515194
623.251783	43131.532575
623.599007	42916.308073
623.946179	42688.158053
624.293297	42652.869976
624.640363	42068.259967
624.987376	42040.747870
625.334336	41791.646815
625.681243	41443.262755
626.028097	41400.753225
626.374899	41261.839190
626.721647	41220.650442
627.068343	41110.828906
627.414987	40880.062527
627.761577	40646.551239
628.108115	40986.841727
628.454600	40439.521133
628.801032	40629.451645
629.147412	40600.732192
629.493739	40586.253998
629.840014	40240.536708
630.186236	40567.576523
630.532405	40185.207524
630.878521	40407.204816
631.224585	40289.816508
631.570597	39997.684163
631.916556	40157.181230
632.262462	40106.487387
632.608316	40111.407553
632.954117	40015.290393
633.299866	40002.120378
633.645562	39924.910066
633.991206	39426.105537
634.336797	38991.822736
634.682336	38994.194599
635.027823	38747.951878
635.373257	38569.462264
635.718639	38328.462343
636.063968	38187.688122
636.409245	37605.293700
636.754470	37652.733478
637.099642	37407.478823
637.444762	36939.816022
637.789829	37088.086439
638.134845	36732.148210
638.479808	36686.747578
638.824719	36589.579338
639.169577	36191.302978
639.514383	36255.870077
639.859137	35944.755267
640.203839	36210.477007
640.548489	35823.928892
640.893086	35900.193988
641.237632	35647.657386
641.582125	35748.803097
641.926566	35692.765630
642.270955	35661.220610
642.615292	35668.706724
642.959576	35637.038195
643.303809	35642.104555
643.647990	35789.868336
643.992118	35753.503972
644.336195	35737.538638
644.680219	35827.394685
645.024192	36126.839223
645.368112	36651.973699
645.711981	36665.801584
646.055797	37521.557614
646.399562	37448.324772
646.743274	38403.741893
647.086935	38840.598203
647.430544	38738.479550
647.774101	38836.784570
648.117606	39089.827808
648.461059	39408.688351
648.804460	39032.096514
649.147810	38408.619209
649.491108	38172.821759
649.834354	37804.724267
650.177548	36973.453121
650.520690	36514.395569
650.863781	36520.044182
651.206820	36374.679991
651.549807	35929.624244
651.892742	35449.035924
652.235626	35270.437926
652.578458	35129.076410
652.921238	34514.426166
653.263967	34843.570662
653.606644	34518.985889
653.949269	34467.563600
654.291843	34057.064963
654.634365	34480.839478
654.976836	34069.486366
655.319255	34059.847679
655.661622	34060.979418
656.003938	33847.645349
656.346203	33679.049000
656.688416	33905.240532
657.030577	33713.263311
657.372687	33545.231571
657.714746	33820.259281
658.056753	33941.743527
658.398708	33394.652306
658.740612	33449.109370
659.082465	33719.831935
659.424266	33528.225239
659.766016	33658.193747
660.107715	33531.348234
660.449362	33654.143180
660.790958	33639.838906
661.132503	33671.388967
661.473996	33704.857187
661.815438	33801.975016
662.156829	34008.919423
662.498168	33781.893580
662.839456	33803.220181
663.180693	33944.561532
663.521879	34108.532623
663.863013	34069.645162
664.204097	34057.957247
664.545129	34522.643247
664.886110	34486.014223
665.227040	34544.060589
665.567918	34673.378788
665.908746	34727.787961
666.249522	34892.139659
666.590248	34892.522787
666.930922	35003.158469
667.271545	34969.513809
667.612118	35061.144342
667.952639	34842.887586
668.293109	34896.162500
668.633528	34789.443793
668.973896	34710.224581
669.314213	34748.030714
669.654480	34480.726052
669.994695	34512.775188
670.334859	34402.608332
670.674973	34295.849297
671.015035	34469.128878
671.355047	34407.926750
671.695008	34350.603789
672.034918	34239.380812
672.374777	34321.118080
672.714585	34152.461237
673.054342	34389.052670
673.394049	34143.790453
673.733705	34414.618881
674.073310	34073.577262
674.412864	34156.471475
674.752368	33764.345323
675.091820	34057.944644
675.431223	33643.811335
675.770574	33370.459809
676.109875	33234.696494
676.449125	32954.627631
676.788324	32875.484036
677.127473	32330.878104
677.466571	32255.270878
677.805619	31898.442886
678.144616	31893.890724
678.483562	31817.479434
678.822458	31476.894039
679.161303	31414.204771
679.500098	31318.316983
679.838842	31196.142099
680.177535	31352.443074
680.516179	31617.330503
680.854771	31857.032327
681.193314	32714.540158
681.531805	33841.598485
681.870247	34617.747134
682.208638	35349.271490
682.546978	35590.697388
682.885268	35696.123039
683.223508	35169.922359
683.561697	34822.105429
683.899836	34641.702697
684.237925	34127.991477
684.575963	33972.366016
684.913951	33492.642254
685.251889	33648.955832
685.589776	33644.292765
685.927614	33623.369456
686.265401	33750.860237
686.603137	33855.673387
686.940824	34352.950446
687.278460	34730.832818
687.616046	34876.701125
687.953582	35466.652236
688.291068	35341.674471
688.628504	35642.795193
688.965889	35565.738636
689.303224	35203.660281
689.640510	34852.947208
689.977745	34124.089623
690.314930	33327.993129
690.652065	32802.289003
690.989150	32068.007136
691.326185	31162.081543
691.663170	30458.807814
692.000105	29703.700941
692.336990	29010.615384
692.673825	28543.960814
693.010610	28021.737605
693.347345	27435.577441
693.684030	26773.348787
694.020665	26478.766441
694.357251	25810.531252
694.693786	25759.098880
695.030272	25518.953434
695.366707	24974.229035
695.703093	24683.062071
696.039429	24661.808566
696.375716	24392.603389
696.711952	24353.826834
697.048139	24189.361710
697.384276	24003.837166
697.720363	24130.808708
698.056400	23933.404685
698.392388	23722.790319
698.728326	23682.050234
699.064214	23457.043373
699.400053	23418.851592
699.735842	23055.674266
700.071581	22773.472994
700.407270	22464.190644
700.742910	22292.168830
701.078501	22010.214575
701.414042	21716.413608
701.749533	21427.132036
702.084974	21065.898075
702.420366	21271.483891
702.755709	20844.833397
703.091002	20541.187056
703.426246	20557.822864
703.761440	20451.015938
704.096584	20171.196611
704.431679	20136.768051
704.766725	20040.711385
705.101721	19966.424942
705.436668	20052.139681
705.771565	19737.254088
706.106413	20084.622355
706.441212	20054.912315
706.775961	20184.041471
707.110661	20261.332442
707.445311	20609.734146
707.779913	20443.187026
708.114465	20675.609424
708.448967	20958.176179
708.783421	21660.262716
709.117825	21928.994025
709.452180	22152.642295
709.786485	22544.133261
710.120742	23357.883877
710.454949	23361.450493
710.789107	23831.782585
711.123216	24545.940166
711.457275	24670.202087
711.791286	25223.516613
712.125247	25283.665140
712.459159	24995.880790
712.793023	25652.226418
713.126837	24553.872421
713.460602	24836.713919
713.794318	24463.998730
714.127985	24069.175561
714.461602	23166.877078
714.795171	23148.048369
715.128691	22106.341817
715.462162	21570.658727
715.795584	21138.846092
716.128957	20885.792772
716.462281	20463.512958
716.795556	20229.081660
717.128782	19718.301870
717.461960	19166.920627
717.795088	19092.689637
718.128167	18690.226599
718.461198	18225.437255
718.794180	18078.548114
719.127113	17705.583388
719.459997	17513.162546
719.792833	17151.260632
720.125619	17116.950539
720.458357	16792.481713
720.791046	16618.176257
721.123686	16457.993593
721.456278	16220.845113
721.788821	16166.572051
722.121315	15904.726959
722.453761	15980.533310
722.786158	15897.593726
723.118506	15912.003864
723.450805	15779.214831
723.783056	15934.091680
724.115259	15831.594940
724.447412	15751.332209
724.779518	15990.003117
725.111574	16020.040832
725.443582	16218.422839
725.775542	16194.638675
726.107453	16670.271541
726.439315	16544.971141
726.771129	16948.197914
727.102895	17319.279769
727.434612	17522.594545
727.766281	17654.375347
728.097901	17919.383764
728.429473	17958.931616
728.760996	17943.659440
729.092471	18039.600160
729.423897	17913.846057
729.755276	17767.178727
730.086606	17888.481491
730.417887	18416.280216
730.749120	18915.482997
731.080305	19102.373693
731.411442	19448.058215
731.742530	19511.428040
732.073570	19615.663978
732.404562	19918.624721
732.735506	19726.763447
733.066401	19453.419482
733.397249	18929.212579
733.728048	18291.284807
734.058798	17458.395451
734.389501	16765.022548
734.720156	16297.952082
735.050762	15767.965496
735.381320	15398.285082
735.711831	15148.294262
736.042293	14791.357885
736.372707	14796.240242
736.703073	14582.674280
737.033391	14773.121511
737.363661	14731.834461
737.693883	14824.256455
738.024056	14997.740203
738.354182	15180.464386
738.684260	15458.330265
739.014290	15686.981880
739.344272	15867.248500
739.674207	16147.390461
740.004093	16266.424706
740.333931	16265.605518
740.663722	16305.692774
740.993464	16298.488965
741.323159	16133.187010
741.652806	15852.510687
741.982405	15642.765920
742.311956	15316.315920
742.641460	15192.878227
742.970915	14887.890940
743.300323	14553.549014
743.629683	14330.356968
743.958996	14058.469897
744.288260	13784.009317
744.617477	13492.411335
744.946647	13413.608018
745.275768	13133.944967
745.604842	12948.049899
745.933869	12770.404678
746.262847	12720.635887
746.591778	12654.180876
746.920662	12542.879761
747.249498	12542.756253
747.578286	12664.714367
747.907027	12799.025829
748.235720	13020.329962
748.564365	13037.202704
748.892963	12948.952265
749.221514	13006.726409
749.550017	12854.415507
749.878473	12817.942759
750.206881	12596.515118
750.535242	12501.330571
750.863555	12417.647417
751.191821	12313.008187
751.520039	12327.458654
751.848210	12240.561765
752.176334	12273.241045
752.504411	12175.230932
752.832440	12014.423165
753.160421	12080.618556
753.488356	11952.545522
753.816243	11861.411543
754.144082	11712.700025
754.471875	11655.674493
754.799620	11604.925197
755.127318	11570.113509
755.454969	11536.277285
755.782572	11491.100984
756.110129	11496.888229
756.437638	11419.304871
756.765100	11406.850701
757.092515	11402.747202
757.419882	11426.584298
757.747203	11421.190263
758.074477	11492.058804
758.401703	11450.938112
758.728882	11611.675302
759.056014	11645.166208
759.383099	11768.717327
759.710138	11868.539735
760.037129	11954.877056
760.364073	11968.515898
760.690970	11956.656583
761.017820	11955.729011
761.344623	12144.240438
761.671379	12467.698513
761.998088	13095.337291
762.324751	14650.734898
762.651366	17523.159154
762.977935	21194.931449
763.304456	23423.517179
763.630931	23943.078659
763.957359	22789.027474
764.283740	20876.751462
764.610074	19003.042798
764.936362	16861.800099
765.262602	15325.100131
765.588796	13844.667001
765.914943	12807.948672
766.241044	11932.927872
766.567097	11299.902622
766.893104	10735.754657
767.219064	10376.305264
767.544978	9982.349173
767.870845	9668.744034
768.196665	9480.277977
768.522438	9280.250033
768.848165	9110.796688
769.173846	8942.850647
769.499479	8820.040578
769.825066	8659.104262
770.150607	8473.194070
770.476101	8409.173937
770.801548	8298.596227
771.126949	8160.224116
771.452303	8074.300169
771.777611	7908.816732
772.102872	7878.254737
772.428087	7763.487828
772.753256	7635.785319
773.078378	7546.932462
773.403453	7404.653457
773.728482	7303.064124
774.053465	7232.298927
774.378401	7148.441853
774.703291	7051.876031
775.028135	6949.674198
775.352932	6917.544404
775.677683	6832.873184
776.002388	6743.755667
776.327046	6744.221973
776.651658	6658.242574
776.976224	6577.460604
777.300743	6559.824127
777.625216	6498.432956
777.949643	6450.055523
778.274024	6450.116017
778.598359	6386.839454
778.922647	6386.257201
779.246889	6346.432085
779.571086	6352.957859
779.895236	6363.531679
780.219339	6354.205544
780.543397	6349.857549
780.867409	6404.337299
781.191374	6402.643471
781.515294	6366.261464
781.839167	6420.113590
782.162995	6388.777777
782.486776	6338.855231
782.810511	6303.680580
783.134201	6228.479167
783.457844	6216.894596
783.781441	6166.914076
784.104993	6126.592407
784.428498	6097.646102
784.751958	6081.426189
785.075372	6053.442744
785.398739	6010.902968
785.722061	6038.442791
786.045337	6036.048243
786.368568	6146.268031
786.691752	6162.966853
787.014891	6415.332055
787.337983	6692.398912
787.661030	7129.603062
787.984031	7557.695326
788.306987	7817.597053
788.629897	7914.107423
788.952760	7830.159609
789.275579	7659.713156
789.598351	7358.584872
789.921078	7095.497135
790.243759	6808.809237
790.566395	6607.132836
790.888984	6409.746457
791.211529	6270.686228
791.534027	6103.476196
791.856480	5963.987469
792.178888	5905.356329
792.501249	5838.109858
792.823566	5732.595987
793.145836	5720.295572
793.468062	5704.725968
793.790241	5665.558723
794.112375	5698.895874
794.434464	5801.251461
794.756507	5827.220965
795.078505	5950.343586
795.400457	6163.191184
795.722364	6399.134828
796.044226	6598.991372
796.366042	6758.095229
796.687812	6706.924997
797.009538	6739.306848
797.331218	6648.810575
797.652852	6580.664258
797.974442	6460.311751
798.295986	6389.042438
798.617484	6259.641060
798.938938	6152.582076
799.260346	6082.633546
799.581709	5942.209685
799.903026	5890.752107
800.224299	5817.355427
800.545526	5700.123395
800.866708	5635.576461
801.187845	5580.900106
801.508936	5505.194578
801.829983	5477.377491
802.150984	5367.724833
802.471940	5340.215257
802.792851	5326.896528
803.113717	5301.012724
803.434538	5275.081029
803.755314	5239.440071
804.076045	5230.161827
804.396731	5192.743863
804.717372	5211.776739
805.037967	5206.405390
805.358518	5234.887909
805.679024	5292.649450
805.999485	5305.101100
806.319901	5320.562319
806.640272	5340.573179
806.960598	5379.684971
807.280879	5377.471904
807.601115	5414.012708
807.921306	5378.439806
808.241453	5369.862283
808.561554	5385.502463
808.881611	5350.970559
809.201623	5349.329663
809.521590	5299.898629
809.841513	5281.291730
810.161390	5303.417354
810.481223	5216.371751
810.801011	5201.666705
811.120755	5172.755688
811.440453	5123.375065
811.760107	5098.610397
812.079716	5067.148556
812.399281	5016.159805
812.718801	5010.203682
813.038276	4975.533147
813.357707	4941.308753
813.677093	4961.889264
813.996434	4906.953290
814.315731	4924.022637
814.634983	4923.992390
814.954191	4925.514818
815.273354	4986.026308
815.592473	5025.967370
815.911547	5102.746664
816.230577	5156.213142
816.549562	5242.003498
816.868502	5299.049195
817.187399	5356.687227
817.506250	5444.516730
817.825058	5468.704186
818.143821	5622.343432
818.462539	5790.992713
818.781213	6024.738414
819.099843	6383.275358
819.418429	7012.920515
819.736970	7641.350753
820.055466	8350.804937
820.373919	9280.612996
820.692327	10751.818293
821.010691	13488.146519
821.329011	19744.329347
821.647286	29342.865231
821.965517	39697.100324
822.283704	45223.533283
822.601847	46774.167001
822.919945	42247.530960
823.237999	37147.851838
823.556010	31953.991360
823.873976	27207.636629
824.191897	22962.785965
824.509775	19849.744915
824.827609	17033.070780
825.145398	15449.304079
825.463144	14676.505277
825.780845	14950.756649
826.098502	16206.482866
826.416116	18655.866094
826.733685	20932.373033
827.051210	21439.833223
827.368692	20006.963380
827.686129	17455.741283
828.003522	14955.835611
828.320872	12739.394020
828.638177	11065.415871
828.955439	9808.260487
829.272656	8736.317095
829.589830	7885.181282
829.906960	7139.544217
830.224046	6603.956909
830.541088	6187.476943
830.858086	5924.364000
831.175041	5715.670313
831.491952	5653.162526
831.808819	5685.428431
832.125642	5927.696203
832.442421	6485.845195
832.759157	7602.659897
833.075849	9367.509886
833.392497	11225.394368
833.709101	12348.397087
834.025662	12100.505908
834.342179	11056.608976
834.658653	9745.881249
834.975083	8637.099625
835.291469	7729.938950
835.607811	6978.370967
835.924110	6451.736748
836.240366	5955.324246
836.556578	5498.227704
836.872746	5140.973733
837.188871	4863.385117
837.504952	4638.290037
837.820990	4470.197803
838.136984	4355.950133
838.452935	4302.970127
838.768842	4331.823171
839.084706	4612.701140
839.400526	5357.430797
839.716303	6266.698675
840.032037	6837.163206
840.347727	6694.004519
840.663373	6099.241627
840.978977	5516.030538
841.294537	5067.572013
841.610054	4728.738419
841.925527	4489.321420
842.240957	4279.664873
842.556344	4090.838373
842.871687	3931.694187
843.186987	3777.263480
843.502244	3653.777896
843.817458	3569.855288
844.132629	3493.620438
844.447756	3446.417594
844.762840	3404.039135
845.077881	3363.742671
845.392879	3327.345541
845.707833	3301.023156
846.022745	3271.189607
846.337613	3262.420520
846.652438	3238.059144
846.967221	3229.884913
847.281960	3206.136037
847.596656	3194.715303
847.911309	3183.415557
848.225919	3170.679082
848.540485	3164.246570
848.855009	3155.734581
849.169490	3141.173208
849.483928	3135.509472
849.798323	3132.351189
850.112675	3120.025568
850.426984	3117.391565
850.741251	3114.102212
851.055474	3109.996193
851.369654	3111.100205
851.683792	3107.662138
851.997887	3108.609875
852.311938	3109.277828
852.625947	3109.852520
852.939914	3104.546705
853.253837	3108.743466
853.567718	3107.110132
853.881555	3100.261724
854.195350	3105.360852
854.509103	3102.910851
854.822812	3098.187290
855.136479	3097.292485
855.450103	3101.312805
855.763685	3093.529263
856.077224	3097.688215
856.390720	3104.561829
856.704173	3113.716564
857.017584	3118.850979
857.330953	3123.720734
857.644278	3130.637197
857.957561	3134.526447
858.270802	3132.220119
858.584000	3133.064512
858.897155	3126.069912
859.210268	3114.906276
859.523339	3106.784977
859.836367	3102.966303
860.149352	3094.895416
860.462295	3092.460539
860.775195	3085.372677
861.088054	3082.100968
861.400869	3081.985021
861.713642	3078.362952
862.026373	3088.450301
862.339062	3088.276381
862.651708	3099.321549
862.964312	3115.102881
863.276873	3124.479428
863.589392	3154.509581
863.901869	3180.368180
864.214303	3198.907023
864.526696	3220.367215
864.839045	3240.052921
865.151353	3250.823346
865.463619	3250.523397
865.775842	3252.101278
866.088023	3260.777104
866.400162	3251.685383
866.712258	3252.960795
867.024313	3252.449118
867.336325	3253.729571
867.648296	3253.338882
867.960224	3250.228490
868.272110	3254.543717
868.583954	3253.759818
868.895755	3260.454470
869.207515	3260.366250
869.519233	3280.588839
869.830909	3282.411216
870.142542	3295.606436
870.454134	3299.851088
870.765684	3315.629899
871.077191	3334.178825
871.388657	3344.941688
871.700081	3364.357692
872.011463	3382.969632
872.322803	3403.958476
872.634101	3421.894902
872.945357	3442.011626
873.256571	3471.895586
873.567744	3485.733553
873.878874	3489.426198
874.189963	3507.944877
874.501010	3511.279600
874.812015	3509.195083
875.122979	3521.525746
875.433900	3523.390972
875.744780	3526.082949
876.055618	3534.070657
876.366415	3535.038558
876.677169	3538.030483
876.987882	3555.246024
877.298554	3575.095567
877.609183	3617.312710
877.919771	3660.928773
878.230317	3735.547932
878.540822	3843.526927
878.851285	3993.755832
879.161707	4220.060790
879.472087	4604.315180
879.782425	5241.479218
880.092722	6445.894051
880.402977	8398.625322
880.713191	10793.375045
881.023363	13191.918237
881.333494	14547.144228
881.643583	15021.461352
881.953631	14625.229180
882.263637	13809.618379
882.573602	12764.377979
882.883526	11805.532873
883.193408	10830.588843
883.503248	9906.683975
883.813048	9067.828413
884.122806	8281.158876
884.432522	7503.510483
884.742197	6834.604821
885.051831	6247.111272
885.361424	5742.602677
885.670975	5339.348178
885.980485	5007.415924
886.289954	4730.515426
886.599382	4509.728011
886.908768	4323.548117
887.218113	4158.105009
887.527417	4024.456459
887.836680	3896.804361
888.145901	3790.544400
888.455082	3711.791495
888.764221	3640.882625
889.073319	3581.472627
889.382376	3546.252605
889.691392	3523.925335
890.000366	3515.640198
890.309300	3507.730628
890.618193	3510.180629
890.927044	3507.622243
891.235855	3513.013757
891.544625	3529.284081
891.853353	3560.811457
892.162041	3622.414357
892.470687	3711.272256
892.779293	3833.676512
893.087858	4009.148995
893.396381	4293.921256
893.704864	4712.279052
894.013306	5284.744921
894.321707	5858.889494
894.630068	6224.504218
894.938387	6268.014417
895.246665	6091.339618
895.554903	5771.059991
895.863100	5430.668680
896.171256	5157.415457
896.479371	4912.259104
896.787446	4682.470709
897.095480	4482.898990
897.403473	4332.627235
897.711425	4182.955377
898.019336	4057.533990
898.327207	3934.895320
898.635038	3827.128053
898.942827	3719.537228
899.250576	3634.281234
899.558284	3548.506001
899.865952	3490.996518
900.173579	3429.796910
900.481165	3381.963922
900.788711	3339.429186
901.096216	3304.645225
901.403681	3280.656894
901.711105	3268.974020
902.018489	3263.524533
902.325832	3296.665078
902.633135	3353.557020
902.940397	3525.430119
903.247619	3940.271710
903.554800	4700.487793
903.861941	5684.011867
904.169041	6401.972998
904.476101	6619.183714
904.783121	6349.038362
905.090100	5942.507113
905.397039	5524.053535
905.703938	5158.776568
906.010796	4829.208615
906.317614	4568.835539
906.624391	4322.587777
906.931129	4120.921458
907.237826	3936.866411
907.544483	3761.910646
907.851099	3582.853903
908.157675	3426.381528
908.464211	3279.668828
908.770707	3174.757375
909.077163	3093.340220
909.383578	3032.937115
909.689954	2984.829384
909.996289	2953.483489
910.302584	2932.822320
910.608839	2919.498550
910.915054	2908.604617
911.221229	2903.324008
911.527363	2907.246026
911.833458	2914.815318
912.139513	2930.357196
912.445527	2941.669545
912.751502	2976.297231
913.057436	3020.220804
913.363331	3079.356059
913.669186	3168.002229
913.975000	3292.705252
914.280775	3482.000579
914.586510	3757.040892
914.892205	4139.198162
915.197859	4644.253722
915.503475	5235.646603
915.809050	5735.625721
916.114585	6029.353591
916.420081	6092.312561
916.725536	6033.005907
917.030952	5787.751251
917.336328	5588.635757
917.641665	5375.147932
917.946961	5142.886851
918.252218	4939.587199
918.557435	4708.558680
918.862612	4507.328421
919.167750	4334.794931
919.472848	4135.399652
919.777906	3966.394970
920.082925	3802.897747
920.387904	3644.240033
920.692843	3536.460164
920.997743	3428.561828
921.302603	3335.736541
921.607423	3267.486880
921.912204	3198.355017
922.216946	3151.356339
922.521647	3099.830706
922.826310	3055.667678
923.130932	3020.051926
923.435516	2978.064155
923.740059	2949.488375
924.044564	2916.917480
924.349028	2893.660116
924.653454	2861.001001
924.957840	2835.346569
925.262186	2815.809577
925.566493	2790.137502
925.870761	2764.921650
926.174989	2753.105185
926.479178	2740.666138
926.783328	2724.521843
927.087438	2710.008361
927.391509	2698.343131
927.695541	2685.941893
927.999533	2673.918741
928.303486	2666.233502
928.607400	2662.518171
928.911275	2653.728920
929.215110	2646.411685
929.518906	2642.323309
929.822663	2644.914462
930.126381	2641.204173
930.430060	2646.774648
930.733699	2649.133908
931.037299	2652.377890
931.340861	2653.134063
931.644383	2655.826040
931.947866	2652.670277
932.251309	2648.602066
932.554714	2650.144659
932.858080	2645.882364
933.161407	2642.378762
933.464694	2639.689306
933.767943	2637.879532
934.071153	2632.039355
934.374323	2630.403501
934.677455	2625.664816
934.980548	2622.466204
935.283602	2621.059722
935.586617	2619.020575
935.889593	2622.625000
936.192530	2622.564507
936.495428	2629.246556
936.798287	2638.746610
937.101108	2652.317397
937.403890	2673.243226
937.706632	2701.410673
938.009336	2732.378481
938.312002	2763.830240
938.614628	2785.993673
938.917216	2806.566622
939.219765	2814.975267
939.522275	2827.021104
939.824747	2826.824499
940.127179	2822.834425
940.429573	2813.677169
940.731929	2815.045843
941.034246	2806.954791
941.336524	2804.066210
941.638763	2795.602112
941.940964	2791.339817
942.243126	2774.888011
942.545250	2763.633635
942.847335	2749.291552
943.149381	2735.781260
943.451389	2721.275340
943.753359	2711.555995
944.055290	2699.676516
944.357182	2694.741227
944.659036	2687.885257
944.960851	2682.980215
945.262628	2677.429904
945.564367	2681.130111
945.866067	2678.760769
946.167729	2676.109122
946.469352	2673.139882
946.770937	2674.251457
947.072484	2664.698470
947.373992	2666.450271
947.675462	2662.470280
947.976893	2654.850576
948.278286	2654.122130
948.579641	2648.317241
948.880958	2644.629637
949.182236	2645.227014
949.483476	2642.769451
949.784678	2643.477733
950.085841	2641.819194
950.386967	2647.112405
950.688054	2654.893426
950.989103	2659.639672
951.290114	2668.859943
951.591087	2679.595080
951.892021	2691.587985
952.192917	2707.155068
952.493776	2715.291490
952.794596	2721.673591
953.095378	2719.122767
953.396122	2719.831049
953.696828	2714.648743
953.997496	2711.737477
954.298126	2701.398070
954.598718	2693.339786
954.899272	2684.018692
955.199788	2674.127949
955.500266	2661.036072
955.800706	2642.524955
956.101108	2625.561472
956.401472	2613.896242
956.701798	2602.057093
957.002087	2587.233580
957.302337	2575.104564
957.602550	2564.026628
957.902724	2555.209650
958.202861	2547.405944
958.502960	2534.366999
958.803022	2528.368026
959.103045	2519.896367
959.403031	2514.018382
959.702979	2508.861282
960.002889	2503.636126
960.302762	2496.689416
960.602596	2494.831750
960.902393	2491.693632
961.202153	2488.404279
961.501875	2485.256079
961.801559	2483.199288
962.101205	2481.946561
962.400814	2476.935654
962.700385	2474.193267
962.999918	2473.416929
963.299414	2472.557412
963.598873	2469.999027
963.898293	2467.549026
964.197677	2467.901907
964.497022	2466.427369
964.796331	2464.834364
965.095601	2463.604323
965.394835	2464.965434
965.694030	2465.482153
965.993189	2461.149281
966.292309	2462.611216
966.591393	2460.826647
966.890439	2461.915536
967.189447	2463.541308
967.488419	2460.526698
967.787353	2462.601133
968.086249	2462.681792
968.385108	2463.500979
968.683930	2461.721452
968.982714	2462.792697
969.281462	2465.751854
969.580172	2466.717235
969.878844	2468.373254
970.177480	2474.722588
970.476078	2473.210242
970.774639	2479.302476
971.073162	2479.393217
971.371649	2483.869761
971.670098	2481.495378
971.968510	2485.243476
972.266885	2485.760194
972.565223	2493.032058
972.863524	2487.028044
973.161788	2493.780670
973.460014	2493.173211
973.758204	2493.911740
974.056356	2497.208654
974.354471	2493.873931
974.652550	2496.618839
974.950591	2494.196565
975.248595	2495.711432
975.546563	2489.377222
975.844493	2490.105669
976.142386	2493.510968
976.440243	2488.399238
976.738062	2485.135091
977.035845	2482.440594
977.333590	2481.719709
977.631299	2479.816674
977.928971	2475.859368
978.226606	2475.690489
978.524204	2472.733852
978.821765	2474.268884
979.119290	2472.496918
979.416777	2471.103039
979.714228	2469.444500
980.011642	2471.990282
980.309020	2475.627475
980.606360	2479.431025
980.903664	2488.641213
981.200931	2504.682165
981.498162	2525.313087
981.795356	2555.015566
982.092513	2593.933273
982.389633	2635.689151
982.686717	2683.736388
982.983764	2709.811756
983.280775	2732.562483
983.577749	2734.226064
983.874686	2724.506720
984.171587	2708.541385
984.468451	2693.944724
984.765279	2673.873370
985.062070	2654.500216
985.358824	2632.482977
985.655543	2611.451283
985.952224	2589.305494
986.248869	2561.077553
986.545478	2531.251566
986.842050	2512.231293
987.138586	2490.566934
987.435086	2480.630820
987.731549	2468.216979
988.027975	2463.195989
988.324366	2457.852366
988.620719	2451.692076
988.917037	2448.826180
989.213318	2446.421550
989.509563	2444.841148
989.805772	2441.771086
990.101944	2440.465427
990.398080	2440.619182
990.694180	2439.726898
990.990244	2440.505756
991.286271	2437.735642
991.582262	2438.501897
991.878217	2440.150355
992.174136	2441.045159
992.470019	2442.759152
992.765865	2444.634461
993.061676	2445.589760
993.357450	2445.443566
993.653188	2449.219390
993.948890	2456.012345
994.244556	2462.502831
994.540186	2473.968935
994.835780	2482.332209
995.131337	2499.494818
995.426859	2513.708351
995.722345	2535.178625
996.017795	2554.292160
996.313208	2568.571228
996.608586	2579.671849
996.903928	2584.118147
997.199234	2582.953640
997.494504	2578.323340
997.789738	2572.737742
998.084936	2558.889692
998.380099	2548.320913
998.675225	2536.927906
998.970316	2521.960720
999.265371	2509.877074
999.560390	2496.840650
999.855373	2487.559886
1000.150320	2473.157309
1000.445232	2464.496607
1000.740108	2456.695422
1001.034948	2451.858434
1001.329752	2447.344081
1001.624521	2443.754780
1001.919254	2434.020312
1002.213951	2432.891093
1002.508613	2428.091915
1002.803239	2428.908582
1003.097829	2426.342634
1003.392384	2429.057296
1003.686903	2423.438930
1003.981386	2426.808941
1004.275834	2422.609660
1004.570246	2424.802562
1004.864623	2422.937335
1005.158964	2422.932294
1005.453270	2420.598239
1005.747540	2421.946748
1006.041775	2420.923394
1006.335974	2420.938517
1006.630138	2419.844587
1006.924266	2419.466500
1007.218359	2416.600604
1007.512416	2420.973805
1007.806438	2418.042374
1008.100425	2418.831315
1008.394376	2417.508012
1008.688292	2418.327200
1008.982172	2416.099010
1009.276017	2415.731005
1009.569827	2416.693866
1009.863602	2413.419636
1010.157341	2416.230080
1010.451045	2413.162538
1010.744714	2417.404668
1011.038347	2412.602969
1011.331945	2413.840573
1011.625508	2413.815367
1011.919036	2414.269071
1012.212528	2412.723957
1012.505986	2411.690521
1012.799408	2413.263361
1013.092795	2412.247568
1013.386147	2414.511046
1013.679464	2414.518608
1013.972745	2413.139852
1014.265992	2412.673546
1014.559204	2412.033319
1014.852380	2413.046591
1015.145521	2413.787641
1015.438628	2413.200346
1015.731699	2412.950809
1016.024736	2410.634399
1016.317737	2412.774369
1016.610703	2413.754873
1016.903635	2411.937537
1017.196531	2408.383524
1017.489393	2411.882084
1017.782219	2408.832186
1018.075011	2415.035326
1018.367768	2413.843093
1018.660490	2414.246386
1018.953177	2414.246386
1019.245829	2414.246386
