Dividing Wavelength (nm)	Counts (n)	Blue Motor Position (mm): 36.600000	Red Motor Position (mm): 0.000000	
326.493990	1970.634929
326.888308	1970.634929
327.282561	1970.634929
327.676750	1946.150045
328.070874	1946.583584
328.464933	1951.516353
328.858929	1960.673609
329.252859	1976.822946
329.646726	1989.539256
330.040528	2004.750938
330.434265	2024.890348
330.827938	2044.523121
331.221547	2063.036759
331.615091	2084.191961
332.008571	2104.699375
332.401986	2127.664351
332.795338	2147.760911
333.188625	2166.745896
333.581847	2186.797086
333.975006	2201.272759
334.368100	2217.976622
334.761129	2237.619478
335.154095	2253.935173
335.546996	2293.929167
335.939833	2373.992772
336.332606	2387.278733
336.725315	2399.047307
337.117960	2409.487536
337.510540	2412.756725
337.903056	2427.207192
338.295508	2431.305650
338.687896	2441.892073
339.080220	2446.013217
339.472480	2449.400872
339.864676	2454.043775
340.256807	2458.840432
340.648875	2460.456122
341.040879	2463.324539
341.432818	2462.109621
341.824694	2464.700774
342.216506	2462.679271
342.608253	2462.744806
342.999937	2466.336628
343.391557	2461.240022
343.783113	2460.912347
344.174605	2455.493106
344.566033	2458.837912
344.957397	2453.645523
345.348697	2451.220728
345.739934	2452.274330
346.131106	2449.481530
346.522215	2447.727209
346.913260	2447.792744
347.304241	2448.652261
347.695159	2444.155551
348.086012	2442.204625
348.476802	2440.848554
348.867528	2439.684048
349.258191	2439.414346
349.648789	2436.147678
350.039324	2431.769436
350.429796	2436.329160
350.820203	2435.578028
351.210548	2435.830086
351.600828	2434.456371
351.991045	2435.383944
352.381198	2431.845054
352.771288	2432.008891
353.161314	2432.046700
353.551276	2430.927564
353.941175	2430.957811
354.331010	2434.166505
354.720782	2432.195414
355.110490	2436.182967
355.500135	2434.237081
355.889717	2434.194231
356.279235	2432.586103
356.668689	2434.864705
357.058080	2433.223809
357.447408	2431.509817
357.836672	2433.664910
358.225873	2432.308840
358.615010	2432.518048
359.004084	2437.009716
359.393095	2435.935950
359.782043	2440.757814
360.170927	2439.870571
360.559748	2438.206990
360.948505	2442.698658
361.337199	2440.208328
361.725830	2443.457352
362.114398	2445.625048
362.502903	2442.718822
362.891344	2443.278391
363.279722	2443.711930
363.668037	2444.599173
364.056289	2443.462393
364.444478	2447.679318
364.832603	2447.386931
365.220665	2445.299893
365.608665	2449.050512
365.996601	2448.662343
366.384474	2448.231324
366.772284	2452.599484
367.160031	2448.034719
367.547715	2448.087651
367.935336	2447.039091
368.322893	2450.855245
368.710388	2448.778289
369.097820	2454.575616
369.485189	2453.448918
369.872495	2455.767849
370.259738	2452.135698
370.646918	2452.251644
371.034035	2455.576285
371.421090	2452.811213
371.808081	2454.404217
372.195010	2455.999742
372.581875	2457.766667
372.968678	2455.137705
373.355418	2457.794393
373.742096	2460.342696
374.128710	2458.989147
374.515262	2460.677933
374.901751	2460.100721
375.288177	2460.153653
375.674540	2456.299691
376.060841	2465.167081
376.447079	2464.443675
376.833254	2463.367389
377.219367	2460.289764
377.605417	2464.100877
377.991404	2464.148767
378.377329	2462.046606
378.763191	2460.405711
379.148991	2466.830661
379.534727	2467.070116
379.920402	2469.010960
380.306013	2469.545323
380.691563	2467.801083
381.077049	2468.733697
381.462474	2467.339818
381.847835	2470.114973
382.233134	2470.992134
382.618371	2471.163533
383.003545	2473.910962
383.388657	2475.307362
383.773706	2475.125880
384.158693	2473.157309
384.543618	2477.636375
384.928480	2479.098309
385.313280	2477.117136
385.698017	2479.171406
386.082692	2481.286170
386.467305	2481.306335
386.851856	2483.471510
387.236344	2481.603763
387.620770	2482.722899
388.005133	2483.405975
388.389435	2487.910246
388.773674	2485.266161
389.157851	2490.748416
389.541965	2486.972592
389.926018	2490.206492
390.310008	2490.360247
390.693936	2490.314877
391.077802	2488.079125
391.461606	2491.711276
391.845348	2490.798827
392.229027	2495.492142
392.612645	2495.897954
392.996200	2498.728562
393.379694	2498.990702
393.763125	2499.139416
394.146494	2498.196721
394.529801	2502.534633
394.913047	2504.606548
395.296230	2506.496980
395.679351	2506.955725
396.062410	2505.922289
396.445408	2507.137207
396.828343	2507.898421
397.211217	2506.444048
397.594028	2510.971004
397.976778	2509.360356
398.359466	2516.473424
398.742092	2514.830008
399.124656	2519.795544
399.507158	2524.337624
399.889598	2526.580937
400.271977	2532.221988
400.654294	2535.712987
401.036549	2542.095088
401.418742	2543.206663
401.800874	2553.122612
402.182944	2557.674774
402.564952	2569.876887
402.946898	2576.755542
403.328783	2586.704259
403.710606	2601.736979
404.092367	2619.363374
404.474067	2638.071096
404.855705	2651.793117
405.237282	2668.040755
405.618797	2706.431662
406.000250	2733.406877
406.381642	2775.845830
406.762972	2804.487146
407.144240	2830.050837
407.525447	2877.147817
407.906593	2916.993097
408.287677	2970.051241
408.668700	3030.696322
409.049661	3084.795464
409.430560	3152.397337
409.811399	3214.607697
410.192176	3293.726086
410.572891	3368.713249
410.953545	3488.057525
411.334138	3515.801515
411.714669	3663.005728
412.095139	3675.928726
412.475547	3819.964574
412.855894	3885.179461
413.236180	4035.168911
413.616405	4090.729988
413.996568	4231.355495
414.376670	4338.122093
414.756711	4420.023198
415.136691	4586.497222
415.516609	4740.040686
415.896466	4874.674782
416.276262	5064.769131
416.655997	5304.334844
417.035670	5449.119303
417.415283	5756.884266
417.794834	5924.880718
418.174324	6005.168655
418.553753	6121.135358
418.933121	6424.169198
419.312428	6527.747266
419.691674	6650.927860
420.070859	6966.279759
420.449983	7001.847620
420.829045	7374.376287
421.208047	7445.950589
421.586988	7799.544681
421.965867	8076.044408
422.344686	8252.152077
422.723444	8678.003548
423.102141	8247.741067
423.480777	8968.336201
423.859352	8905.437724
424.237866	9628.326583
424.616319	9671.254528
424.994712	10184.428866
425.373044	10260.739333
425.751314	10815.644342
426.129524	10502.886117
426.507673	11306.556945
426.885762	11314.040538
427.263789	11606.861000
427.641756	11885.858619
428.019662	12097.556833
428.397508	12306.409317
428.775292	12670.249554
429.153016	12831.836179
429.530679	13057.470663
429.908282	13247.859921
430.285824	13211.341802
430.663305	13852.838712
431.040726	13744.758894
431.418086	13764.401750
431.795385	14375.533269
432.172624	14840.675493
432.549802	14664.338452
432.926920	14935.814669
433.303977	14979.415608
433.680974	15312.570343
434.057910	15668.942111
434.434786	15823.715616
434.811601	15882.583690
435.188355	16857.096702
435.565050	16691.998914
435.941683	16769.012621
436.318257	17635.352553
436.694770	17571.473573
437.071222	18207.631900
437.447614	17497.976070
437.823946	17615.621477
438.200218	17855.499742
438.576429	17728.717243
438.952580	18078.429647
439.328670	18121.720556
439.704700	18577.791224
440.080670	18258.285414
440.456580	18872.834835
440.832429	19093.934802
441.208218	18240.500223
441.583947	18703.000883
441.959616	18855.402525
442.335224	19132.587849
442.710773	19301.849630
443.086261	19848.565285
443.461689	19294.310585
443.837057	19457.195307
444.212365	20095.912019
444.587612	20133.241764
444.962800	19786.680081
445.337927	20212.173630
445.712995	19040.816163
446.088002	20813.116977
446.462949	21032.931449
446.837837	21218.803833
447.212664	21201.903365
447.587431	23911.883999
447.962139	26742.118839
448.336786	29065.621934
448.711374	27579.202435
449.085901	24069.402413
449.460369	24016.006512
449.834776	23948.195431
450.209124	26354.456628
450.583412	25937.563288
450.957640	26459.413452
451.331808	25174.604818
451.705917	23870.823801
452.079965	23897.582246
452.453954	24245.966306
452.827883	24158.053624
453.201752	23973.570078
453.575562	24130.448266
453.949311	25202.565577
454.323001	25270.853048
454.696632	25064.569032
455.070202	26563.636787
455.443713	26705.000823
455.817164	27269.758768
456.190556	27799.110168
456.563888	27262.870031
456.937160	27670.621239
457.310373	26069.981796
457.683526	26492.823699
458.056619	26467.217158
458.429653	26416.740084
458.802628	26971.922357
459.175542	27109.805477
459.548398	28385.537513
459.921194	29913.029814
460.293930	30596.832086
460.666607	32583.344129
461.039224	34302.672498
461.411782	34662.295811
461.784280	33463.748881
462.156719	32954.788948
462.529099	32375.512480
462.901419	31126.150719
463.273680	30091.428687
463.645882	30195.508349
464.018024	30171.031026
464.390106	31001.702275
464.762130	33674.459030
465.134094	37679.207098
465.505999	42944.286477
465.877845	47459.675703
466.249631	48540.907422
466.621358	46735.138388
466.993026	44582.908494
467.364634	42494.514731
467.736184	40566.366646
468.107674	39365.919201
468.479105	38587.905325
468.850477	37924.723893
469.221790	36529.786212
469.593043	34844.278944
469.964238	33975.236953
470.335373	33874.809607
470.706449	35533.127412
471.077467	38026.391363
471.448425	42539.746484
471.819324	45378.306789
472.190164	43582.602418
472.560945	40076.731976
472.931667	37017.560697
473.302330	35946.368436
473.672934	35136.368439
474.043479	35631.646681
474.413965	34872.892533
474.784393	34521.519069
475.154761	35380.377929
475.525070	35415.383702
475.895321	34966.015248
476.265513	35546.642745
476.635645	36484.471280
477.005719	36316.318552
477.375734	36765.951667
477.745691	37457.129147
478.115588	38744.206300
478.485427	40706.982071
478.855207	44002.008774
479.224928	46594.102026
479.594591	48203.775217
479.964194	47163.480189
480.333739	47261.591125
480.703226	47294.570353
481.072653	47915.892565
481.442022	48430.924568
481.811333	48689.225729
482.180584	47406.985563
482.549777	46876.366312
482.918912	46377.546660
483.287988	46069.766574
483.657005	45255.564775
484.025964	44618.907373
484.394864	44612.978976
484.763706	44182.366135
485.132489	43321.105165
485.501213	43167.838965
485.869879	43314.927231
486.238487	42920.391408
486.607036	43126.322542
486.975527	42604.656381
487.343959	42806.612566
487.712333	42881.972774
488.080648	42807.741784
488.448905	43242.503495
488.817104	43061.634456
489.185244	43984.314324
489.553326	45643.990720
489.921350	48354.354482
490.289315	51294.231897
490.657222	51942.720887
491.025070	52231.004311
491.392861	51273.790018
491.760593	49997.417755
492.128267	48279.546280
492.495883	46758.526821
492.863440	45378.130348
493.230939	44053.194130
493.598380	42984.131757
493.965763	42661.785257
494.333088	41874.649413
494.700354	41411.029617
495.067563	41134.451752
495.434713	41017.257528
495.801805	41081.189442
496.168839	40727.847407
496.535815	40397.692159
496.902733	40438.679260
497.269593	40033.821674
497.636395	39974.855298
498.003139	40369.744002
498.369825	39822.012554
498.736453	40126.904060
499.103023	39680.043580
499.469535	39572.084750
499.835989	39636.805603
500.202385	39322.834980
500.568723	39346.903969
500.935003	39536.405983
501.301226	39342.006488
501.667390	39946.488725
502.033497	40198.559020
502.399546	39623.111309
502.765537	38968.038572
503.131470	39336.526754
503.497345	39669.593268
503.863163	38385.414778
504.228923	38973.755241
504.594625	39371.771981
504.960269	38678.857823
505.325856	39342.440027
505.691385	38725.599402
506.056856	38853.969864
506.422270	39282.581367
506.787625	38868.634580
507.152924	39056.132736
507.518164	39146.749997
507.883347	38381.996876
508.248472	38623.836149
508.613540	39094.851318
508.978550	39384.049711
509.343503	39143.168257
509.708398	39322.245165
510.073236	39851.437769
510.438016	39839.154998
510.802738	39306.715891
511.167403	39921.371176
511.532010	40147.030866
511.896561	40446.213265
512.261053	41252.281162
512.625488	40805.831536
512.989866	40684.296879
513.354186	40525.498012
513.718449	40516.340756
514.082655	41176.469770
514.446803	40849.250994
514.810894	41351.846471
515.174927	41291.846658
515.538904	41183.013188
515.902822	41829.962105
516.266684	41305.614049
516.630488	41707.255379
516.994235	41571.822260
517.357925	42115.006587
517.721558	42282.498924
518.085133	42573.318048
518.448651	42714.871127
518.812112	42484.109789
519.175516	42599.012809
519.538863	42931.693675
519.902152	42881.692990
520.265385	43341.567209
520.628560	43361.341135
520.991678	43171.594625
521.354739	43396.440168
521.717743	43712.361718
522.080690	43611.188281
522.443580	44146.911700
522.806413	44198.835585
523.169189	44150.092668
523.531908	44323.919215
523.894569	44164.381819
524.257174	44344.892935
524.619722	44639.066947
524.982213	44625.370132
525.344647	44559.152056
525.707025	44594.099855
526.069345	44983.324823
526.431608	44899.976906
526.793815	45218.091358
527.155964	44752.681952
527.518057	44917.278146
527.880093	44699.863263
528.242072	45224.102934
528.603995	44936.437051
528.965860	44941.800839
529.327669	45028.579261
529.689421	44941.639522
530.051117	44895.694446
530.412755	45040.985541
530.774337	45099.465446
531.135862	44917.552889
531.497331	45123.229445
531.858743	45039.833637
532.220098	45376.933074
532.581396	45077.604482
532.942638	44737.976907
533.303824	45036.589655
533.664953	45005.944480
534.026025	44746.902269
534.387040	45201.785746
534.747999	45155.165155
535.108902	45325.467935
535.469748	44854.604001
535.830537	44973.300489
536.191270	45151.686759
536.551947	44810.249409
536.912567	45120.764321
537.273131	45221.521863
537.633638	44730.823509
537.994089	45078.501808
538.354483	44678.481209
538.714821	45243.249236
539.075103	45597.387773
539.435328	45393.142904
539.795497	45246.694865
540.155609	45257.200629
540.515665	45710.302058
540.875665	45173.998906
541.235609	45495.364902
541.595496	45469.589482
541.955328	46137.741492
542.315102	45506.266397
542.674821	45336.687022
543.034483	45347.061717
543.394090	45321.901318
543.753640	45289.514425
544.113134	46271.145546
544.472571	45313.800184
544.831953	46522.399175
545.191278	45756.214366
545.550548	45507.405697
545.909761	45932.022086
546.268918	46145.227606
546.628019	46465.366081
546.987064	46021.646240
547.346053	45320.736812
547.704986	46191.696962
548.063863	45755.977432
548.422684	45941.925433
548.781449	45803.457539
549.140158	46192.112857
549.498811	46039.297840
549.857408	45493.146794
550.215949	46323.603793
550.574434	46249.236692
550.932864	46032.192333
551.291237	46740.882782
551.649555	46342.775301
552.007817	46599.528828
552.366022	46249.077895
552.724173	46425.155317
553.082267	46824.386975
553.440305	47112.062940
553.798288	46446.517206
554.156215	46758.927593
554.514086	46961.135835
554.871902	46708.390025
555.229661	46727.730412
555.587365	46564.170175
555.945014	46649.607651
556.302606	46583.661797
556.660143	46818.940008
557.017625	46897.299704
557.375050	46688.003599
557.732421	47042.618525
558.089735	47018.466357
558.446994	46943.224615
558.804197	47388.539982
559.161345	47356.758027
559.518437	46623.050852
559.875474	46911.868638
560.232455	47062.392451
560.589381	47240.781242
560.946251	46940.913246
561.303065	47620.322153
561.659825	47430.212680
562.016528	47114.880945
562.373177	46828.356884
562.729770	47315.382757
563.086307	46833.708069
563.442789	47285.090463
563.799216	47334.793720
564.155587	47130.783265
564.511904	47149.493507
564.868164	47248.491687
565.224370	47493.552257
565.580520	47231.742453
565.936615	47429.375848
566.292654	47156.110022
566.648638	47397.677073
567.004567	47352.152933
567.360441	47388.711381
567.716260	47251.687778
568.072023	47541.148311
568.427732	47535.361067
568.783385	47072.275633
569.138982	47490.179725
569.494525	47443.937221
569.850013	47202.266826
570.205445	47173.554935
570.560823	47146.879669
570.916145	47002.647216
571.271412	47051.513641
571.626625	46792.859599
571.981782	46862.878705
572.336884	46540.229736
572.691931	46865.356432
573.046923	46472.302708
573.401860	46322.106571
573.756743	46308.313974
574.111570	46429.215966
574.466342	46277.585620
574.821059	46400.713283
575.175722	45921.924655
575.530330	45936.090297
575.884882	45666.852353
576.239380	45630.535880
576.593823	45590.483913
576.948211	45532.656837
577.302544	45043.685079
577.656823	45106.505417
578.011047	45304.481611
578.365216	45042.540737
578.719330	44829.342779
579.073389	44685.427919
579.427394	44776.728256
579.781344	44734.254014
580.135239	44403.682872
580.489080	44479.416126
580.842866	43969.470647
581.196597	44428.326552
581.550273	44374.948295
581.903895	44230.998147
582.257463	44679.804512
582.610975	44061.393567
582.964434	44338.919168
583.317837	43983.318696
583.671186	43818.021782
584.024481	44032.618660
584.377721	43577.901542
584.730906	43856.964696
585.084037	43876.978077
585.437113	43603.150161
585.790135	43640.051408
586.143103	43246.813681
586.496016	43372.892939
586.848874	43407.248402
587.201679	43410.653702
587.554428	42894.726894
587.907124	43084.085235
588.259765	42860.928478
588.612352	43098.573511
588.964884	42494.111439
589.317362	42790.271665
589.669786	42723.912437
590.022155	42492.576407
590.374470	42909.036209
590.726731	42442.406844
591.078937	41972.001655
591.431090	42054.459809
591.783188	41718.502193
592.135232	41400.261713
592.487222	41639.819864
592.839157	41723.578635
593.191038	41405.060891
593.542866	41170.460714
593.894639	40580.885169
594.246358	40849.359379
594.598022	40823.583959
594.949633	40440.950300
595.301190	40396.714175
595.652692	40237.748950
596.004141	40551.795191
596.355535	39577.647663
596.706876	39546.720184
597.058162	39371.739213
597.409395	39828.913894
597.760573	39915.072254
598.111698	39481.384310
598.462768	39503.209985
598.813785	39542.508300
599.164748	39006.164819
599.515657	39398.658975
599.866511	38865.004949
600.217312	39474.235953
600.568060	38438.803118
600.918753	39193.005104
601.269392	39150.551027
601.619978	38808.586876
601.970510	39013.373669
602.320988	39196.170948
602.671412	39503.850212
603.021783	39243.643494
603.372100	38898.286647
603.722363	39003.896300
604.072572	39077.280376
604.422728	39097.896175
604.772830	38908.454654
605.122878	38993.451029
605.472872	38937.388357
605.822813	39220.393693
606.172701	39040.429542
606.522534	39272.118452
606.872314	39545.694309
607.222041	39300.379160
607.571714	39686.178664
607.921333	39128.715269
608.270899	39430.690467
608.620411	39762.027865
608.969870	39571.260521
609.319276	39558.292153
609.668627	39619.274991
610.017926	40087.424263
610.367171	40244.194066
610.716362	40322.042084
611.065500	40275.489549
611.414585	40463.655657
611.763616	40760.647674
612.112594	40682.267814
612.461518	40915.388412
612.810389	41189.417973
613.159207	41062.035578
613.507971	41123.215021
613.856682	41589.025198
614.205340	41494.521207
614.553945	42184.501413
614.902496	41644.056954
615.250994	42107.255813
615.599439	42153.140395
615.947830	42376.607184
616.296169	42420.881117
616.644454	42549.790983
616.992686	42719.987898
617.340864	43250.224022
617.688990	42964.443531
618.037063	43574.319803
618.385082	43531.664079
618.733048	43822.160570
619.080961	43855.074263
619.428821	43854.897823
619.776628	43954.221156
620.124382	43772.490081
620.472083	43895.726128
620.819731	44029.102456
621.167326	43689.225343
621.514868	43662.497145
621.862357	43224.930032
622.209793	43254.307356
622.557176	42910.893874
622.904506	42675.658512
623.251783	42325.870491
623.599007	42096.901283
623.946179	41880.076215
624.293297	41829.344563
624.640363	41248.911151
624.987376	41231.504046
625.334336	40989.982366
625.681243	40649.618781
626.028097	40611.507658
626.374899	40450.440272
626.721647	40453.205345
627.068343	40327.259678
627.414987	40090.998441
627.761577	39870.788238
628.108115	40205.672088
628.454600	39653.680866
628.801032	39849.691010
629.147412	39800.393566
629.493739	39811.733642
629.840014	39466.964089
630.186236	39805.845574
630.532405	39418.644629
630.878521	39647.417232
631.224585	39528.496413
631.570597	39222.211029
631.916556	39387.878467
632.262462	39341.807363
632.608316	39348.844813
632.954117	39240.185263
633.299866	39234.826516
633.645562	39149.015995
633.991206	38659.910646
634.336797	38230.749658
634.682336	38234.280986
635.027823	37979.022161
635.373257	37795.645149
635.718639	37543.675677
636.063968	37417.694721
636.409245	36855.981633
636.754470	36897.934116
637.099642	36659.444689
637.444762	36193.637033
637.789829	36330.000244
638.134845	35983.705742
638.479808	35934.428463
638.824719	35828.629768
639.169577	35458.694775
639.514383	35518.195514
639.859137	35222.652828
640.203839	35465.021423
640.548489	35100.583809
640.893086	35159.257798
641.237632	34916.440541
641.582125	35012.903020
641.926566	34967.348633
642.270955	34931.821101
642.615292	34952.830110
642.959576	34916.208648
643.303809	34925.554947
643.647990	35059.243827
643.992118	35026.352818
644.336195	35015.330335
644.680219	35123.977283
645.024192	35421.670021
645.368112	35935.837466
645.711981	35945.909691
646.055797	36790.756664
646.399562	36745.416527
646.743274	37675.461520
647.086935	38115.912173
647.430544	37994.541353
647.774101	38113.709189
648.117606	38374.157882
648.461059	38650.009820
648.804460	38260.742002
649.147810	37656.486617
649.491108	37384.624752
649.834354	37034.317492
650.177548	36221.146609
650.520690	35774.903671
650.863781	35782.921626
651.206820	35622.633098
651.549807	35198.147780
651.892742	34709.798604
652.235626	34538.235535
652.578458	34401.166562
652.921238	33785.089671
653.263967	34119.474447
653.606644	33804.818227
653.949269	33762.286012
654.291843	33364.012173
654.634365	33775.632467
654.976836	33360.453118
655.319255	33364.584344
655.661622	33370.535426
656.003938	33128.217243
656.346203	32996.895185
656.688416	33219.522621
657.030577	33020.298742
657.372687	32860.486603
657.714746	33112.201497
658.056753	33253.608383
658.398708	32704.601523
658.740612	32763.640997
659.082465	33031.800134
659.424266	32851.588967
659.766016	32960.470328
660.107715	32846.585622
660.449362	32986.865810
660.790958	32952.956488
661.132503	32986.830522
661.473996	33019.484596
661.815438	33116.932620
662.156829	33310.006292
662.498168	33099.452419
662.839456	33110.749645
663.180693	33266.891823
663.521879	33418.948147
663.863013	33364.697770
664.204097	33372.191445
664.545129	33835.193699
664.886110	33797.301867
665.227040	33851.479147
665.567918	33989.354705
665.908746	34038.952097
666.249522	34195.784913
666.590248	34201.988053
666.930922	34310.478725
667.271545	34276.582007
667.612118	34368.562900
667.952639	34138.741737
668.293109	34199.356571
668.633528	34087.057307
668.973896	34017.391082
669.314213	34044.023497
669.654480	33785.997079
669.994695	33815.686955
670.334859	33708.953125
670.674973	33597.982205
671.015035	33763.488327
671.355047	33715.070565
671.695008	33649.959022
672.034918	33563.823347
672.374777	33629.922956
672.714585	33478.388392
673.054342	33712.708784
673.394049	33464.704180
673.733705	33729.397524
674.073310	33412.170316
674.412864	33479.719257
674.752368	33072.507452
675.091820	33372.171280
675.431223	32943.779068
675.770574	32678.100178
676.109875	32551.705848
676.449125	32262.164656
676.788324	32191.245704
677.127473	31643.668011
677.466571	31583.335482
677.805619	31228.148385
678.144616	31238.397051
678.483562	31154.716418
678.822458	30823.290799
679.161303	30768.170823
679.500098	30673.641627
679.838842	30567.623641
680.177535	30716.924973
680.516179	30983.944810
680.854771	31221.882231
681.193314	32097.127362
681.531805	33218.864751
681.870247	33997.760829
682.208638	34729.272581
682.546978	34949.318946
682.885268	35034.758942
683.223508	34489.631251
683.561697	34165.192671
683.899836	33973.384329
684.237925	33468.759788
684.575963	33317.192457
684.913951	32860.148846
685.251889	33021.639689
685.589776	33015.980994
685.927614	33007.529499
686.265401	33148.391941
686.603137	33258.152983
686.940824	33764.128554
687.278460	34135.679236
687.616046	34292.048267
687.953582	34905.352523
688.291068	34761.193167
688.628504	35046.706477
688.965889	34964.949044
689.303224	34573.758026
689.640510	34213.507090
689.977745	33487.832994
690.314930	32689.727599
690.652065	32163.090860
690.989150	31416.848856
691.326185	30530.578722
691.663170	29833.046867
692.000105	29080.337063
692.336990	28388.181598
692.673825	27940.761550
693.010610	27436.527699
693.347345	26869.534002
693.684030	26208.023712
694.020665	25935.209069
694.357251	25269.991010
694.693786	25233.735032
695.030272	24981.463090
695.366707	24454.085301
695.703093	24153.446009
696.039429	24154.882738
696.375716	23894.817173
696.711952	23870.181054
697.048139	23708.775911
697.384276	23521.945708
697.720363	23654.218023
698.056400	23460.670483
698.392388	23258.172374
698.728326	23213.270817
699.064214	23002.701821
699.400053	22944.879786
699.735842	22586.645312
700.071581	22312.789670
700.407270	22023.167820
700.742910	21830.565496
701.078501	21567.686967
701.414042	21278.717946
701.749533	20992.236735
702.084974	20638.796398
702.420366	20843.195022
702.755709	20411.889022
703.091002	20113.714854
703.426246	20120.311204
703.761440	20030.417349
704.096584	19762.560680
704.431679	19724.371419
704.766725	19627.528333
705.101721	19567.495753
705.436668	19662.168622
705.771565	19343.839921
706.106413	19687.553352
706.441212	19666.887142
706.775961	19795.749117
707.110661	19875.162413
707.445311	20216.771162
707.779913	20067.903369
708.114465	20315.756739
708.448967	20594.373750
708.783421	21294.093466
709.117825	21560.621790
709.452180	21784.759052
709.786485	22183.574815
710.120742	22997.668229
710.454949	23014.883769
710.789107	23468.171720
711.123216	24175.843856
711.457275	24298.520335
711.791286	24843.821946
712.125247	24892.743824
712.459159	24592.233081
712.793023	25245.982515
713.126837	24133.457834
713.460602	24390.884356
713.794318	24001.639223
714.127985	23611.847125
714.461602	22725.398030
714.795171	22683.634591
715.128691	21667.481649
715.462162	21130.623970
715.795584	20713.264322
716.128957	20446.052922
716.462281	20050.224042
716.795556	19799.396391
717.128782	19316.042999
717.461960	18777.758673
717.795088	18702.244709
718.128167	18309.838773
718.461198	17845.087239
718.794180	17706.531125
719.127113	17350.613061
719.459997	17153.566960
719.792833	16806.813713
720.125619	16778.142151
720.458357	16467.455839
720.791046	16291.108716
721.123686	16133.360930
721.456278	15902.846608
721.788821	15863.281112
722.121315	15598.509630
722.453761	15680.057855
722.786158	15603.777636
723.118506	15615.170643
723.450805	15482.767258
723.783056	15637.795342
724.115259	15537.120979
724.447412	15472.843747
724.779518	15708.842844
725.111574	15741.365848
725.443582	15930.802327
725.775542	15916.361942
726.107453	16384.536420
726.439315	16268.126095
726.771129	16670.238773
727.102895	17033.416099
727.434612	17241.434271
727.766281	17370.117285
728.097901	17619.301520
728.429473	17651.280079
728.760996	17645.984347
729.092471	17715.522023
729.423897	17589.684741
729.755276	17457.626675
730.086606	17579.385663
730.417887	18094.425228
730.749120	18620.746896
731.080305	18789.852402
731.411442	19118.447412
731.742530	19172.861627
732.073570	19275.761659
732.404562	19574.616382
732.735506	19379.692607
733.066401	19087.764429
733.397249	18573.329803
733.728048	17933.632585
734.058798	17101.335565
734.389501	16436.578772
734.720156	15975.358565
735.050762	15451.459172
735.381320	15099.286685
735.711831	14860.817423
736.042293	14526.437688
736.372707	14521.588098
736.703073	14325.777080
737.033391	14514.883364
737.363661	14483.476975
737.693883	14581.658488
738.024056	14752.362039
738.354182	14949.582060
738.684260	15223.263782
739.014290	15454.239369
739.344272	15642.516382
739.674207	15922.418888
740.004093	16029.626586
740.333931	16016.907755
740.663722	16058.260340
740.993464	16050.398661
741.323159	15865.103489
741.652806	15594.867396
741.982405	15375.466299
742.311956	15041.202511
742.641460	14919.672894
742.970915	14619.278098
743.300323	14281.886274
743.629683	14074.838524
743.958996	13795.029280
744.288260	13526.071119
744.617477	13225.482239
744.946647	13152.745951
745.275768	12878.116492
745.604842	12704.151314
745.933869	12531.685879
746.262847	12489.914878
746.591778	12409.478228
746.920662	12316.368116
747.249498	12312.620018
747.578286	12426.484560
747.907027	12573.824884
748.235720	12795.539871
748.564365	12815.565855
748.892963	12724.290723
749.221514	12773.540276
749.550017	12633.716312
749.878473	12604.807816
750.206881	12377.681150
750.535242	12287.688992
750.863555	12205.003986
751.191821	12108.821292
751.520039	12126.021708
751.848210	12035.661546
752.176334	12069.379304
752.504411	11971.419602
752.832440	11819.166674
753.160421	11887.852395
753.488356	11755.655697
753.816243	11667.990032
754.144082	11530.066583
754.471875	11466.510236
754.799620	11418.745303
755.127318	11391.828062
755.454969	11352.933040
755.782572	11300.678960
756.110129	11320.362145
756.437638	11238.733261
756.765100	11228.393855
757.092515	11234.602036
757.419882	11255.674059
757.747203	11249.629715
758.074477	11331.435039
758.401703	11287.929882
758.728882	11446.567431
759.056014	11489.903710
759.383099	11605.517533
759.710138	11703.855321
760.037129	11780.175869
760.364073	11791.979731
760.690970	11793.207252
761.017820	11790.530399
761.344623	11969.811474
761.671379	12293.594703
761.998088	12920.850353
762.324751	14473.409791
762.651366	17333.337027
762.977935	20976.440279
763.304456	23181.299819
763.630931	23630.431339
763.957359	22454.055404
764.283740	20538.961387
764.610074	18670.888733
764.936362	16552.706792
765.262602	15050.074941
765.588796	13583.573041
765.914943	12556.632029
766.241044	11717.930222
766.567097	11100.499782
766.893104	10555.488036
767.219064	10196.295743
767.544978	9812.575715
767.870845	9503.827727
768.196665	9316.374942
768.522438	9121.035271
768.848165	8958.082494
769.173846	8796.568966
769.499479	8678.401799
769.825066	8521.248869
770.150607	8337.758431
770.476101	8275.777444
770.801548	8164.993047
771.126949	8025.327880
771.452303	7946.212011
771.777611	7774.235568
772.102872	7750.816888
772.428087	7631.896069
772.753256	7512.403079
773.078378	7430.713701
773.403453	7287.938142
773.728482	7183.586257
774.053465	7118.212574
774.378401	7033.813577
774.703291	6944.441481
775.028135	6850.519743
775.352932	6810.641696
775.677683	6732.592032
776.002388	6638.519060
776.327046	6639.534852
776.651658	6555.874383
776.976224	6477.476879
777.300743	6468.022195
777.625216	6397.745990
777.949643	6353.817376
778.274024	6359.970104
778.598359	6295.942409
778.922647	6294.664476
779.246889	6256.127376
779.571086	6263.522748
779.895236	6279.246107
780.219339	6268.473162
780.543397	6266.794457
780.867409	6318.781356
781.191374	6315.688608
781.515294	6285.940760
781.839167	6334.061094
782.162995	6305.800385
782.486776	6259.908241
782.810511	6216.231684
783.134201	6136.037009
783.457844	6129.251616
783.781441	6080.266724
784.104993	6036.033119
784.428498	6012.299367
784.751958	5993.137941
785.075372	5963.569053
785.398739	5926.642602
785.722061	5951.699657
786.045337	5952.932219
786.368568	6060.278549
786.691752	6081.214461
787.014891	6333.022616
787.337983	6611.306911
787.661030	7048.405197
787.984031	7466.793239
788.306987	7733.140082
788.629897	7818.224677
788.952760	7729.384423
789.275579	7548.681742
789.598351	7254.835405
789.921078	6993.050807
790.243759	6712.374484
790.566395	6510.009966
790.888984	6316.096942
791.211529	6179.040572
791.534027	6013.398339
791.856480	5880.372371
792.178888	5819.828113
792.501249	5755.069451
792.823566	5651.950128
793.145836	5641.459487
793.468062	5629.577488
793.790241	5588.146765
794.112375	5628.854082
794.434464	5728.031222
794.756507	5758.762096
795.078505	5881.282299
795.400457	6093.459423
795.722364	6331.669066
796.044226	6527.107039
796.366042	6684.970772
796.687812	6632.641074
797.009538	6653.579507
797.331218	6568.336116
797.652852	6495.950188
797.974442	6376.028699
798.295986	6301.800230
798.617484	6177.810530
798.938938	6070.297842
799.260346	6001.302090
799.581709	5866.829311
799.903026	5814.423996
800.224299	5743.600826
800.545526	5621.216734
800.866708	5562.053752
801.187845	5510.936453
801.508936	5435.099855
801.829983	5404.794958
802.150984	5299.313855
802.471940	5276.122027
802.792851	5259.430767
803.113717	5232.195933
803.434538	5213.699939
803.755314	5182.643911
804.076045	5170.822405
804.396731	5133.480058
804.717372	5149.523530
805.037967	5152.457482
805.358518	5181.066030
805.679024	5240.811265
805.999485	5250.931381
806.319901	5268.887971
806.640272	5287.512514
806.960598	5332.814843
807.280879	5325.890818
807.601115	5360.785685
807.921306	5323.014840
808.241453	5318.568542
808.561554	5330.679914
808.881611	5291.502587
809.201623	5288.568636
809.521590	5238.923353
809.841513	5227.532866
810.161390	5241.912757
810.481223	5153.226258
810.801011	5139.330317
811.120755	5114.716884
811.440453	5060.728647
811.760107	5035.870717
812.079716	5004.827292
812.399281	4958.158810
812.718801	4948.993992
813.038276	4913.683230
813.357707	4877.155029
813.677093	4902.622938
813.996434	4842.134133
814.315731	4859.009396
814.634983	4864.899984
814.954191	4866.911405
815.273354	4920.864354
815.592473	4966.000325
815.911547	5037.362898
816.230577	5089.634623
816.549562	5179.379764
816.868502	5235.850769
817.187399	5286.915137
817.506250	5366.880440
817.825058	5391.561929
818.143821	5544.712183
818.462539	5712.980857
818.781213	5940.510816
819.099843	6300.653367
819.418429	6934.855727
819.736970	7548.530508
820.055466	8259.612984
820.373919	9169.463116
820.692327	10613.839392
821.010691	13315.824757
821.329011	19555.475121
821.647286	29187.126345
821.965517	39580.886604
822.283704	45071.928143
822.601847	46523.901438
822.919945	41878.145453
823.237999	36706.090486
823.556010	31479.633906
823.873976	26748.057318
824.191897	22542.668806
824.509775	19474.400765
824.827609	16705.073146
825.145398	15148.316947
825.463144	14403.010078
825.780845	14699.245922
826.098502	15963.746267
826.416116	18433.780582
826.733685	20725.844522
827.051210	21244.523800
827.368692	19800.220620
827.686129	17236.365391
828.003522	14757.504016
828.320872	12535.353318
828.638177	10883.853674
828.955439	9645.153954
829.272656	8594.927853
829.589830	7754.892661
829.906960	7019.332862
830.224046	6490.654456
830.541088	6082.860397
830.858086	5825.575029
831.175041	5621.211693
831.491952	5569.378549
831.808819	5600.618579
832.125642	5845.633780
832.442421	6392.929168
832.759157	7507.893767
833.075849	9276.088561
833.392497	11120.946702
833.709101	12229.889642
834.025662	11978.247845
834.342179	10917.662173
834.658653	9618.503894
834.975083	8509.061879
835.291469	7610.418233
835.607811	6870.389451
835.924110	6357.056317
836.240366	5867.744281
836.556578	5423.280869
836.872746	5067.579575
837.188871	4794.873316
837.504952	4578.237291
837.820990	4408.794028
838.136984	4298.657420
838.452935	4247.106580
838.768842	4279.314512
839.084706	4563.741453
839.400526	5299.530625
839.716303	6208.664912
840.032037	6770.274657
840.347727	6617.497448
840.663373	6021.459144
840.978977	5442.732162
841.294537	5002.851159
841.610054	4673.464687
841.925527	4435.434006
842.240957	4229.144949
842.556344	4046.075447
842.871687	3887.221128
843.186987	3737.549270
843.502244	3621.781693
843.817458	3532.548228
844.132629	3462.725727
844.447756	3415.190167
844.762840	3368.405739
845.077881	3332.782425
845.392879	3299.503248
845.707833	3275.073816
846.022745	3244.905031
846.337613	3236.463619
846.652438	3210.166440
846.967221	3203.053372
847.281960	3181.363807
847.596656	3170.873166
847.911309	3160.959737
848.225919	3148.397182
848.540485	3137.931747
848.855009	3130.430510
849.169490	3117.797378
849.483928	3111.916872
849.798323	3108.292283
850.112675	3095.528081
850.426984	3097.980602
850.741251	3089.110692
851.055474	3086.204467
851.369654	3090.801999
851.683792	3084.745053
851.997887	3088.672112
852.311938	3089.251844
852.625947	3088.573809
852.939914	3082.201791
853.253837	3087.590784
853.567718	3086.383428
853.881555	3081.213725
854.195350	3090.388625
854.509103	3081.407809
854.822812	3079.968560
855.136479	3076.558219
855.450103	3081.070052
855.763685	3073.475553
856.077224	3076.076789
856.390720	3083.076431
856.704173	3095.961620
857.017584	3098.905654
857.330953	3104.647528
857.644278	3115.201184
857.957561	3117.724281
858.270802	3113.033488
858.584000	3112.756224
858.897155	3111.034670
859.210268	3096.748040
859.523339	3083.031061
859.836367	3082.113571
860.149352	3076.633836
860.462295	3073.145358
860.775195	3060.802093
861.088054	3060.897875
861.400869	3058.684808
861.713642	3059.355282
862.026373	3068.018504
862.339062	3072.149730
862.651708	3083.008375
862.964312	3099.722321
863.276873	3106.807663
863.589392	3135.499390
863.901869	3162.555263
864.214303	3178.376924
864.526696	3203.378526
864.839045	3219.790003
865.151353	3233.121334
865.463619	3230.230232
865.775842	3230.003380
866.088023	3240.516707
866.400162	3229.955489
866.712258	3233.375912
867.024313	3231.288875
867.336325	3229.151425
867.648296	3230.167218
867.960224	3227.465159
868.272110	3233.938001
868.583954	3231.833319
868.895755	3240.168867
869.207515	3237.660893
869.519233	3253.984149
869.830909	3261.313987
870.142542	3272.212962
870.454134	3276.818056
870.765684	3291.374387
871.077191	3307.410298
871.388657	3324.298163
871.700081	3340.518076
872.011463	3361.731251
872.322803	3381.709344
872.634101	3394.551683
872.945357	3416.163110
873.256571	3445.253088
873.567744	3462.692960
873.878874	3466.340234
874.189963	3483.838079
874.501010	3485.743636
874.812015	3482.028305
875.122979	3497.555059
875.433900	3494.187568
875.744780	3498.172600
876.055618	3505.167201
876.366415	3506.601410
876.677169	3507.919671
876.987882	3528.636293
877.298554	3546.323181
877.609183	3587.148966
877.919771	3631.551449
878.230317	3703.788663
878.540822	3800.220895
878.851285	3961.804999
879.161707	4180.182743
879.472087	4558.390269
879.782425	5189.431825
880.092722	6384.535647
880.402977	8341.919903
880.713191	10751.699826
881.023363	13180.656299
881.333494	14531.466239
881.643583	14997.856149
881.953631	14577.343260
882.263637	13712.876116
882.573602	12669.536231
882.883526	11689.966942
883.193408	10719.784281
883.503248	9791.420512
883.813048	8950.188047
884.122806	8180.650871
884.432522	7411.375835
884.742197	6740.476396
885.051831	6177.354306
885.361424	5671.885371
885.670975	5275.554897
885.980485	4948.215134
886.289954	4675.433258
886.599382	4458.225062
886.908768	4277.083802
887.218113	4111.224799
887.527417	3982.466168
887.836680	3857.047302
888.145901	3755.097527
888.455082	3677.302441
888.764221	3607.711832
889.073319	3549.741084
889.382376	3520.567926
889.691392	3493.801920
890.000366	3483.989314
890.309300	3482.756752
890.618193	3486.938389
890.927044	3476.969507
891.235855	3485.297493
891.544625	3500.615039
891.853353	3529.092518
892.162041	3593.883947
892.470687	3682.167154
892.779293	3800.349444
893.087858	3975.229592
893.396381	4258.643261
893.704864	4674.205737
894.013306	5249.325774
894.321707	5826.953784
894.630068	6194.431214
894.938387	6231.178705
895.246665	6048.464605
895.554903	5725.228341
895.863100	5382.737390
896.171256	5111.563642
896.479371	4871.942476
896.787446	4643.003515
897.095480	4445.080254
897.403473	4295.620124
897.711425	4149.144358
898.019336	4026.813198
898.327207	3904.570259
898.635038	3796.374494
898.942827	3690.769883
899.250576	3605.932305
899.558284	3520.396527
899.865952	3469.319556
900.173579	3403.237591
900.481165	3354.824870
900.788711	3311.604538
901.096216	3282.322996
901.403681	3251.251844
901.711105	3244.252202
902.018489	3239.442941
902.325832	3270.728342
902.633135	3332.394256
902.940397	3506.175432
903.247619	3909.636618
903.554800	4678.886448
903.861941	5658.370038
904.169041	6372.736826
904.476101	6582.383291
904.783121	6301.283511
905.090100	5894.104474
905.397039	5475.141740
905.703938	5103.891006
906.010796	4781.156337
906.317614	4521.541955
906.624391	4281.666211
906.931129	4083.904266
907.237826	3902.679826
907.544483	3730.002663
907.851099	3555.326682
908.157675	3395.335583
908.464211	3253.149838
908.770707	3150.781648
909.077163	3070.256777
909.383578	3011.179495
909.689954	2964.460602
909.996289	2936.025973
910.302584	2915.793302
910.608839	2903.124883
910.915054	2888.810526
911.221229	2885.836246
911.527363	2889.861607
911.833458	2900.316960
912.139513	2913.502098
912.445527	2923.302101
912.751502	2959.961372
913.057436	3003.635408
913.363331	3059.307391
913.669186	3146.673107
913.975000	3266.007301
914.280775	3455.489151
914.586510	3729.599371
914.892205	4107.378399
915.197859	4617.626347
915.503475	5212.333787
915.809050	5712.403645
916.114585	6007.588409
916.420081	6073.556948
916.725536	6001.861658
917.030952	5761.507004
917.336328	5550.708636
917.641665	5336.610832
917.946961	5106.308239
918.252218	4902.990943
918.557435	4672.532074
918.862612	4472.063030
919.167750	4297.939055
919.472848	4101.460084
919.777906	3937.501596
920.082925	3776.202317
920.387904	3616.138121
920.692843	3502.618898
920.997743	3400.664082
921.302603	3307.659835
921.607423	3248.229672
921.912204	3180.756348
922.216946	3130.380098
922.521647	3079.572829
922.826310	3037.910213
923.130932	3001.132475
923.435516	2958.764098
923.740059	2930.783173
924.044564	2897.256980
924.349028	2875.055738
924.653454	2844.365193
924.957840	2819.683704
925.262186	2800.474387
925.566493	2777.461520
925.870761	2751.398755
926.174989	2742.448186
926.479178	2727.055023
926.783328	2711.538351
927.087438	2698.670806
927.391509	2686.408199
927.695541	2674.677434
927.999533	2663.483552
928.303486	2655.213539
928.607400	2650.111892
928.911275	2644.153248
929.215110	2634.229737
929.518906	2635.227885
929.822663	2635.346352
930.126381	2633.849129
930.430060	2636.349542
930.733699	2638.920530
931.037299	2644.286838
931.340861	2640.795839
931.644383	2645.461427
931.947866	2644.017137
932.251309	2639.081847
932.554714	2637.478760
932.858080	2638.219810
933.161407	2632.924078
933.464694	2631.386526
933.767943	2626.738582
934.071153	2624.233128
934.374323	2620.512757
934.677455	2616.731892
934.980548	2612.225100
935.283602	2612.562857
935.586617	2610.806015
935.889593	2616.220214
936.192530	2614.223917
936.495428	2618.864300
936.798287	2628.601288
937.101108	2644.889256
937.403890	2665.857936
937.706632	2692.634024
938.009336	2724.516802
938.312002	2756.817995
938.614628	2777.905142
938.917216	2797.442133
939.219765	2808.978814
939.522275	2820.303766
939.824747	2816.530462
940.127179	2813.546099
940.429573	2808.066365
940.731929	2806.067548
941.034246	2794.039355
941.336524	2792.219498
941.638763	2786.603653
941.940964	2782.444701
942.243126	2763.512647
942.545250	2752.316245
942.847335	2739.758731
943.149381	2726.540825
943.451389	2713.426263
943.753359	2699.512679
944.055290	2690.836853
944.357182	2681.651871
944.659036	2676.593073
944.960851	2675.710871
945.262628	2669.583348
945.564367	2669.895900
945.866067	2668.368430
946.167729	2667.861794
946.469352	2666.520847
946.770937	2662.646721
947.072484	2658.762512
947.373992	2656.433499
947.675462	2650.676501
947.976893	2646.134421
948.278286	2643.500418
948.579641	2639.986734
948.880958	2637.997999
949.182236	2638.098822
949.483476	2633.954994
949.784678	2631.623460
950.085841	2633.097997
950.386967	2638.305509
950.688054	2645.468989
950.989103	2653.633138
951.290114	2661.141936
951.591087	2673.714574
951.892021	2687.635720
952.192917	2698.854808
952.493776	2707.218082
952.794596	2710.404092
953.095378	2712.244113
953.396122	2711.566078
953.696828	2707.840665
953.997496	2701.362782
954.298126	2695.578058
954.598718	2686.511543
954.899272	2673.447393
955.199788	2662.427431
955.500266	2650.240441
955.800706	2635.936167
956.101108	2617.677108
956.401472	2605.658997
956.701798	2591.793303
957.002087	2576.442990
957.302337	2570.501990
957.602550	2558.700649
957.902724	2546.236396
958.202861	2536.582587
958.502960	2529.388860
958.803022	2521.590195
959.103045	2512.712723
959.403031	2508.929337
959.702979	2503.119407
960.002889	2497.284272
960.302762	2495.524909
960.602596	2489.974599
960.902393	2482.690131
961.202153	2482.445635
961.501875	2480.900522
961.801559	2476.905407
962.101205	2473.916003
962.400814	2473.013637
962.700385	2469.646146
962.999918	2468.993316
963.299414	2467.324694
963.598873	2466.603809
963.898293	2464.211782
964.197677	2463.987451
964.497022	2461.605505
964.796331	2461.819754
965.095601	2461.850001
965.394835	2455.813220
965.694030	2458.394290
965.993189	2457.423868
966.292309	2456.145936
966.591393	2459.455453
966.890439	2453.353137
967.189447	2455.644341
967.488419	2455.475462
967.787353	2456.944959
968.086249	2456.508899
968.385108	2458.663992
968.683930	2455.072170
968.982714	2459.586523
969.281462	2460.582151
969.580172	2464.678089
969.878844	2464.849488
970.177480	2470.283852
970.476078	2471.387864
970.774639	2474.606641
971.073162	2476.091261
971.371649	2477.215438
971.670098	2478.110243
971.968510	2480.913125
972.266885	2475.693010
972.565223	2480.529997
972.863524	2485.429998
973.161788	2485.714824
973.460014	2486.148363
973.758204	2487.393528
974.056356	2487.675833
974.354471	2488.633652
974.652550	2486.753301
974.950591	2490.216574
975.248595	2488.890751
975.546563	2486.546614
975.844493	2486.491161
976.142386	2482.942189
976.440243	2481.220635
976.738062	2478.349698
977.035845	2477.822897
977.333590	2474.654532
977.631299	2471.869295
977.928971	2470.533389
978.226606	2467.181022
978.524204	2465.605661
978.821765	2465.961062
979.119290	2463.475773
979.416777	2463.420321
979.714228	2466.450054
980.011642	2465.852678
980.309020	2468.781588
980.606360	2473.926085
980.903664	2484.678867
981.200931	2496.394508
981.498162	2517.658095
981.795356	2547.884853
982.092513	2585.098651
982.389633	2629.349900
982.686717	2673.969152
982.983764	2709.632795
983.280775	2727.939745
983.577749	2724.287429
983.874686	2714.396686
984.171587	2701.914789
984.468451	2683.527180
984.765279	2664.257369
985.062070	2646.562919
985.358824	2627.414097
985.655543	2605.394337
985.952224	2582.636047
986.248869	2552.104299
986.545478	2526.654034
986.842050	2506.857423
987.138586	2485.994608
987.435086	2474.175623
987.731549	2463.856381
988.027975	2458.863118
988.324366	2450.812395
988.620719	2447.177723
988.917037	2444.717640
989.213318	2439.515169
989.509563	2435.237750
989.805772	2436.298913
990.101944	2432.833120
990.398080	2436.803028
990.694180	2433.654828
990.990244	2434.859664
991.286271	2432.644077
991.582262	2432.865887
991.878217	2435.789757
992.174136	2436.629109
992.470019	2436.142637
992.765865	2439.263112
993.061676	2439.260591
993.357450	2444.415171
993.653188	2446.350974
993.948890	2450.751901
994.244556	2457.547377
994.540186	2464.852008
994.835780	2476.872640
995.131337	2493.614312
995.426859	2507.555623
995.722345	2529.358613
996.017795	2549.480379
996.313208	2564.344221
996.608586	2574.953329
996.903928	2576.828638
997.199234	2578.845100
997.494504	2573.095664
997.789738	2565.186093
998.084936	2556.931204
998.380099	2540.930582
998.675225	2533.646114
998.970316	2518.242869
999.265371	2505.201404
999.560390	2492.159939
999.855373	2480.761890
1000.150320	2470.840899
1000.445232	2461.366051
1000.740108	2452.057560
1001.034948	2445.564554
1001.329752	2441.009871
1001.624521	2435.762030
1001.919254	2431.761875
1002.213951	2430.620053
1002.508613	2427.708787
1002.803239	2425.566297
1003.097829	2422.050092
1003.392384	2423.060843
1003.686903	2420.825091
1003.981386	2419.564803
1004.275834	2416.887950
1004.570246	2417.933990
1004.864623	2418.314597
1005.158964	2418.536407
1005.453270	2415.027764
1005.747540	2417.886099
1006.041775	2415.592374
1006.335974	2413.558268
1006.630138	2413.911149
1006.924266	2414.821077
1007.218359	2411.486354
1007.512416	2412.539955
1007.806438	2413.417116
1008.100425	2414.387538
1008.394376	2413.412075
1008.688292	2411.814029
1008.982172	2410.515932
1009.276017	2411.824111
1009.569827	2411.808988
1009.863602	2415.000038
1010.157341	2412.124060
1010.451045	2410.457958
1010.744714	2409.563154
1011.038347	2410.515932
1011.331945	2407.241702
1011.625508	2409.046435
1011.919036	2411.846796
1012.212528	2409.500139
1012.505986	2408.980900
1012.799408	2412.663463
1013.092795	2408.711199
1013.386147	2407.609707
1013.679464	2407.508883
1013.972745	2406.157854
1014.265992	2409.724471
1014.559204	2408.166754
1014.852380	2407.241702
1015.145521	2406.440159
1015.438628	2406.273801
1015.731699	2406.374624
1016.024736	2411.123391
1016.317737	2410.142886
1016.610703	2410.566343
1016.903635	2405.053842
1017.196531	2405.091650
1017.489393	2407.297155
1017.782219	2405.139541
1018.075011	2411.478792
1018.367768	2410.422670
1018.660490	2410.004255
1018.953177	2410.004255
1019.245829	2410.004255
