Dividing Wavelength (nm)	Counts (n)	Blue Motor Position (mm): 17.200000	Red Motor Position (mm): 0.000000	
326.493990	1973.715074
326.888308	1973.715074
327.282561	1973.715074
327.676750	1950.437547
328.070874	1952.542228
328.464933	1959.330142
328.858929	1969.304065
329.252859	1978.073152
329.646726	1993.085708
330.040528	2007.120280
330.434265	2024.716428
330.827938	2046.894984
331.221547	2067.568756
331.615091	2089.502817
332.008571	2106.131063
332.401986	2127.482870
332.795338	2147.183699
333.188625	2169.548778
333.581847	2191.082067
333.975006	2204.912472
334.368100	2222.443085
334.761129	2241.914541
335.154095	2258.414238
335.546996	2288.315842
335.939833	2347.869513
336.332606	2359.454084
336.725315	2369.319623
337.117960	2381.229348
337.510540	2387.563558
337.903056	2398.608726
338.295508	2404.030487
338.687896	2412.698751
339.080220	2416.766963
339.472480	2423.817016
339.864676	2426.347675
340.256807	2432.762544
340.648875	2430.483942
341.040879	2434.529468
341.432818	2433.843871
341.824694	2432.996957
342.216506	2434.922678
342.608253	2434.869746
342.999937	2433.992585
343.391557	2432.439910
343.783113	2432.598706
344.174605	2428.711977
344.566033	2430.320105
344.957397	2426.992943
345.348697	2422.811306
345.739934	2420.144536
346.131106	2421.099834
346.522215	2420.716707
346.913260	2415.942734
347.304241	2415.035326
347.695159	2414.702610
348.086012	2414.072466
348.476802	2408.222207
348.867528	2410.825963
349.258191	2407.566857
349.648789	2405.653739
350.039324	2404.199366
350.429796	2405.338667
350.820203	2403.218862
351.210548	2407.828997
351.600828	2402.460168
351.991045	2403.347411
352.381198	2401.255332
352.771288	2400.216854
353.161314	2401.174674
353.551276	2400.612585
353.941175	2396.057903
354.331010	2402.374468
354.720782	2401.585528
355.110490	2407.143400
355.500135	2402.823131
355.889717	2401.968655
356.279235	2405.043759
356.668689	2403.506207
357.058080	2404.078378
357.447408	2400.990672
357.836672	2400.862122
358.225873	2402.944119
358.615010	2402.560991
359.004084	2406.586352
359.393095	2406.848492
359.782043	2405.003430
360.170927	2407.811353
360.559748	2408.454100
360.948505	2406.994686
361.337199	2408.814542
361.725830	2408.411250
362.114398	2413.172620
362.502903	2410.342012
362.891344	2411.133473
363.279722	2411.783782
363.668037	2412.413926
364.056289	2412.660943
364.444478	2413.684297
364.832603	2412.471899
365.220665	2411.317475
365.608665	2414.281674
365.996601	2416.346026
366.384474	2411.826632
366.772284	2414.964750
367.160031	2415.461304
367.547715	2414.377456
367.935336	2412.920562
368.322893	2416.398958
368.710388	2414.052301
369.097820	2417.326531
369.485189	2417.571027
369.872495	2418.997673
370.259738	2415.622621
370.646918	2416.746798
371.034035	2417.324010
371.421090	2417.903743
371.808081	2418.712848
372.195010	2415.736047
372.581875	2420.021027
372.968678	2420.192427
373.355418	2417.528177
373.742096	2422.982705
374.128710	2421.545976
374.515262	2418.833836
374.901751	2421.856007
375.288177	2422.332396
375.674540	2419.020358
376.060841	2423.605288
376.447079	2419.554721
376.833254	2422.460946
377.219367	2418.380132
377.605417	2421.200657
377.991404	2415.239493
378.377329	2419.995822
378.763191	2415.746129
379.148991	2423.012952
379.534727	2422.904567
379.920402	2424.792479
380.306013	2422.970102
380.691563	2424.921029
381.077049	2423.822057
381.462474	2424.157294
381.847835	2424.560586
382.233134	2429.435382
382.618371	2424.041347
383.003545	2426.428334
383.388657	2427.494538
383.773706	2426.312387
384.158693	2427.118972
384.543618	2427.043355
384.928480	2425.863725
385.313280	2427.756678
385.698017	2426.854311
386.082692	2429.248859
386.467305	2429.132913
386.851856	2432.828079
387.236344	2428.853129
387.620770	2430.224323
388.005133	2429.049734
388.389435	2431.139292
388.773674	2430.529312
389.157851	2433.995106
389.541965	2431.386309
389.926018	2432.011412
390.310008	2429.949580
390.693936	2431.608119
391.077802	2430.461257
391.461606	2432.666762
391.845348	2431.358582
392.229027	2433.750610
392.612645	2433.874118
392.996200	2431.966041
393.379694	2435.512493
393.763125	2431.986206
394.146494	2437.067689
394.529801	2434.663059
394.913047	2432.669282
395.296230	2434.176587
395.679351	2433.135589
396.062410	2433.004519
396.445408	2433.795980
396.828343	2435.903182
397.211217	2431.749272
397.594028	2435.396547
397.976778	2432.603747
398.359466	2434.080805
398.742092	2432.389498
399.124656	2437.055086
399.507158	2434.269849
399.889598	2438.194387
400.271977	2432.752461
400.654294	2437.637339
401.036549	2438.756476
401.418742	2438.413677
401.800874	2439.018616
402.182944	2438.161619
402.564952	2438.910231
402.946898	2442.567588
403.328783	2437.707916
403.710606	2437.717998
404.092367	2439.263112
404.474067	2442.653287
404.855705	2439.477361
405.237282	2441.617330
405.618797	2441.531631
406.000250	2441.458534
406.381642	2441.095571
406.762972	2443.505242
407.144240	2443.414502
407.525447	2442.560026
407.906593	2443.520366
408.287677	2444.856272
408.668700	2443.202773
409.049661	2441.284614
409.430560	2442.270160
409.811399	2444.828545
410.192176	2442.403750
410.572891	2444.894080
410.953545	2442.723864
411.334138	2444.243772
411.714669	2444.395006
412.095139	2446.580346
412.475547	2444.710078
412.855894	2444.536158
413.236180	2443.815273
413.616405	2445.766200
413.996568	2440.299069
414.376670	2443.018771
414.756711	2442.310489
415.136691	2447.301231
415.516609	2444.531117
415.896466	2447.311314
416.276262	2445.725871
416.655997	2444.702517
417.035670	2441.564398
417.415283	2445.531786
417.794834	2443.512804
418.174324	2446.565223
418.553753	2447.676797
418.933121	2446.257713
419.312428	2445.516663
419.691674	2446.164451
420.070859	2447.409616
420.449983	2448.826180
420.829045	2448.606890
421.208047	2447.485233
421.586988	2448.027157
421.965867	2444.538679
422.344686	2449.726026
422.723444	2450.494802
423.102141	2451.082097
423.480777	2449.839452
423.859352	2452.002107
424.237866	2448.196036
424.616319	2451.596294
424.994712	2453.348095
425.373044	2449.562189
425.751314	2448.909359
426.129524	2449.325255
426.507673	2452.294494
426.885762	2451.364401
427.263789	2451.223249
427.641756	2449.552107
428.019662	2450.504885
428.397508	2453.960596
428.775292	2452.881789
429.153016	2452.710389
429.530679	2452.889350
429.908282	2454.419341
430.285824	2451.669391
430.663305	2452.291974
431.040726	2454.938579
431.418086	2450.393979
431.795385	2454.011007
432.172624	2452.576799
432.549802	2454.671398
432.926920	2453.884978
433.303977	2454.925977
433.680974	2453.791717
434.057910	2454.684001
434.434786	2453.151490
434.811601	2456.700463
435.188355	2455.944290
435.565050	2456.773559
435.941683	2456.871862
436.318257	2453.320369
436.694770	2452.521346
437.071222	2455.871193
437.447614	2454.227777
437.823946	2454.293312
438.200218	2457.335648
438.576429	2458.381687
438.952580	2460.801441
439.328670	2458.404373
439.704700	2456.710545
440.080670	2459.331945
440.456580	2457.726338
440.832429	2459.294136
441.208218	2461.272789
441.583947	2462.462502
441.959616	2458.784980
442.335224	2460.665330
442.710773	2461.761781
443.086261	2459.755402
443.461689	2460.662810
443.837057	2461.361009
444.212365	2461.953345
444.587612	2463.543829
444.962800	2463.221195
445.337927	2464.068109
445.712995	2460.294805
446.088002	2465.817389
446.462949	2464.345372
446.837837	2461.847481
447.212664	2464.035342
447.587431	2466.308902
447.962139	2469.820066
448.336786	2472.189408
448.711374	2471.806280
449.085901	2469.411732
449.460369	2467.352421
449.834776	2468.408543
450.209124	2471.733183
450.583412	2473.127062
450.957640	2472.207052
451.331808	2470.818214
451.705917	2467.707822
452.079965	2470.767802
452.453954	2471.617237
452.827883	2469.825107
453.201752	2471.239150
453.575562	2472.970787
453.949311	2472.512042
454.323001	2473.457258
454.696632	2472.010447
455.070202	2476.103864
455.443713	2473.827783
455.817164	2473.555561
456.190556	2475.319964
456.563888	2471.937350
456.937160	2471.861733
457.310373	2475.544296
457.683526	2476.232413
458.056619	2479.516725
458.429653	2477.638895
458.802628	2479.730974
459.175542	2477.795171
459.548398	2482.075111
459.921194	2481.487816
460.293930	2488.300936
460.666607	2485.538383
461.039224	2488.903353
461.411782	2488.416882
461.784280	2490.871924
462.156719	2489.079794
462.529099	2491.640700
462.901419	2485.664412
463.273680	2487.680874
463.645882	2488.184989
464.018024	2487.302787
464.390106	2487.368322
464.762130	2493.233705
465.134094	2500.135044
465.505999	2504.654439
465.877845	2512.566530
466.249631	2513.572240
466.621358	2516.460821
466.993026	2513.519308
467.364634	2511.954029
467.736184	2509.627537
468.107674	2507.144769
468.479105	2508.165602
468.850477	2502.892555
469.221790	2504.107473
469.593043	2503.028667
469.964238	2502.040600
470.335373	2502.232164
470.706449	2508.334481
471.077467	2513.846983
471.448425	2520.463497
471.819324	2526.104548
472.190164	2523.561286
472.560945	2518.540297
472.931667	2514.903104
473.302330	2514.968639
473.672934	2512.158196
474.043479	2516.448218
474.413965	2513.461334
474.784393	2509.768689
475.154761	2516.196160
475.525070	2514.164575
475.895321	2518.578106
476.265513	2516.496109
476.635645	2523.533560
477.005719	2524.110772
477.375734	2526.018849
477.745691	2531.112935
478.115588	2535.720549
478.485427	2540.580222
478.855207	2550.216387
479.224928	2556.903478
479.594591	2563.827502
479.964194	2563.149467
480.333739	2568.412432
480.703226	2566.443861
481.072653	2571.290931
481.442022	2572.720098
481.811333	2578.484657
482.180584	2577.302507
482.549777	2578.358628
482.918912	2576.614389
483.287988	2577.743608
483.657005	2578.744277
484.025964	2580.090265
484.394864	2582.893146
484.763706	2586.603436
485.132489	2584.339958
485.501213	2584.932293
485.869879	2588.347675
486.238487	2591.006883
486.607036	2594.392018
486.975527	2596.211875
487.343959	2595.271700
487.712333	2598.520723
488.080648	2602.825869
488.448905	2607.037753
488.817104	2611.297528
489.185244	2615.073352
489.553326	2625.445526
489.921350	2637.055303
490.289315	2655.596667
490.657222	2661.056237
491.025070	2665.368944
491.392861	2664.963131
491.760593	2664.927843
492.128267	2658.137409
492.495883	2656.710762
492.863440	2653.486944
493.230939	2653.083652
493.598380	2650.192550
493.965763	2647.291366
494.333088	2651.967036
494.700354	2651.714979
495.067563	2657.111534
495.434713	2655.468118
495.801805	2662.999602
496.168839	2664.678306
496.535815	2667.551763
496.902733	2674.218689
497.269593	2674.248936
497.636395	2676.537620
498.003139	2684.623631
498.369825	2687.018179
498.736453	2690.736030
499.103023	2694.131247
499.469535	2695.162163
499.835989	2702.492001
500.202385	2704.737835
500.568723	2707.512990
500.935003	2716.831563
501.301226	2718.772407
501.667390	2727.289437
502.033497	2739.075654
502.399546	2735.604820
502.765537	2738.369893
503.131470	2745.946747
503.497345	2756.344127
503.863163	2754.100813
504.228923	2763.363933
504.594625	2776.259205
504.960269	2776.649894
505.325856	2790.220681
505.691385	2791.571710
506.056856	2799.514048
506.422270	2815.575164
506.787625	2822.257213
507.152924	2831.893379
507.518164	2842.245388
507.883347	2846.608507
508.248472	2854.830629
508.613540	2874.949874
508.978550	2886.874723
509.343503	2894.877555
509.708398	2913.509660
510.073236	2930.470622
510.438016	2947.038374
510.802738	2948.787654
511.167403	2976.241778
511.532010	2991.662668
511.896561	3011.129083
512.261053	3040.203938
512.625488	3050.152655
512.989866	3064.245201
513.354186	3083.993921
513.718449	3100.695264
514.082655	3135.912764
514.446803	3151.741987
514.810894	3183.397913
515.174927	3205.916747
515.538904	3226.139336
515.902822	3261.175355
516.266684	3280.964405
516.630488	3313.018581
516.994235	3337.453054
517.357925	3375.264228
517.721558	3410.648087
518.085133	3448.058490
518.448651	3483.129797
518.812112	3511.430835
519.175516	3549.085734
519.538863	3592.396807
519.902152	3628.695635
520.265385	3679.467616
520.628560	3721.407496
520.991678	3755.843618
521.354739	3801.803817
521.717743	3852.737115
522.080690	3894.505595
522.443580	3961.207622
522.806413	4010.240405
523.169189	4058.892581
523.531908	4117.654791
523.894569	4160.703724
524.257174	4221.381572
524.619722	4293.701965
524.982213	4346.699616
525.344647	4400.856732
525.707025	4458.247748
526.069345	4537.590468
526.431608	4597.592802
526.793815	4678.967107
527.155964	4720.554106
527.518057	4796.869613
527.880093	4847.692006
528.242072	4944.542653
528.603995	4999.274461
528.965860	5068.759205
529.327669	5147.877594
529.689421	5214.572059
530.051117	5284.520589
530.412755	5373.605339
530.774337	5453.401764
531.135862	5515.097925
531.497331	5607.532522
531.858743	5681.849212
532.220098	5794.617303
532.581396	5854.453278
532.942638	5910.286578
533.303824	6019.238515
533.664953	6103.997956
534.026025	6168.025651
534.387040	6296.214631
534.747999	6383.257714
535.108902	6490.737635
535.469748	6535.034253
535.830537	6641.314379
536.191270	6758.901813
536.551947	6816.539846
536.912567	6942.135153
537.273131	7058.759727
537.633638	7103.545337
537.994089	7242.968529
538.354483	7301.541696
538.714821	7468.736604
539.075103	7620.959286
539.435328	7704.619754
539.795497	7792.426572
540.155609	7904.370434
540.515665	8071.794715
540.875665	8114.717620
541.235609	8268.699664
541.595496	8380.023464
541.955328	8587.040968
542.315102	8620.857028
542.674821	8706.082775
543.034483	8827.153646
543.394090	8938.666490
543.753640	9058.499758
544.113134	9335.541408
544.472571	9305.912027
544.831953	9627.343558
545.191278	9638.671030
545.550548	9714.119459
545.909761	9924.809443
546.268918	10081.813659
546.628019	10276.669379
546.987064	10337.233801
547.346053	10341.662455
547.704986	10638.132713
548.063863	10691.780672
548.422684	10867.202743
548.781449	10977.535957
549.140158	11200.768332
549.498811	11314.332925
549.857408	11346.364416
550.215949	11653.708443
550.574434	11798.429888
550.932864	11899.812533
551.291237	12199.798995
551.649555	12275.607867
552.007817	12475.497178
552.366022	12562.023543
552.724173	12775.947427
553.082267	13021.572607
553.440305	13271.230710
553.798288	13271.122325
554.156215	13504.041277
554.514086	13734.802615
554.871902	13825.437520
555.229661	13999.654756
555.587365	14128.063026
555.945014	14321.401359
556.302606	14469.482732
556.660143	14709.555081
557.017625	14903.301747
557.375050	15027.210788
557.732421	15305.137161
558.089735	15483.165509
558.446994	15627.481141
558.804197	15958.175792
559.161345	16114.580111
559.518437	16071.538739
559.875474	16346.611820
560.232455	16585.025629
560.589381	16825.506312
560.946251	16914.651556
561.303065	17339.323397
561.659825	17469.223849
562.016528	17551.140078
562.373177	17643.390673
562.729770	18010.585799
563.086307	18027.516514
563.442789	18406.744874
563.799216	18616.502244
564.155587	18738.788034
564.511904	18951.315518
564.868164	19171.447583
565.224370	19481.176075
565.580520	19572.431042
565.936615	19862.216730
566.292654	19946.343505
566.648638	20255.207440
567.004567	20442.135945
567.360441	20667.891417
567.716260	20806.626492
568.072023	21138.631843
568.427732	21349.052125
568.783385	21355.126715
569.138982	21733.956824
569.494525	21912.552302
569.850013	22021.229496
570.205445	22218.774672
570.560823	22404.513464
570.916145	22557.487278
571.271412	22776.096914
571.626625	22863.805430
571.981782	23103.794600
572.336884	23158.128156
572.691931	23525.658518
573.046923	23530.777810
573.401860	23663.125742
573.756743	23850.369320
574.111570	24125.772595
574.466342	24247.110648
574.821059	24517.520661
575.175722	24464.908659
575.530330	24692.098339
575.884882	24740.037192
576.239380	24918.403297
576.593823	25109.284067
576.948211	25263.147644
577.302544	25203.122625
577.656823	25418.652117
578.011047	25749.044298
578.365216	25786.293384
578.719330	25870.349583
579.073389	25995.796176
579.427394	26237.227116
579.781344	26409.679948
580.135239	26403.680975
580.489080	26661.357033
580.842866	26536.696861
581.196597	27005.486360
581.550273	27149.703689
581.903895	27268.405218
582.257463	27733.733965
582.610975	27541.396302
582.964434	27913.078054
583.317837	27870.739923
583.671186	27944.118959
584.024481	28293.639799
584.377721	28176.566563
584.730906	28555.227793
585.084037	28752.886394
585.437113	28748.830786
585.790135	28960.239134
586.143103	28867.088693
586.496016	29139.426947
586.848874	29330.963067
587.201679	29517.899134
587.554428	29335.490023
587.907124	29635.516815
588.259765	29650.723456
588.612352	29991.654170
588.964884	29732.485930
589.317362	30109.329824
589.669786	30231.426570
590.022155	30249.103376
590.374470	30692.858505
590.726731	30522.270900
591.078937	30341.482520
591.431090	30576.831308
591.783188	30486.382926
592.135232	30402.851007
592.487222	30737.054301
592.839157	30953.161004
593.191038	30864.945853
593.542866	30843.704952
593.894639	30522.366682
594.246358	30883.376312
594.598022	31000.124394
594.949633	30859.637518
595.301190	30977.106485
595.652692	30994.896717
596.004141	31378.021889
596.355535	30761.748393
596.706876	30856.012929
597.058162	30851.974964
597.409395	31351.838136
597.760573	31544.470707
598.111698	31336.044201
598.462768	31472.109984
598.813785	31622.538015
599.164748	31327.927943
599.515657	31746.973857
599.866511	31465.231330
600.217312	32072.728177
600.568060	31351.628928
600.918753	32057.138409
601.269392	32156.083656
601.619978	31980.275936
601.970510	32272.267128
602.320988	32518.877854
602.671412	32893.848959
603.021783	32773.115845
603.372100	32602.805504
603.722363	32798.556028
604.072572	32958.589978
604.422728	33092.014197
604.772830	33022.821839
605.122878	33211.698751
605.472872	33243.195880
605.822813	33590.460804
606.172701	33526.778428
606.522534	33825.209694
606.872314	34148.433355
607.222041	34025.797206
607.571714	34450.385868
607.921333	34058.095878
608.270899	34410.107049
608.620411	34781.062875
608.969870	34706.161411
609.319276	34779.943739
609.668627	34914.696302
610.017926	35419.184732
610.367171	35645.847612
610.716362	35803.212270
611.065500	35844.259865
611.414585	36086.268017
611.763616	36420.577176
612.112594	36420.209172
612.461518	36689.588268
612.810389	37027.257356
613.159207	36976.457649
613.507971	37119.926367
613.856682	37625.360013
614.205340	37567.422032
614.553945	38271.953529
614.902496	37827.437185
615.250994	38323.932866
615.599439	38459.229873
615.947830	38737.796473
616.296169	38845.213379
616.644454	39019.221407
616.992686	39233.679654
617.340864	39772.452971
617.688990	39571.336138
618.037063	40184.766423
618.385082	40202.564217
618.733048	40520.028360
619.080961	40591.537127
619.428821	40654.193628
619.776628	40797.213684
620.124382	40702.719775
620.472083	40857.606707
620.819731	41063.149672
621.167326	40807.868162
621.514868	40851.857271
621.862357	40480.767854
622.209793	40567.458056
622.557176	40308.932563
622.904506	40136.194906
623.251783	39850.217810
623.599007	39697.606960
623.946179	39526.084221
624.293297	39525.917863
624.640363	39006.830251
624.987376	39038.161022
625.334336	38851.303093
625.681243	38563.448168
626.028097	38575.040301
626.374899	38477.234354
626.721647	38475.260743
627.068343	38410.086185
627.414987	38234.548167
627.761577	38054.158038
628.108115	38401.632170
628.454600	37906.699247
628.801032	38117.474931
629.147412	38112.098540
629.493739	38151.520363
629.840014	37847.518622
630.186236	38199.053403
630.532405	37857.628656
630.878521	38096.755788
631.224585	37997.591251
631.570597	37749.929445
631.916556	37928.666075
632.262462	37903.394771
632.608316	37936.623537
632.954117	37860.474387
633.299866	37886.370794
633.645562	37826.287802
633.991206	37375.235603
634.336797	36993.915164
634.682336	37018.919287
635.027823	36812.652916
635.373257	36653.816241
635.718639	36456.475232
636.063968	36340.934507
636.409245	35804.936345
636.754470	35890.051186
637.099642	35692.591711
637.444762	35240.445581
637.789829	35405.868524
638.134845	35079.824337
638.479808	35052.960028
638.824719	34970.703521
639.169577	34613.429386
639.514383	34693.838311
639.859137	34410.656534
640.203839	34675.082698
640.548489	34335.692056
640.893086	34410.351545
641.237632	34196.314235
641.582125	34311.174404
641.926566	34257.110550
642.270955	34232.713886
642.615292	34265.836787
642.959576	34270.441881
643.303809	34277.791884
643.647990	34437.364567
643.992118	34395.459976
644.336195	34432.083959
644.680219	34529.282446
645.024192	34817.205428
645.368112	35349.432807
645.711981	35354.771388
646.055797	36220.614767
646.399562	36153.408625
646.743274	37082.543690
647.086935	37529.777215
647.430544	37440.841179
647.774101	37559.615805
648.117606	37796.824779
648.461059	38104.037735
648.804460	37743.527180
649.147810	37167.456886
649.491108	36928.100380
649.834354	36578.287153
650.177548	35777.237725
650.520690	35330.435218
650.863781	35372.763267
651.206820	35224.177777
651.549807	34799.263961
651.892742	34358.334399
652.235626	34163.569420
652.578458	34027.649830
652.921238	33443.422949
653.263967	33779.425935
653.606644	33473.057372
653.949269	33423.109619
654.291843	33067.940166
654.634365	33459.494147
654.976836	33065.948911
655.319255	33067.415886
655.661622	33068.933274
656.003938	32861.933414
656.346203	32742.213572
656.688416	32957.995122
657.030577	32762.108486
657.372687	32603.861626
657.714746	32875.068141
658.056753	33011.902700
658.398708	32489.971878
658.740612	32543.304765
659.082465	32812.336022
659.424266	32622.695376
659.766016	32770.272635
660.107715	32651.205622
660.449362	32769.987809
660.790958	32761.453136
661.132503	32783.379635
661.473996	32811.224448
661.815438	32926.566048
662.156829	33126.130205
662.498168	32907.860847
662.839456	32942.246557
663.180693	33091.436984
663.521879	33261.563324
663.863013	33223.782396
664.204097	33213.074986
664.545129	33679.858105
664.886110	33646.452899
665.227040	33714.410174
665.567918	33820.455886
665.908746	33900.121240
666.249522	34068.505861
666.590248	34074.824947
666.930922	34189.866599
667.271545	34157.693955
667.612118	34251.167030
667.952639	34018.285887
668.293109	34079.971966
668.633528	33984.767255
668.973896	33898.966816
669.314213	33949.186791
669.654480	33678.418856
669.994695	33723.325454
670.334859	33613.700523
670.674973	33529.283881
671.015035	33672.190510
671.355047	33650.233765
671.695008	33595.912812
672.034918	33482.466685
672.374777	33572.955397
672.714585	33405.894079
673.054342	33647.967766
673.394049	33413.541509
673.733705	33686.058725
674.073310	33351.999103
674.412864	33442.409677
674.752368	33041.506876
675.091820	33322.115143
675.431223	32918.810233
675.770574	32646.187153
676.109875	32526.240459
676.449125	32234.564339
676.788324	32175.338343
677.127473	31646.233959
677.466571	31571.508935
677.805619	31229.512017
678.144616	31224.390205
678.483562	31153.526705
678.822458	30829.771202
679.161303	30765.652767
679.500098	30666.599135
679.838842	30560.434955
680.177535	30717.784490
680.516179	31000.762100
680.854771	31245.633627
681.193314	32091.902206
681.531805	33207.378482
681.870247	34004.359699
682.208638	34737.487141
682.546978	34960.543075
682.885268	35042.144233
683.223508	34519.157289
683.561697	34178.960062
683.899836	33997.793596
684.237925	33482.875019
684.575963	33341.901672
684.913951	32877.273646
685.251889	33049.900397
685.589776	33032.634445
685.927614	33023.852755
686.265401	33174.782381
686.603137	33275.912968
686.940824	33775.561891
687.278460	34162.097403
687.616046	34304.509999
687.953582	34899.141822
688.291068	34770.259682
688.628504	35040.405035
688.965889	34991.825956
689.303224	34603.573930
689.640510	34252.949078
689.977745	33531.842267
690.314930	32723.316807
690.652065	32214.437532
690.989150	31452.900667
691.326185	30560.684492
691.663170	29847.061274
692.000105	29111.791342
692.336990	28443.543550
692.673825	27997.131733
693.010610	27469.552298
693.347345	26905.401812
693.684030	26257.835353
694.020665	25988.713355
694.357251	25312.145139
694.693786	25274.752380
695.030272	25039.128849
695.366707	24496.743545
695.703093	24203.222362
696.039429	24207.552714
696.375716	23948.780204
696.711952	23912.980450
697.048139	23753.793415
697.384276	23584.589607
697.720363	23708.307084
698.056400	23501.793696
698.392388	23293.352067
698.728326	23237.962389
699.064214	23048.881311
699.400053	22985.592145
699.735842	22633.558289
700.071581	22360.095858
700.407270	22071.787228
700.742910	21881.995348
701.078501	21619.515070
701.414042	21332.827171
701.749533	21043.127183
702.084974	20702.398115
702.420366	20893.372146
702.755709	20462.431630
703.091002	20171.589821
703.426246	20190.206802
703.761440	20097.391598
704.096584	19815.674277
704.431679	19783.196643
704.766725	19674.985756
705.101721	19620.707652
705.436668	19720.724144
705.771565	19386.286437
706.106413	19739.318440
706.441212	19720.242714
706.775961	19851.290029
707.110661	19934.199366
707.445311	20291.796134
707.779913	20124.936463
708.114465	20367.100891
708.448967	20652.266361
708.783421	21345.175478
709.117825	21608.386723
709.452180	21837.527330
709.786485	22239.405594
710.120742	23035.068549
710.454949	23051.290982
710.789107	23538.916753
711.123216	24228.274377
711.457275	24339.638506
711.791286	24885.965993
712.125247	24954.041734
712.459159	24638.815863
712.793023	25289.328876
713.126837	24198.760941
713.460602	24438.639206
713.794318	24058.137955
714.127985	23673.255941
714.461602	22792.604173
714.795171	22740.072829
715.128691	21725.444836
715.462162	21187.785613
715.795584	20773.533837
716.128957	20528.448061
716.462281	20107.667990
716.795556	19869.566732
717.128782	19381.199912
717.461960	18835.111881
717.795088	18755.612885
718.128167	18364.220221
718.461198	17897.270743
718.794180	17762.591277
719.127113	17396.222900
719.459997	17208.429837
719.792833	16860.794388
720.125619	16833.622569
720.458357	16515.308992
720.791046	16349.553333
721.123686	16185.642736
721.456278	15952.156655
721.788821	15902.614715
722.121315	15645.624254
722.453761	15715.066148
722.786158	15649.624409
723.118506	15654.174051
723.450805	15526.496747
723.783056	15675.664490
724.115259	15583.101343
724.447412	15516.936199
724.779518	15765.061791
725.111574	15781.987465
725.443582	15975.484594
725.775542	15965.661906
726.107453	16424.215342
726.439315	16308.102445
726.771129	16706.194803
727.102895	17078.390753
727.434612	17276.389632
727.766281	17401.420330
728.097901	17652.817631
728.429473	17685.985903
728.760996	17681.529523
729.092471	17759.581708
729.423897	17631.980022
729.755276	17503.657450
730.086606	17622.926109
730.417887	18141.988515
730.749120	18663.712650
731.080305	18836.435184
731.411442	19165.824176
731.742530	19231.807839
732.073570	19327.216716
732.404562	19613.569378
732.735506	19431.848385
733.066401	19142.760897
733.397249	18623.580024
733.728048	18000.445518
734.058798	17160.080131
734.389501	16475.982951
734.720156	16020.481933
735.050762	15498.604043
735.381320	15145.453572
735.711831	14905.081274
736.042293	14557.655034
736.372707	14560.649479
736.703073	14364.621691
737.033391	14545.513415
737.363661	14522.298901
737.693883	14626.494510
738.024056	14794.057423
738.354182	14977.406709
738.684260	15256.162352
739.014290	15471.938860
739.344272	15669.952862
739.674207	15942.512927
740.004093	16054.736574
740.333931	16059.775207
740.663722	16088.461893
740.993464	16068.468677
741.323159	15901.442647
741.652806	15638.027235
741.982405	15414.144552
742.311956	15075.719291
742.641460	14956.490961
742.970915	14650.107275
743.300323	14315.115040
743.629683	14104.437659
743.958996	13818.828567
744.288260	13559.909864
744.617477	13251.512237
744.946647	13184.003625
745.275768	12920.951176
745.604842	12726.440776
745.933869	12562.724263
746.262847	12510.623938
746.591778	12445.774535
746.920662	12334.445694
747.249498	12341.621776
747.578286	12458.813480
747.907027	12602.176333
748.235720	12817.501658
748.564365	12847.793952
748.892963	12747.936256
749.221514	12811.641317
749.550017	12664.868123
749.878473	12622.557718
750.206881	12412.192889
750.535242	12311.642034
750.863555	12228.823438
751.191821	12126.230916
751.520039	12147.340748
751.848210	12058.306409
752.176334	12092.898807
752.504411	11997.721822
752.832440	11843.515447
753.160421	11902.963254
753.488356	11786.275666
753.816243	11689.074658
754.144082	11547.075436
754.471875	11497.241110
754.799620	11439.963520
755.127318	11408.665516
755.454969	11369.188240
755.782572	11319.442134
756.110129	11328.712816
756.437638	11250.693399
756.765100	11245.521175
757.092515	11243.708880
757.419882	11258.159347
757.747203	11266.961202
758.074477	11342.066833
758.401703	11299.325410
758.728882	11456.874070
759.056014	11495.983342
759.383099	11615.025149
759.710138	11710.355889
760.037129	11797.643468
760.364073	11813.560911
760.690970	11796.431070
761.017820	11796.108436
761.344623	11981.292702
761.671379	12305.567444
761.998088	12930.985593
762.324751	14468.928205
762.651366	17328.424422
762.977935	20972.760237
763.304456	23184.120345
763.630931	23655.052334
763.957359	22466.292805
764.283740	20571.562529
764.610074	18703.880564
764.936362	16579.971872
765.262602	15071.346090
765.588796	13604.229168
765.914943	12583.261924
766.241044	11735.181051
766.567097	11102.564134
766.893104	10561.754191
767.219064	10205.682371
767.544978	9821.256582
767.870845	9512.110342
768.196665	9319.936517
768.522438	9130.308474
768.848165	8967.960635
769.173846	8803.893762
769.499479	8677.355759
769.825066	8527.053757
770.150607	8341.365376
770.476101	8284.274309
770.801548	8170.520672
771.126949	8035.538737
771.452303	7935.295393
771.777611	7775.200949
772.102872	7756.896520
772.428087	7636.536451
772.753256	7517.010693
773.078378	7428.051972
773.403453	7289.977289
773.728482	7186.752102
774.053465	7119.379602
774.378401	7035.865326
774.703291	6937.739267
775.028135	6851.830443
775.352932	6814.142777
775.677683	6725.587348
776.002388	6642.136088
776.327046	6638.171220
776.651658	6555.340021
776.976224	6477.950748
777.300743	6461.592204
777.625216	6393.350104
777.949643	6350.268403
778.274024	6359.723087
778.598359	6290.513086
778.922647	6293.454599
779.246889	6254.279793
779.571086	6258.290031
779.895236	6268.616834
780.219339	6260.850937
780.543397	6263.961329
780.867409	6316.401932
781.191374	6306.561599
781.515294	6275.835767
781.839167	6329.224107
782.162995	6300.267719
782.486776	6246.082877
782.810511	6208.891764
783.134201	6134.859899
783.457844	6121.210975
783.781441	6078.721610
784.104993	6033.389034
784.428498	6005.559344
784.751958	5984.457074
785.075372	5958.326253
785.398739	5915.766312
785.722061	5942.348316
786.045337	5941.201454
786.368568	6049.301436
786.691752	6075.039047
787.014891	6322.146327
787.337983	6602.139573
787.661030	7038.332971
787.984031	7454.626415
788.306987	7718.992084
788.629897	7805.760424
788.952760	7722.722538
789.275579	7542.339971
789.598351	7252.798779
789.921078	6983.344065
790.243759	6707.751746
790.566395	6500.706516
790.888984	6305.114788
791.211529	6172.275343
791.534027	6010.227453
791.856480	5874.401124
792.178888	5811.235467
792.501249	5747.343883
792.823566	5642.613912
793.145836	5643.027286
793.468062	5622.131703
793.790241	5581.895734
794.112375	5622.862671
794.434464	5723.146344
794.756507	5748.886476
795.078505	5867.404003
795.400457	6083.876190
795.722364	6316.875800
796.044226	6514.347879
796.366042	6673.665984
796.687812	6614.596264
797.009538	6642.120964
797.331218	6554.467902
797.652852	6484.005174
797.974442	6361.056472
798.295986	6293.583149
798.617484	6163.985166
798.938938	6055.970883
799.260346	5995.456872
799.581709	5854.909503
799.903026	5806.451412
800.224299	5729.205811
800.545526	5613.521413
800.866708	5548.462802
801.187845	5501.028065
801.508936	5427.195325
801.829983	5395.776334
802.150984	5292.979645
802.471940	5264.950830
802.792851	5247.263942
803.113717	5224.654367
803.434538	5201.351633
803.755314	5169.355430
804.076045	5156.077030
804.396731	5124.257267
804.717372	5134.047188
805.037967	5137.626407
805.358518	5166.950799
805.679024	5226.378441
805.999485	5239.281275
806.319901	5254.024129
806.640272	5272.026089
806.960598	5318.132482
807.280879	5313.116534
807.601115	5345.798335
807.921306	5309.991019
808.241453	5305.884999
808.561554	5317.605682
808.881611	5276.202685
809.201623	5272.885606
809.521590	5223.714192
809.841513	5210.435792
810.161390	5230.623093
810.481223	5141.976923
810.801011	5121.441783
811.120755	5104.720276
811.440453	5051.412594
811.760107	5021.831103
812.079716	4989.386237
812.399281	4945.145071
812.718801	4933.689049
813.038276	4904.694853
813.357707	4865.724213
813.677093	4890.307400
813.996434	4830.925128
814.315731	4845.673023
814.634983	4844.831151
814.954191	4852.811297
815.273354	4908.488321
815.592473	4953.243685
815.911547	5025.372514
816.230577	5079.995937
816.549562	5165.569523
816.868502	5214.892172
817.187399	5268.265389
817.506250	5346.688098
817.825058	5370.994022
818.143821	5530.372621
818.462539	5695.556109
818.781213	5920.252939
819.099843	6283.135357
819.418429	6906.390852
819.736970	7520.531939
820.055466	8220.307108
820.373919	9131.467939
820.692327	10558.916021
821.010691	13231.226634
821.329011	19393.603671
821.647286	28883.361538
821.965517	39115.681366
822.283704	44526.679464
822.601847	45989.173647
822.919945	41451.424383
823.237999	36370.793261
823.556010	31207.366228
823.873976	26559.341724
824.191897	22384.207697
824.509775	19348.669347
824.827609	16595.329747
825.145398	15067.769391
825.463144	14328.083408
825.780845	14614.894815
826.098502	15851.129411
826.416116	18303.859965
826.733685	20554.397400
827.051210	21075.967780
827.368692	19667.166926
827.686129	17123.448586
828.003522	14661.805272
828.320872	12469.818318
828.638177	10835.841725
828.955439	9598.588816
829.272656	8547.437663
829.589830	7712.761218
829.906960	6991.490570
830.224046	6461.725794
830.541088	6060.449948
830.858086	5802.806657
831.175041	5596.089103
831.491952	5544.939035
831.808819	5578.646710
832.125642	5818.892979
832.442421	6366.841197
832.759157	7457.789739
833.075849	9212.365855
833.392497	11045.213447
833.709101	12144.220274
834.025662	11904.493244
834.342179	10856.989366
834.658653	9559.988701
834.975083	8464.475394
835.291469	7571.472799
835.607811	6843.142015
835.924110	6326.161606
836.240366	5840.358212
836.556578	5400.154576
836.872746	5044.843971
837.188871	4777.809010
837.504952	4556.792223
837.820990	4392.851379
838.136984	4276.804018
838.452935	4229.994384
838.768842	4262.779528
839.084706	4536.509140
839.400526	5270.775883
839.716303	6164.335526
840.032037	6728.019705
840.347727	6583.081491
840.663373	5988.580738
840.978977	5414.405918
841.294537	4975.460050
841.610054	4651.724712
841.925527	4410.752517
842.240957	4209.287844
842.556344	4032.759239
842.871687	3869.869476
843.186987	3722.577043
843.502244	3604.850977
843.817458	3522.402906
844.132629	3450.140487
844.447756	3402.105852
844.762840	3358.300746
845.077881	3318.394972
845.392879	3286.429015
845.707833	3263.058226
846.022745	3230.567990
846.337613	3219.442163
846.652438	3197.051878
846.967221	3191.448636
847.281960	3171.120183
847.596656	3160.495951
847.911309	3148.412305
848.225919	3134.874287
848.540485	3126.677371
848.855009	3119.607152
849.169490	3107.974690
849.483928	3100.009667
849.798323	3096.768205
850.112675	3083.872933
850.426984	3087.439550
850.741251	3079.081317
851.055474	3076.951429
851.369654	3077.079978
851.683792	3073.805749
851.997887	3078.678024
852.311938	3078.811615
852.625947	3075.643250
852.939914	3070.193762
853.253837	3077.034608
853.567718	3071.849781
853.881555	3067.864749
854.195350	3072.101839
854.509103	3071.068403
854.822812	3066.700243
855.136479	3064.744275
855.450103	3067.060685
855.763685	3061.099521
856.077224	3061.931311
856.390720	3071.035635
856.704173	3082.834456
857.017584	3087.883171
857.330953	3091.298553
857.644278	3098.885489
857.957561	3101.438834
858.270802	3098.903133
858.584000	3097.368102
858.897155	3094.051023
859.210268	3084.059456
859.523339	3065.528174
859.836367	3068.520099
860.149352	3064.409038
860.462295	3058.909139
860.775195	3049.646019
861.088054	3045.247613
861.400869	3050.059394
861.713642	3043.137890
862.026373	3055.894529
862.339062	3059.657751
862.651708	3067.501786
862.964312	3079.540062
863.276873	3090.123964
863.589392	3120.320476
863.901869	3147.101605
864.214303	3166.759585
864.526696	3183.791123
864.839045	3202.665203
865.151353	3215.361349
865.463619	3216.825804
865.775842	3218.895198
866.088023	3220.165569
866.400162	3214.532079
866.712258	3219.656412
867.024313	3214.945454
867.336325	3216.074672
867.648296	3215.484857
867.960224	3211.356152
868.272110	3215.310937
868.583954	3214.365721
868.895755	3220.626834
869.207515	3218.494426
869.519233	3240.403281
869.830909	3244.534506
870.142542	3255.307452
870.454134	3261.946652
870.765684	3274.531892
871.077191	3289.544448
871.388657	3303.621871
871.700081	3321.021413
872.011463	3343.968745
872.322803	3358.557845
872.634101	3373.935884
872.945357	3397.581417
873.256571	3425.771549
873.567744	3438.651697
873.878874	3447.062862
874.189963	3464.230512
874.501010	3461.591468
874.812015	3463.827219
875.122979	3472.959269
875.433900	3472.437510
875.744780	3471.278045
876.055618	3483.152483
876.366415	3482.560147
876.677169	3486.056187
876.987882	3502.203003
877.298554	3524.389121
877.609183	3560.690470
877.919771	3608.052110
878.230317	3670.816996
878.540822	3772.860032
878.851285	3923.772014
879.161707	4142.157319
879.472087	4509.339842
879.782425	5122.840703
880.092722	6292.711029
880.402977	8195.633180
880.713191	10539.830212
881.023363	12885.264848
881.333494	14224.112131
881.643583	14670.753320
881.953631	14261.451957
882.263637	13425.280810
882.573602	12402.216445
882.883526	11457.675614
883.193408	10525.762873
883.503248	9618.196384
883.813048	8797.312536
884.122806	8043.576857
884.432522	7288.948893
884.742197	6640.384287
885.051831	6081.040541
885.361424	5597.921562
885.670975	5208.724321
885.980485	4890.960229
886.289954	4626.849138
886.599382	4412.406015
886.908768	4238.372781
887.218113	4073.706012
887.527417	3946.137093
887.836680	3823.185871
888.145901	3724.510326
888.455082	3649.044253
888.764221	3579.191504
889.073319	3520.540200
889.382376	3489.842094
889.691392	3465.140440
890.000366	3458.339923
890.309300	3453.137453
890.618193	3458.639872
890.927044	3448.857513
891.235855	3457.840849
891.544625	3471.520020
891.853353	3501.136799
892.162041	3558.739543
892.470687	3650.680107
892.779293	3766.215792
893.087858	3935.492697
893.396381	4210.031414
893.704864	4613.472436
894.013306	5177.554866
894.321707	5739.063787
894.630068	6092.609989
894.938387	6134.842255
895.246665	5956.962621
895.554903	5646.775384
895.863100	5314.283562
896.171256	5045.370771
896.479371	4803.609636
896.787446	4584.710133
897.095480	4390.845000
897.403473	4246.494080
897.711425	4102.687605
898.019336	3979.567505
898.327207	3862.446377
898.635038	3761.162035
898.942827	3655.219666
899.250576	3572.890062
899.558284	3492.889471
899.865952	3434.974175
900.173579	3374.049310
900.481165	3328.976354
900.788711	3284.778037
901.096216	3254.044643
901.403681	3227.298801
901.711105	3218.859910
902.018489	3211.023436
902.325832	3244.108529
902.633135	3301.486942
902.940397	3467.860142
903.247619	3871.507851
903.554800	4609.240387
903.861941	5558.056117
904.169041	6243.527012
904.476101	6456.183046
904.783121	6190.526841
905.090100	5787.317712
905.397039	5380.163881
905.703938	5023.550137
906.010796	4712.528589
906.317614	4462.089107
906.624391	4229.535639
906.931129	4033.646482
907.237826	3856.301211
907.544483	3688.753422
907.851099	3520.000797
908.157675	3366.006149
908.464211	3226.676219
908.770707	3129.104686
909.077163	3051.362532
909.383578	2990.208295
909.689954	2946.907304
909.996289	2916.239444
910.302584	2897.395611
910.608839	2882.660319
910.915054	2870.407794
911.221229	2870.821169
911.527363	2871.993237
911.833458	2877.868702
912.139513	2890.673233
912.445527	2903.709657
912.751502	2936.794749
913.057436	2979.745380
913.363331	3038.008516
913.669186	3119.440794
913.975000	3235.268866
914.280775	3418.212339
914.586510	3683.296372
914.892205	4049.682393
915.197859	4537.784552
915.503475	5117.441627
915.809050	5603.086224
916.114585	5882.131734
916.420081	5949.645387
916.725536	5881.736003
917.030952	5650.004243
917.336328	5448.965548
917.641665	5242.187500
917.946961	5015.501935
918.252218	4818.113035
918.557435	4594.119447
918.862612	4400.559303
919.167750	4232.368767
919.472848	4043.297772
919.777906	3880.302144
920.082925	3724.936303
920.387904	3572.741348
920.692843	3466.859473
920.997743	3369.068650
921.302603	3277.221348
921.607423	3215.293293
921.912204	3150.668222
922.216946	3103.437651
922.521647	3056.983419
922.826310	3012.364166
923.130932	2974.532827
923.435516	2936.189811
923.740059	2912.498908
924.044564	2880.991697
924.349028	2854.828108
924.653454	2827.772236
924.957840	2803.962866
925.262186	2782.729526
925.566493	2759.862852
925.870761	2735.872001
926.174989	2727.420507
926.479178	2713.678321
926.783328	2695.177287
927.087438	2683.970802
927.391509	2671.274656
927.695541	2660.239570
927.999533	2651.679691
928.303486	2645.605100
928.607400	2638.814666
928.911275	2631.502472
929.215110	2625.924436
929.518906	2622.589712
929.822663	2622.093159
930.126381	2621.190792
930.430060	2624.051647
930.733699	2626.045423
931.037299	2629.886782
931.340861	2630.141361
931.644383	2634.784263
931.947866	2632.379633
932.251309	2627.383850
932.554714	2628.336628
932.858080	2627.265383
933.161407	2625.269086
933.464694	2618.705503
933.767943	2615.360698
934.071153	2612.076386
934.374323	2605.779985
934.677455	2604.232351
934.980548	2602.616661
935.283602	2599.198758
935.586617	2595.455702
935.889593	2601.149685
936.192530	2601.772267
936.495428	2608.613113
936.798287	2615.915225
937.101108	2628.719755
937.403890	2651.898981
937.706632	2678.869154
938.009336	2711.344267
938.312002	2740.116652
938.614628	2761.128182
938.917216	2781.486882
939.219765	2789.063736
939.522275	2799.929943
939.824747	2798.044551
940.127179	2792.942904
940.429573	2787.039712
940.731929	2785.550052
941.034246	2778.910852
941.336524	2776.523866
941.638763	2765.932401
941.940964	2764.727566
942.243126	2744.726788
942.545250	2736.590365
942.847335	2722.991853
943.149381	2709.821838
943.451389	2698.151567
943.753359	2686.075483
944.055290	2676.593073
944.357182	2668.746517
944.659036	2662.792914
944.960851	2661.434323
945.262628	2653.973416
945.564367	2652.357726
945.866067	2653.423930
946.167729	2652.796306
946.469352	2651.064670
946.770937	2648.821356
947.072484	2645.032929
947.373992	2643.548309
947.675462	2637.095633
947.976893	2631.447020
948.278286	2629.493572
948.579641	2629.826289
948.880958	2625.899230
949.182236	2622.834208
949.483476	2619.630555
949.784678	2620.618621
950.085841	2619.912860
950.386967	2625.296812
950.688054	2627.971144
950.989103	2636.311733
951.290114	2646.714154
951.591087	2658.860814
951.892021	2668.880107
952.192917	2679.166582
952.493776	2693.312060
952.794596	2695.371371
953.095378	2696.828264
953.396122	2695.459591
953.696828	2690.458767
953.997496	2684.641275
954.298126	2679.131294
954.598718	2670.889007
954.899272	2659.334683
955.199788	2648.914618
955.500266	2638.154275
955.800706	2618.788682
956.101108	2605.452310
956.401472	2594.044179
956.701798	2580.160841
957.002087	2565.024777
957.302337	2558.499003
957.602550	2548.323434
957.902724	2535.914634
958.202861	2525.131606
958.502960	2518.285719
958.803022	2513.783968
959.103045	2506.013030
959.403031	2500.866012
959.702979	2493.805876
960.002889	2490.491317
960.302762	2484.520070
960.602596	2479.075624
960.902393	2477.787609
961.202153	2475.564460
961.501875	2474.969604
961.801559	2470.543471
962.101205	2466.709674
962.400814	2466.107256
962.700385	2464.607513
962.999918	2461.958386
963.299414	2459.188272
963.598873	2462.686833
963.898293	2458.328755
964.197677	2460.322532
964.497022	2455.064608
964.796331	2457.375977
965.095601	2454.600822
965.394835	2453.640482
965.694030	2451.631582
965.993189	2454.741974
966.292309	2452.344906
966.591393	2450.141922
966.890439	2449.781479
967.189447	2450.096551
967.488419	2450.600667
967.787353	2453.431274
968.086249	2450.749381
968.385108	2454.139557
968.683930	2453.557303
968.982714	2455.556121
969.281462	2455.588888
969.580172	2456.324897
969.878844	2455.760287
970.177480	2462.018880
970.476078	2466.167750
970.774639	2469.484829
971.073162	2471.047587
971.371649	2471.995323
971.670098	2472.927937
971.968510	2472.955663
972.266885	2474.800726
972.565223	2475.327526
972.863524	2480.015799
973.161788	2480.653505
973.460014	2478.200984
973.758204	2482.178454
974.056356	2481.331540
974.354471	2483.882364
974.652550	2483.169041
974.950591	2482.581747
975.248595	2482.511170
975.546563	2480.335912
975.844493	2482.780872
976.142386	2475.166209
976.440243	2474.044553
976.738062	2472.527165
977.035845	2469.326033
977.333590	2466.921402
977.631299	2465.991309
977.928971	2462.533078
978.226606	2463.410238
978.524204	2463.342183
978.821765	2462.202882
979.119290	2461.958386
979.416777	2459.853704
979.714228	2460.400670
980.011642	2461.308077
980.309020	2467.710343
980.606360	2470.087247
980.903664	2474.309213
981.200931	2490.992912
981.498162	2508.851199
981.795356	2536.305323
982.092513	2573.090623
982.389633	2616.159721
982.686717	2660.151350
982.983764	2690.161338
983.280775	2710.517518
983.577749	2708.851416
983.874686	2699.376568
984.171587	2683.202026
984.468451	2668.224757
984.765279	2650.706748
985.062070	2634.781743
985.358824	2612.343567
985.655543	2592.398242
985.952224	2573.171281
986.248869	2543.380582
986.545478	2516.533918
986.842050	2501.246619
987.138586	2477.911118
987.435086	2468.481639
987.731549	2454.943621
988.027975	2456.042592
988.324366	2446.078752
988.620719	2443.822835
988.917037	2441.912238
989.213318	2437.065168
989.509563	2433.213727
989.805772	2433.175918
990.101944	2435.419232
990.398080	2432.336566
990.694180	2434.864705
990.990244	2431.983685
991.286271	2430.620053
991.582262	2432.492842
991.878217	2433.349838
992.174136	2430.327666
992.470019	2431.472008
992.765865	2436.132555
993.061676	2437.186156
993.357450	2440.283945
993.653188	2442.045828
993.948890	2448.090172
994.244556	2454.255503
994.540186	2461.802110
994.835780	2470.780405
995.131337	2486.397900
995.426859	2502.040600
995.722345	2522.250586
996.017795	2536.257432
996.313208	2553.707386
996.608586	2560.772563
996.903928	2566.033007
997.199234	2565.377657
997.494504	2561.589230
997.789738	2555.217212
998.084936	2547.040460
998.380099	2531.012112
998.675225	2521.958199
998.970316	2510.718947
999.265371	2496.626401
999.560390	2483.965543
999.855373	2475.080510
1000.150320	2462.810341
1000.445232	2456.675257
1000.740108	2446.771910
1001.034948	2441.556837
1001.329752	2439.237906
1001.624521	2434.806732
1001.919254	2428.021338
1002.213951	2427.144178
1002.508613	2424.605957
1002.803239	2424.674012
1003.097829	2418.072621
1003.392384	2420.895668
1003.686903	2419.340472
1003.981386	2417.515574
1004.275834	2417.533218
1004.570246	2417.659247
1004.864623	2416.635892
1005.158964	2416.262847
1005.453270	2416.320820
1005.747540	2413.008782
1006.041775	2414.296797
1006.335974	2413.817887
1006.630138	2416.678742
1006.924266	2412.587846
1007.218359	2415.163876
1007.512416	2413.694379
1007.806438	2411.531724
1008.100425	2408.877557
1008.394376	2411.345202
1008.688292	2412.600449
1008.982172	2409.714388
1009.276017	2411.662794
1009.569827	2411.226734
1009.863602	2411.481313
1010.157341	2412.081210
1010.451045	2409.487536
1010.744714	2409.419481
1011.038347	2409.376631
1011.331945	2409.795047
1011.625508	2411.133473
1011.919036	2408.736404
1012.212528	2406.155334
1012.505986	2407.735735
1012.799408	2408.403688
1013.092795	2406.006620
1013.386147	2408.829666
1013.679464	2407.629871
1013.972745	2407.594583
1014.265992	2407.587021
1014.559204	2408.577608
1014.852380	2407.246743
1015.145521	2406.883780
1015.438628	2409.182547
1015.731699	2404.040570
1016.024736	2409.921076
1016.317737	2408.428894
1016.610703	2406.818245
1016.903635	2404.474109
1017.196531	2406.288924
1017.489393	2407.153482
1017.782219	2404.852195
1018.075011	2409.888308
1018.367768	2409.046435
1018.660490	2408.476785
1018.953177	2408.476785
1019.245829	2408.476785
