Dividing Wavelength (nm)	Counts (n)	Blue Motor Position (mm): 48.400000	Red Motor Position (mm): 0.000000	
326.493990	1975.847482
326.888308	1975.847482
327.282561	1975.847482
327.676750	1951.758329
328.070874	1953.540377
328.464933	1956.527260
328.858929	1969.432614
329.252859	1982.660602
329.646726	1996.072592
330.040528	2008.856958
330.434265	2029.109793
330.827938	2051.250541
331.221547	2070.863150
331.615091	2089.724627
332.008571	2110.746239
332.401986	2130.878087
332.795338	2152.645789
333.188625	2170.554488
333.581847	2191.165246
333.975006	2210.916486
334.368100	2227.789228
334.761129	2243.585684
335.154095	2259.309043
335.546996	2300.699436
335.939833	2383.613814
336.332606	2402.772719
336.725315	2411.561971
337.117960	2421.157807
337.510540	2426.912285
337.903056	2439.386620
338.295508	2444.407609
338.687896	2454.681481
339.080220	2456.518981
339.472480	2466.240846
339.864676	2468.501804
340.256807	2471.294603
340.648875	2474.223513
341.040879	2474.389872
341.432818	2474.689820
341.824694	2478.629482
342.216506	2478.609317
342.608253	2475.640078
342.999937	2475.173771
343.391557	2474.694861
343.783113	2474.951960
344.174605	2469.983903
344.566033	2470.735035
344.957397	2469.164716
345.348697	2465.973665
345.739934	2464.148768
346.131106	2464.965434
346.522215	2462.646504
346.913260	2459.231122
347.304241	2457.610391
347.695159	2457.600309
348.086012	2456.443364
348.476802	2453.446398
348.867528	2452.334823
349.258191	2451.581171
349.648789	2451.089658
350.039324	2451.308949
350.429796	2451.104782
350.820203	2448.064966
351.210548	2449.957919
351.600828	2449.413475
351.991045	2447.780141
352.381198	2446.187136
352.771288	2448.561520
353.161314	2446.988680
353.551276	2446.562702
353.941175	2445.219235
354.331010	2447.321396
354.720782	2450.666202
355.110490	2450.167127
355.500135	2447.195367
355.889717	2449.330296
356.279235	2449.345419
356.668689	2449.083279
357.058080	2449.093362
357.447408	2446.303083
357.836672	2448.354832
358.225873	2451.021603
358.615010	2449.292487
359.004084	2454.530246
359.393095	2456.881944
359.782043	2454.885647
360.170927	2456.314814
360.559748	2455.109979
360.948505	2458.595937
361.337199	2459.503344
361.725830	2460.556945
362.114398	2461.592903
362.502903	2461.686164
362.891344	2464.267235
363.279722	2459.478138
363.668037	2463.649693
364.056289	2461.676082
364.444478	2464.277317
364.832603	2466.223202
365.220665	2466.336628
365.608665	2470.876187
365.996601	2467.037349
366.384474	2466.886114
366.772284	2472.547330
367.160031	2469.600775
367.547715	2473.875674
367.935336	2470.485498
368.322893	2476.797023
368.710388	2473.825262
369.097820	2478.016982
369.485189	2475.347691
369.872495	2480.018320
370.259738	2480.154431
370.646918	2482.453197
371.034035	2481.134935
371.421090	2482.843887
371.808081	2484.187354
372.195010	2487.146511
372.581875	2485.364463
372.968678	2488.893271
373.355418	2491.996101
373.742096	2495.464415
374.128710	2502.363234
374.515262	2502.723677
374.901751	2508.921775
375.288177	2517.610204
375.674540	2522.686646
376.060841	2533.847761
376.447079	2545.631458
376.833254	2560.586041
377.219367	2571.301013
377.605417	2590.608632
377.991404	2606.460541
378.377329	2632.059520
378.763191	2654.419558
379.148991	2685.621779
379.534727	2719.190823
379.920402	2751.141656
380.306013	2785.424023
380.691563	2828.725014
381.077049	2870.160778
381.462474	2915.523601
381.847835	2968.619553
382.233134	3027.941331
382.618371	3076.303641
383.003545	3140.356542
383.388657	3209.705174
383.773706	3284.359622
384.158693	3345.344980
384.543618	3429.892692
384.928480	3500.912468
385.313280	3589.367073
385.698017	3680.503573
386.082692	3788.028864
386.467305	3849.823328
386.851856	3961.542859
387.236344	4104.053758
387.620770	4167.547090
388.005133	4282.107312
388.389435	4418.220986
388.773674	4505.589223
389.157851	4635.038492
389.541965	4758.256895
389.926018	4803.884379
390.310008	4976.422910
390.693936	5099.109471
391.077802	5220.560950
391.461606	5352.001475
391.845348	5470.866841
392.229027	5604.490186
392.612645	5817.209234
392.996200	5943.192710
393.379694	6119.864987
393.763125	6345.199523
394.146494	6451.356141
394.529801	6600.758297
394.913047	6847.379105
395.296230	6867.387444
395.679351	6939.672549
396.062410	7202.548558
396.445408	7131.128011
396.828343	7301.786192
397.211217	7453.620704
397.594028	7364.112497
397.976778	7578.406906
398.359466	7752.422496
398.742092	7749.627176
399.124656	7915.559275
399.507158	8108.993390
399.889598	8144.788103
400.271977	8364.284982
400.654294	8411.402127
401.036549	8618.160010
401.418742	8653.059918
401.800874	8961.933935
402.182944	9060.773318
402.564952	9420.086600
402.946898	9257.093493
403.328783	9316.460641
403.710606	9520.849183
404.092367	9781.323081
404.474067	10146.224482
404.855705	9943.905334
405.237282	9903.939066
405.618797	10331.343213
406.000250	10578.642056
406.381642	10943.646800
406.762972	10892.675694
407.144240	10708.744154
407.525447	10958.424943
407.906593	10895.526466
408.287677	11154.122535
408.668700	11306.141050
409.049661	11285.429469
409.430560	11439.242635
409.811399	11416.023080
410.192176	11577.965106
410.572891	11658.999134
410.953545	12126.283848
411.334138	11614.395005
411.714669	12197.565764
412.095139	11533.822243
412.475547	12018.423321
412.855894	11876.358564
413.236180	12186.931450
413.616405	11878.692618
413.996568	12150.120944
414.376670	12130.296607
414.756711	12010.866631
415.136691	12278.929987
415.516609	12453.444651
415.896466	12520.040814
416.276262	12805.561685
416.655997	13256.064399
417.035670	13288.383236
417.415283	13929.862501
417.794834	14018.559083
418.174324	13764.537861
418.553753	13663.142613
418.933121	14150.113033
419.312428	13971.540241
419.691674	13871.710271
420.070859	14324.463860
420.449983	13981.378052
420.829045	14524.491803
421.208047	14274.344708
421.586988	14729.976796
421.965867	14970.366737
422.344686	14974.709691
422.723444	15524.563465
423.102141	14230.385847
423.480777	15405.612399
423.859352	14911.289455
424.237866	16009.371230
424.616319	15709.190683
424.994712	16359.197060
425.373044	16164.560631
425.751314	16828.785582
426.129524	15958.569002
426.507673	17029.700769
426.885762	16740.131851
427.263789	16919.060045
427.641756	17098.124350
428.019662	17150.232237
428.397508	17200.328703
428.775292	17484.251529
429.153016	17447.809028
429.530679	17519.789143
429.908282	17546.877783
430.285824	17278.116227
430.663305	17971.726064
431.040726	17567.967450
431.418086	17399.870175
431.795385	18049.604330
432.172624	18460.228996
432.549802	18019.238939
432.926920	18210.759936
433.303977	18093.419518
433.680974	18339.548814
434.057910	18629.755438
434.434786	18658.033790
434.811601	18564.802691
435.188355	19595.448951
435.565050	19251.228884
435.941683	19191.234112
436.318257	20064.611495
436.694770	19878.426560
437.071222	20466.908175
437.447614	19551.048988
437.823946	19576.375745
438.200218	19725.707325
438.576429	19506.550723
438.952580	19779.872002
439.328670	19741.302134
439.704700	20150.847993
440.080670	19724.036183
440.456580	20306.899431
440.832429	20480.819239
441.208218	19497.111163
441.583947	19921.838457
441.959616	20033.182422
442.335224	20264.722618
442.710773	20391.336238
443.086261	20924.261817
443.461689	20292.171700
443.837057	20424.938049
444.212365	21053.035571
444.587612	21051.029192
444.962800	20641.223713
445.337927	21050.648585
445.712995	19797.644590
446.088002	21627.946400
446.462949	21813.334832
446.837837	21972.418524
447.212664	21932.825302
447.587431	24692.975500
447.962139	27583.184946
448.336786	29971.650871
448.711374	28465.036509
449.085901	24837.263405
449.460369	24750.631176
449.834776	24664.946684
450.209124	27103.398170
450.583412	26673.198704
450.957640	27202.020783
451.331808	25865.434458
451.705917	24524.336301
452.079965	24537.586974
452.453954	24890.185438
452.827883	24793.833865
453.201752	24595.845068
453.575562	24746.003397
453.949311	25849.471645
454.323001	25903.285962
454.696632	25668.426166
455.070202	27198.355865
455.443713	27349.146858
455.817164	27912.452951
456.190556	28448.277193
456.563888	27903.648576
456.937160	28335.168824
457.310373	26691.704780
457.683526	27121.324513
458.056619	27105.233150
458.429653	27050.710551
458.802628	27602.033821
459.175542	27721.741060
459.548398	29011.464819
459.921194	30556.107125
460.293930	31224.249052
460.666607	33221.408013
461.039224	34985.227085
461.411782	35387.329681
461.784280	34209.300247
462.156719	33718.664908
462.529099	33148.321364
462.901419	31872.254091
463.273680	30816.207978
463.645882	30892.233619
464.018024	30864.270339
464.390106	31668.823369
464.762130	34334.976212
465.134094	38333.195986
465.505999	43603.366931
465.877845	48188.371971
466.249631	49382.301204
466.621358	47664.275973
466.993026	45549.985803
467.364634	43484.700690
467.736184	41521.062882
468.107674	40272.757243
468.479105	39504.261066
468.850477	38808.869181
469.221790	37395.251504
469.593043	35673.755439
469.964238	34791.460255
470.335373	34690.531314
470.706449	36363.349997
471.077467	38859.983960
471.448425	43400.107608
471.819324	46286.422763
472.190164	44503.437224
472.560945	40962.737450
472.931667	37873.525934
473.302330	36780.760056
473.672934	35956.619623
474.043479	36452.747299
474.413965	35661.157596
474.784393	35292.828211
475.154761	36171.415626
475.525070	36207.573302
475.895321	35753.720742
476.265513	36342.456935
476.635645	37302.632905
477.005719	37125.005329
477.375734	37582.739578
477.745691	38267.862632
478.115588	39576.347045
478.485427	41516.931657
478.855207	44818.227035
479.224928	47436.441025
479.594591	49095.106670
479.964194	48095.541644
480.333739	48231.398219
480.703226	48259.386706
481.072653	48886.985154
481.442022	49375.230986
481.811333	49656.242545
482.180584	48378.723420
482.549777	47854.304788
482.918912	47331.199377
483.287988	47026.544806
483.657005	46211.405353
484.025964	45576.547643
484.394864	45580.086533
484.763706	45144.228372
485.132489	44295.262776
485.501213	44121.748781
485.869879	44272.123880
486.238487	43861.229512
486.607036	44055.455087
486.975527	43526.234757
487.343959	43743.944547
487.712333	43812.567254
488.080648	43718.917739
488.448905	44156.260520
488.817104	43968.376716
489.185244	44919.264361
489.553326	46545.890952
489.921350	49260.675806
490.289315	52175.314684
490.657222	52818.306295
491.025070	53111.618270
491.392861	52216.115263
491.760593	50962.740744
492.128267	49269.603689
492.495883	47752.133203
492.863440	46362.488733
493.230939	45033.015477
493.598380	43938.371769
493.965763	43593.367802
494.333088	42793.175370
494.700354	42330.384844
495.067563	42035.742005
495.434713	41911.449836
495.801805	41982.719148
496.168839	41604.143618
496.535815	41283.480863
496.902733	41313.538743
497.269593	40907.453636
497.636395	40849.324091
498.003139	41244.815213
498.369825	40709.167411
498.736453	40986.955153
499.103023	40532.545545
499.469535	40419.278380
499.835989	40505.124189
500.202385	40188.567453
500.568723	40188.698523
500.935003	40391.824256
501.301226	40189.477382
501.667390	40814.429224
502.033497	41064.558675
502.399546	40495.704793
502.765537	39824.913738
503.131470	40211.923119
503.497345	40545.554242
503.863163	39228.083973
504.228923	39842.467036
504.594625	40240.362789
504.960269	39543.236747
505.325856	40221.841589
505.691385	39600.665571
506.056856	39726.260878
506.422270	40166.666161
506.787625	39727.788348
507.152924	39937.018918
507.518164	40037.758816
507.883347	39272.809090
508.248472	39513.723312
508.613540	39981.146658
508.978550	40267.103589
509.343503	40036.891737
509.708398	40219.744469
510.073236	40755.568712
510.438016	40749.579821
510.802738	40209.515968
511.167403	40835.155928
511.532010	41051.444113
511.896561	41355.208921
512.261053	42198.203270
512.625488	41746.752819
512.989866	41615.652572
513.354186	41456.616771
513.718449	41458.736577
514.082655	42137.401913
514.446803	41811.158601
514.810894	42324.373268
515.174927	42253.834923
515.538904	42161.659945
515.902822	42824.168384
516.266684	42265.169957
516.630488	42689.514123
516.994235	42543.797051
517.357925	43107.125829
517.721558	43278.320893
518.085133	43571.174123
518.448651	43718.272471
518.812112	43496.461702
519.175516	43603.992034
519.538863	43931.326756
519.902152	43885.124581
520.265385	44348.290673
520.628560	44394.208023
520.991678	44185.635324
521.354739	44427.202375
521.717743	44738.516310
522.080690	44643.344367
522.443580	45192.504981
522.806413	45231.636938
523.169189	45166.457339
523.531908	45366.573503
523.894569	45218.298045
524.257174	45380.484567
524.619722	45686.137287
524.982213	45675.855853
525.344647	45589.339571
525.707025	45641.628939
526.069345	46036.033693
526.431608	45943.263859
526.793815	46281.668955
527.155964	45810.326112
527.518057	45985.808677
527.880093	45756.143790
528.242072	46294.365101
528.603995	45980.039076
528.965860	45992.016858
529.327669	46096.136849
529.689421	45985.962432
530.051117	45945.582790
530.412755	46083.486074
530.774337	46159.577250
531.135862	45970.012221
531.497331	46164.227714
531.858743	46076.352841
532.220098	46417.855726
532.581396	46124.263967
532.942638	45804.072560
533.303824	46086.490602
533.664953	46062.686273
534.026025	45771.970493
534.387040	46258.711540
534.747999	46203.737758
535.108902	46365.563837
535.469748	45885.209931
535.830537	46005.968251
536.191270	46193.007662
536.551947	45858.209511
536.912567	46162.271747
537.273131	46270.109589
537.633638	45768.958403
537.994089	46122.126518
538.354483	45724.200519
538.714821	46276.776515
539.075103	46630.209291
539.435328	46400.244455
539.795497	46277.358768
540.155609	46276.942873
540.515665	46724.471306
540.875665	46192.821139
541.235609	46520.690223
541.595496	46484.968607
541.955328	47148.661717
542.315102	46510.461722
542.674821	46315.288410
543.034483	46346.208327
543.394090	46309.972513
543.753640	46270.583458
544.113134	47270.700490
544.472571	46302.221739
544.831953	47533.011889
545.191278	46746.612054
545.550548	46467.775752
545.909761	46912.521468
546.268918	47110.038917
546.628019	47426.386444
546.987064	46986.119793
547.346053	46269.575227
547.704986	47140.532856
548.063863	46708.505972
548.422684	46895.621000
548.781449	46739.882113
549.140158	47156.810742
549.498811	46989.832603
549.857408	46434.978005
550.215949	47263.842000
550.574434	47188.859878
550.932864	46957.932182
551.291237	47668.044236
551.649555	47288.079868
552.007817	47535.640851
552.366022	47156.432656
552.724173	47351.701750
553.082267	47744.148015
553.440305	48044.200012
553.798288	47365.007875
554.156215	47663.469389
554.514086	47875.197850
554.871902	47616.548849
555.229661	47635.916962
555.587365	47457.341649
555.945014	47555.606341
556.302606	47473.584247
556.660143	47706.465390
557.017625	47797.644740
557.375050	47580.948221
557.732421	47909.472655
558.089735	47903.708096
558.446994	47840.386162
558.804197	48293.417015
559.161345	48217.882886
559.518437	47492.806167
559.875474	47786.344993
560.232455	47948.274417
560.589381	48119.802197
560.946251	47830.195470
561.303065	48494.790946
561.659825	48308.739602
562.016528	47981.823295
562.373177	47691.052062
562.729770	48174.145835
563.086307	47690.442082
563.442789	48153.227567
563.799216	48197.025112
564.155587	47994.766458
564.511904	48013.849746
564.868164	48105.228221
565.224370	48357.749699
565.580520	48071.923838
565.936615	48298.410277
566.292654	48025.736787
566.648638	48239.310310
567.004567	48216.368019
567.360441	48248.946476
567.716260	48091.884287
568.072023	48395.603724
568.427732	48384.175428
568.783385	47933.047611
569.138982	48325.952622
569.494525	48294.188311
569.850013	48045.674550
570.205445	48026.893731
570.560823	47998.383486
570.916145	47858.015078
571.271412	47888.514058
571.626625	47641.779824
571.981782	47692.773616
572.336884	47386.896565
572.691931	47714.644662
573.046923	47317.011050
573.401860	47170.757094
573.756743	47152.603899
574.111570	47266.218904
574.466342	47123.390413
574.821059	47230.048625
575.175722	46764.427491
575.530330	46778.517516
575.884882	46492.225348
576.239380	46468.937738
576.593823	46446.555015
576.948211	46356.462034
577.302544	45883.561474
577.656823	45906.221461
578.011047	46126.066180
578.365216	45858.267485
578.719330	45670.033321
579.073389	45508.623136
579.427394	45599.774759
579.781344	45569.230408
580.135239	45219.293673
580.489080	45301.603112
580.842866	44780.186488
581.196597	45238.739924
581.550273	45172.521847
581.903895	45042.913782
582.257463	45456.941227
582.610975	44853.845307
582.964434	45118.815915
583.317837	44770.106701
583.671186	44611.645591
584.024481	44832.985013
584.377721	44364.409762
584.730906	44655.911963
585.084037	44692.084763
585.437113	44385.239810
585.790135	44437.347697
586.143103	44030.796283
586.496016	44158.914688
586.848874	44178.184498
587.201679	44200.108476
587.554428	43682.545814
587.907124	43881.789858
588.259765	43628.613029
588.612352	43875.851379
588.964884	43283.873724
589.317362	43546.361563
589.669786	43493.847864
590.022155	43260.727266
590.374470	43694.488307
590.726731	43235.357659
591.078937	42727.930236
591.431090	42818.539936
591.783188	42494.197138
592.135232	42160.344204
592.487222	42416.142433
592.839157	42504.876823
593.191038	42164.835872
593.542866	41943.448560
593.894639	41337.441374
594.246358	41618.286575
594.598022	41593.317740
594.949633	41200.130425
595.301190	41163.481237
595.652692	40990.398261
596.004141	41330.671104
596.355535	40333.679588
596.706876	40300.521398
597.058162	40120.602617
597.409395	40599.905443
597.760573	40670.423623
598.111698	40245.111556
598.462768	40255.055232
598.813785	40303.906533
599.164748	39749.440104
599.515657	40126.178133
599.866511	39616.756934
600.217312	40234.454556
600.568060	39196.551556
600.918753	39939.670565
601.269392	39890.756249
601.619978	39553.528262
601.970510	39768.299060
602.320988	39938.080081
602.671412	40244.806566
603.021783	39974.729269
603.372100	39639.512703
603.722363	39739.078012
604.072572	39807.892283
604.422728	39825.422895
604.772830	39639.222837
605.122878	39734.593906
605.472872	39674.820944
605.822813	39938.367426
606.172701	39771.870718
606.522534	40026.771621
606.872314	40282.383327
607.222041	40037.317715
607.571714	40416.049521
607.921333	39869.129699
608.270899	40167.694556
608.620411	40487.485191
608.969870	40299.314042
609.319276	40292.584101
609.668627	40335.650679
610.017926	40812.483339
610.367171	40984.449699
610.716362	41052.878322
611.065500	41009.055571
611.414585	41194.938037
611.763616	41480.141316
612.112594	41406.769842
612.461518	41636.195274
612.810389	41915.883531
613.159207	41786.146916
613.507971	41856.415559
613.856682	42338.259126
614.205340	42212.285733
614.553945	42907.107967
614.902496	42363.104453
615.250994	42834.079292
615.599439	42911.314810
615.947830	43102.467803
616.296169	43147.278619
616.644454	43277.859627
616.992686	43438.916931
617.340864	43960.026045
617.688990	43676.935010
618.037063	44271.818890
618.385082	44246.930713
618.733048	44564.518364
619.080961	44566.920474
619.428821	44566.164301
619.776628	44677.803174
620.124382	44515.142783
620.472083	44648.415767
620.819731	44780.741015
621.167326	44445.269870
621.514868	44424.777580
621.862357	43985.927493
622.209793	44022.546435
622.557176	43701.185480
622.904506	43449.954537
623.251783	43103.370169
623.599007	42877.909604
623.946179	42659.506655
624.293297	42613.420427
624.640363	42016.003367
624.987376	42001.595749
625.334336	41760.679007
625.681243	41403.724985
626.028097	41361.122194
626.374899	41219.032232
626.721647	41182.957735
627.068343	41076.342372
627.414987	40829.262819
627.761577	40612.583945
628.108115	40945.617691
628.454600	40403.393704
628.801032	40578.876269
629.147412	40535.139219
629.493739	40538.816740
629.840014	40180.005054
630.186236	40521.076920
630.532405	40134.518722
630.878521	40339.360968
631.224585	40221.329912
631.570597	39929.699162
631.916556	40098.260223
632.262462	40042.439527
632.608316	40058.183050
632.954117	39963.071601
633.299866	39954.113470
633.645562	39871.932580
633.991206	39363.118840
634.336797	38944.546795
634.682336	38963.884662
635.027823	38701.021256
635.373257	38521.525932
635.718639	38260.646221
636.063968	38141.362438
636.409245	37568.087464
636.754470	37598.898996
637.099642	37362.801597
637.444762	36883.647486
637.789829	37016.302929
638.134845	36663.835534
638.479808	36627.052755
638.824719	36520.901178
639.169577	36133.370038
639.514383	36196.475202
639.859137	35889.002626
640.203839	36130.806612
640.548489	35755.270897
640.893086	35829.295200
641.237632	35575.457980
641.582125	35664.010889
641.926566	35619.547912
642.270955	35587.289568
642.615292	35600.333554
642.959576	35570.530253
643.303809	35558.885187
643.647990	35711.493517
643.992118	35666.652453
644.336195	35669.505747
644.680219	35749.271924
645.024192	36047.035237
645.368112	36567.299958
645.711981	36564.658394
646.055797	37431.192411
646.399562	37348.424226
646.743274	38305.893097
647.086935	38746.668904
647.430544	38627.397725
647.774101	38759.206254
648.117606	39007.543574
648.461059	39316.946912
648.804460	38939.167884
649.147810	38328.815223
649.491108	38085.882020
649.834354	37716.113385
650.177548	36896.570484
650.520690	36453.740406
650.863781	36458.080840
651.206820	36296.113608
651.549807	35868.785079
651.892742	35368.889140
652.235626	35183.210841
652.578458	35055.616716
652.921238	34432.265440
653.263967	34764.205257
653.606644	34442.294816
653.949269	34389.554264
654.291843	33980.598220
654.634365	34385.602000
654.976836	33980.802387
655.319255	33983.307841
655.661622	33976.323322
656.003938	33757.164200
656.346203	33609.939822
656.688416	33824.829087
657.030577	33622.615803
657.372687	33468.512772
657.714746	33724.711772
658.056753	33854.254302
658.398708	33317.058866
658.740612	33359.966647
659.082465	33630.979078
659.424266	33444.325315
659.766016	33556.286822
660.107715	33447.249185
660.449362	33570.749892
660.790958	33550.492015
661.132503	33582.412602
661.473996	33610.620378
661.815438	33702.593709
662.156829	33904.169287
662.498168	33685.499157
662.839456	33699.823595
663.180693	33854.546689
663.521879	34014.865464
663.863013	33970.299143
664.204097	33961.736743
664.545129	34424.330664
664.886110	34383.656114
665.227040	34435.572437
665.567918	34567.214608
665.908746	34631.353209
666.249522	34790.714164
666.590248	34791.303979
666.930922	34900.651647
667.271545	34870.450094
667.612118	34948.313236
667.952639	34749.623719
668.293109	34799.631965
668.633528	34683.456054
668.973896	34619.120849
669.314213	34639.139271
669.654480	34386.698451
669.994695	34409.633180
670.334859	34297.069256
670.674973	34192.969429
671.015035	34358.964543
671.355047	34317.410312
671.695008	34236.119185
672.034918	34145.658200
672.374777	34213.436514
672.714585	34054.372986
673.054342	34293.111950
673.394049	34043.284968
673.733705	34328.173175
674.073310	33976.852643
674.412864	34062.950510
674.752368	33668.449974
675.091820	33952.702996
675.431223	33548.294072
675.770574	33272.613533
676.109875	33143.383554
676.449125	32854.149873
676.788324	32778.507359
677.127473	32225.006311
677.466571	32164.832578
677.805619	31811.795533
678.144616	31795.658800
678.483562	31707.940202
678.822458	31383.173948
679.161303	31308.360704
679.500098	31222.325852
679.838842	31097.128797
680.177535	31260.474784
680.516179	31524.457326
680.854771	31745.973187
681.193314	32599.821141
681.531805	33714.463106
681.870247	34480.055579
682.208638	35203.443512
682.546978	35462.110157
682.885268	35572.776087
683.223508	35039.689191
683.561697	34722.492229
683.899836	34525.584760
684.237925	34014.860422
684.575963	33860.583471
684.913951	33390.999990
685.251889	33542.073288
685.589776	33530.400497
685.927614	33498.137112
686.265401	33648.176974
686.603137	33736.434975
686.940824	34230.876385
687.278460	34604.778766
687.616046	34746.934263
687.953582	35357.579311
688.291068	35229.602059
688.628504	35509.607908
688.965889	35468.714068
689.303224	35101.551710
689.640510	34745.424438
689.977745	34030.913977
690.314930	33246.631426
690.652065	32726.759915
690.989150	31997.614985
691.326185	31090.754258
691.663170	30393.108977
692.000105	29642.128288
692.336990	28951.268401
692.673825	28480.923706
693.010610	27962.466238
693.347345	27373.966979
693.684030	26705.167181
694.020665	26429.068226
694.357251	25746.743012
694.693786	25692.354003
695.030272	25452.579082
695.366707	24906.606997
695.703093	24601.866726
696.039429	24585.714869
696.375716	24324.245343
696.711952	24284.851246
697.048139	24126.322081
697.384276	23938.224028
697.720363	24072.328803
698.056400	23856.065823
698.392388	23654.056707
698.728326	23613.780408
699.064214	23415.312702
699.400053	23358.294731
699.735842	22999.805678
700.071581	22711.996123
700.407270	22419.241195
700.742910	22229.920663
701.078501	21952.934465
701.414042	21680.051766
701.749533	21371.533150
702.084974	21026.067918
702.420366	21225.377497
702.755709	20784.513470
703.091002	20480.146245
703.426246	20502.939822
703.761440	20399.344111
704.096584	20120.018817
704.431679	20070.398740
704.766725	19974.594132
705.101721	19916.512478
705.436668	20003.651342
705.771565	19680.808288
706.106413	20010.628299
706.441212	19982.599484
706.775961	20125.634663
707.110661	20186.027686
707.445311	20543.054804
707.779913	20379.512211
708.114465	20610.843200
708.448967	20898.980430
708.783421	21585.323444
709.117825	21850.372190
709.452180	22069.369995
709.786485	22471.212971
710.120742	23265.527418
710.454949	23287.821921
710.789107	23741.556014
711.123216	24453.210661
711.457275	24573.737088
711.791286	25127.979186
712.125247	25202.399219
712.459159	24909.727471
712.793023	25597.907986
713.126837	24481.690660
713.460602	24773.427274
713.794318	24397.742845
714.127985	24020.225957
714.461602	23133.645792
714.795171	23099.307973
715.128691	22071.305798
715.462162	21535.166484
715.795584	21104.704877
716.128957	20834.804021
716.462281	20425.726989
716.795556	20186.665392
717.128782	19680.369708
717.461960	19133.560791
717.795088	19048.241783
718.128167	18653.935332
718.461198	18191.011216
718.794180	18042.524029
719.127113	17674.441660
719.459997	17467.005741
719.792833	17117.557998
720.125619	17076.704487
720.458357	16761.473575
720.791046	16584.748366
721.123686	16424.338850
721.456278	16179.868094
721.788821	16140.650438
722.121315	15866.325969
722.453761	15954.379803
722.786158	15865.433685
723.118506	15874.275869
723.450805	15732.390073
723.783056	15893.696914
724.115259	15784.422343
724.447412	15711.643205
724.779518	15955.723271
725.111574	15971.817155
725.443582	16172.450037
725.775542	16149.265770
726.107453	16616.129548
726.439315	16497.264182
726.771129	16895.754790
727.102895	17259.443793
727.434612	17470.721072
727.766281	17602.713603
728.097901	17868.344602
728.429473	17915.786901
728.760996	17893.603303
729.092471	17986.148806
729.423897	17867.737143
729.755276	17718.423207
730.086606	17837.139860
730.417887	18361.545888
730.749120	18870.089927
731.080305	19049.050888
731.411442	19381.320900
731.742530	19456.406366
732.073570	19562.010977
732.404562	19859.590289
732.735506	19681.355253
733.066401	19409.861393
733.397249	18893.440551
733.728048	18268.241692
734.058798	17425.771623
734.389501	16744.936070
734.720156	16269.835047
735.050762	15732.203551
735.381320	15365.240318
735.711831	15125.505726
736.042293	14767.611530
736.372707	14769.706129
736.703073	14559.162339
737.033391	14729.621394
737.363661	14686.522049
737.693883	14784.007883
738.024056	14946.718685
738.354182	15126.619821
738.684260	15413.262350
739.014290	15639.524458
739.344272	15819.158413
739.674207	16107.550222
740.004093	16230.143522
740.333931	16221.750001
740.663722	16265.366064
740.993464	16268.244562
741.323159	16107.709018
741.652806	15822.190667
741.982405	15625.905781
742.311956	15288.738288
742.641460	15167.871583
742.970915	14858.682494
743.300323	14530.170663
743.629683	14317.534794
743.958996	14031.759344
744.288260	13768.611113
744.617477	13464.039721
744.946647	13392.329308
745.275768	13116.023665
745.604842	12932.873505
745.933869	12750.356009
746.262847	12695.808204
746.591778	12628.907052
746.920662	12520.789425
747.249498	12518.205834
747.578286	12634.190181
747.907027	12777.487499
748.235720	12985.114982
748.564365	13017.771577
748.892963	12919.910178
749.221514	12978.964775
749.550017	12834.475223
749.878473	12799.048514
750.206881	12567.092423
750.535242	12489.161226
750.863555	12388.600289
751.191821	12282.068105
751.520039	12312.350316
751.848210	12214.572096
752.176334	12245.376067
752.504411	12154.191676
752.832440	11991.523724
753.160421	12047.225953
753.488356	11931.226483
753.816243	11833.765855
754.144082	11696.805267
754.471875	11635.121709
754.799620	11583.059192
755.127318	11555.552136
755.454969	11517.309943
755.782572	11470.490227
756.110129	11482.220992
756.437638	11396.521377
756.765100	11388.485777
757.092515	11382.209541
757.419882	11399.702345
757.747203	11400.100596
758.074477	11465.481841
758.401703	11430.899525
758.728882	11586.388874
759.056014	11631.567695
759.383099	11748.119172
759.710138	11851.170439
760.037129	11923.279104
760.364073	11944.814913
760.690970	11933.212697
761.017820	11929.149527
761.344623	12119.074998
761.671379	12436.181219
761.998088	13072.881471
762.324751	14597.195324
762.651366	17452.696426
762.977935	21097.959813
763.304456	23349.639070
763.630931	23884.576069
763.957359	22739.777922
764.283740	20849.849345
764.610074	18984.798862
764.936362	16834.328331
765.262602	15314.286856
765.588796	13838.116022
765.914943	12796.170016
766.241044	11931.019795
766.567097	11289.598503
766.893104	10733.574358
767.219064	10367.989881
767.544978	9976.181322
767.870845	9659.286829
768.196665	9477.578439
768.522438	9277.898335
768.848165	9106.685627
769.173846	8935.329246
769.499479	8812.975401
769.825066	8655.618304
770.150607	8471.149882
770.476101	8406.907938
770.801548	8297.368706
771.126949	8155.719845
771.452303	8072.008964
771.777611	7903.584014
772.102872	7876.974284
772.428087	7758.555059
772.753256	7635.334136
773.078378	7544.749643
773.403453	7400.572642
773.728482	7294.456354
774.053465	7232.666931
774.378401	7145.502861
774.703291	7049.211781
775.028135	6946.707479
775.352932	6909.786069
775.677683	6829.813204
776.002388	6737.885243
776.327046	6740.388176
776.651658	6651.658827
776.976224	6570.952475
777.300743	6555.874383
777.625216	6488.688406
777.949643	6444.308608
778.274024	6448.880934
778.598359	6380.633793
778.922647	6378.259410
779.246889	6340.289439
779.571086	6348.819072
779.895236	6357.893148
780.219339	6348.655234
780.543397	6345.542322
780.867409	6396.513428
781.191374	6394.058386
781.515294	6365.734663
781.839167	6419.901861
782.162995	6387.383898
782.486776	6339.021589
782.810511	6296.549868
783.134201	6224.552109
783.457844	6209.279933
783.781441	6165.623541
784.104993	6122.738445
784.428498	6088.410708
784.751958	6071.328758
785.075372	6050.997785
785.398739	6011.288616
785.722061	6028.723446
786.045337	6036.736360
786.368568	6136.914170
786.691752	6158.570967
787.014891	6405.824439
787.337983	6683.246697
787.661030	7116.082687
787.984031	7540.346195
788.306987	7807.771844
788.629897	7902.550578
788.952760	7822.789442
789.275579	7647.581619
789.598351	7348.157245
789.921078	7091.174346
790.243759	6806.830584
790.566395	6607.352126
790.888984	6409.723772
791.211529	6270.295539
791.534027	6102.344457
791.856480	5967.012162
792.178888	5902.319034
792.501249	5836.937789
792.823566	5730.680349
793.145836	5724.336057
793.468062	5703.959713
793.790241	5662.050080
794.112375	5701.136667
794.434464	5799.088806
794.756507	5827.725081
795.078505	5941.468635
795.400457	6152.571993
795.722364	6393.632409
796.044226	6590.318067
796.366042	6754.226143
796.687812	6701.379727
797.009538	6728.944757
797.331218	6641.062322
797.652852	6572.003555
797.974442	6459.545495
798.295986	6385.039762
798.617484	6261.218941
798.938938	6146.898175
799.260346	6081.484163
799.581709	5941.176248
799.903026	5894.301079
800.224299	5816.044727
800.545526	5697.781779
800.866708	5635.677284
801.187845	5584.282720
801.508936	5504.932438
801.829983	5475.950845
802.150984	5364.478330
802.471940	5343.171894
802.792851	5323.622299
803.113717	5301.905008
803.434538	5275.292757
803.755314	5240.667592
804.076045	5233.115943
804.396731	5194.843503
804.717372	5207.622828
805.037967	5208.888158
805.358518	5235.417230
805.679024	5287.714160
805.999485	5300.390142
806.319901	5320.456454
806.640272	5333.127395
806.960598	5381.910640
807.280879	5371.598960
807.601115	5411.343417
807.921306	5380.436103
808.241453	5367.301377
808.561554	5384.663110
808.881611	5350.153892
809.201623	5350.000137
809.521590	5302.099093
809.841513	5285.503614
810.161390	5302.585564
810.481223	5213.344538
810.801011	5204.323393
811.120755	5180.912275
811.440453	5124.416064
811.760107	5093.213842
812.079716	5069.711983
812.399281	5016.580742
812.718801	5019.000496
813.038276	4977.453826
813.357707	4948.547850
813.677093	4970.207168
813.996434	4901.539090
814.315731	4925.877781
814.634983	4919.881329
814.954191	4929.031023
815.273354	4985.708716
815.592473	5026.859654
815.911547	5102.620635
816.230577	5162.549872
816.549562	5244.619857
816.868502	5303.704700
817.187399	5359.278380
817.506250	5434.373928
817.825058	5467.239731
818.143821	5619.535509
818.462539	5790.730573
818.781213	6018.469739
819.099843	6380.979112
819.418429	7014.276585
819.736970	7630.035883
820.055466	8346.865275
820.373919	9274.062017
820.692327	10741.050389
821.010691	13454.204430
821.329011	19704.579849
821.647286	29319.819597
821.965517	39717.932892
822.283704	45272.573628
822.601847	46871.625107
822.919945	42343.945548
823.237999	37252.929649
823.556010	32043.471841
823.873976	27292.481769
824.191897	23029.056973
824.509775	19911.418392
824.827609	17080.255980
825.145398	15479.349356
825.463144	14698.822465
825.780845	14978.674559
826.098502	16214.964608
826.416116	18650.124220
826.733685	20909.960063
827.051210	21425.667581
827.368692	20010.308186
827.686129	17461.944423
828.003522	14976.345546
828.320872	12750.023293
828.638177	11082.976731
828.955439	9817.185850
829.272656	8747.664732
829.589830	7895.167808
829.906960	7149.288767
830.224046	6615.344875
830.541088	6195.565474
830.858086	5926.693013
831.175041	5718.942022
831.491952	5655.819214
831.808819	5687.265932
832.125642	5933.271719
832.442421	6484.897458
832.759157	7590.893844
833.075849	9351.022792
833.392497	11208.582120
833.709101	12334.760766
834.025662	12105.136208
834.342179	11058.975797
834.658653	9756.984391
834.975083	8641.185481
835.291469	7739.870023
835.607811	6987.732389
835.924110	6457.513910
836.240366	5958.996727
836.556578	5508.105845
836.872746	5148.724508
837.188871	4870.770408
837.504952	4641.982682
837.820990	4473.736693
838.136984	4357.558261
838.452935	4303.728820
838.768842	4335.117565
839.084706	4614.158033
839.400526	5353.418039
839.716303	6262.638026
840.032037	6834.009965
840.347727	6702.670263
840.663373	6101.918480
840.978977	5519.211507
841.294537	5073.129885
841.610054	4735.632197
841.925527	4493.752594
842.240957	4288.247437
842.556344	4096.320628
842.871687	3932.281482
843.186987	3782.443266
843.502244	3658.680418
843.817458	3570.825710
844.132629	3499.112776
844.447756	3450.727781
844.762840	3402.771284
845.077881	3363.742671
845.392879	3331.877538
845.707833	3303.763023
846.022745	3278.857202
846.337613	3261.747526
846.652438	3237.771798
846.967221	3230.986405
847.281960	3211.590566
847.596656	3202.365254
847.911309	3190.586598
848.225919	3176.010102
848.540485	3167.430058
848.855009	3156.042092
849.169490	3143.648415
849.483928	3136.603402
849.798323	3134.546612
850.112675	3123.584623
850.426984	3124.232411
850.741251	3115.372583
851.055474	3114.195474
851.369654	3113.325875
851.683792	3109.204731
851.997887	3110.386882
852.311938	3109.595421
852.625947	3111.884105
852.939914	3106.139710
853.253837	3110.424691
853.567718	3110.656584
853.881555	3101.312805
854.195350	3106.870677
854.509103	3104.047631
854.822812	3101.685850
855.136479	3098.162084
855.450103	3101.383381
855.763685	3095.734768
856.077224	3097.050509
856.390720	3104.322374
856.704173	3116.476596
857.017584	3121.563120
857.330953	3126.916825
857.644278	3136.205151
857.957561	3135.660707
858.270802	3133.407311
858.584000	3135.232209
858.897155	3131.350520
859.210268	3121.699231
859.523339	3106.724484
859.836367	3103.281376
860.149352	3099.540839
860.462295	3094.348451
860.775195	3088.288984
861.088054	3082.479054
861.400869	3082.221955
861.713642	3078.103333
862.026373	3088.228490
862.339062	3092.241249
862.651708	3099.122424
862.964312	3115.914507
863.276873	3124.552524
863.589392	3156.455466
863.901869	3183.062676
864.214303	3202.287117
864.526696	3222.560117
864.839045	3239.246336
865.151353	3254.223604
865.463619	3251.181268
865.775842	3254.135384
866.088023	3260.968668
866.400162	3255.768718
866.712258	3255.309973
867.024313	3256.033378
867.336325	3252.295363
867.648296	3256.373656
867.960224	3251.703027
868.272110	3257.863317
868.583954	3258.342227
868.895755	3263.756426
869.207515	3260.222577
869.519233	3278.698406
869.830909	3285.813995
870.142542	3296.493679
870.454134	3301.809576
870.765684	3316.343222
871.077191	3334.950121
871.388657	3347.840352
871.700081	3366.638814
872.011463	3385.807802
872.322803	3407.832603
872.634101	3425.027979
872.945357	3444.348201
873.256571	3470.300061
873.567744	3486.199860
873.878874	3496.090604
874.189963	3512.050897
874.501010	3512.771782
874.812015	3510.649456
875.122979	3525.619162
875.433900	3526.153525
875.744780	3528.021272
876.055618	3540.200700
876.366415	3533.012015
876.677169	3541.670196
876.987882	3557.774162
877.298554	3577.875763
877.609183	3617.658029
877.919771	3666.766429
878.230317	3737.904672
878.540822	3840.875280
878.851285	3996.099969
879.161707	4225.487592
879.472087	4606.346765
879.782425	5239.011573
880.092722	6442.864317
880.402977	8405.027588
880.713191	10796.921497
881.023363	13220.073081
881.333494	14595.516620
881.643583	15082.839921
881.953631	14683.623386
882.263637	13860.624774
882.573602	12829.645798
882.883526	11849.774039
883.193408	10871.875893
883.503248	9936.686402
883.813048	9091.317669
884.122806	8312.209863
884.432522	7525.290789
884.742197	6850.265165
885.051831	6268.016937
885.361424	5761.136480
885.670975	5352.344273
885.980485	5018.924878
886.289954	4739.287033
886.599382	4520.720247
886.908768	4331.878623
887.218113	4163.438550
887.527417	4023.463352
887.836680	3900.232346
888.145901	3799.913384
888.455082	3719.716188
888.764221	3644.726504
889.073319	3587.050663
889.382376	3550.146897
889.691392	3526.871889
890.000366	3518.548944
890.309300	3514.362266
890.618193	3515.345291
890.927044	3512.539889
891.235855	3518.901825
891.544625	3534.441182
891.853353	3561.373546
892.162041	3623.629276
892.470687	3712.696382
892.779293	3834.110052
893.087858	4014.711909
893.396381	4296.943427
893.704864	4718.265422
894.013306	5288.687103
894.321707	5866.594898
894.630068	6226.205607
894.938387	6265.657677
895.246665	6092.534372
895.554903	5775.115599
895.863100	5434.409217
896.171256	5163.391745
896.479371	4914.134413
896.787446	4689.026729
897.095480	4490.117922
897.403473	4334.149663
897.711425	4187.636088
898.019336	4064.831060
898.327207	3937.957821
898.635038	3836.459229
898.942827	3725.067373
899.250576	3639.955052
899.558284	3552.848955
899.865952	3495.803258
900.173579	3436.315122
900.481165	3385.318810
900.788711	3344.185515
901.096216	3310.432469
901.403681	3283.797533
901.711105	3273.256480
902.018489	3265.558638
902.325832	3299.563742
902.633135	3356.483410
902.940397	3530.907333
903.247619	3938.010753
903.554800	4700.308832
903.861941	5682.562535
904.169041	6406.772176
904.476101	6635.547299
904.783121	6361.568150
905.090100	5959.705009
905.397039	5539.078694
905.703938	5167.964071
906.010796	4839.321170
906.317614	4576.450202
906.624391	4330.968695
906.931129	4132.206081
907.237826	3945.345632
907.544483	3770.112603
907.851099	3591.640634
908.157675	3432.085594
908.464211	3285.617390
908.770707	3180.032943
909.077163	3098.875407
909.383578	3035.503062
909.689954	2990.677122
909.996289	2958.910291
910.302584	2938.796087
910.608839	2925.295877
910.915054	2909.393558
911.221229	2908.231572
911.527363	2908.224010
911.833458	2914.727098
912.139513	2929.754778
912.445527	2944.129628
912.751502	2978.583394
913.057436	3025.302287
913.363331	3083.015937
913.669186	3172.108249
913.975000	3294.124337
914.280775	3486.076352
914.586510	3758.011314
914.892205	4144.403153
915.197859	4650.071213
915.503475	5238.719186
915.809050	5742.075877
916.114585	6031.672521
916.420081	6098.777841
916.725536	6039.088059
917.030952	5801.548889
917.336328	5591.569708
917.641665	5380.123551
917.946961	5148.979086
918.252218	4950.360145
918.557435	4717.284917
918.862612	4511.598279
919.167750	4337.870035
919.472848	4140.113131
919.777906	3975.834530
920.082925	3810.348573
920.387904	3651.196825
920.692843	3537.057541
920.997743	3433.761778
921.302603	3338.730987
921.607423	3272.946449
921.912204	3205.067313
922.216946	3151.260557
922.521647	3103.384719
922.826310	3059.872000
923.130932	3021.428161
923.435516	2980.312510
923.740059	2953.052470
924.044564	2919.269178
924.349028	2894.086094
924.653454	2863.609798
924.957840	2836.788339
925.262186	2816.837973
925.566493	2795.050106
925.870761	2765.703029
926.174989	2758.211874
926.479178	2742.201170
926.783328	2723.276678
927.087438	2713.960626
927.391509	2699.850436
927.695541	2688.434743
927.999533	2677.271108
928.303486	2666.775426
928.607400	2662.175373
928.911275	2657.555155
929.215110	2649.305307
929.518906	2647.508136
929.822663	2646.966212
930.126381	2644.848927
930.430060	2650.863024
930.733699	2650.437046
931.037299	2656.166317
931.340861	2652.057777
931.644383	2656.942655
931.947866	2656.695639
932.251309	2652.735812
932.554714	2650.245482
932.858080	2647.606438
933.161407	2647.742549
933.464694	2642.698875
933.767943	2640.107722
934.071153	2637.390540
934.374323	2632.447689
934.677455	2628.195475
934.980548	2625.110289
935.283602	2621.657099
935.586617	2618.944958
935.889593	2623.545011
936.192530	2623.393776
936.495428	2630.486680
936.798287	2638.943215
937.101108	2654.966523
937.403890	2675.443690
937.706632	2703.086857
938.009336	2732.345714
938.312002	2764.334356
938.614628	2790.223201
938.917216	2805.318936
939.219765	2817.836121
939.522275	2831.631239
939.824747	2830.232319
940.127179	2824.306442
940.429573	2818.083138
940.731929	2815.875112
941.034246	2808.358752
941.336524	2808.204997
941.638763	2797.840385
941.940964	2792.610187
942.243126	2776.304575
942.545250	2769.138575
942.847335	2752.643920
943.149381	2739.441138
943.451389	2725.951010
943.753359	2712.428115
944.055290	2705.541899
944.357182	2692.772656
944.659036	2690.975485
944.960851	2684.338806
945.262628	2680.321006
945.564367	2680.449556
945.866067	2679.897549
946.167729	2681.838393
946.469352	2676.000737
946.770937	2672.061076
947.072484	2668.738955
947.373992	2668.726352
947.675462	2663.768377
947.976893	2656.373005
948.278286	2656.075577
948.579641	2649.595173
948.880958	2648.319762
949.182236	2648.917138
949.483476	2644.821201
949.784678	2643.341622
950.085841	2644.574184
950.386967	2649.658188
950.688054	2652.632469
950.989103	2664.746361
951.290114	2669.313647
951.591087	2681.737570
951.892021	2693.493541
952.192917	2707.150027
952.493776	2715.336861
952.794596	2722.298694
953.095378	2723.314487
953.396122	2720.108313
953.696828	2716.846686
953.997496	2714.096737
954.298126	2704.634491
954.598718	2698.121320
954.899272	2684.427026
955.199788	2675.988134
955.500266	2662.881134
955.800706	2647.987045
956.101108	2630.504324
956.401472	2618.065277
956.701798	2604.015581
957.002087	2588.211564
957.302337	2580.329720
957.602550	2569.261866
957.902724	2555.749053
958.202861	2546.576674
958.502960	2539.579553
958.803022	2532.189221
959.103045	2521.635565
959.403031	2517.365708
959.702979	2511.490243
960.002889	2507.043946
960.302762	2502.748883
960.602596	2496.452481
960.902393	2495.267810
961.202153	2490.705566
961.501875	2487.065853
961.801559	2485.740029
962.101205	2481.026551
962.400814	2480.920686
962.700385	2476.277784
962.999918	2476.668473
963.299414	2475.118318
963.598873	2474.709985
963.898293	2473.313585
964.197677	2473.532875
964.497022	2469.134469
964.796331	2469.416773
965.095601	2465.482153
965.394835	2468.499283
965.694030	2464.340331
965.993189	2467.264201
966.292309	2462.558283
966.591393	2463.826134
966.890439	2464.375619
967.189447	2463.858901
967.488419	2463.687502
967.787353	2465.598099
968.086249	2467.150775
968.385108	2466.112297
968.683930	2466.233285
968.982714	2468.360652
969.281462	2467.987606
969.580172	2470.077164
969.878844	2472.449027
970.177480	2476.285345
970.476078	2475.617392
970.774639	2483.345481
971.073162	2484.678867
971.371649	2484.063846
971.670098	2483.554689
971.968510	2488.474855
972.266885	2487.416213
972.565223	2490.186327
972.863524	2492.172542
973.161788	2494.388129
973.460014	2495.421565
973.758204	2495.598006
974.056356	2496.018942
974.354471	2496.765033
974.652550	2495.915598
974.950591	2496.097080
975.248595	2496.792759
975.546563	2493.657162
975.844493	2492.704383
976.142386	2491.476863
976.440243	2490.340082
976.738062	2487.396048
977.035845	2483.242138
977.333590	2485.114926
977.631299	2480.988742
977.928971	2480.502271
978.226606	2478.959678
978.524204	2476.129070
978.821765	2475.388020
979.119290	2472.259984
979.416777	2471.110601
979.714228	2474.465489
980.011642	2475.037660
980.309020	2479.766262
980.606360	2482.866572
980.903664	2490.387973
981.200931	2504.122597
981.498162	2526.497758
981.795356	2554.788714
982.092513	2594.409662
982.389633	2638.892804
982.686717	2680.958712
982.983764	2717.363405
983.280775	2734.326887
983.577749	2735.786301
983.874686	2726.334138
984.171587	2709.736139
984.468451	2696.339272
984.765279	2675.294976
985.062070	2659.178407
985.358824	2637.756024
985.655543	2616.348764
985.952224	2590.399424
986.248869	2566.738769
986.545478	2535.347504
986.842050	2517.743795
987.138586	2499.053717
987.435086	2481.356746
987.731549	2472.103708
988.027975	2464.988120
988.324366	2458.686677
988.620719	2454.094186
988.917037	2452.246603
989.213318	2446.880295
989.509563	2445.055397
989.805772	2443.538010
990.101944	2443.830397
990.398080	2440.692279
990.694180	2440.861157
990.990244	2441.919800
991.286271	2440.702361
991.582262	2440.972063
991.878217	2441.980293
992.174136	2444.571447
992.470019	2445.007506
992.765865	2443.868206
993.061676	2449.118567
993.357450	2450.522529
993.653188	2456.864300
993.948890	2459.205916
994.244556	2465.126751
994.540186	2475.889615
994.835780	2485.697180
995.131337	2504.578821
995.426859	2521.290246
995.722345	2540.282793
996.017795	2557.145453
996.313208	2573.299831
996.608586	2583.082190
996.903928	2588.312387
997.199234	2585.491861
997.494504	2578.938361
997.789738	2575.086920
998.084936	2565.448233
998.380099	2549.689587
998.675225	2541.278421
998.970316	2527.551359
999.265371	2513.012672
999.560390	2498.380723
999.855373	2487.441419
1000.150320	2476.597897
1000.445232	2469.126907
1000.740108	2461.373612
1001.034948	2455.808178
1001.329752	2449.753753
1001.624521	2447.429781
1001.919254	2435.976279
1002.213951	2436.324119
1002.508613	2434.481577
1002.803239	2433.571649
1003.097829	2429.876483
1003.392384	2430.468819
1003.686903	2428.901020
1003.981386	2427.492017
1004.275834	2427.877666
1004.570246	2425.984712
1004.864623	2424.835329
1005.158964	2426.007398
1005.453270	2423.335586
1005.747540	2421.611511
1006.041775	2421.672005
1006.335974	2424.167376
1006.630138	2423.254928
1006.924266	2420.676377
1007.218359	2423.423806
1007.512416	2417.661767
1007.806438	2423.998498
1008.100425	2420.303332
1008.394376	2417.979360
1008.688292	2420.540266
1008.982172	2420.774680
1009.276017	2420.323497
1009.569827	2416.638413
1009.863602	2418.770821
1010.157341	2418.385173
1010.451045	2417.792837
1010.744714	2417.233269
1011.038347	2418.354926
1011.331945	2416.633372
1011.625508	2418.276788
1011.919036	2415.572209
1012.212528	2417.870975
1012.505986	2413.729667
1012.799408	2414.848803
1013.092795	2415.262178
1013.386147	2416.136818
1013.679464	2416.797209
1013.972745	2413.601118
1014.265992	2413.921231
1014.559204	2415.393248
1014.852380	2416.835018
1015.145521	2414.737898
1015.438628	2417.417271
1015.731699	2413.039029
1016.024736	2412.368556
1016.317737	2416.051119
1016.610703	2419.166552
1016.903635	2414.803433
1017.196531	2413.664132
1017.489393	2416.779565
1017.782219	2413.185223
1018.075011	2416.724113
1018.367768	2418.029772
1018.660490	2417.719741
1018.953177	2417.719741
1019.245829	2417.719741
