Dividing Wavelength (nm)	Counts (n)	Blue Motor Position (mm): 7.800000	Red Motor Position (mm): 0.000000	
326.493990	1978.695734
326.888308	1978.695734
327.282561	1978.695734
327.676750	1953.308484
328.070874	1953.154728
328.464933	1960.182097
328.858929	1969.301544
329.252859	1979.396455
329.646726	1994.928250
330.040528	2012.763852
330.434265	2030.236491
330.827938	2047.623431
331.221547	2068.967676
331.615091	2089.931315
332.008571	2110.978132
332.401986	2131.031842
332.795338	2151.032620
333.188625	2172.805363
333.581847	2189.675585
333.975006	2208.673173
334.368100	2225.714793
334.761129	2243.517628
335.154095	2259.944228
335.546996	2279.219080
335.939833	2306.005251
336.332606	2315.512867
336.725315	2331.135403
337.117960	2340.123780
337.510540	2346.891529
337.903056	2359.680936
338.295508	2358.823940
338.687896	2370.232071
339.080220	2374.806918
339.472480	2380.947044
339.864676	2385.579864
340.256807	2386.696480
340.648875	2387.896274
341.040879	2391.762839
341.432818	2393.068498
341.824694	2394.207799
342.216506	2391.649413
342.608253	2390.878117
342.999937	2390.043806
343.391557	2390.764691
343.783113	2390.270658
344.174605	2386.172200
344.566033	2385.027858
344.957397	2384.420399
345.348697	2382.643392
345.739934	2379.475027
346.131106	2377.269522
346.522215	2377.390510
346.913260	2374.355735
347.304241	2373.531507
347.695159	2368.790301
348.086012	2371.935981
348.476802	2368.417256
348.867528	2368.654190
349.258191	2366.017667
349.648789	2364.374251
350.039324	2362.183869
350.429796	2363.560104
350.820203	2361.808303
351.210548	2360.104393
351.600828	2364.139837
351.991045	2362.514065
352.381198	2359.711183
352.771288	2360.318642
353.161314	2359.945597
353.551276	2359.590196
353.941175	2360.787470
354.331010	2361.954497
354.720782	2360.366533
355.110490	2361.745289
355.500135	2359.474249
355.889717	2359.791842
356.279235	2360.505165
356.668689	2361.639425
357.058080	2361.173118
357.447408	2359.471728
357.836672	2358.438292
358.225873	2358.685308
358.615010	2357.810668
359.004084	2364.520444
359.393095	2365.783253
359.782043	2365.034642
360.170927	2366.398274
360.559748	2366.766278
360.948505	2367.749303
361.337199	2365.158150
361.725830	2368.150075
362.114398	2369.695188
362.502903	2367.063706
362.891344	2370.101001
363.279722	2365.576566
363.668037	2370.259798
364.056289	2370.718543
364.444478	2370.108563
364.832603	2368.631505
365.220665	2369.874149
365.608665	2369.594365
365.996601	2371.091588
366.384474	2370.940353
366.772284	2370.438759
367.160031	2373.811291
367.547715	2372.520755
367.935336	2370.032946
368.322893	2370.577390
368.710388	2371.058821
369.097820	2375.578215
369.485189	2372.798019
369.872495	2375.053935
370.259738	2376.346991
370.646918	2374.887577
371.034035	2375.164840
371.421090	2375.179964
371.808081	2371.605786
372.195010	2374.025540
372.581875	2376.467979
372.968678	2375.401775
373.355418	2376.218442
373.742096	2375.051414
374.128710	2375.008565
374.515262	2377.629965
374.901751	2375.873123
375.288177	2378.398741
375.674540	2375.081661
376.060841	2375.565612
376.447079	2376.659543
376.833254	2378.126518
377.219367	2373.133255
377.605417	2375.356404
377.991404	2374.391023
378.377329	2375.399254
378.763191	2375.016126
379.148991	2376.906559
379.534727	2380.518546
379.920402	2381.418392
380.306013	2377.508977
380.691563	2379.238093
381.077049	2379.558206
381.462474	2382.303114
381.847835	2379.308669
382.233134	2380.342105
382.618371	2381.622558
383.003545	2381.128525
383.388657	2383.099617
383.773706	2381.408309
384.158693	2380.142980
384.543618	2382.640872
384.928480	2381.027702
385.313280	2379.787578
385.698017	2382.592981
386.082692	2383.394524
386.467305	2385.090872
386.851856	2384.296891
387.236344	2384.216232
387.620770	2385.589947
388.005133	2383.560882
388.389435	2385.494165
388.773674	2384.241438
389.157851	2385.443753
389.541965	2386.749412
389.926018	2386.814947
390.310008	2383.709596
390.693936	2384.523743
391.077802	2384.087683
391.461606	2385.443753
391.845348	2384.359905
392.229027	2386.746891
392.612645	2386.308311
392.996200	2386.033568
393.379694	2387.911398
393.763125	2389.872407
394.146494	2388.279402
394.529801	2385.925183
394.913047	2389.355688
395.296230	2388.896943
395.679351	2388.982643
396.062410	2391.462891
396.445408	2389.269989
396.828343	2387.291336
397.211217	2385.194216
397.594028	2385.375698
397.976778	2385.665564
398.359466	2388.874258
398.742092	2383.845707
399.124656	2387.210677
399.507158	2389.012890
399.889598	2389.179248
400.271977	2391.818292
400.654294	2391.888868
401.036549	2390.351316
401.418742	2389.779145
401.800874	2390.404248
402.182944	2391.115051
402.564952	2389.121275
402.946898	2389.360730
403.328783	2389.917777
403.710606	2391.702346
404.092367	2392.947511
404.474067	2392.224105
404.855705	2392.914743
405.237282	2391.263765
405.618797	2393.456667
406.000250	2392.488766
406.381642	2394.061606
406.762972	2394.648900
407.144240	2392.357696
407.525447	2394.278375
407.906593	2391.329300
408.287677	2392.299722
408.668700	2393.807027
409.049661	2393.617984
409.430560	2394.969013
409.811399	2393.335679
410.192176	2390.139588
410.572891	2398.245763
410.953545	2393.350803
411.334138	2396.337687
411.714669	2396.188972
412.095139	2394.351472
412.475547	2392.236708
412.855894	2395.331976
413.236180	2392.498848
413.616405	2396.675444
413.996568	2395.463046
414.376670	2398.013870
414.756711	2396.080588
415.136691	2397.660989
415.516609	2397.487070
415.896466	2396.060423
416.276262	2395.931874
416.655997	2395.105124
417.035670	2394.727038
417.415283	2395.762995
417.794834	2392.382901
418.174324	2397.736607
418.553753	2395.596637
418.933121	2395.652090
419.312428	2396.962790
419.691674	2398.079405
420.070859	2398.066802
420.449983	2400.191649
420.829045	2395.946997
421.208047	2399.322050
421.586988	2398.563356
421.965867	2400.085784
422.344686	2399.473284
422.723444	2398.465053
423.102141	2399.206103
423.480777	2397.628222
423.859352	2399.909344
424.237866	2398.273490
424.616319	2400.007647
424.994712	2400.030332
425.373044	2395.412635
425.751314	2396.083108
426.129524	2396.967831
426.507673	2397.547563
426.885762	2400.637791
427.263789	2400.403377
427.641756	2397.660989
428.019662	2399.763151
428.397508	2398.354148
428.775292	2400.358007
429.153016	2401.605692
429.530679	2399.821124
429.908282	2399.518655
430.285824	2401.106618
430.663305	2400.501680
431.040726	2400.433624
431.418086	2401.693912
431.795385	2402.669376
432.172624	2400.373130
432.549802	2401.504869
432.926920	2400.441186
433.303977	2400.133675
433.680974	2401.774571
434.057910	2403.755744
434.434786	2401.204921
434.811601	2403.080230
435.188355	2400.751217
435.565050	2401.295661
435.941683	2401.956053
436.318257	2400.927657
436.694770	2397.202244
437.071222	2400.350445
437.447614	2398.245763
437.823946	2399.629560
438.200218	2400.211813
438.576429	2404.610220
438.952580	2402.069478
439.328670	2401.159550
439.704700	2400.121073
440.080670	2401.822462
440.456580	2404.010323
440.832429	2401.320867
441.208218	2404.685837
441.583947	2403.785991
441.959616	2403.574263
442.335224	2402.676938
442.710773	2404.390930
443.086261	2402.654252
443.461689	2402.497977
443.837057	2404.786660
444.212365	2404.080899
444.587612	2403.052503
444.962800	2403.400343
445.337927	2403.614592
445.712995	2404.388409
446.088002	2404.965621
446.462949	2402.828172
446.837837	2402.752555
447.212664	2402.220713
447.587431	2402.850857
447.962139	2405.404202
448.336786	2403.082750
448.711374	2402.581156
449.085901	2405.598286
449.460369	2404.373286
449.834776	2406.840931
450.209124	2408.381003
450.583412	2408.766651
450.957640	2407.967628
451.331808	2408.464182
451.705917	2408.786816
452.079965	2408.902763
452.453954	2406.747669
452.827883	2406.828328
453.201752	2408.028122
453.575562	2405.313461
453.949311	2405.497463
454.323001	2406.886301
454.696632	2405.951167
455.070202	2408.565005
455.443713	2405.968811
455.817164	2406.911507
456.190556	2404.801784
456.563888	2406.016702
456.937160	2400.509241
457.310373	2408.756569
457.683526	2408.562485
458.056619	2408.925448
458.429653	2409.772362
458.802628	2406.719943
459.175542	2408.282701
459.548398	2407.546692
459.921194	2410.004255
460.293930	2408.237330
460.666607	2411.115829
461.039224	2409.386713
461.411782	2409.522824
461.784280	2411.065418
462.156719	2409.570715
462.529099	2410.702454
462.901419	2408.953174
463.273680	2411.932496
463.645882	2412.050963
464.018024	2409.356466
464.390106	2411.105747
464.762130	2410.727660
465.134094	2413.694379
465.505999	2410.531055
465.877845	2414.017013
466.249631	2412.945768
466.621358	2412.849986
466.993026	2416.504823
467.364634	2417.835687
467.736184	2414.155645
468.107674	2415.148752
468.479105	2416.063722
468.850477	2414.964750
469.221790	2415.335275
469.593043	2412.610531
469.964238	2414.269071
470.335373	2410.752866
470.706449	2412.615572
471.077467	2413.916190
471.448425	2416.293094
471.819324	2415.688156
472.190164	2416.683783
472.560945	2414.138001
472.931667	2415.330234
473.302330	2416.283012
473.672934	2412.242527
474.043479	2413.833011
474.413965	2412.663463
474.784393	2410.583987
475.154761	2413.868299
475.525070	2412.378638
475.895321	2413.371745
476.265513	2411.672877
476.635645	2415.325192
477.005719	2414.684966
477.375734	2419.022879
477.745691	2415.005079
478.115588	2416.356108
478.485427	2417.293763
478.855207	2418.700245
479.224928	2421.523291
479.594591	2421.558579
479.964194	2420.794844
480.333739	2419.395924
480.703226	2419.710996
481.072653	2416.537590
481.442022	2419.821902
481.811333	2419.728640
482.180584	2419.199319
482.549777	2418.236459
482.918912	2420.419278
483.287988	2420.454567
483.657005	2418.344844
484.025964	2418.110430
484.394864	2421.621594
484.763706	2422.155956
485.132489	2419.695873
485.501213	2418.569175
485.869879	2419.700914
486.238487	2421.077149
486.607036	2418.644792
486.975527	2419.385842
487.343959	2417.520615
487.712333	2421.921542
488.080648	2418.974988
488.448905	2417.515574
488.817104	2418.410379
489.185244	2423.244845
489.553326	2423.814496
489.921350	2421.510688
490.289315	2421.614032
490.657222	2422.251738
491.025070	2423.746440
491.392861	2422.667633
491.760593	2423.930442
492.128267	2420.681418
492.495883	2420.366346
492.863440	2421.004052
493.230939	2419.887437
493.598380	2418.818712
493.965763	2415.408372
494.333088	2420.933476
494.700354	2415.433577
495.067563	2419.106058
495.434713	2417.639082
495.801805	2420.111768
496.168839	2417.926428
496.535815	2419.784093
496.902733	2422.281985
497.269593	2423.181831
497.636395	2420.068918
498.003139	2419.516912
498.369825	2419.801737
498.736453	2421.044382
499.103023	2418.657395
499.469535	2420.333579
499.835989	2421.311563
500.202385	2419.920204
500.568723	2417.558424
500.935003	2418.990111
501.301226	2421.616553
501.667390	2422.143353
502.033497	2420.741912
502.399546	2422.100503
502.765537	2419.590009
503.131470	2423.537232
503.497345	2422.145874
503.863163	2419.204360
504.228923	2421.094793
504.594625	2421.006573
504.960269	2419.509350
505.325856	2419.625297
505.691385	2421.833322
506.056856	2423.648138
506.422270	2422.624783
506.787625	2421.162849
507.152924	2421.596388
507.518164	2422.478590
507.883347	2422.188723
508.248472	2419.952972
508.613540	2421.283836
508.978550	2424.111924
509.343503	2419.272416
509.708398	2427.302974
510.073236	2426.647624
510.438016	2423.378436
510.802738	2423.612849
511.167403	2425.694846
511.532010	2426.650145
511.896561	2426.259455
512.261053	2429.677358
512.625488	2424.915988
512.989866	2428.835485
513.354186	2425.125196
513.718449	2426.584610
514.082655	2431.378747
514.446803	2430.839343
514.810894	2434.630291
515.174927	2434.741197
515.538904	2434.574838
515.902822	2434.416042
516.266684	2437.670107
516.630488	2433.148192
516.994235	2439.008533
517.357925	2438.632967
517.721558	2439.258070
518.085133	2438.774120
518.448651	2441.040118
518.812112	2445.761159
519.175516	2442.882660
519.538863	2444.934410
519.902152	2444.586570
520.265385	2447.081941
520.628560	2447.656633
520.991678	2450.928342
521.354739	2451.669391
521.717743	2452.717951
522.080690	2456.062757
522.443580	2457.106276
522.806413	2457.018055
523.169189	2455.218363
523.531908	2462.986782
523.894569	2460.690536
524.257174	2462.820423
524.619722	2464.806638
524.982213	2468.093470
525.344647	2466.893676
525.707025	2469.026084
526.069345	2470.475416
526.431608	2470.666979
526.793815	2475.302320
527.155964	2475.201497
527.518057	2472.869964
527.880093	2479.637713
528.242072	2480.953454
528.603995	2479.678042
528.965860	2482.677528
529.327669	2482.677528
529.689421	2484.804895
530.051117	2485.982005
530.412755	2486.334886
530.774337	2490.027531
531.135862	2488.784886
531.497331	2489.939311
531.858743	2486.355050
532.220098	2490.708087
532.581396	2490.410658
532.942638	2493.432830
533.303824	2494.836792
533.664953	2494.650269
534.026025	2498.156391
534.387040	2502.285096
534.747999	2501.213851
535.108902	2501.735611
535.469748	2503.310971
535.830537	2504.571260
536.191270	2507.419512
536.551947	2508.455469
536.912567	2509.284738
537.273131	2512.087620
537.633638	2510.398833
537.994089	2512.745491
538.354483	2511.238186
538.714821	2519.004083
539.075103	2516.528877
539.435328	2518.263033
539.795497	2517.358146
540.155609	2517.393434
540.515665	2521.875020
540.875665	2523.021883
541.235609	2522.013652
541.595496	2524.503982
541.955328	2528.350382
542.315102	2527.788294
542.674821	2527.362316
543.034483	2531.138140
543.394090	2530.323994
543.753640	2527.695032
544.113134	2534.513193
544.472571	2533.036135
544.831953	2537.958822
545.191278	2536.693492
545.550548	2534.745086
545.909761	2535.430683
546.268918	2537.144675
546.628019	2537.868081
546.987064	2537.321116
547.346053	2540.401261
547.704986	2539.251878
548.063863	2539.549306
548.422684	2541.167516
548.781449	2543.733463
549.140158	2544.509801
549.498811	2544.328319
549.857408	2540.368493
550.215949	2543.748587
550.574434	2540.635674
550.932864	2541.840510
551.291237	2540.887732
551.649555	2546.347302
552.007817	2548.033567
552.366022	2548.565409
552.724173	2546.538865
553.082267	2549.656819
553.440305	2550.178578
553.798288	2550.428116
554.156215	2550.700338
554.514086	2551.234700
554.871902	2549.351829
555.229661	2548.177240
555.587365	2550.720503
555.945014	2551.776624
556.302606	2550.914587
556.660143	2550.400389
557.017625	2553.712427
557.375050	2546.876623
557.732421	2552.142108
558.089735	2553.445246
558.446994	2548.840152
558.804197	2555.794424
559.161345	2554.249310
559.518437	2547.108516
559.875474	2547.287477
560.232455	2546.760676
560.589381	2549.029195
560.946251	2551.706048
561.303065	2547.889895
561.659825	2550.821326
562.016528	2544.638350
562.373177	2549.051881
562.729770	2547.126160
563.086307	2545.820501
563.442789	2546.095244
563.799216	2547.733619
564.155587	2545.974256
564.511904	2546.576674
564.868164	2544.401416
565.224370	2545.046684
565.580520	2546.309493
565.936615	2542.238761
566.292654	2538.510828
566.648638	2542.417722
567.004567	2542.533669
567.360441	2542.095088
567.716260	2539.927392
568.072023	2540.653318
568.427732	2535.160981
568.783385	2538.828421
569.138982	2533.618388
569.494525	2532.602596
569.850013	2530.603778
570.205445	2534.840868
570.560823	2534.843388
570.916145	2533.454551
571.271412	2530.394570
571.626625	2533.227699
571.981782	2530.727286
572.336884	2531.448171
572.691931	2531.052441
573.046923	2528.557070
573.401860	2527.992460
573.756743	2529.025897
574.111570	2526.497758
574.466342	2523.495751
574.821059	2526.734693
575.175722	2522.900895
575.530330	2524.090607
575.884882	2521.978364
576.239380	2523.830988
576.593823	2519.543487
576.948211	2521.113806
577.302544	2520.362674
577.656823	2517.958044
578.011047	2517.544669
578.365216	2516.228928
578.719330	2519.036851
579.073389	2515.954185
579.427394	2517.635410
579.781344	2514.537621
580.135239	2514.335975
580.489080	2513.738598
580.842866	2515.457631
581.196597	2516.793537
581.550273	2513.000069
581.903895	2512.594256
582.257463	2514.376304
582.610975	2511.470079
582.964434	2512.770696
583.317837	2511.608710
583.671186	2514.162055
584.024481	2512.932013
584.377721	2510.615603
584.730906	2512.316993
585.084037	2514.618279
585.437113	2511.071828
585.790135	2513.035357
586.143103	2509.531755
586.496016	2514.048629
586.848874	2508.319357
587.201679	2511.336488
587.554428	2511.182733
587.907124	2510.434122
588.259765	2511.049142
588.612352	2515.366891
588.964884	2514.691376
589.317362	2517.201871
589.669786	2516.473424
590.022155	2518.643641
590.374470	2517.806809
590.726731	2518.308404
591.078937	2518.585667
591.431090	2521.706142
591.783188	2520.834022
592.135232	2519.402334
592.487222	2520.571882
592.839157	2523.765453
593.191038	2524.405679
593.542866	2523.523478
593.894639	2523.788138
594.246358	2526.462470
594.598022	2524.693025
594.949633	2527.090094
595.301190	2529.204858
595.652692	2527.994981
596.004141	2532.559746
596.355535	2528.738551
596.706876	2529.421627
597.058162	2529.416586
597.409395	2531.876669
597.760573	2536.058307
598.111698	2532.579910
598.462768	2535.972607
598.813785	2537.275745
599.164748	2536.776671
599.515657	2539.617361
599.866511	2541.094419
600.217312	2543.947712
600.568060	2542.614327
600.918753	2549.510626
601.269392	2548.416695
601.619978	2551.683363
601.970510	2552.552962
602.320988	2558.284754
602.671412	2561.415310
603.021783	2558.194013
603.372100	2562.902451
603.722363	2565.846485
604.072572	2569.332442
604.422728	2572.314285
604.772830	2569.675241
605.122878	2572.331929
605.472872	2576.400140
605.822813	2579.031623
606.172701	2584.839032
606.522534	2588.609815
606.872314	2591.952100
607.222041	2592.131061
607.571714	2599.196238
607.921333	2600.128851
608.270899	2608.376179
608.620411	2612.676283
608.969870	2615.035543
609.319276	2620.618621
609.668627	2622.430916
610.017926	2626.554580
610.367171	2634.343162
610.716362	2639.628812
611.065500	2643.838176
611.414585	2648.092910
611.763616	2656.796462
612.112594	2662.460198
612.461518	2668.512103
612.810389	2675.597445
613.159207	2679.400996
613.507971	2686.990453
613.856682	2696.553522
614.205340	2697.465970
614.553945	2711.324102
614.902496	2716.781151
615.250994	2726.634087
615.599439	2731.892010
615.947830	2747.043198
616.296169	2750.750967
616.644454	2762.668254
616.992686	2775.389606
617.340864	2791.559107
617.688990	2797.154788
618.037063	2816.298569
618.385082	2825.347441
618.733048	2838.943432
619.080961	2847.432736
619.428821	2860.761546
619.776628	2870.407794
620.124382	2877.417519
620.472083	2884.349105
620.819731	2890.600136
621.167326	2895.207751
621.514868	2901.204203
621.862357	2899.654048
622.209793	2905.665624
622.557176	2909.580080
622.904506	2909.537230
623.251783	2909.633012
623.599007	2913.489495
623.946179	2915.924372
624.293297	2922.745053
624.640363	2927.135898
624.987376	2934.349790
625.334336	2939.234668
625.681243	2947.466872
626.028097	2952.747481
626.374899	2963.722073
626.721647	2974.764720
627.068343	2986.213180
627.414987	2991.085456
627.761577	3000.278000
628.108115	3015.925741
628.454600	3019.840197
628.801032	3034.830068
629.147412	3046.079403
629.493739	3061.341496
629.840014	3068.623443
630.186236	3086.711103
630.532405	3098.673761
630.878521	3116.506843
631.224585	3131.385808
631.570597	3144.646563
631.916556	3159.946465
632.262462	3176.617561
632.608316	3191.766228
632.954117	3203.239895
633.299866	3212.434959
633.645562	3224.621949
633.991206	3224.868965
634.336797	3225.042885
634.682336	3232.123186
635.027823	3235.594020
635.373257	3238.674165
635.718639	3242.117273
636.063968	3251.302255
636.409245	3245.313365
636.754470	3258.811054
637.099642	3264.527722
637.444762	3262.486055
637.789829	3278.680762
638.134845	3282.449024
638.479808	3292.642237
638.824719	3305.696305
639.169577	3305.315698
639.514383	3323.582319
639.859137	3328.419306
640.203839	3347.210207
640.548489	3348.021833
640.893086	3362.454657
641.237632	3369.792056
641.582125	3389.876013
641.926566	3394.249214
642.270955	3410.653128
642.615292	3430.089297
642.959576	3443.224023
643.303809	3458.975109
643.647990	3476.465392
643.992118	3492.914677
644.336195	3510.596524
644.680219	3530.146119
645.024192	3557.413720
645.368112	3592.510233
645.711981	3618.081486
646.055797	3670.398580
646.399562	3699.652396
646.743274	3761.129267
647.086935	3803.038900
647.430544	3826.757529
647.774101	3855.971015
648.117606	3880.181157
648.461059	3909.760127
648.804460	3910.400353
649.147810	3895.917118
649.491108	3895.047519
649.834354	3894.808064
650.177548	3873.103377
650.520690	3865.985267
650.863781	3879.881208
651.206820	3891.274216
651.549807	3885.388668
651.892742	3882.696692
652.235626	3887.664749
652.578458	3904.426586
652.921238	3896.529618
653.263967	3922.514246
653.606644	3926.718568
653.949269	3944.710446
654.291843	3946.578194
654.634365	3984.238134
654.976836	3985.679904
655.319255	4000.274044
655.661622	4019.420346
656.003938	4025.346223
656.346203	4034.127913
656.688416	4063.722006
657.030577	4071.238367
657.372687	4078.898400
657.714746	4108.729428
658.056753	4132.798417
658.398708	4120.533290
658.740612	4141.582628
659.082465	4171.171680
659.424266	4185.788506
659.766016	4209.181980
660.107715	4228.018251
660.449362	4261.761215
660.790958	4275.518523
661.132503	4301.082215
661.473996	4323.689269
661.815438	4347.221375
662.156829	4378.368144
662.498168	4383.999113
662.839456	4409.172115
663.180693	4434.577010
663.521879	4468.057833
663.863013	4486.815966
664.204097	4506.766333
664.545129	4560.079055
664.886110	4583.134772
665.227040	4612.514617
665.567918	4647.981655
665.908746	4679.814021
666.249522	4715.470102
666.590248	4741.482456
666.930922	4770.683339
667.271545	4796.408347
667.612118	4821.351977
667.952639	4829.664839
668.293109	4849.584959
668.633528	4866.813102
668.973896	4880.101584
669.314213	4905.347682
669.654480	4908.082508
669.994695	4928.027833
670.334859	4939.887148
670.674973	4955.071103
671.015035	4991.450590
671.355047	5011.789125
671.695008	5036.571437
672.034918	5048.881935
672.374777	5084.631278
672.714585	5101.360347
673.054342	5147.345752
673.394049	5151.519827
673.733705	5201.190316
674.073310	5201.782652
674.412864	5224.533379
674.752368	5215.434096
675.091820	5262.200881
675.431223	5245.149178
675.770574	5236.072580
676.109875	5243.031893
676.449125	5239.770267
676.788324	5251.679993
677.127473	5224.634202
677.466571	5239.069546
677.805619	5226.363318
678.144616	5247.563890
678.483562	5261.089306
678.822458	5255.327267
679.161303	5271.095997
679.500098	5279.174446
679.838842	5292.573833
680.177535	5336.656202
680.516179	5389.195108
680.854771	5445.179642
681.193314	5568.130863
681.531805	5733.936934
681.870247	5862.375452
682.208638	5976.260158
682.546978	6033.061359
682.885268	6067.288273
683.223508	6036.282657
683.561697	6025.557602
683.899836	6032.516915
684.237925	6008.097565
684.575963	6018.631056
684.913951	5994.990565
685.251889	6057.415173
685.589776	6088.647642
685.927614	6123.640812
686.265401	6184.394277
686.603137	6234.697431
686.940824	6337.322720
687.278460	6425.593324
687.616046	6491.085474
687.953582	6611.148115
688.291068	6631.521938
688.628504	6702.249327
688.965889	6727.618933
689.303224	6705.833587
689.640510	6681.724269
689.977745	6606.706858
690.314930	6516.941552
690.652065	6460.241174
690.989150	6375.912753
691.326185	6279.258710
691.663170	6190.143713
692.000105	6112.641014
692.336990	6041.212905
692.673825	5994.642726
693.010610	5945.113389
693.347345	5883.162650
693.684030	5812.548687
694.020665	5799.240041
694.357251	5722.367486
694.693786	5738.920115
695.030272	5727.527107
695.366707	5680.099932
695.703093	5654.498432
696.039429	5676.167832
696.375716	5667.844887
696.711952	5680.407442
697.048139	5684.573956
697.384276	5680.387277
697.720363	5720.030911
698.056400	5713.487493
698.392388	5703.586667
698.728326	5718.067382
699.064214	5708.711000
699.400053	5718.460592
699.735842	5690.567887
700.071581	5656.870295
700.407270	5632.062777
700.742910	5622.197238
701.078501	5594.070121
701.414042	5568.294701
701.749533	5543.593047
702.084974	5499.407334
702.420366	5551.033790
702.755709	5497.491695
703.091002	5467.138908
703.426246	5485.597093
703.761440	5488.253781
704.096584	5465.046829
704.431679	5473.793231
704.766725	5477.914374
705.101721	5483.641125
705.436668	5518.402401
705.771565	5489.161188
706.106413	5567.583898
706.441212	5578.452626
706.775961	5623.066837
707.110661	5659.441283
707.445311	5745.980251
707.779913	5740.243417
708.114465	5807.205064
708.448967	5884.289347
708.783421	6040.756681
709.117825	6121.586541
709.452180	6186.756058
709.786485	6291.228930
710.120742	6463.832997
710.454949	6496.096381
710.789107	6612.478979
711.123216	6770.766169
711.457275	6824.058727
711.791286	6952.192255
712.125247	6988.677606
712.459159	6958.927236
712.793023	7107.180009
713.126837	6917.879641
713.460602	6983.391956
713.794318	6928.793739
714.127985	6876.000256
714.461602	6716.356996
714.795171	6719.807665
715.128691	6539.848555
715.462162	6446.206602
715.795584	6373.072063
716.128957	6337.047977
716.462281	6271.790241
716.795556	6238.127936
717.128782	6156.688096
717.461960	6054.942487
717.795088	6053.145316
718.128167	5990.077961
718.461198	5909.943779
718.794180	5895.402571
719.127113	5833.729095
719.459997	5806.101051
719.792833	5747.245580
720.125619	5753.345376
720.458357	5707.891813
720.791046	5680.039438
721.123686	5659.446324
721.456278	5624.407784
721.788821	5630.338702
722.121315	5588.129121
722.453761	5616.543584
722.786158	5617.322443
723.118506	5632.808867
723.450805	5614.912771
723.783056	5666.864382
724.115259	5661.188043
724.447412	5663.385986
724.779518	5740.525722
725.111574	5757.952991
725.443582	5820.974976
725.775542	5833.376214
726.107453	5960.393127
726.439315	5951.225788
726.771129	6072.538635
727.102895	6168.953223
727.434612	6234.589046
727.766281	6285.373630
728.097901	6357.436924
728.429473	6387.482201
728.760996	6401.214304
729.092471	6439.428771
729.423897	6434.685045
729.755276	6419.531337
730.086606	6468.859027
730.417887	6615.309587
730.749120	6770.095696
731.080305	6836.870819
731.411442	6940.572395
731.742530	6985.584858
732.073570	7028.043976
732.404562	7123.115097
732.735506	7095.315654
733.066401	7037.871706
733.397249	6918.623211
733.728048	6775.227590
734.058798	6573.210912
734.389501	6404.672536
734.720156	6296.905269
735.050762	6176.580489
735.381320	6086.805100
735.711831	6033.353746
736.042293	5951.404749
736.372707	5973.190096
736.703073	5923.232261
737.033391	5995.527448
737.363661	5994.869578
737.693883	6037.089241
738.024056	6094.797850
738.354182	6155.947046
738.684260	6251.260142
739.014290	6322.993240
739.344272	6390.950515
739.674207	6482.200441
740.004093	6525.037645
740.333931	6539.437701
740.663722	6566.937196
740.993464	6583.736841
741.323159	6553.668879
741.652806	6487.425597
741.982405	6443.801972
742.311956	6361.792481
742.641460	6345.504513
742.970915	6267.202791
743.300323	6184.606006
743.629683	6135.409385
743.958996	6061.264094
744.288260	5997.090206
744.617477	5921.034318
744.946647	5910.437813
745.275768	5844.804510
745.604842	5797.258867
745.933869	5759.556078
746.262847	5752.387557
746.591778	5745.171145
746.920662	5726.266818
747.249498	5733.531121
747.578286	5782.405108
747.907027	5841.205126
748.235720	5916.141878
748.564365	5940.949396
748.892963	5922.178660
749.221514	5948.785870
749.550017	5915.052989
749.878473	5920.449544
750.206881	5855.605182
750.535242	5840.963151
750.863555	5825.557385
751.191821	5808.107431
751.520039	5820.526313
751.848210	5801.879085
752.176334	5825.224668
752.504411	5802.854548
752.832440	5755.107260
753.160421	5784.582886
753.488356	5753.753710
753.816243	5728.754628
754.144082	5690.043607
754.471875	5681.014901
754.799620	5668.611142
755.127318	5672.084497
755.454969	5668.893447
755.782572	5661.699720
756.110129	5672.323952
756.437638	5654.745448
756.765100	5657.974307
757.092515	5664.371532
757.419882	5678.547256
757.747203	5689.284914
758.074477	5718.148040
758.401703	5712.665785
758.728882	5773.930928
759.056014	5796.853055
759.383099	5846.107648
759.710138	5895.561368
760.037129	5929.274084
760.364073	5944.911743
760.690970	5946.071208
761.017820	5961.671059
761.344623	6045.656682
761.671379	6181.694739
761.998088	6424.695999
762.324751	7001.630851
762.651366	8035.450517
762.977935	9349.429787
763.304456	10168.135857
763.630931	10406.743751
763.957359	10025.640082
764.283740	9365.468218
764.610074	8691.919653
764.936362	7940.331505
765.262602	7383.664612
765.588796	6833.591549
765.914943	6447.635769
766.241044	6133.428212
766.567097	5895.682355
766.893104	5690.971180
767.219064	5558.043515
767.544978	5416.838275
767.870845	5298.345954
768.196665	5233.925049
768.522438	5163.863093
768.848165	5104.082570
769.173846	5044.803642
769.499479	5006.450543
769.825066	4946.659938
770.150607	4882.284403
770.476101	4869.275706
770.801548	4828.694417
771.126949	4782.532572
771.452303	4750.506121
771.777611	4696.873285
772.102872	4690.077810
772.428087	4649.622550
772.753256	4603.115386
773.078378	4572.689502
773.403453	4520.705123
773.728482	4480.045697
774.053465	4458.721616
774.378401	4425.404630
774.703291	4391.323910
775.028135	4358.233776
775.352932	4346.394626
775.677683	4317.223989
776.002388	4280.355511
776.327046	4286.369607
776.651658	4252.543465
776.976224	4223.995411
777.300743	4220.814443
777.625216	4195.979198
777.949643	4181.513607
778.274024	4188.737581
778.598359	4159.975277
778.922647	4166.901823
779.246889	4148.557064
779.571086	4150.417250
779.895236	4160.209691
780.219339	4159.148528
780.543397	4161.321265
780.867409	4189.224052
781.191374	4191.101882
781.515294	4184.583670
781.839167	4211.931929
782.162995	4204.995302
782.486776	4189.294628
782.810511	4173.188142
783.134201	4143.367196
783.457844	4142.749655
783.781441	4130.391266
784.104993	4112.845530
784.428498	4103.549642
784.751958	4096.580247
785.075372	4094.137808
785.398739	4077.895210
785.722061	4091.894495
786.045337	4096.857511
786.368568	4149.577898
786.691752	4163.267151
787.014891	4272.450981
787.337983	4396.783479
787.661030	4588.493519
787.984031	4783.311430
788.306987	4914.552829
788.629897	4967.918484
788.952760	4949.835865
789.275579	4880.482191
789.598351	4757.036936
789.921078	4639.809944
790.243759	4516.077344
790.566395	4424.293056
790.888984	4336.488759
791.211529	4273.847381
791.534027	4199.210578
791.856480	4130.222387
792.178888	4110.466105
792.501249	4076.755910
792.823566	4030.626831
793.145836	4029.795041
793.468062	4027.370246
793.790241	4009.088502
794.112375	4032.338303
794.434464	4078.537957
794.756507	4097.212912
795.078505	4149.877846
795.400457	4249.695213
795.722364	4358.906770
796.044226	4456.218683
796.366042	4532.408162
796.687812	4513.818907
797.009538	4539.044841
797.331218	4506.746168
797.652852	4473.950942
797.974442	4420.527314
798.295986	4393.484044
798.617484	4333.627904
798.938938	4284.605203
799.260346	4256.092437
799.581709	4188.099875
799.903026	4170.201258
800.224299	4131.817913
800.545526	4077.237340
800.866708	4044.570663
801.187845	4022.056870
801.508936	3980.721929
801.829983	3969.732213
802.150984	3914.556785
802.471940	3904.882810
802.792851	3897.923497
803.113717	3885.262640
803.434538	3874.691340
803.755314	3856.076879
804.076045	3852.384234
804.396731	3832.358251
804.717372	3841.770085
805.037967	3843.652956
805.358518	3856.293649
805.679024	3886.258267
805.999485	3888.945202
806.319901	3899.624887
806.640272	3909.399684
806.960598	3939.374385
807.280879	3935.739713
807.601115	3957.610759
807.921306	3941.542081
808.241453	3941.259777
808.561554	3952.786375
808.881611	3934.870114
809.201623	3937.647790
809.521590	3914.385385
809.841513	3909.739962
810.161390	3921.553906
810.481223	3879.949263
810.801011	3877.973131
811.120755	3868.289075
811.440453	3834.929239
811.760107	3830.566120
812.079716	3817.242351
812.399281	3793.432981
812.718801	3794.763846
813.038276	3778.725415
813.357707	3763.748147
813.677093	3780.106691
813.996434	3746.769541
814.315731	3760.983074
814.634983	3765.225205
814.954191	3768.549846
815.273354	3801.292140
815.592473	3827.591840
815.911547	3867.984085
816.230577	3895.891912
816.549562	3944.654994
816.868502	3978.554233
817.187399	4011.183101
817.506250	4064.531112
817.825058	4082.948967
818.143821	4170.551618
818.462539	4272.103142
818.781213	4403.740272
819.099843	4598.792596
819.418429	4935.377836
819.736970	5276.081698
820.055466	5664.510163
820.373919	6186.083064
820.692327	6983.926318
821.010691	8358.671657
821.329011	11167.393372
821.647286	15188.850345
821.965517	19642.984511
822.283704	22139.169811
822.601847	23265.860134
822.919945	21578.853123
823.237999	19508.587349
823.556010	17173.721493
823.873976	14990.987577
824.191897	12964.310140
824.509775	11463.914042
824.827609	10141.538729
825.145398	9381.186536
825.463144	9021.792596
825.780845	9179.560547
826.098502	9785.061097
826.416116	10977.717438
826.733685	12118.903599
827.051210	12446.308898
827.368692	11796.662963
827.686129	10545.425893
828.003522	9268.582282
828.320872	8089.403466
828.638177	7183.777821
828.955439	6503.282546
829.272656	5928.046563
829.589830	5466.528928
829.906960	5064.065890
830.224046	4773.975213
830.541088	4538.868400
830.858086	4403.231115
831.175041	4287.710554
831.491952	4262.557717
831.808819	4291.206594
832.125642	4440.835602
832.442421	4755.617851
832.759157	5370.084093
833.075849	6327.043807
833.392497	7322.137330
833.709101	7947.794934
834.025662	7847.279367
834.342179	7292.865870
834.658653	6578.461273
834.975083	5962.828004
835.291469	5454.044511
835.607811	5031.852917
835.924110	4730.154983
836.240366	4451.996717
836.556578	4190.116336
836.872746	3988.800378
837.188871	3829.996470
837.504952	3699.871686
837.820990	3602.191769
838.136984	3535.562838
838.452935	3508.335567
838.768842	3521.533307
839.084706	3681.761341
839.400526	4097.081842
839.716303	4613.124597
840.032037	4944.988795
840.347727	4878.886666
840.663373	4548.691089
840.978977	4211.505952
841.294537	3952.201601
841.610054	3757.010645
841.925527	3617.176599
842.240957	3493.413751
842.556344	3385.465003
842.871687	3291.465128
843.186987	3202.476160
843.502244	3135.360758
843.817458	3081.906883
844.132629	3040.796274
844.447756	3010.907273
844.762840	2979.248826
845.077881	2955.804940
845.392879	2934.770726
845.707833	2921.031061
846.022745	2905.584966
846.337613	2899.757392
846.652438	2886.489075
846.967221	2879.043291
847.281960	2866.851260
847.596656	2862.994777
847.911309	2857.638552
848.225919	2843.946778
848.540485	2839.578618
848.855009	2836.286744
849.169490	2831.900941
849.483928	2826.330466
849.798323	2824.273675
850.112675	2815.789413
850.426984	2819.247644
850.741251	2811.912766
851.055474	2809.787919
851.369654	2811.086016
851.683792	2810.569298
851.997887	2812.628609
852.311938	2812.192550
852.625947	2812.442087
852.939914	2810.312199
853.253837	2815.431491
853.567718	2811.501912
853.881555	2809.399750
854.195350	2811.721202
854.509103	2813.939309
854.822812	2809.162816
855.136479	2807.874801
855.450103	2812.575677
855.763685	2806.634677
856.077224	2806.896817
856.390720	2815.060966
856.704173	2819.199753
857.017584	2823.424240
857.330953	2824.099755
857.644278	2828.717452
857.957561	2833.856908
858.270802	2831.379181
858.584000	2832.843636
858.897155	2828.573779
859.210268	2823.320897
859.523339	2818.894764
859.836367	2813.611634
860.149352	2811.454021
860.462295	2811.212045
860.775195	2801.550674
861.088054	2801.596044
861.400869	2803.317598
861.713642	2799.902217
862.026373	2804.958494
862.339062	2808.983855
862.651708	2815.739001
862.964312	2823.842656
863.276873	2829.892041
863.589392	2847.311748
863.901869	2864.492000
864.214303	2877.278887
864.526696	2886.786503
864.839045	2899.825448
865.151353	2909.512025
865.463619	2912.720719
865.775842	2911.523445
866.088023	2915.584094
866.400162	2912.894639
866.712258	2915.067376
867.024313	2911.488157
867.336325	2914.134763
867.648296	2914.933786
867.960224	2915.503436
868.272110	2916.660381
868.583954	2916.801533
868.895755	2921.721699
869.207515	2919.513674
869.519233	2929.240580
869.830909	2935.993206
870.142542	2943.486881
870.454134	2947.582818
870.765684	2956.987091
871.077191	2968.065027
871.388657	2975.231027
871.700081	2988.794251
872.011463	3001.376971
872.322803	3010.559433
872.634101	3023.621063
872.945357	3032.639687
873.256571	3048.826832
873.567744	3058.281516
873.878874	3061.908626
874.189963	3074.105698
874.501010	3076.018816
874.812015	3073.478074
875.122979	3082.584918
875.433900	3085.178592
875.744780	3085.965012
876.055618	3095.384408
876.366415	3097.549584
876.677169	3098.772063
876.987882	3109.996193
877.298554	3126.974799
877.609183	3156.969664
877.919771	3181.832635
878.230317	3230.136971
878.540822	3301.650779
878.851285	3401.211047
879.161707	3546.441648
879.472087	3785.520890
879.782425	4180.167619
880.092722	4880.951018
880.402977	5899.100258
880.713191	7022.039962
881.023363	8099.841175
881.333494	8719.550217
881.643583	9056.977329
881.953631	9020.252523
882.263637	8715.217345
882.573602	8248.159483
882.883526	7762.459433
883.193408	7254.911023
883.503248	6749.946204
883.813048	6279.178052
884.122806	5843.362740
884.432522	5409.211009
884.742197	5035.608577
885.051831	4715.369279
885.361424	4426.122995
885.670975	4197.045402
885.980485	3999.129702
886.289954	3837.532995
886.599382	3704.665824
886.908768	3588.747012
887.218113	3486.018378
887.527417	3404.873446
887.836680	3326.332269
888.145901	3264.242897
888.455082	3217.052656
888.764221	3171.221006
889.073319	3134.546612
889.382376	3113.895525
889.691392	3096.100252
890.000366	3091.543049
890.309300	3087.179930
890.618193	3090.577668
890.927044	3085.065166
891.235855	3091.381732
891.544625	3100.327259
891.853353	3117.933489
892.162041	3157.352792
892.470687	3215.961246
892.779293	3292.309521
893.087858	3398.584606
893.396381	3574.047007
893.704864	3826.954134
894.013306	4173.843492
894.321707	4531.029406
894.630068	4761.705044
894.938387	4800.771466
895.246665	4700.490313
895.554903	4507.875387
895.863100	4295.574754
896.171256	4127.696769
896.479371	3972.759426
896.787446	3834.057119
897.095480	3707.957697
897.403473	3609.004888
897.711425	3519.108512
898.019336	3438.634053
898.327207	3360.292002
898.635038	3293.894964
898.942827	3227.460118
899.250576	3171.934329
899.558284	3114.442490
899.865952	3081.755649
900.173579	3037.917775
900.481165	3009.079854
900.788711	2982.023982
901.096216	2961.677885
901.403681	2945.697427
901.711105	2937.238371
902.018489	2932.300561
902.325832	2954.174127
902.633135	2993.409428
902.940397	3105.701129
903.247619	3357.163966
903.554800	3811.056855
903.861941	4389.128487
904.169041	4818.218900
904.476101	4959.857679
904.783121	4820.638653
905.090100	4581.614864
905.397039	4324.387469
905.703938	4103.176597
906.010796	3896.413672
906.317614	3738.466760
906.624391	3586.513780
906.931129	3460.865541
907.237826	3344.414888
907.544483	3235.394894
907.851099	3127.478914
908.157675	3027.238090
908.464211	2939.128803
908.770707	2872.678834
909.077163	2821.632110
909.383578	2781.897736
909.689954	2755.555186
909.996289	2735.173801
910.302584	2721.257696
910.608839	2713.940461
910.915054	2706.643391
911.221229	2700.785570
911.527363	2707.223124
911.833458	2711.407281
912.139513	2717.975905
912.445527	2729.482338
912.751502	2749.155441
913.057436	2776.488577
913.363331	2817.717654
913.669186	2875.204452
913.975000	2953.990125
914.280775	3070.473546
914.586510	3247.082810
914.892205	3482.905466
915.197859	3792.926345
915.503475	4155.070235
915.809050	4461.791679
916.114585	4646.817148
916.420081	4699.487124
916.725536	4667.581661
917.030952	4524.969939
917.336328	4398.139550
917.641665	4262.454373
917.946961	4120.981952
918.252218	3996.962006
918.557435	3848.169830
918.862612	3720.623596
919.167750	3607.583283
919.472848	3488.559120
919.777906	3381.918552
920.082925	3277.904424
920.387904	3178.336595
920.692843	3106.023763
920.997743	3039.798125
921.302603	2978.679176
921.607423	2938.324739
921.912204	2897.453585
922.216946	2860.517050
922.521647	2831.464881
922.826310	2805.210552
923.130932	2781.529731
923.435516	2750.876995
923.740059	2735.700602
924.044564	2710.923331
924.349028	2696.351875
924.653454	2675.053000
924.957840	2660.819302
925.262186	2643.150058
925.566493	2630.201855
925.870761	2612.663680
926.174989	2608.172012
926.479178	2594.404621
926.783328	2585.086048
927.087438	2574.159347
927.391509	2567.956208
927.695541	2559.058571
927.999533	2555.378529
928.303486	2547.511808
928.607400	2543.632640
928.911275	2540.996117
929.215110	2534.477905
929.518906	2530.729807
929.822663	2529.860208
930.126381	2534.384643
930.430060	2534.755168
930.733699	2534.540919
931.037299	2536.224665
931.340861	2537.779861
931.644383	2540.943185
931.947866	2537.159799
932.251309	2538.523431
932.554714	2536.544778
932.858080	2535.097967
933.161407	2533.754499
933.464694	2529.466998
933.767943	2525.194620
934.071153	2525.373581
934.374323	2523.773015
934.677455	2520.720596
934.980548	2516.939731
935.283602	2518.147087
935.586617	2515.636592
935.889593	2520.397962
936.192530	2518.169772
936.495428	2524.141019
936.798287	2529.905578
937.101108	2542.165664
937.403890	2555.590257
937.706632	2574.466858
938.009336	2601.190014
938.312002	2619.449073
938.614628	2636.117649
938.917216	2650.772283
939.219765	2655.284116
939.522275	2663.614622
939.824747	2667.632422
940.127179	2659.380053
940.429573	2656.640186
940.731929	2654.049033
941.034246	2645.867240
941.336524	2648.932262
941.638763	2641.705768
941.940964	2638.852475
942.243126	2627.144395
942.545250	2620.134670
942.847335	2606.747886
943.149381	2599.153388
943.451389	2589.302973
943.753359	2583.137642
944.055290	2576.909297
944.357182	2567.028635
944.659036	2564.654252
944.960851	2562.083263
945.262628	2559.633263
945.564367	2562.305074
945.866067	2554.254351
946.167729	2556.361554
946.469352	2556.689229
946.770937	2554.173693
947.072484	2549.248486
947.373992	2550.009700
947.675462	2548.421736
947.976893	2542.505942
948.278286	2541.868236
948.579641	2539.524100
948.880958	2538.588966
949.182236	2538.296579
949.483476	2535.339942
949.784678	2537.305992
950.085841	2535.896990
950.386967	2539.897145
950.688054	2542.972249
950.989103	2548.351160
951.290114	2555.035730
951.591087	2564.253480
951.892021	2569.758420
952.192917	2579.835687
952.493776	2590.210381
952.794596	2592.433530
953.095378	2591.057295
953.396122	2588.516553
953.696828	2586.883220
953.997496	2582.648650
954.298126	2577.859554
954.598718	2573.052814
954.899272	2562.065619
955.199788	2555.174362
955.500266	2544.270346
955.800706	2534.452699
956.101108	2521.635565
956.401472	2517.131294
956.701798	2503.759634
957.002087	2493.813437
957.302337	2488.681543
957.602550	2484.469659
957.902724	2477.953967
958.202861	2468.151444
958.502960	2463.402677
958.803022	2458.164918
959.103045	2451.457663
959.403031	2451.750050
959.702979	2448.443053
960.002889	2442.751590
960.302762	2443.996755
960.602596	2438.390992
960.902393	2434.353028
961.202153	2433.871597
961.501875	2430.345310
961.801559	2431.313212
962.101205	2429.521082
962.400814	2429.642069
962.700385	2424.472366
962.999918	2424.343817
963.299414	2423.219639
963.598873	2423.625452
963.898293	2422.725606
964.197677	2421.505647
964.497022	2421.281316
964.796331	2418.309556
965.095601	2419.461459
965.394835	2419.867272
965.694030	2418.435584
965.993189	2419.816861
966.292309	2416.772004
966.591393	2419.158990
966.890439	2416.613207
967.189447	2414.994997
967.488419	2418.196130
967.787353	2419.428692
968.086249	2414.778227
968.385108	2419.894998
968.683930	2418.307035
968.982714	2419.106058
969.281462	2425.092428
969.580172	2424.109403
969.878844	2422.097983
970.177480	2424.124527
970.476078	2428.222985
970.774639	2430.829261
971.073162	2431.807245
971.371649	2431.257759
971.670098	2432.026535
971.968510	2432.530651
972.266885	2432.427307
972.565223	2438.277566
972.863524	2438.133893
973.161788	2442.219748
973.460014	2437.924685
973.758204	2441.720674
974.056356	2439.268153
974.354471	2440.823349
974.652550	2438.264963
974.950591	2440.362083
975.248595	2439.573143
975.546563	2438.892587
975.844493	2436.339242
976.142386	2436.303954
976.440243	2434.345466
976.738062	2433.213727
977.035845	2430.526792
977.333590	2429.170722
977.631299	2428.706935
977.928971	2430.128541
978.226606	2425.997315
978.524204	2428.114600
978.821765	2427.819692
979.119290	2424.643765
979.416777	2427.766760
979.714228	2424.575710
980.011642	2428.510330
980.309020	2430.367996
980.606360	2434.189190
980.903664	2439.832762
981.200931	2445.612445
981.498162	2459.165587
981.795356	2477.540593
982.092513	2505.224089
982.389633	2534.813142
982.686717	2563.388922
982.983764	2583.858527
983.280775	2595.634663
983.577749	2597.061309
983.874686	2589.678539
984.171587	2579.593711
984.468451	2568.241033
984.765279	2554.531615
985.062070	2541.389327
985.358824	2530.588655
985.655543	2513.355470
985.952224	2498.466422
986.248869	2483.032930
986.545478	2464.347893
986.842050	2451.770214
987.138586	2438.728749
987.435086	2431.459405
987.731549	2423.297777
988.027975	2421.606470
988.324366	2415.862075
988.620719	2414.783268
988.917037	2412.292938
989.213318	2408.953174
989.509563	2406.866136
989.805772	2410.891498
990.101944	2407.496281
990.398080	2408.837228
990.694180	2403.475960
990.990244	2407.266908
991.286271	2405.462175
991.582262	2404.864798
991.878217	2406.651887
992.174136	2406.591393
992.470019	2405.580642
992.765865	2409.830335
993.061676	2411.337640
993.357450	2412.408885
993.653188	2412.789492
993.948890	2420.721748
994.244556	2423.065884
994.540186	2427.817172
994.835780	2435.648604
995.131337	2448.987497
995.426859	2456.571913
995.722345	2469.764613
996.017795	2482.680049
996.313208	2491.509630
996.608586	2499.066320
996.903928	2503.678975
997.199234	2499.767040
997.494504	2495.096411
997.789738	2494.758654
998.084936	2488.457211
998.380099	2482.254072
998.675225	2469.928450
998.970316	2465.003243
999.265371	2454.752057
999.560390	2446.000614
999.855373	2436.563574
1000.150320	2431.237595
1000.445232	2424.868097
1000.740108	2417.888619
1001.034948	2416.093968
1001.329752	2411.753535
1001.624521	2411.874523
1001.919254	2405.633574
1002.213951	2404.582494
1002.508613	2401.477143
1002.803239	2403.423028
1003.097829	2399.430434
1003.392384	2402.742472
1003.686903	2399.881618
1003.981386	2402.555950
1004.275834	2398.094529
1004.570246	2399.107801
1004.864623	2398.381874
1005.158964	2398.412121
1005.453270	2396.012532
1005.747540	2397.484549
1006.041775	2396.803993
1006.335974	2397.378685
1006.630138	2394.979096
1006.924266	2397.295506
1007.218359	2395.115207
1007.512416	2394.724517
1007.806438	2395.699981
1008.100425	2395.808365
1008.394376	2397.356000
1008.688292	2396.320043
1008.982172	2397.303068
1009.276017	2395.987326
1009.569827	2395.752913
1009.863602	2395.757954
1010.157341	2397.444220
1010.451045	2395.677295
1010.744714	2394.109497
1011.038347	2393.804507
1011.331945	2395.833571
1011.625508	2393.670916
1011.919036	2392.844167
1012.212528	2394.976575
1012.505986	2392.072870
1012.799408	2393.020607
1013.092795	2391.906512
1013.386147	2394.681668
1013.679464	2391.478014
1013.972745	2392.277037
1014.265992	2393.895247
1014.559204	2395.064795
1014.852380	2392.944990
1015.145521	2391.135216
1015.438628	2393.002963
1015.731699	2394.137223
1016.024736	2392.650082
1016.317737	2394.797614
1016.610703	2394.452295
1016.903635	2390.933570
1017.196531	2389.940462
1017.489393	2391.251162
1017.782219	2390.308467
1018.075011	2396.060423
1018.367768	2394.091852
1018.660490	2394.956410
1018.953177	2394.956410
1019.245829	2394.956410
