Dividing Wavelength (nm)	Counts (n)	Blue Motor Position (mm): 36.000000	Red Motor Position (mm): 0.000000	
326.493990	1971.370938
326.888308	1971.370938
327.282561	1971.370938
327.676750	1944.244489
328.070874	1947.417895
328.464933	1953.716817
328.858929	1961.008846
329.252859	1974.995527
329.646726	1990.164359
330.040528	2005.890239
330.434265	2023.471263
330.827938	2040.769982
331.221547	2063.813097
331.615091	2085.328741
332.008571	2103.310537
332.401986	2124.959772
332.795338	2144.358132
333.188625	2168.308654
333.581847	2180.548576
333.975006	2202.296113
334.368100	2219.814123
334.761129	2236.696947
335.154095	2252.803434
335.546996	2293.435134
335.939833	2372.067051
336.332606	2387.540873
336.725315	2400.920095
337.117960	2407.251785
337.510540	2416.434246
337.903056	2424.157294
338.295508	2432.003850
338.687896	2438.375868
339.080220	2446.376180
339.472480	2452.906994
339.864676	2454.063939
340.256807	2458.774898
340.648875	2461.136678
341.040879	2462.490228
341.432818	2461.708849
341.824694	2461.204734
342.216506	2461.792028
342.608253	2460.365382
342.999937	2461.857563
343.391557	2459.851184
343.783113	2460.531740
344.174605	2458.016204
344.566033	2456.287088
344.957397	2453.890019
345.348697	2452.654937
345.739934	2454.293312
346.131106	2450.764504
346.522215	2450.164607
346.913260	2445.362908
347.304241	2444.326951
347.695159	2443.177567
348.086012	2441.327464
348.476802	2440.790581
348.867528	2440.026846
349.258191	2437.218924
349.648789	2436.840837
350.039324	2435.704057
350.429796	2435.595672
350.820203	2432.238264
351.210548	2433.962338
351.600828	2432.031576
351.991045	2434.045517
352.381198	2428.021338
352.771288	2433.763213
353.161314	2429.417738
353.551276	2430.771288
353.941175	2430.957811
354.331010	2431.739189
354.720782	2433.203645
355.110490	2434.968048
355.500135	2434.264807
355.889717	2431.872780
356.279235	2432.976793
356.668689	2432.379416
357.058080	2432.197934
357.447408	2433.748089
357.836672	2430.259611
358.225873	2430.867070
358.615010	2431.507296
359.004084	2436.167843
359.393095	2435.194900
359.782043	2437.168512
360.170927	2435.809921
360.559748	2437.269335
360.948505	2439.063986
361.337199	2440.979624
361.725830	2442.731425
362.114398	2442.915427
362.502903	2440.092381
362.891344	2439.724377
363.279722	2441.634974
363.668037	2444.962136
364.056289	2444.158072
364.444478	2442.912907
364.832603	2446.608073
365.220665	2445.196550
365.608665	2447.633947
365.996601	2446.169492
366.384474	2445.819132
366.772284	2448.377518
367.160031	2448.707713
367.547715	2449.693259
367.935336	2449.670574
368.322893	2452.012190
368.710388	2452.118054
369.097820	2454.535287
369.485189	2447.429781
369.872495	2453.174176
370.259738	2450.532611
370.646918	2453.287602
371.034035	2454.260544
371.421090	2454.868003
371.808081	2454.759618
372.195010	2453.887499
372.581875	2456.123251
372.968678	2455.377160
373.355418	2454.948662
373.742096	2457.411265
374.128710	2454.953703
374.515262	2459.720114
374.901751	2459.233643
375.288177	2460.256997
375.674540	2459.228601
376.060841	2461.708849
376.447079	2460.362861
376.833254	2463.402677
377.219367	2456.609722
377.605417	2460.955197
377.991404	2458.636266
378.377329	2460.740948
378.763191	2456.322376
379.148991	2466.480301
379.534727	2462.248252
379.920402	2466.303861
380.306013	2464.862091
380.691563	2466.918882
381.077049	2465.058696
381.462474	2465.383850
381.847835	2467.763275
382.233134	2466.669344
382.618371	2468.471557
383.003545	2471.367700
383.388657	2470.535909
383.773706	2471.758389
384.158693	2474.412557
384.543618	2474.823411
384.928480	2475.559419
385.313280	2473.714357
385.698017	2477.230562
386.082692	2475.057824
386.467305	2478.637044
386.851856	2478.964719
387.236344	2478.448000
387.620770	2481.215594
388.005133	2480.671149
388.389435	2483.353043
388.773674	2482.622076
389.157851	2487.469145
389.541965	2482.475882
389.926018	2484.474700
390.310008	2486.647437
390.693936	2487.968219
391.077802	2490.433344
391.461606	2490.521564
391.845348	2488.459732
392.229027	2491.887717
392.612645	2490.330000
392.996200	2494.436020
393.379694	2496.394508
393.763125	2495.454333
394.146494	2496.235712
394.529801	2498.423573
394.913047	2499.073881
395.296230	2503.068996
395.679351	2501.927174
396.062410	2502.905158
396.445408	2501.559170
396.828343	2505.453462
397.211217	2500.245950
397.594028	2505.481188
397.976778	2505.801301
398.359466	2508.657115
398.742092	2504.626712
399.124656	2510.421519
399.507158	2514.028464
399.889598	2515.492919
400.271977	2516.864113
400.654294	2521.456604
401.036549	2522.669002
401.418742	2525.197141
401.800874	2526.197810
402.182944	2533.116793
402.564952	2537.978986
402.946898	2539.675334
403.328783	2547.244627
403.710606	2551.637992
404.092367	2562.801628
404.474067	2570.907803
404.855705	2575.734708
405.237282	2585.055801
405.618797	2603.934922
406.000250	2622.398148
406.381642	2639.311220
406.762972	2659.806031
407.144240	2671.849347
407.525447	2699.610981
407.906593	2718.989177
408.287677	2749.397417
408.668700	2784.708179
409.049661	2819.439208
409.430560	2861.653831
409.811399	2902.827455
410.192176	2953.135649
410.572891	3006.208917
410.953545	3083.767069
411.334138	3108.302365
411.714669	3206.514124
412.095139	3224.435426
412.475547	3327.900067
412.855894	3385.598594
413.236180	3492.536590
413.616405	3546.454251
413.996568	3651.622803
414.376670	3740.316864
414.756711	3812.581804
415.136691	3941.158953
415.516609	4061.272006
415.896466	4178.922454
416.276262	4336.214016
416.655997	4522.913148
417.035670	4646.121469
417.415283	4897.274274
417.794834	5043.457653
418.174324	5120.032780
418.553753	5232.390017
418.933121	5484.619109
419.312428	5584.789356
419.691674	5701.469383
420.070859	5976.933152
420.449983	6032.743767
420.829045	6341.690880
421.208047	6429.580877
421.586988	6728.838893
421.965867	6978.751574
422.344686	7148.903119
422.723444	7519.881631
423.102141	7204.010492
423.480777	7833.118766
423.859352	7810.748646
424.237866	8435.584542
424.616319	8502.299172
424.994712	8966.133216
425.373044	9069.146675
425.751314	9564.193023
426.129524	9337.764557
426.507673	10049.315861
426.885762	10098.570455
427.263789	10386.143076
427.641756	10660.293625
428.019662	10886.275949
428.397508	11094.137845
428.775292	11448.281424
429.153016	11617.893565
429.530679	11840.231135
429.908282	12045.890047
430.285824	12050.842981
430.663305	12666.801405
431.040726	12605.203546
431.418086	12663.383503
431.795385	13258.113628
432.172624	13714.007855
432.549802	13587.532867
432.926920	13880.617990
433.303977	13959.315443
433.680974	14290.436071
434.057910	14660.013142
434.434786	14845.731770
434.811601	14924.822433
435.188355	15859.475041
435.565050	15753.504946
435.941683	15857.146028
436.318257	16695.137032
436.694770	16672.915626
437.071222	17283.449768
437.447614	16673.535688
437.823946	16813.142882
438.200218	17071.343220
438.576429	16990.518400
438.952580	17343.043768
439.328670	17422.719205
439.704700	17901.228048
440.080670	17624.932488
440.456580	18256.263911
440.832429	18502.385645
441.208218	17697.845217
441.583947	18178.637703
441.959616	18364.913379
442.335224	18649.978026
442.710773	18841.080607
443.086261	19413.228883
443.461689	18896.513135
443.837057	19078.934848
444.212365	19722.685153
444.587612	19785.041706
444.962800	19462.433065
445.337927	19895.629498
445.712995	18777.229352
446.088002	20536.902076
446.462949	20767.582755
446.837837	20970.534568
447.212664	20974.315433
447.587431	23686.110883
447.962139	26494.031055
448.336786	28800.981522
448.711374	27362.510957
449.085901	23892.336925
449.460369	23867.058059
449.834776	23800.398882
450.209124	26209.266357
450.583412	25810.909338
450.957640	26334.670100
451.331808	25067.593724
451.705917	23775.208236
452.079965	23811.817096
452.453954	24180.181769
452.827883	24096.307051
453.201752	23902.356219
453.575562	24073.084976
453.949311	25139.704910
454.323001	25239.658387
454.696632	25012.319993
455.070202	26518.359663
455.443713	26675.827666
455.817164	27236.096463
456.190556	27766.851825
456.563888	27224.506850
456.937160	27648.165419
457.310373	26058.818161
457.683526	26474.950288
458.056619	26452.817102
458.429653	26406.108291
458.802628	26963.395246
459.175542	27093.013393
459.548398	28368.884061
459.921194	29906.446067
460.293930	30604.328282
460.666607	32578.832297
461.039224	34303.118641
461.411782	34658.799771
461.784280	33468.066629
462.156719	32958.242138
462.529099	32389.574778
462.901419	31119.503958
463.273680	30104.344123
463.645882	30195.674707
464.018024	30190.046259
464.390106	31029.587417
464.762130	33679.429607
465.134094	37698.252577
465.505999	42961.600320
465.877845	47466.352712
466.249631	48557.931398
466.621358	46762.564785
466.993026	44601.671668
467.364634	42516.763863
467.736184	40603.885434
468.107674	39387.815453
468.479105	38626.485276
468.850477	37935.650594
469.221790	36543.364560
469.593043	34875.687853
469.964238	34005.410780
470.335373	33926.851959
470.706449	35571.535963
471.077467	38061.477794
471.448425	42587.576952
471.819324	45430.908708
472.190164	43617.651040
472.560945	40103.750040
472.931667	37063.036945
473.302330	35988.124314
473.672934	35188.483888
474.043479	35677.246438
474.413965	34916.392650
474.784393	34549.074016
475.154761	35419.489722
475.525070	35469.503009
475.895321	35003.949931
476.265513	35600.217607
476.635645	36528.472992
477.005719	36377.341720
477.375734	36821.782446
477.745691	37500.596496
478.115588	38791.164648
478.485427	40747.865829
478.855207	44059.132609
479.224928	46648.816190
479.594591	48256.241026
479.964194	47218.799290
480.333739	47317.883169
480.703226	47338.178855
481.072653	47983.234818
481.442022	48487.140995
481.811333	48747.186396
482.180584	47458.952298
482.549777	46955.567881
482.918912	46431.865093
483.287988	46136.198899
483.657005	45311.745914
484.025964	44662.800700
484.394864	44667.030228
484.763706	44240.732615
485.132489	43380.026172
485.501213	43220.955082
485.869879	43373.928896
486.238487	42986.178466
486.607036	43176.940768
486.975527	42657.769978
487.343959	42862.738252
487.712333	42937.664922
488.080648	42850.465563
488.448905	43295.743120
488.817104	43103.249181
489.185244	44028.011046
489.553326	45686.558223
489.921350	48392.717663
490.289315	51338.241170
490.657222	51977.915702
491.025070	52264.228035
491.392861	51308.072385
491.760593	50025.539832
492.128267	48307.948141
492.495883	46778.721683
492.863440	45418.825063
493.230939	44071.826234
493.598380	43014.315666
493.965763	42694.885473
494.333088	41908.979671
494.700354	41443.703856
495.067563	41169.316372
495.434713	41038.357278
495.801805	41109.664399
496.168839	40747.134861
496.535815	40416.437690
496.902733	40446.495569
497.269593	40047.316843
497.636395	39982.522893
498.003139	40366.956244
498.369825	39827.799799
498.736453	40132.492179
499.103023	39692.583450
499.469535	39554.352491
499.835989	39649.181636
500.202385	39311.071447
500.568723	39346.039411
500.935003	39520.758242
501.301226	39331.440230
501.667390	39939.761305
502.033497	40185.666269
502.399546	39616.588056
502.765537	38961.217891
503.131470	39328.042492
503.497345	39659.337040
503.863163	38351.931434
504.228923	38960.063467
504.594625	39358.044919
504.960269	38657.740430
505.325856	39333.723872
505.691385	38695.309629
506.056856	38833.883386
506.422270	39264.176114
506.787625	38831.362809
507.152924	39022.137715
507.518164	39134.305908
507.883347	38374.765341
508.248472	38604.851164
508.613540	39057.738343
508.978550	39340.297537
509.343503	39110.453689
509.708398	39293.712234
510.073236	39810.470833
510.438016	39813.329167
510.802738	39272.867063
511.167403	39876.956090
511.532010	40091.242937
511.896561	40390.695038
512.261053	41212.667775
512.625488	40775.188883
512.989866	40640.499334
513.354186	40492.543989
513.718449	40472.530608
514.082655	41120.066820
514.446803	40820.612199
514.810894	41328.566422
515.174927	41241.747671
515.538904	41142.222691
515.902822	41791.185549
516.266684	41255.789805
516.630488	41674.540811
516.994235	41530.492360
517.357925	42060.156313
517.721558	42235.480082
518.085133	42543.497102
518.448651	42662.874146
518.812112	42456.718680
519.175516	42544.785117
519.538863	42879.076632
519.902152	42842.732433
520.265385	43303.554388
520.628560	43320.280937
520.991678	43136.034325
521.354739	43358.918860
521.717743	43678.802757
522.080690	43560.910333
522.443580	44095.123927
522.806413	44159.401159
523.169189	44099.764309
523.531908	44280.587977
523.894569	44133.046007
524.257174	44297.816120
524.619722	44594.251090
524.982213	44574.336012
525.344647	44510.499880
525.707025	44545.062031
526.069345	44945.233865
526.431608	44849.288104
526.793815	45167.732751
527.155964	44710.016147
527.518057	44885.856634
527.880093	44675.822000
528.242072	45202.882197
528.603995	44888.558693
528.965860	44907.115180
529.327669	44994.816133
529.689421	44895.039096
530.051117	44863.171442
530.412755	45002.803842
530.774337	45072.190283
531.135862	44881.624585
531.497331	45100.929901
531.858743	44992.726575
532.220098	45326.556824
532.581396	45057.018931
532.942638	44720.587446
533.303824	45006.471281
533.664953	44972.493904
534.026025	44716.057970
534.387040	45176.524524
534.747999	45115.360204
535.108902	45289.521987
535.469748	44813.846272
535.830537	44940.913596
536.191270	45137.722762
536.551947	44789.416840
536.912567	45084.914155
537.273131	45203.051075
537.633638	44720.834463
537.994089	45061.931535
538.354483	44665.749775
538.714821	45228.950003
539.075103	45569.885758
539.435328	45347.427201
539.795497	45230.492596
540.155609	45226.252986
540.515665	45687.516042
540.875665	45133.805786
541.235609	45467.585623
541.595496	45457.284025
541.955328	46106.662779
542.315102	45505.618608
542.674821	45298.306198
543.034483	45340.568711
543.394090	45301.172094
543.753640	45289.365711
544.113134	46258.993845
544.472571	45294.726978
544.831953	46538.868624
545.191278	45750.573315
545.550548	45495.039747
545.909761	45943.669672
546.268918	46134.658827
546.628019	46442.272555
546.987064	46022.712444
547.346053	45307.241643
547.704986	46178.763882
548.063863	45747.707419
548.422684	45959.032588
548.781449	45807.021635
549.140158	46196.183589
549.498811	46055.540437
549.857408	45493.474469
550.215949	46318.083730
550.574434	46256.589215
550.932864	46040.157357
551.291237	46742.251456
551.649555	46368.177676
552.007817	46609.769933
552.366022	46264.405524
552.724173	46433.808457
553.082267	46833.418202
553.440305	47131.332751
553.798288	46457.201932
554.156215	46768.190713
554.514086	46974.827609
554.871902	46729.416678
555.229661	46741.026455
555.587365	46568.089672
555.945014	46671.390477
556.302606	46591.957015
556.660143	46813.629153
557.017625	46902.345899
557.375050	46714.008391
557.732421	47043.495686
558.089735	47034.661064
558.446994	46965.125908
558.804197	47413.735668
559.161345	47357.047893
559.518437	46619.499359
559.875474	46924.035463
560.232455	47085.808611
560.589381	47251.465967
560.946251	46947.144112
561.303065	47627.611662
561.659825	47432.662681
562.016528	47129.217987
562.373177	46845.428751
562.729770	47313.404104
563.086307	46832.427616
563.442789	47298.653688
563.799216	47329.162751
564.155587	47138.339954
564.511904	47154.509455
564.868164	47248.839526
565.224370	47491.838265
565.580520	47220.583859
565.936615	47436.188968
566.292654	47174.424534
566.648638	47393.145076
567.004567	47352.208386
567.360441	47384.436482
567.716260	47244.496572
568.072023	47544.624187
568.427732	47514.778036
568.783385	47080.565811
569.138982	47459.670662
569.494525	47427.001465
569.850013	47194.453038
570.205445	47165.017741
570.560823	47115.495966
570.916145	46990.230854
571.271412	47014.718259
571.626625	46775.989378
571.981782	46844.750716
572.336884	46515.258380
572.691931	46838.214860
573.046923	46438.552183
573.401860	46278.901362
573.756743	46285.132228
574.111570	46400.032727
574.466342	46254.923113
574.821059	46352.648401
575.175722	45893.028761
575.530330	45913.090033
575.884882	45645.273693
576.239380	45593.206136
576.593823	45568.469194
576.948211	45477.867057
577.302544	45006.619995
577.656823	45059.907512
578.011047	45267.028359
578.365216	44997.543398
578.719330	44773.370848
579.073389	44623.620852
579.427394	44719.047374
579.781344	44697.458633
580.135239	44338.392368
580.489080	44433.397953
580.842866	43912.152727
581.196597	44380.284356
581.550273	44323.596581
581.903895	44172.853478
582.257463	44610.266836
582.610975	44006.737377
582.964434	44279.730981
583.317837	43926.298205
583.671186	43760.471970
584.024481	43999.205893
584.377721	43527.300961
584.730906	43809.043487
585.084037	43817.888192
585.437113	43537.042990
585.790135	43575.827108
586.143103	43181.588712
586.496016	43311.968074
586.848874	43329.352493
587.201679	43342.341026
587.554428	42835.705064
587.907124	43021.751368
588.259765	42785.182621
588.612352	43036.819377
588.964884	42435.964250
589.317362	42708.060528
589.669786	42654.767971
590.022155	42416.676795
590.374470	42840.665560
590.726731	42372.813715
591.078937	41896.938875
591.431090	41983.908861
591.783188	41642.663075
592.135232	41328.841165
592.487222	41574.047930
592.839157	41656.377534
593.191038	41332.170848
593.542866	41108.177259
593.894639	40510.182987
594.246358	40777.714501
594.598022	40753.305234
594.949633	40362.618331
595.301190	40331.343013
595.652692	40161.002424
596.004141	40491.056849
596.355535	39519.739929
596.706876	39468.882248
597.058162	39301.916712
597.409395	39762.103482
597.760573	39835.948824
598.111698	39421.855844
598.462768	39433.747926
598.813785	39472.673196
599.164748	38938.147051
599.515657	39319.215432
599.866511	38801.383067
600.217312	39412.416284
600.568060	38381.275991
600.918753	39117.072724
601.269392	39076.819111
601.619978	38732.135258
601.970510	38940.201321
602.320988	39124.102613
602.671412	39424.510012
603.021783	39158.011934
603.372100	38817.693721
603.722363	38926.116337
604.072572	38983.396447
604.422728	39014.074389
604.772830	38818.878392
605.122878	38918.867158
605.472872	38866.580310
605.822813	39132.823809
606.172701	38963.309970
606.522534	39188.125267
606.872314	39445.627405
607.222041	39209.426663
607.571714	39607.110687
607.921333	39055.913446
608.270899	39333.751599
608.620411	39680.194814
608.969870	39464.932504
609.319276	39474.911468
609.668627	39521.847131
610.017926	40003.539463
610.367171	40145.407615
610.716362	40245.973593
611.065500	40185.116784
611.414585	40388.141693
611.763616	40660.051449
612.112594	40587.254667
612.461518	40816.052476
612.810389	41099.486309
613.159207	40967.652575
613.507971	41036.391228
613.856682	41507.479493
614.205340	41398.046125
614.553945	42082.967534
614.902496	41531.442618
615.250994	42003.231603
615.599439	42077.676843
615.947830	42286.383133
616.296169	42335.557068
616.644454	42466.947181
616.992686	42632.561688
617.340864	43147.084535
617.688990	42870.829304
618.037063	43472.281808
618.385082	43438.871560
618.733048	43752.431330
619.080961	43743.783230
619.428821	43757.515333
619.776628	43862.857805
620.124382	43668.443186
620.472083	43817.449611
620.819731	43928.405408
621.167326	43601.564718
621.514868	43587.507461
621.862357	43146.782065
622.209793	43165.507431
622.557176	42852.260214
622.904506	42593.127262
623.251783	42242.688932
623.599007	42028.938967
623.946179	41805.394041
624.293297	41768.044133
624.640363	41174.609584
624.987376	41161.603407
625.334336	40939.094438
625.681243	40588.870357
626.028097	40555.724770
626.374899	40388.242516
626.721647	40372.927491
627.068343	40266.803641
627.414987	40031.646417
627.761577	39807.920009
628.108115	40135.045523
628.454600	39604.668248
628.801032	39798.349378
629.147412	39753.964539
629.493739	39769.917271
629.840014	39415.569526
630.186236	39734.178010
630.532405	39375.419256
630.878521	39587.656874
631.224585	39467.213626
631.570597	39181.342394
631.916556	39344.980769
632.262462	39277.076427
632.608316	39303.744130
632.954117	39201.375940
633.299866	39193.925114
633.645562	39110.393195
633.991206	38603.270762
634.336797	38192.396559
634.682336	38205.531286
635.027823	37934.924668
635.373257	37767.230685
635.718639	37522.001236
636.063968	37383.999649
636.409245	36823.453588
636.754470	36866.956225
637.099642	36623.478577
637.444762	36160.967835
637.789829	36297.522610
638.134845	35952.251463
638.479808	35906.492909
638.824719	35823.185322
639.169577	35426.348211
639.514383	35493.554354
639.859137	35196.690886
640.203839	35435.381959
640.548489	35071.571968
640.893086	35145.127444
641.237632	34902.375722
641.582125	34997.703941
641.926566	34952.676355
642.270955	34919.311478
642.615292	34925.587715
642.959576	34908.296557
643.303809	34906.824540
643.647990	35047.722269
643.992118	35018.498701
644.336195	35020.464751
644.680219	35105.398111
645.024192	35421.725473
645.368112	35929.251198
645.711981	35935.242610
646.055797	36803.924158
646.399562	36745.686228
646.743274	37683.552572
647.086935	38120.688666
647.430544	38006.020060
647.774101	38122.127916
648.117606	38359.397383
648.461059	38655.318155
648.804460	38255.128678
649.147810	37645.144021
649.491108	37398.535816
649.834354	37038.599952
650.177548	36228.315130
650.520690	35777.051202
650.863781	35779.826357
651.206820	35642.855687
651.549807	35206.221187
651.892742	34738.593674
652.235626	34549.482350
652.578458	34422.299079
652.921238	33820.171061
653.263967	34150.333870
653.606644	33832.070705
653.949269	33780.555153
654.291843	33384.438928
654.634365	33783.841986
654.976836	33392.618200
655.319255	33384.602766
655.661622	33399.136412
656.003938	33158.297808
656.346203	33038.351114
656.688416	33246.886004
657.030577	33044.781106
657.372687	32901.526637
657.714746	33165.088242
658.056753	33283.550316
658.398708	32744.580394
658.740612	32789.640748
659.082465	33071.153902
659.424266	32880.242885
659.766016	33003.816689
660.107715	32878.085271
660.449362	33010.009747
660.790958	32997.185052
661.132503	33031.555638
661.473996	33063.216605
661.815438	33176.153575
662.156829	33371.510889
662.498168	33135.216885
662.839456	33155.177334
663.180693	33304.650066
663.521879	33471.348421
663.863013	33420.263888
664.204097	33415.719288
664.545129	33881.912593
664.886110	33844.393805
665.227040	33901.704163
665.567918	34030.823236
665.908746	34090.172740
666.249522	34273.285092
666.590248	34260.828401
666.930922	34363.478896
667.271545	34324.871219
667.612118	34425.679173
667.952639	34206.126841
668.293109	34254.436218
668.633528	34169.901109
668.973896	34070.691201
669.314213	34105.495328
669.654480	33842.122765
669.994695	33881.053076
670.334859	33765.305663
670.674973	33660.928573
671.015035	33835.607074
671.355047	33791.824653
671.695008	33716.338415
672.034918	33636.365551
672.374777	33706.215778
672.714585	33544.757703
673.054342	33771.264307
673.394049	33534.705642
673.733705	33816.092768
674.073310	33488.246368
674.412864	33563.931732
674.752368	33161.526667
675.091820	33445.570480
675.431223	33028.694784
675.770574	32749.225817
676.109875	32624.956334
676.449125	32341.875381
676.788324	32269.605399
677.127473	31742.459503
677.466571	31660.558397
677.805619	31307.075210
678.144616	31310.162917
678.483562	31235.120301
678.822458	30927.299885
679.161303	30847.296774
679.500098	30758.822003
679.838842	30641.353036
680.177535	30802.594342
680.516179	31070.514025
680.854771	31315.556952
681.193314	32177.987469
681.531805	33321.605987
681.870247	34093.073924
682.208638	34830.272098
682.546978	35043.381836
682.885268	35127.967356
683.223508	34594.787199
683.561697	34253.974952
683.899836	34075.964248
684.237925	33570.228133
684.575963	33410.567229
684.913951	32975.230827
685.251889	33128.186996
685.589776	33102.431741
685.927614	33109.522124
686.265401	33259.234311
686.603137	33354.202087
686.940824	33857.301680
687.278460	34250.725929
687.616046	34398.799741
687.953582	34998.001369
688.291068	34871.077718
688.628504	35139.004963
688.965889	35064.955454
689.303224	34680.373389
689.640510	34333.083259
689.977745	33586.687500
690.314930	32794.157622
690.652065	32274.109670
690.989150	31520.810051
691.326185	30642.825053
691.663170	29930.066393
692.000105	29181.054275
692.336990	28489.755807
692.673825	28052.783551
693.010610	27528.133026
693.347345	26960.211757
693.684030	26308.493908
694.020665	26017.752922
694.357251	25362.216399
694.693786	25314.126312
695.030272	25075.450363
695.366707	24543.117119
695.703093	24247.826492
696.039429	24245.290791
696.375716	23992.350897
696.711952	23957.012409
697.048139	23797.979128
697.384276	23621.778198
697.720363	23749.100101
698.056400	23543.201733
698.392388	23333.305731
698.728326	23297.899187
699.064214	23085.659049
699.400053	23016.678420
699.735842	22672.612108
700.071581	22387.207183
700.407270	22102.573555
700.742910	21911.407960
701.078501	21652.169144
701.414042	21362.448991
701.749533	21061.925646
702.084974	20722.807227
702.420366	20919.296280
702.755709	20484.534569
703.091002	20200.836075
703.426246	20211.183043
703.761440	20112.162179
704.096584	19845.223000
704.431679	19794.715680
704.766725	19700.771258
705.101721	19647.831580
705.436668	19742.335571
705.771565	19417.907074
706.106413	19767.914386
706.441212	19747.210367
706.775961	19873.350118
707.110661	19947.429874
707.445311	20301.896086
707.779913	20149.741460
708.114465	20399.311343
708.448967	20676.884836
708.783421	21377.368286
709.117825	21650.366931
709.452180	21867.527236
709.786485	22265.501127
710.120742	23073.746802
710.454949	23095.743877
710.789107	23570.648296
711.123216	24264.406847
711.457275	24393.840992
711.791286	24938.353663
712.125247	24984.449974
712.459159	24688.390570
712.793023	25342.114798
713.126837	24225.300096
713.460602	24486.535209
713.794318	24104.393062
714.127985	23709.055695
714.461602	22821.202638
714.795171	22778.839302
715.128691	21767.833378
715.462162	21216.837783
715.795584	20798.169956
716.128957	20535.644308
716.462281	20135.545571
716.795556	19899.019674
717.128782	19401.140196
717.461960	18860.055510
717.795088	18777.199105
718.128167	18383.674033
718.461198	17928.576308
718.794180	17781.767826
719.127113	17417.095798
719.459997	17223.782671
719.792833	16888.934109
720.125619	16846.875763
720.458357	16538.399997
720.791046	16373.050151
721.123686	16204.605036
721.456278	15971.504603
721.788821	15927.820484
722.121315	15675.172977
722.453761	15738.179838
722.786158	15673.932853
723.118506	15686.785275
723.450805	15543.702205
723.783056	15704.580548
724.115259	15611.757782
724.447412	15542.499890
724.779518	15778.562001
725.111574	15807.276414
725.443582	16000.798748
725.775542	15988.226110
726.107453	16451.684589
726.439315	16344.411356
726.771129	16740.945997
727.102895	17105.219774
727.434612	17313.525292
727.766281	17445.525385
728.097901	17710.090180
728.429473	17739.742247
728.760996	17721.967138
729.092471	17801.745918
729.423897	17674.557607
729.755276	17535.724230
730.086606	17651.065830
730.417887	18182.930246
730.749120	18690.929840
731.080305	18872.923055
731.411442	19205.223314
731.742530	19262.266490
732.073570	19372.466113
732.404562	19660.870525
732.735506	19470.501432
733.066401	19177.307924
733.397249	18659.420108
733.728048	18015.402621
734.058798	17179.445723
734.389501	16510.943353
734.720156	16049.130811
735.050762	15527.794844
735.381320	15171.319733
735.711831	14938.080668
736.042293	14581.209825
736.372707	14591.461011
736.703073	14390.591195
737.033391	14577.744032
737.363661	14541.515780
737.693883	14651.360001
738.024056	14819.752184
738.354182	15016.652091
738.684260	15296.829340
739.014290	15517.399985
739.344272	15708.971393
739.674207	15993.325237
740.004093	16109.440655
740.333931	16085.772437
740.663722	16127.750125
740.993464	16115.842920
741.323159	15939.611743
741.652806	15664.944476
741.982405	15448.963801
742.311956	15114.909221
742.641460	14995.650644
742.970915	14684.266133
743.300323	14347.070914
743.629683	14139.347649
743.958996	13865.728942
744.288260	13593.700719
744.617477	13299.332622
744.946647	13218.031413
745.275768	12948.740537
745.604842	12763.452927
745.933869	12593.669386
746.262847	12541.264071
746.591778	12477.080101
746.920662	12369.983308
747.249498	12374.714431
747.578286	12498.588183
747.907027	12637.474492
748.235720	12861.032022
748.564365	12881.794014
748.892963	12778.793158
749.221514	12841.321110
749.550017	12692.344932
749.878473	12665.873833
750.206881	12438.331272
750.535242	12350.554701
750.863555	12265.477668
751.191821	12162.701144
751.520039	12179.805779
751.848210	12092.087181
752.176334	12123.042387
752.504411	12035.326310
752.832440	11874.558872
753.160421	11935.536669
753.488356	11813.041672
753.816243	11725.053373
754.144082	11580.856208
754.471875	11524.037363
754.799620	11469.050977
755.127318	11446.522061
755.454969	11406.303736
755.782572	11351.944974
756.110129	11371.965916
756.437638	11290.284100
756.765100	11283.728080
757.092515	11279.604416
757.419882	11304.606018
757.747203	11297.346757
758.074477	11370.637572
758.401703	11338.916112
758.728882	11495.680873
759.056014	11541.973788
759.383099	11653.776498
759.710138	11756.958835
760.037129	11836.072183
760.364073	11851.324194
760.690970	11846.978720
761.017820	11839.845487
761.344623	12025.354907
761.671379	12348.840708
761.998088	12980.519971
762.324751	14542.334967
762.651366	17417.839368
762.977935	21085.190571
763.304456	23290.178660
763.630931	23743.968206
763.957359	22558.513153
764.283740	20645.347377
764.610074	18761.652187
764.936362	16637.267106
765.262602	15118.153203
765.588796	13654.176921
765.914943	12621.925053
766.241044	11776.808379
766.567097	11145.320680
766.893104	10602.494275
767.219064	10246.596376
767.544978	9853.293114
767.870845	9551.161641
768.196665	9361.349596
768.522438	9165.609153
768.848165	9004.776181
769.173846	8832.381322
769.499479	8708.263074
769.825066	8556.544508
770.150607	8370.636836
770.476101	8316.956109
770.801548	8203.706588
771.126949	8063.507058
771.452303	7975.790982
771.777611	7808.306207
772.102872	7788.358361
772.428087	7671.025505
772.753256	7549.107720
773.078378	7462.059596
773.403453	7318.416958
773.728482	7214.012142
774.053465	7151.254817
774.378401	7068.312713
774.703291	6972.384597
775.028135	6875.927159
775.352932	6842.065728
775.677683	6754.374857
776.002388	6670.651374
776.327046	6667.798081
776.651658	6580.134936
776.976224	6508.454770
777.300743	6491.902141
777.625216	6423.586945
777.949643	6381.437858
778.274024	6386.201748
778.598359	6316.182642
778.922647	6316.018804
779.246889	6280.851715
779.571086	6289.431759
779.895236	6299.942564
780.219339	6297.353932
780.543397	6292.721112
780.867409	6340.722978
781.191374	6340.801116
781.515294	6307.126209
781.839167	6356.572366
782.162995	6332.677297
782.486776	6280.859277
782.810511	6239.173975
783.134201	6165.719323
783.457844	6155.999978
783.781441	6107.173883
784.104993	6058.229320
784.428498	6031.216297
784.751958	6011.873390
785.075372	5990.161140
785.398739	5950.081446
785.722061	5973.185054
786.045337	5975.325024
786.368568	6083.422486
786.691752	6105.777483
787.014891	6352.952818
787.337983	6634.397916
787.661030	7080.247645
787.984031	7500.447983
788.306987	7762.678723
788.629897	7846.765169
788.952760	7757.423320
789.275579	7577.078562
789.598351	7286.088039
789.921078	7020.658686
790.243759	6736.756025
790.566395	6534.731784
790.888984	6344.612229
791.211529	6197.657553
791.534027	6037.805085
791.856480	5904.993366
792.178888	5841.550445
792.501249	5778.551146
792.823566	5678.156567
793.145836	5669.659702
793.468062	5647.889479
793.790241	5609.841370
794.112375	5653.149923
794.434464	5750.103914
794.756507	5780.181959
795.078505	5901.192336
795.400457	6112.530108
795.722364	6359.158478
796.044226	6552.998405
796.366042	6711.267951
796.687812	6655.059085
797.009538	6683.944897
797.331218	6594.330826
797.652852	6523.265680
797.974442	6400.720271
798.295986	6333.567061
798.617484	6198.002872
798.938938	6091.180822
799.260346	6021.512076
799.581709	5887.404781
799.903026	5833.693807
800.224299	5760.297128
800.545526	5643.788500
800.866708	5583.619809
801.187845	5531.844638
801.508936	5454.115087
801.829983	5427.255819
802.150984	5318.651721
802.471940	5292.175581
802.792851	5277.019352
803.113717	5251.788377
803.434538	5228.967074
803.755314	5196.809553
804.076045	5185.504766
804.396731	5151.562677
804.717372	5167.447353
805.037967	5166.761756
805.358518	5200.918094
805.679024	5257.114356
805.999485	5267.478969
806.319901	5288.339263
806.640272	5305.968178
806.960598	5352.656825
807.280879	5344.548129
807.601115	5377.194641
807.921306	5340.162325
808.241453	5333.961706
808.561554	5352.369479
808.881611	5314.896062
809.201623	5310.283406
809.521590	5260.426394
809.841513	5245.996092
810.161390	5259.307258
810.481223	5169.030275
810.801011	5154.973018
811.120755	5138.092714
811.440453	5076.651131
811.760107	5052.786309
812.079716	5022.380589
812.399281	4971.800172
812.718801	4964.866065
813.038276	4929.784675
813.357707	4898.940376
813.677093	4920.529117
813.996434	4857.033264
814.315731	4877.286099
814.634983	4879.136203
814.954191	4883.867326
815.273354	4940.764308
815.592473	4979.331656
815.911547	5054.306217
816.230577	5109.466522
816.549562	5200.572775
816.868502	5253.227627
817.187399	5305.486748
817.506250	5389.487495
817.825058	5412.707049
818.143821	5569.174382
818.462539	5738.486575
818.781213	5968.355629
819.099843	6328.878787
819.418429	6959.287679
819.736970	7579.886485
820.055466	8290.943755
820.373919	9202.661634
820.692327	10664.092134
821.010691	13377.364642
821.329011	19625.476584
821.647286	29244.282947
821.965517	39608.355852
822.283704	45094.951093
822.601847	46543.221661
822.919945	41937.245420
823.237999	36784.372043
823.556010	31568.658163
823.873976	26847.897370
824.191897	22635.904947
824.509775	19558.323373
824.827609	16774.925894
825.145398	15225.670933
825.463144	14467.557012
825.780845	14772.478764
826.098502	16029.929056
826.416116	18504.452518
826.733685	20796.302208
827.051210	21325.625883
827.368692	19885.058198
827.686129	17301.595401
828.003522	14819.094313
828.320872	12590.445568
828.638177	10941.844588
828.955439	9691.358650
829.272656	8626.863562
829.589830	7784.910212
829.906960	7050.867800
830.224046	6516.185379
830.541088	6108.529953
830.858086	5850.188462
831.175041	5645.673892
831.491952	5590.364872
831.808819	5624.168330
832.125642	5872.843408
832.442421	6425.200114
832.759157	7541.485495
833.075849	9316.826125
833.392497	11174.085504
833.709101	12288.117490
834.025662	12024.603775
834.342179	10968.597991
834.658653	9659.453187
834.975083	8546.232827
835.291469	7652.368195
835.607811	6903.661067
835.924110	6379.514657
836.240366	5892.629937
836.556578	5439.397438
836.872746	5086.277214
837.188871	4818.755782
837.504952	4593.963171
837.820990	4421.134773
838.136984	4310.287362
838.452935	4259.780041
838.768842	4295.204229
839.084706	4576.636725
839.400526	5318.326567
839.716303	6227.150823
840.032037	6797.922865
840.347727	6644.122302
840.663373	6039.813985
840.978977	5462.874092
841.294537	5019.441597
841.610054	4686.927089
841.925527	4450.386068
842.240957	4242.314964
842.556344	4058.713620
842.871687	3900.628077
843.186987	3750.842793
843.502244	3627.427785
843.817458	3542.927964
844.132629	3471.144454
844.447756	3420.753080
844.762840	3377.731873
845.077881	3337.916840
845.392879	3300.685398
845.707833	3280.125052
846.022745	3251.710589
846.337613	3241.532499
846.652438	3217.501319
846.967221	3208.117211
847.281960	3190.987370
847.596656	3178.439938
847.911309	3165.002743
848.225919	3153.950013
848.540485	3142.279742
848.855009	3135.640542
849.169490	3122.064715
849.483928	3116.874847
849.798323	3112.327726
850.112675	3100.909513
850.426984	3103.535954
850.741251	3094.043461
851.055474	3091.795107
851.369654	3093.471290
851.683792	3091.348964
851.997887	3092.304263
852.311938	3090.965837
852.625947	3093.372988
852.939914	3089.216556
853.253837	3095.172680
853.567718	3091.308635
853.881555	3080.656677
854.195350	3090.890219
854.509103	3087.023654
854.822812	3086.348140
855.136479	3077.392530
855.450103	3084.384610
855.763685	3080.515525
856.077224	3080.553333
856.390720	3087.976432
856.704173	3096.833740
857.017584	3107.314299
857.330953	3110.966615
857.644278	3115.831328
857.957561	3119.692852
858.270802	3119.211422
858.584000	3116.307717
858.897155	3112.771348
859.210268	3101.131323
859.523339	3088.656988
859.836367	3085.440732
860.149352	3083.041143
860.462295	3075.242478
860.775195	3067.290058
861.088054	3064.963565
861.400869	3063.499110
861.713642	3061.593554
862.026373	3071.350707
862.339062	3076.442272
862.651708	3082.786565
862.964312	3100.027311
863.276873	3109.749176
863.589392	3139.701192
863.901869	3165.373267
864.214303	3186.299097
864.526696	3207.698795
864.839045	3223.074314
865.151353	3235.606623
865.463619	3232.788618
865.775842	3236.355234
866.088023	3242.044176
866.400162	3234.116962
866.712258	3234.366499
867.024313	3237.184504
867.336325	3234.192579
867.648296	3237.764237
867.960224	3230.860377
868.272110	3237.784401
868.583954	3236.970255
868.895755	3243.216245
869.207515	3241.338415
869.519233	3260.618308
869.830909	3267.668361
870.142542	3279.089095
870.454134	3283.111936
870.765684	3296.150881
871.077191	3316.010506
871.388657	3329.266220
871.700081	3344.987058
872.011463	3364.944987
872.322803	3385.492730
872.634101	3401.127868
872.945357	3424.223915
873.256571	3450.828604
873.567744	3465.024493
873.878874	3470.748723
874.189963	3488.075169
874.501010	3493.862414
874.812015	3488.773369
875.122979	3503.453209
875.433900	3503.226357
875.744780	3504.534537
876.055618	3512.686082
876.366415	3508.592665
876.677169	3515.526772
876.987882	3533.881614
877.298554	3551.991959
877.609183	3591.852362
877.919771	3640.242398
878.230317	3709.631360
878.540822	3810.368737
878.851285	3969.429744
879.161707	4194.665978
879.472087	4570.695725
879.782425	5200.449267
880.092722	6397.796402
880.402977	8354.351388
880.713191	10744.135575
881.023363	13152.871979
881.333494	14498.512217
881.643583	14960.362568
881.953631	14546.872006
882.263637	13704.752297
882.573602	12667.524811
882.883526	11686.223885
883.193408	10727.910621
883.503248	9803.967944
883.813048	8966.531467
884.122806	8191.320473
884.432522	7419.426558
884.742197	6753.424600
885.051831	6181.112486
885.361424	5681.095559
885.670975	5282.065547
885.980485	4956.154951
886.289954	4684.845092
886.599382	4469.350889
886.908768	4285.706695
887.218113	4119.729226
887.527417	3988.868433
887.836680	3862.375801
888.145901	3762.981891
888.455082	3684.440714
888.764221	3616.669963
889.073319	3553.887433
889.382376	3519.905015
889.691392	3500.481449
890.000366	3493.070953
890.309300	3484.415292
890.618193	3489.925273
890.927044	3484.695076
891.235855	3490.600787
891.544625	3506.117459
891.853353	3533.296840
892.162041	3597.074998
892.470687	3685.746373
892.779293	3806.068633
893.087858	3981.137824
893.396381	4262.981174
893.704864	4681.250750
894.013306	5255.002113
894.321707	5833.431667
894.630068	6201.249375
894.938387	6239.940231
895.246665	6055.305451
895.554903	5735.164455
895.863100	5394.072424
896.171256	5122.192915
896.479371	4879.403384
896.787446	4651.911234
897.095480	4454.408909
897.403473	4302.493738
897.711425	4156.927900
898.019336	4031.950134
898.327207	3910.901948
898.635038	3806.050989
898.942827	3696.703321
899.250576	3611.883387
899.558284	3524.184954
899.865952	3474.093529
900.173579	3407.802356
900.481165	3358.651106
900.788711	3321.838080
901.096216	3283.066566
901.403681	3254.518512
901.711105	3246.061976
902.018489	3242.321440
902.325832	3274.108435
902.633135	3335.602951
902.940397	3507.614682
903.247619	3915.509563
903.554800	4679.120862
903.861941	5658.667466
904.169041	6370.758173
904.476101	6585.095432
904.783121	6304.381300
905.090100	5897.877778
905.397039	5474.151153
905.703938	5113.166729
906.010796	4788.367707
906.317614	4527.515722
906.624391	4286.823311
906.931129	4088.592539
907.237826	3907.547060
907.544483	3735.023652
907.851099	3562.964030
908.157675	3402.615009
908.464211	3253.714447
908.770707	3155.865651
909.077163	3074.836665
909.383578	3014.796523
909.689954	2971.394709
909.996289	2939.552260
910.302584	2918.187850
910.608839	2903.424831
910.915054	2891.812533
911.221229	2889.891854
911.527363	2893.261865
911.833458	2897.695560
912.139513	2911.629309
912.445527	2929.681681
912.751502	2960.944397
913.057436	3004.943588
913.363331	3063.365519
913.669186	3152.190650
913.975000	3269.095008
914.280775	3457.848411
914.586510	3732.755133
914.892205	4117.034729
915.197859	4620.318323
915.503475	5210.329928
915.809050	5710.505651
916.114585	6007.908522
916.420081	6068.082255
916.725536	6005.032544
917.030952	5760.697899
917.336328	5553.793822
917.641665	5339.847253
917.946961	5106.628352
918.252218	4905.849277
918.557435	4677.873177
918.862612	4476.242146
919.167750	4299.017862
919.472848	4107.857308
919.777906	3937.657872
920.082925	3776.910599
920.387904	3619.855972
920.692843	3504.615195
920.997743	3407.192376
921.302603	3312.380875
921.607423	3244.635329
921.912204	3182.500588
922.216946	3132.978813
922.521647	3082.320258
922.826310	3041.008002
923.130932	3001.457630
923.435516	2963.802731
923.740059	2932.769388
924.044564	2902.701426
924.349028	2877.515821
924.653454	2846.185050
924.957840	2817.732778
925.262186	2800.900365
925.566493	2780.287087
925.870761	2752.180134
926.174989	2740.504821
926.479178	2724.877244
926.783328	2710.618341
927.087438	2700.946887
927.391509	2688.510361
927.695541	2674.085099
927.999533	2663.302071
928.303486	2656.620021
928.607400	2649.436377
928.911275	2646.265491
929.215110	2635.318626
929.518906	2632.674541
929.822663	2633.304685
930.126381	2634.990951
930.430060	2635.742083
930.733699	2636.765437
931.037299	2644.259112
931.340861	2642.136786
931.644383	2644.614513
931.947866	2644.115439
932.251309	2642.693834
932.554714	2640.140489
932.858080	2638.239974
933.161407	2637.826600
933.464694	2632.361989
933.767943	2629.763274
934.071153	2622.297325
934.374323	2620.144753
934.677455	2618.942437
934.980548	2617.230966
935.283602	2614.304576
935.586617	2610.740480
935.889593	2614.259206
936.192530	2615.068311
936.495428	2621.067284
936.798287	2630.736217
937.101108	2645.272384
937.403890	2666.384736
937.706632	2692.266020
938.009336	2725.668706
938.312002	2758.932759
938.614628	2779.956891
938.917216	2799.854326
939.219765	2808.736839
939.522275	2821.813592
939.824747	2817.367294
940.127179	2813.362097
940.429573	2805.631488
940.731929	2808.051242
941.034246	2797.132102
941.336524	2793.895682
941.638763	2789.885444
941.940964	2780.551747
942.243126	2763.575662
942.545250	2755.149373
942.847335	2737.676734
943.149381	2727.483521
943.451389	2713.338043
943.753359	2699.474870
944.055290	2693.168387
944.357182	2681.392251
944.659036	2675.839420
944.960851	2672.156857
945.262628	2667.783657
945.564367	2671.327588
945.866067	2668.784326
946.167729	2666.498162
946.469352	2665.963800
946.770937	2662.699653
947.072484	2655.947027
947.373992	2657.146822
947.675462	2654.522901
947.976893	2648.995276
948.278286	2643.946561
948.579641	2639.754841
948.880958	2636.818369
949.182236	2637.680406
949.483476	2634.491877
949.784678	2634.141516
950.085841	2633.226547
950.386967	2637.410705
950.688054	2643.480254
950.989103	2654.439722
951.290114	2658.192861
951.591087	2671.705674
951.892021	2682.970132
952.192917	2698.050744
952.493776	2706.701364
952.794596	2714.424412
953.095378	2713.577498
953.396122	2712.544062
953.696828	2703.737166
953.997496	2703.091898
954.298126	2692.419775
954.598718	2686.733354
954.899272	2672.691220
955.199788	2664.292657
955.500266	2652.022489
955.800706	2634.890128
956.101108	2616.086624
956.401472	2608.771910
956.701798	2592.153746
957.002087	2578.524987
957.302337	2568.641804
957.602550	2555.184444
957.902724	2546.112888
958.202861	2535.518903
958.502960	2527.001874
958.803022	2523.094979
959.103045	2509.713237
959.403031	2507.865654
959.702979	2500.361896
960.002889	2496.530619
960.302762	2492.351503
960.602596	2485.419916
960.902393	2483.877323
961.202153	2480.595532
961.501875	2478.873978
961.801559	2476.721405
962.101205	2475.350211
962.400814	2473.444655
962.700385	2469.275621
962.999918	2469.900724
963.299414	2465.272945
963.598873	2467.034828
963.898293	2465.414097
964.197677	2463.090125
964.497022	2459.848663
964.796331	2458.860597
965.095601	2458.860597
965.394835	2453.922787
965.694030	2457.708693
965.993189	2456.443364
966.292309	2457.449074
966.591393	2455.379680
966.890439	2454.439505
967.189447	2457.285237
967.488419	2453.630400
967.787353	2455.873713
968.086249	2455.765329
968.385108	2457.025617
968.683930	2457.408745
968.982714	2459.770525
969.281462	2459.296657
969.580172	2461.242542
969.878844	2466.077009
970.177480	2467.455764
970.476078	2471.400467
970.774639	2473.467340
971.073162	2475.188894
971.371649	2475.902218
971.670098	2475.398102
971.968510	2479.095789
972.266885	2477.275932
972.565223	2484.550317
972.863524	2484.751963
973.161788	2484.880513
973.460014	2487.201964
973.758204	2490.085504
974.056356	2487.945534
974.354471	2489.299084
974.652550	2489.011738
974.950591	2489.500730
975.248595	2489.798158
975.546563	2489.883858
975.844493	2486.617190
976.142386	2482.760708
976.440243	2479.708289
976.738062	2477.603607
977.035845	2475.181333
977.333590	2472.847278
977.631299	2471.460961
977.928971	2467.680096
978.226606	2468.224540
978.524204	2468.874849
978.821765	2461.078705
979.119290	2465.535085
979.416777	2466.071968
979.714228	2463.115331
980.011642	2467.599437
980.309020	2472.363328
980.606360	2473.074130
980.903664	2483.499237
981.200931	2497.191010
981.498162	2516.753208
981.795356	2544.713968
982.092513	2585.748960
982.389633	2633.624798
982.686717	2674.659790
982.983764	2706.345963
983.280775	2725.635938
983.577749	2723.748026
983.874686	2714.268136
984.171587	2700.558718
984.468451	2681.611542
984.765279	2665.550425
985.062070	2646.353712
985.358824	2625.269086
985.655543	2604.716301
985.952224	2581.469020
986.248869	2550.667570
986.545478	2522.787469
986.842050	2504.788029
987.138586	2485.845894
987.435086	2471.627319
987.731549	2461.434106
988.027975	2454.520164
988.324366	2450.464555
988.620719	2443.724533
988.917037	2439.915941
989.213318	2441.415684
989.509563	2436.407298
989.805772	2437.478543
990.101944	2437.097936
990.398080	2432.273552
990.694180	2434.295054
990.990244	2433.508634
991.286271	2431.817327
991.582262	2433.881680
991.878217	2433.977462
992.174136	2436.351845
992.470019	2436.591300
992.765865	2438.514500
993.061676	2438.174222
993.357450	2439.338729
993.653188	2444.135387
993.948890	2450.129319
994.244556	2455.656944
994.540186	2465.567852
994.835780	2477.727115
995.131337	2491.696153
995.426859	2507.313647
995.722345	2530.210568
996.017795	2549.157745
996.313208	2563.091494
996.608586	2574.267732
996.903928	2574.925603
997.199234	2574.459296
997.494504	2572.031980
997.789738	2563.162070
998.084936	2554.554300
998.380099	2540.933102
998.675225	2529.663603
998.970316	2519.167921
999.265371	2502.811897
999.560390	2489.364619
999.855373	2478.206025
1000.150320	2470.684623
1000.445232	2462.424693
1000.740108	2453.811882
1001.034948	2447.467589
1001.329752	2440.107505
1001.624521	2438.270004
1001.919254	2429.221133
1002.213951	2430.118458
1002.508613	2424.313570
1002.803239	2427.141657
1003.097829	2422.226532
1003.392384	2419.191758
1003.686903	2421.114958
1003.981386	2423.804413
1004.275834	2418.985070
1004.570246	2418.445667
1004.864623	2417.016500
1005.158964	2416.582960
1005.453270	2415.980543
1005.747540	2417.283681
1006.041775	2414.097672
1006.335974	2414.841242
1006.630138	2410.659605
1006.924266	2414.667322
1007.218359	2411.763617
1007.512416	2412.209759
1007.806438	2412.847465
1008.100425	2411.456107
1008.394376	2412.426529
1008.688292	2412.305541
1008.982172	2413.994328
1009.276017	2411.367887
1009.569827	2410.273956
1009.863602	2412.418967
1010.157341	2410.762948
1010.451045	2409.651374
1010.744714	2411.249420
1011.038347	2410.112639
1011.331945	2411.383010
1011.625508	2410.178174
1011.919036	2410.795716
1012.212528	2410.210942
1012.505986	2409.837897
1012.799408	2406.006620
1013.092795	2409.222876
1013.386147	2406.873698
1013.679464	2409.255643
1013.972745	2406.235992
1014.265992	2405.966290
1014.559204	2407.967628
1014.852380	2408.038205
1015.145521	2410.233627
1015.438628	2405.005951
1015.731699	2407.009809
1016.024736	2408.174316
1016.317737	2406.019223
1016.610703	2407.433266
1016.903635	2405.101732
1017.196531	2403.949829
1017.489393	2406.167937
1017.782219	2403.186094
1018.075011	2410.964594
1018.367768	2408.086096
1018.660490	2409.008627
1018.953177	2409.008627
1019.245829	2409.008627
