Dividing Wavelength (nm)	Counts (n)	Blue Motor Position (mm): 48.600000	Red Motor Position (mm): 0.000000	
326.493990	1974.751032
326.888308	1974.751032
327.282561	1974.751032
327.676750	1955.972733
328.070874	1953.953751
328.464933	1958.977261
328.858929	1967.910186
329.252859	1979.817391
329.646726	1995.528147
330.040528	2007.546258
330.434265	2031.020391
330.827938	2051.971426
331.221547	2067.475495
331.615091	2087.952662
332.008571	2110.179109
332.401986	2132.085443
332.795338	2149.696714
333.188625	2170.902328
333.581847	2188.944617
333.975006	2207.458255
334.368100	2225.591285
334.761129	2244.036867
335.154095	2257.242170
335.546996	2298.846812
335.939833	2385.448794
336.332606	2397.043448
336.725315	2410.599111
337.117960	2420.162180
337.510540	2427.920515
337.903056	2437.254212
338.295508	2441.433328
338.687896	2451.066973
339.080220	2459.095011
339.472480	2462.959055
339.864676	2469.177318
340.256807	2469.305868
340.648875	2471.962556
341.040879	2473.243009
341.432818	2474.404995
341.824694	2476.398771
342.216506	2475.539255
342.608253	2473.895838
342.999937	2475.924903
343.391557	2474.871302
343.783113	2473.066569
344.174605	2472.496918
344.566033	2469.830148
344.957397	2469.071454
345.348697	2467.029787
345.739934	2460.874538
346.131106	2464.070630
346.522215	2463.881586
346.913260	2458.366564
347.304241	2461.068623
347.695159	2454.520164
348.086012	2459.195834
348.476802	2455.135184
348.867528	2452.886830
349.258191	2451.649227
349.648789	2450.875409
350.039324	2450.159566
350.429796	2450.842642
350.820203	2448.299380
351.210548	2445.388113
351.600828	2445.569595
351.991045	2449.514298
352.381198	2446.751746
352.771288	2448.342230
353.161314	2444.873916
353.551276	2445.627568
353.941175	2445.657815
354.331010	2444.533638
354.720782	2448.432970
355.110490	2450.966150
355.500135	2448.450614
355.889717	2448.944647
356.279235	2450.051181
356.668689	2447.351643
357.058080	2448.725357
357.447408	2446.078752
357.836672	2446.996242
358.225873	2449.345419
358.615010	2449.002621
359.004084	2451.992025
359.393095	2455.515792
359.782043	2455.215843
360.170927	2456.660133
360.559748	2454.734413
360.948505	2457.917901
361.337199	2459.503344
361.725830	2459.904116
362.114398	2458.903447
362.502903	2461.169446
362.891344	2462.727162
363.279722	2459.788169
363.668037	2463.702625
364.056289	2463.006946
364.444478	2467.269242
364.832603	2463.347224
365.220665	2464.922585
365.608665	2468.751341
365.996601	2469.444500
366.384474	2468.176649
366.772284	2469.701598
367.160031	2469.716722
367.547715	2471.551702
367.935336	2470.790488
368.322893	2471.171095
368.710388	2473.542958
369.097820	2477.107053
369.485189	2475.130921
369.872495	2477.485140
370.259738	2478.465644
370.646918	2477.830459
371.034035	2482.080152
371.421090	2483.040492
371.808081	2481.540748
372.195010	2483.768938
372.581875	2485.684577
372.968678	2487.965699
373.355418	2490.811430
373.742096	2497.397698
374.128710	2501.223933
374.515262	2504.740138
374.901751	2512.105264
375.288177	2520.917201
375.674540	2531.017153
376.060841	2542.926879
376.447079	2551.701007
376.833254	2568.576269
377.219367	2579.971798
377.605417	2606.084975
377.991404	2620.031327
378.377329	2650.316058
378.763191	2672.877742
379.148991	2706.396374
379.534727	2738.755541
379.920402	2774.633433
380.306013	2811.365800
380.691563	2859.619725
381.077049	2900.364851
381.462474	2945.896553
381.847835	3001.170284
382.233134	3061.908626
382.618371	3113.093982
383.003545	3184.466638
383.388657	3250.306627
383.773706	3328.903257
384.158693	3395.330541
384.543618	3480.503356
384.928480	3551.505487
385.313280	3640.118890
385.698017	3736.021801
386.082692	3845.054397
386.467305	3907.327770
386.851856	4024.479144
387.236344	4160.663395
387.620770	4226.200915
388.005133	4345.366231
388.389435	4479.322291
388.773674	4572.001384
389.157851	4696.245662
389.541965	4826.446063
389.926018	4869.908371
390.310008	5040.957241
390.693936	5165.055325
391.077802	5286.156444
391.461606	5423.984110
391.845348	5538.816554
392.229027	5665.639382
392.612645	5882.560232
392.996200	6007.318707
393.379694	6183.030645
393.763125	6410.608494
394.146494	6520.311564
394.529801	6664.024778
394.913047	6910.527118
395.296230	6928.322391
395.679351	6999.201014
396.062410	7258.459995
396.445408	7185.562390
396.828343	7345.992070
397.211217	7500.105184
397.594028	7406.014568
397.976778	7616.144984
398.359466	7794.006974
398.742092	7787.077908
399.124656	7941.627082
399.507158	8139.688975
399.889598	8174.513266
400.271977	8393.858911
400.654294	8436.189480
401.036549	8641.598855
401.418742	8676.418105
401.800874	8983.575609
402.182944	9072.894773
402.564952	9438.663252
402.946898	9275.730639
403.328783	9336.708436
403.710606	9532.005256
404.092367	9793.726840
404.474067	10150.234720
404.855705	9952.291293
405.237282	9907.530888
405.618797	10333.107617
406.000250	10581.732283
406.381642	10944.100504
406.762972	10898.205839
407.144240	10698.319048
407.525447	10950.706936
407.906593	10889.033460
408.287677	11152.723615
408.668700	11305.392438
409.049661	11276.385639
409.430560	11441.642224
409.811399	11414.475446
410.192176	11572.576113
410.572891	11650.439255
410.953545	12129.482461
411.334138	11610.432658
411.714669	12187.402798
412.095139	11527.253619
412.475547	12012.371416
412.855894	11865.182326
413.236180	12185.255266
413.616405	11875.819161
413.996568	12146.151036
414.376670	12123.851492
414.756711	11997.741987
415.136691	12273.399841
415.516609	12447.561624
415.896466	12518.346986
416.276262	12812.135350
416.655997	13247.532246
417.035670	13284.196558
417.415283	13924.372685
417.794834	14010.450387
418.174324	13757.054268
418.553753	13659.538188
418.933121	14143.741015
419.312428	13960.275782
419.691674	13867.601731
420.070859	14315.505729
420.449983	13981.985511
420.829045	14524.010373
421.208047	14267.579480
421.586988	14713.232603
421.965867	14969.083764
422.344686	14964.604698
422.723444	15520.767476
423.102141	14222.347727
423.480777	15401.093004
423.859352	14906.765020
424.237866	16006.394429
424.616319	15702.521237
424.994712	16354.077768
425.373044	16151.642674
425.751314	16817.538768
426.129524	15957.288549
426.507673	17017.087802
426.885762	16727.468472
427.263789	16913.487049
427.641756	17086.539778
428.019662	17146.017832
428.397508	17182.785487
428.775292	17472.127554
429.153016	17441.474818
429.530679	17510.432761
429.908282	17542.597843
430.285824	17265.241120
430.663305	17958.551009
431.040726	17565.318324
431.418086	17384.282927
431.795385	18031.214200
432.172624	18449.937480
432.549802	18004.372577
432.926920	18201.002782
433.303977	18080.373012
433.680974	18333.917845
434.057910	18623.867370
434.434786	18650.429210
434.811601	18571.081448
435.188355	19580.859852
435.565050	19234.968642
435.941683	19186.450057
436.318257	20050.783610
436.694770	19870.549757
437.071222	20460.117741
437.447614	19552.009328
437.823946	19562.724301
438.200218	19719.269772
438.576429	19491.591099
438.952580	19767.977400
439.328670	19723.161542
439.704700	20141.915069
440.080670	19724.094156
440.456580	20294.780497
440.832429	20459.817792
441.208218	19475.104006
441.583947	19906.410005
441.959616	20021.527274
442.335224	20253.725341
442.710773	20383.913139
443.086261	20915.497771
443.461689	20282.351533
443.837057	20409.562529
444.212365	21041.715660
444.587612	21028.606139
444.962800	20628.958586
445.337927	21034.330370
445.712995	19789.823240
446.088002	21609.291610
446.462949	21799.174231
446.837837	21969.182103
447.212664	21930.892019
447.587431	24694.893659
447.962139	27575.887876
448.336786	29960.081423
448.711374	28462.704976
449.085901	24825.391488
449.460369	24751.553707
449.834776	24643.730988
450.209124	27091.289319
450.583412	26642.629147
450.957640	27178.806270
451.331808	25859.190989
451.705917	24499.974925
452.079965	24524.548029
452.453954	24875.475351
452.827883	24775.907522
453.201752	24582.506175
453.575562	24728.906324
453.949311	25834.905231
454.323001	25894.930250
454.696632	25651.286243
455.070202	27166.614239
455.443713	27325.665164
455.817164	27903.285613
456.190556	28434.098948
456.563888	27892.605928
456.937160	28325.394027
457.310373	26685.350405
457.683526	27106.140558
458.056619	27078.540241
458.429653	27024.395728
458.802628	27586.350791
459.175542	27702.834212
459.548398	28989.447579
459.921194	30524.279800
460.293930	31186.558866
460.666607	33209.810838
461.039224	34963.592973
461.411782	35355.305751
461.784280	34177.155329
462.156719	33694.968964
462.529099	33114.094450
462.901419	31839.705882
463.273680	30789.641097
463.645882	30866.889218
464.018024	30837.842090
464.390106	31663.842709
464.762130	34309.057120
465.134094	38319.310128
465.505999	43579.638220
465.877845	48173.281277
466.249631	49369.189163
466.621358	47645.313673
466.993026	45530.753802
467.364634	43445.745174
467.736184	41485.046358
468.107674	40238.989074
468.479105	39467.057350
468.850477	38772.769478
469.221790	37364.137503
469.593043	35650.661913
469.964238	34771.421668
470.335373	34672.766287
470.706449	36324.422207
471.077467	38823.062549
471.448425	43387.023293
471.819324	46241.748058
472.190164	44459.664885
472.560945	40948.360079
472.931667	37848.945268
473.302330	36745.431650
473.672934	35911.481131
474.043479	36412.523932
474.413965	35645.814844
474.784393	35265.699241
475.154761	36147.704559
475.525070	36195.693823
475.895321	35718.840999
476.265513	36321.795766
476.635645	37269.550333
477.005719	37103.053625
477.375734	37548.704227
477.745691	38232.589679
478.115588	39554.332326
478.485427	41490.662204
478.855207	44817.848948
479.224928	47421.640198
479.594591	49089.447974
479.964194	48082.817772
480.333739	48217.827433
480.703226	48239.169158
481.072653	48853.915184
481.442022	49350.120999
481.811333	49631.258587
482.180584	48353.411787
482.549777	47825.058534
482.918912	47301.590160
483.287988	47016.908641
483.657005	46188.221086
484.025964	45557.227421
484.394864	45557.754222
484.763706	45125.656761
485.132489	44272.847285
485.501213	44097.873876
485.869879	44256.518988
486.238487	43838.718239
486.607036	44033.170667
486.975527	43517.508519
487.343959	43709.331985
487.712333	43800.526458
488.080648	43691.166187
488.448905	44148.749201
488.817104	43948.519611
489.185244	44895.843160
489.553326	46539.352575
489.921350	49239.082023
490.289315	52154.792147
490.657222	52801.405827
491.025070	53089.848047
491.392861	52200.853169
491.760593	50930.348810
492.128267	49236.074975
492.495883	47714.664827
492.863440	46318.913000
493.230939	44986.767931
493.598380	43915.469807
493.965763	43573.432559
494.333088	42766.724436
494.700354	42289.599389
495.067563	42002.069617
495.434713	41864.902342
495.801805	41941.699280
496.168839	41574.778897
496.535815	41238.236507
496.902733	41278.268310
497.269593	40869.448377
497.636395	40804.961937
498.003139	41191.830166
498.369825	40658.917190
498.736453	40951.160440
499.103023	40494.212611
499.469535	40380.151464
499.835989	40458.080141
500.202385	40145.987348
500.568723	40146.050362
500.935003	40335.265030
501.301226	40133.404628
501.667390	40759.604155
502.033497	41020.451099
502.399546	40447.314757
502.765537	39770.068505
503.131470	40161.173823
503.497345	40510.908913
503.863163	39171.565077
504.228923	39781.753900
504.594625	40183.354900
504.960269	39475.768464
505.325856	40163.137353
505.691385	39536.688288
506.056856	39680.497284
506.422270	40101.231984
506.787625	39670.185603
507.152924	39873.840657
507.518164	39982.923665
507.883347	39212.312723
508.248472	39458.943613
508.613540	39913.189383
508.978550	40218.317823
509.343503	39984.113377
509.708398	40172.365185
510.073236	40689.317868
510.438016	40696.254496
510.802738	40146.703191
511.167403	40779.055448
511.532010	40996.457728
511.896561	41301.646661
512.261053	42157.458144
512.625488	41689.858357
512.989866	41560.467061
513.354186	41411.248907
513.718449	41397.806671
514.082655	42072.212232
514.446803	41758.549119
514.810894	42275.663119
515.174927	42208.028478
515.538904	42110.721606
515.902822	42772.461269
516.266684	42228.414905
516.630488	42634.837769
516.994235	42496.269053
517.357925	43070.159047
517.721558	43225.287954
518.085133	43552.751226
518.448651	43678.031461
518.812112	43449.495792
519.175516	43551.778283
519.538863	43905.231223
519.902152	43855.149880
520.265385	44327.122868
520.628560	44356.220408
520.991678	44149.722144
521.354739	44400.701029
521.717743	44707.984562
522.080690	44611.779182
522.443580	45149.340102
522.806413	45204.223143
523.169189	45144.518238
523.531908	45337.438154
523.894569	45191.930290
524.257174	45359.707452
524.619722	45662.884964
524.982213	45639.952756
525.344647	45571.826602
525.707025	45618.772348
526.069345	46013.240116
526.431608	45922.874912
526.793815	46252.286590
527.155964	45783.139169
527.518057	45943.372244
527.880093	45738.779536
528.242072	46250.660818
528.603995	45968.207488
528.965860	45969.150184
529.327669	46046.637760
529.689421	45952.776516
530.051117	45930.945800
530.412755	46071.193220
530.774337	46121.458565
531.135862	45925.541683
531.497331	46145.651063
531.858743	46049.435600
532.220098	46380.150416
532.581396	46092.746673
532.942638	45763.367763
533.303824	46053.206383
533.664953	46008.274579
534.026025	45732.440285
534.387040	46207.339662
534.747999	46164.741912
535.108902	46316.682289
535.469748	45852.273553
535.830537	45973.407438
536.191270	46164.678898
536.551947	45809.653118
536.912567	46113.692668
537.273131	46230.246665
537.633638	45723.658595
537.994089	46071.173056
538.354483	45662.675757
538.714821	46226.382621
539.075103	46583.255984
539.435328	46342.258583
539.795497	46237.523571
540.155609	46224.449338
540.515665	46676.479521
540.875665	46141.930691
541.235609	46465.499671
541.595496	46421.971828
541.955328	47096.379910
542.315102	46454.701520
542.674821	46272.998170
543.034483	46301.004301
543.394090	46260.120543
543.753640	46226.092754
544.113134	47225.622492
544.472571	46257.665501
544.831953	47487.563367
545.191278	46703.852987
545.550548	46423.131294
545.909761	46881.140285
546.268918	47091.104343
546.628019	47384.441523
546.987064	46943.111189
547.346053	46238.693118
547.704986	47118.384547
548.063863	46668.262441
548.422684	46869.974129
548.781449	46720.428301
549.140158	47110.497662
549.498811	46960.692213
549.857408	46408.123779
550.215949	47227.097030
550.574434	47160.480702
550.932864	46928.985876
551.291237	47628.430849
551.649555	47260.240096
552.007817	47514.548663
552.366022	47146.514185
552.724173	47323.783840
553.082267	47733.954802
553.440305	48013.285137
553.798288	47330.912031
554.156215	47641.273188
554.514086	47846.853963
554.871902	47588.134386
555.229661	47613.236811
555.587365	47432.216538
555.945014	47528.366466
556.302606	47450.089949
556.660143	47678.963375
557.017625	47768.406047
557.375050	47569.293073
557.732421	47902.142818
558.089735	47885.086074
558.446994	47828.121035
558.804197	48290.079771
559.161345	48214.913646
559.518437	47465.835993
559.875474	47764.103422
560.232455	47923.620654
560.589381	48106.949775
560.946251	47800.291345
561.303065	48493.414711
561.659825	48289.565573
562.016528	47967.889546
562.373177	47678.176955
562.729770	48173.329168
563.086307	47683.868418
563.442789	48136.135535
563.799216	48185.682516
564.155587	47974.664857
564.511904	47988.948966
564.868164	48093.898228
565.224370	48339.800671
565.580520	48074.578006
565.936615	48278.633831
566.292654	48000.087396
566.648638	48247.235004
567.004567	48191.333649
567.360441	48226.604082
567.716260	48092.620295
568.072023	48365.959218
568.427732	48350.109831
568.783385	47910.755629
569.138982	48307.242379
569.494525	48261.904762
569.850013	48033.943785
570.205445	47997.428187
570.560823	47968.018096
570.916145	47834.104885
571.271412	47859.983648
571.626625	47618.666134
571.981782	47658.587031
572.336884	47357.269704
572.691931	47675.905915
573.046923	47277.997560
573.401860	47125.855537
573.756743	47100.732947
574.111570	47221.576966
574.466342	47072.900736
574.821059	47188.297789
575.175722	46714.651138
575.530330	46731.997749
575.884882	46451.681868
576.239380	46422.239009
576.593823	46393.446459
576.948211	46307.567883
577.302544	45827.279512
577.656823	45871.457664
578.011047	46068.292036
578.365216	45802.565255
578.719330	45605.052847
579.073389	45451.554754
579.427394	45529.856476
579.781344	45510.352252
580.135239	45149.829093
580.489080	45240.441313
580.842866	44723.733126
581.196597	45167.417679
581.550273	45118.047139
581.903895	44981.152086
582.257463	45407.893321
582.610975	44776.299758
582.964434	45070.619964
583.317837	44702.507348
583.671186	44557.133074
584.024481	44772.518893
584.377721	44306.764168
584.730906	44588.781438
585.084037	44607.136279
585.437113	44334.581255
585.790135	44353.122619
586.143103	43961.626611
586.496016	44080.832256
586.848874	44106.368221
587.201679	44131.548784
587.554428	43615.354795
587.907124	43793.957834
588.259765	43552.168972
588.612352	43793.030262
588.964884	43188.064074
589.317362	43491.259231
589.669786	43421.804734
590.022155	43194.680589
590.374470	43621.187410
590.726731	43141.491374
591.078937	42659.799042
591.431090	42751.220367
591.783188	42418.579831
592.135232	42084.512647
592.487222	42333.689320
592.839157	42430.769341
593.191038	42101.448404
593.542866	41871.435677
593.894639	41263.401947
594.246358	41537.260109
594.598022	41519.487522
594.949633	41134.489561
595.301190	41091.173447
595.652692	40926.814187
596.004141	41250.909968
596.355535	40281.430548
596.706876	40228.143032
597.058162	40048.340198
597.409395	40536.034023
597.760573	40613.176280
598.111698	40170.013487
598.462768	40189.747083
598.813785	40233.897509
599.164748	39678.483343
599.515657	40084.966701
599.866511	39557.863655
600.217312	40172.670175
600.568060	39120.704875
600.918753	39881.745186
601.269392	39822.887195
601.619978	39486.977470
601.970510	39699.835150
602.320988	39882.181246
602.671412	40184.317761
603.021783	39934.331983
603.372100	39567.572917
603.722363	39695.043533
604.072572	39760.994428
604.422728	39769.750913
604.772830	39581.746121
605.122878	39672.136530
605.472872	39613.583528
605.822813	39889.753059
606.172701	39723.576464
606.522534	39960.724944
606.872314	40213.881608
607.222041	39972.826233
607.571714	40361.589936
607.921333	39824.301238
608.270899	40103.261048
608.620411	40443.007091
608.969870	40233.653013
609.319276	40239.047048
609.668627	40282.927771
610.017926	40769.646134
610.367171	40920.792529
610.716362	40991.429177
611.065500	40946.454523
611.414585	41153.217448
611.763616	41437.551128
612.112594	41364.358615
612.461518	41585.912285
612.810389	41860.720705
613.159207	41738.548341
613.507971	41810.959475
613.856682	42272.504836
614.205340	42177.315249
614.553945	42865.110115
614.902496	42316.357833
615.250994	42783.125830
615.599439	42849.127137
615.947830	43048.484607
616.296169	43097.098974
616.644454	43211.439905
616.992686	43390.715938
617.340864	43910.524435
617.688990	43633.558401
618.037063	44216.484665
618.385082	44183.729768
618.733048	44506.618192
619.080961	44507.633984
619.428821	44517.749060
619.776628	44643.861085
620.124382	44458.628928
620.472083	44591.612046
620.819731	44721.260440
621.167326	44411.113532
621.514868	44366.501841
621.862357	43947.962564
622.209793	43958.347341
622.557176	43637.795491
622.904506	43396.798090
623.251783	43054.954928
623.599007	42829.769106
623.946179	42610.393214
624.293297	42561.468816
624.640363	41963.116622
624.987376	41946.145577
625.334336	41703.925697
625.681243	41364.787113
626.028097	41311.292909
626.374899	41162.445280
626.721647	41128.629220
627.068343	41021.192149
627.414987	40797.909363
627.761577	40552.054810
628.108115	40895.932079
628.454600	40346.872287
628.801032	40528.167303
629.147412	40479.701650
629.493739	40508.116113
629.840014	40139.532150
630.186236	40474.418521
630.532405	40085.647257
630.878521	40303.160442
631.224585	40173.948107
631.570597	39885.483202
631.916556	40053.426722
632.262462	39984.801494
632.608316	40009.188076
632.954117	39906.194783
633.299866	39901.418289
633.645562	39826.118574
633.991206	39331.379736
634.336797	38898.344620
634.682336	38906.745703
635.027823	38646.039912
635.373257	38470.312850
635.718639	38241.872964
636.063968	38089.567103
636.409245	37531.977679
636.754470	37559.073881
637.099642	37324.952614
637.444762	36846.557196
637.789829	36994.966245
638.134845	36632.275390
638.479808	36582.430982
638.824719	36498.742787
639.169577	36095.367300
639.514383	36151.747565
639.859137	35862.730653
640.203839	36102.450121
640.548489	35709.608125
640.893086	35786.906658
641.237632	35547.771963
641.582125	35641.429040
641.926566	35594.876505
642.270955	35560.977266
642.615292	35556.125155
642.959576	35547.270369
643.303809	35546.960338
643.647990	35682.073343
643.992118	35636.259337
644.336195	35651.549157
644.680219	35725.530610
645.024192	36022.426845
645.368112	36529.856788
645.711981	36536.506070
646.055797	37410.876561
646.399562	37334.021650
646.743274	38288.551528
647.086935	38731.011080
647.430544	38612.375086
647.774101	38735.802697
648.117606	38987.673867
648.461059	39285.848034
648.804460	38910.322402
649.147810	38302.558374
649.491108	38063.884945
649.834354	37699.102011
650.177548	36867.977059
650.520690	36421.023318
650.863781	36421.860149
651.206820	36281.537112
651.549807	35838.976736
651.892742	35350.985482
652.235626	35170.665929
652.578458	35018.062641
652.921238	34416.695837
653.263967	34734.124692
653.606644	34412.756175
653.949269	34365.475193
654.291843	33951.009168
654.634365	34375.887696
654.976836	33969.545491
655.319255	33951.329281
655.661622	33963.727999
656.003938	33733.581682
656.346203	33577.089143
656.688416	33821.880012
657.030577	33603.139306
657.372687	33458.191009
657.714746	33714.531162
658.056753	33832.917618
658.398708	33289.672798
658.740612	33340.596013
659.082465	33615.966522
659.424266	33437.038328
659.766016	33551.845565
660.107715	33427.520629
660.449362	33547.051428
660.790958	33547.742066
661.132503	33565.358378
661.473996	33600.235601
661.815438	33706.356931
662.156829	33897.456991
662.498168	33669.979964
662.839456	33694.399314
663.180693	33842.137889
663.521879	33996.838298
663.863013	33945.491625
664.204097	33938.474339
664.545129	34408.463633
664.886110	34358.344481
665.227040	34432.101603
665.567918	34551.662649
665.908746	34601.781800
666.249522	34801.426616
666.590248	34771.938387
666.930922	34883.420983
667.271545	34852.858988
667.612118	34950.478412
667.952639	34730.585802
668.293109	34789.557219
668.633528	34674.313922
668.973896	34609.759426
669.314213	34640.651617
669.654480	34380.303747
669.994695	34407.336935
670.334859	34292.746467
670.674973	34194.068401
671.015035	34343.566338
671.355047	34308.673992
671.695008	34238.836367
672.034918	34131.283350
672.374777	34201.247004
672.714585	34047.673293
673.054342	34272.546563
673.394049	34027.274264
673.733705	34315.240095
674.073310	33957.799602
674.412864	34036.837333
674.752368	33655.451359
675.091820	33961.867813
675.431223	33537.775705
675.770574	33248.214348
676.109875	33112.198977
676.449125	32845.461444
676.788324	32768.200720
677.127473	32228.227608
677.466571	32151.153407
677.805619	31787.807203
678.144616	31796.563687
678.483562	31715.794320
678.822458	31380.867620
679.161303	31300.173871
679.500098	31208.896218
679.838842	31085.559348
680.177535	31260.086615
680.516179	31507.806395
680.854771	31739.233165
681.193314	32587.301435
681.531805	33709.880697
681.870247	34494.165768
682.208638	35223.663580
682.546978	35453.220082
682.885268	35568.508750
683.223508	35024.795102
683.561697	34709.854056
683.899836	34526.260274
684.237925	34013.108622
684.575963	33859.615569
684.913951	33387.047725
685.251889	33533.241187
685.589776	33526.143242
685.927614	33492.458252
686.265401	33631.828512
686.603137	33718.586770
686.940824	34232.928135
687.278460	34605.794559
687.616046	34744.388481
687.953582	35348.792580
688.291068	35231.134570
688.628504	35507.795613
688.965889	35467.620138
689.303224	35078.876600
689.640510	34737.961010
689.977745	34026.011455
690.314930	33232.760691
690.652065	32715.102247
690.989150	31984.323983
691.326185	31088.533629
691.663170	30378.630783
692.000105	29606.774676
692.336990	28928.910883
692.673825	28466.185892
693.010610	27943.589638
693.347345	27367.395835
693.684030	26702.868415
694.020665	26420.715034
694.357251	25734.848409
694.693786	25692.447264
695.030272	25433.092502
695.366707	24899.110801
695.703093	24595.572846
696.039429	24584.184879
696.375716	24325.344314
696.711952	24288.687564
697.048139	24115.271872
697.384276	23930.175826
697.720363	24054.470515
698.056400	23855.748231
698.392388	23643.838288
698.728326	23600.305404
699.064214	23397.993818
699.400053	23350.957332
699.735842	22984.891424
700.071581	22704.678888
700.407270	22414.540319
700.742910	22223.213407
701.078501	21948.919186
701.414042	21665.051812
701.749533	21361.344978
702.084974	21016.633399
702.420366	21222.521684
702.755709	20777.433170
703.091002	20469.393464
703.426246	20486.183027
703.761440	20387.532687
704.096584	20114.602097
704.431679	20066.534695
704.766725	19977.616303
705.101721	19898.795342
705.436668	19996.654221
705.771565	19662.521503
706.106413	20012.314565
706.441212	19986.357664
706.775961	20113.261150
707.110661	20180.752118
707.445311	20534.126920
707.779913	20373.951819
708.114465	20623.521702
708.448967	20897.941952
708.783421	21589.618507
709.117825	21856.524918
709.452180	22067.928225
709.786485	22471.394453
710.120742	23272.022945
710.454949	23281.981744
710.789107	23751.474484
711.123216	24446.866369
711.457275	24584.215126
711.791286	25140.821525
712.125247	25197.103487
712.459159	24918.176445
712.793023	25585.131181
713.126837	24491.026877
713.460602	24750.343831
713.794318	24398.360387
714.127985	24015.462067
714.461602	23116.042083
714.795171	23085.401950
715.128691	22060.318603
715.462162	21508.395436
715.795584	21087.519584
716.128957	20833.533650
716.462281	20419.387738
716.795556	20180.192550
717.128782	19674.159006
717.461960	19119.571589
717.795088	19050.684222
718.128167	18649.773860
718.461198	18174.577054
718.794180	18029.598511
719.127113	17655.204617
719.459997	17470.247203
719.792833	17100.481089
720.125619	17066.203764
720.458357	16751.550064
720.791046	16572.221098
721.123686	16416.782161
721.456278	16170.461301
721.788821	16121.574712
722.121315	15863.200454
722.453761	15937.489417
722.786158	15860.001842
723.118506	15865.824374
723.450805	15731.883437
723.783056	15882.228289
724.115259	15777.263904
724.447412	15716.139914
724.779518	15946.278669
725.111574	15978.615151
725.443582	16168.439799
725.775542	16144.980789
726.107453	16612.557891
726.439315	16496.984398
726.771129	16898.532466
727.102895	17262.697858
727.434612	17462.594732
727.766281	17594.927541
728.097901	17863.673973
728.429473	17902.720230
728.760996	17888.378147
729.092471	17976.363926
729.423897	17856.223148
729.755276	17721.263897
730.086606	17836.229931
730.417887	18358.619499
730.749120	18870.105050
731.080305	19038.890443
731.411442	19383.869203
731.742530	19457.578434
732.073570	19566.530372
732.404562	19864.744869
732.735506	19682.164359
733.066401	19405.049611
733.397249	18888.328821
733.728048	18247.935925
734.058798	17405.304539
734.389501	16732.681025
734.720156	16258.298366
735.050762	15721.397837
735.381320	15363.339803
735.711831	15116.971053
736.042293	14754.675929
736.372707	14761.743627
736.703073	14553.430547
737.033391	14736.552981
737.363661	14687.260578
737.693883	14779.332212
738.024056	14953.889726
738.354182	15134.453774
738.684260	15410.620785
739.014290	15635.378109
739.344272	15821.265616
739.674207	16102.362875
740.004093	16223.176647
740.333931	16220.474589
740.663722	16260.070332
740.993464	16264.864469
741.323159	16090.526245
741.652806	15828.487068
741.982405	15621.300687
742.311956	15286.764676
742.641460	15162.719524
742.970915	14857.308780
743.300323	14524.804355
743.629683	14310.671263
743.958996	14034.118604
744.288260	13751.929935
744.617477	13455.731900
744.946647	13374.385321
745.275768	13112.013428
745.604842	12919.411104
745.933869	12744.813261
746.262847	12698.853061
746.591778	12622.550157
746.920662	12509.976150
747.249498	12512.930266
747.578286	12625.963018
747.907027	12760.849171
748.235720	12987.103717
748.564365	13015.354344
748.892963	12916.862800
749.221514	12969.568064
749.550017	12827.215962
749.878473	12790.549129
750.206881	12570.454873
750.535242	12479.991367
750.863555	12385.643652
751.191821	12277.513423
751.520039	12304.811271
751.848210	12210.138402
752.176334	12245.494534
752.504411	12145.115079
752.832440	11987.720173
753.160421	12050.588403
753.488356	11925.955956
753.816243	11828.263436
754.144082	11691.126407
754.471875	11633.753035
754.799620	11579.792525
755.127318	11545.663913
755.454969	11506.355516
755.782572	11467.886471
756.110129	11480.547329
756.437638	11400.103116
756.765100	11388.241281
757.092515	11378.012780
757.419882	11399.530945
757.747203	11398.860472
758.074477	11470.374280
758.401703	11427.317785
758.728882	11586.310737
759.056014	11625.977056
759.383099	11737.845301
759.710138	11849.789163
760.037129	11920.491346
760.364073	11944.751898
760.690970	11929.089033
761.017820	11927.314547
761.344623	12111.092331
761.671379	12435.102412
761.998088	13067.479874
762.324751	14604.278145
762.651366	17454.453268
762.977935	21107.772419
763.304456	23360.656512
763.630931	23878.020048
763.957359	22743.231112
764.283740	20848.808346
764.610074	18971.497777
764.936362	16833.700707
765.262602	15312.593028
765.588796	13824.144464
765.914943	12791.741362
766.241044	11921.549988
766.567097	11287.957608
766.893104	10728.253420
767.219064	10365.499551
767.544978	9971.989602
767.870845	9656.635182
768.196665	9465.852715
768.522438	9262.699256
768.848165	9095.443854
769.173846	8927.013862
769.499479	8805.259915
769.825066	8644.368969
770.150607	8467.338770
770.476101	8404.899038
770.801548	8290.941235
771.126949	8151.704566
771.452303	8054.924494
771.777611	7893.189155
772.102872	7876.422277
772.428087	7758.643280
772.753256	7631.437324
773.078378	7538.796040
773.403453	7400.307982
773.728482	7287.968389
774.053465	7228.679379
774.378401	7138.629247
774.703291	7042.920421
775.028135	6943.644978
775.352932	6910.234731
775.677683	6825.283727
776.002388	6737.068576
776.327046	6735.077320
776.651658	6647.341079
776.976224	6569.417443
777.300743	6556.612913
777.625216	6488.965669
777.949643	6441.488082
778.274024	6445.707528
778.598359	6380.006170
778.922647	6378.844184
779.246889	6338.827505
779.571086	6341.708524
779.895236	6356.829465
780.219339	6349.066088
780.543397	6344.357650
780.867409	6396.110136
781.191374	6386.254680
781.515294	6358.732501
781.839167	6405.343009
782.162995	6384.376850
782.486776	6337.733574
782.810511	6294.752697
783.134201	6219.200924
783.457844	6212.438216
783.781441	6161.338560
784.104993	6116.626046
784.428498	6092.126038
784.751958	6074.466876
785.075372	6049.162805
785.398739	6002.779148
785.722061	6029.456934
786.045337	6030.926431
786.368568	6140.495909
786.691752	6159.972407
787.014891	6403.233286
787.337983	6681.565472
787.661030	7113.594877
787.984031	7539.640433
788.306987	7804.860578
788.629897	7895.155205
788.952760	7820.586458
789.275579	7642.603480
789.598351	7347.272523
789.921078	7083.121102
790.243759	6806.124822
790.566395	6600.067659
790.888984	6405.184213
791.211529	6267.538027
791.534027	6099.004693
791.856480	5962.638961
792.178888	5897.109002
792.501249	5830.918652
792.823566	5726.985183
793.145836	5722.538885
793.468062	5701.401327
793.790241	5656.517414
794.112375	5695.336819
794.434464	5789.883659
794.756507	5823.820707
795.078505	5942.330672
795.400457	6152.919833
795.722364	6390.741307
796.044226	6587.303457
796.366042	6745.610811
796.687812	6694.269180
797.009538	6730.736887
797.331218	6639.779348
797.652852	6569.777886
797.974442	6451.716583
798.295986	6380.260748
798.617484	6255.640904
798.938938	6144.710314
799.260346	6076.934521
799.581709	5939.610970
799.903026	5887.432507
800.224299	5817.849460
800.545526	5694.714237
800.866708	5634.565709
801.187845	5579.029838
801.508936	5502.671481
801.829983	5472.840453
802.150984	5363.669225
802.471940	5338.811296
802.792851	5321.918389
803.113717	5299.056756
803.434538	5272.283188
803.755314	5239.624073
804.076045	5227.230396
804.396731	5189.315878
804.717372	5206.297005
805.037967	5205.351789
805.358518	5234.351026
805.679024	5292.286487
805.999485	5301.010203
806.319901	5313.421524
806.640272	5330.773176
806.960598	5378.268407
807.280879	5366.308269
807.601115	5409.836112
807.921306	5374.900916
808.241453	5365.607549
808.561554	5385.716712
808.881611	5346.788922
809.201623	5344.880845
809.521590	5297.892250
809.841513	5282.277276
810.161390	5301.489113
810.481223	5209.069640
810.801011	5196.101271
811.120755	5175.485473
811.440453	5119.417760
811.760107	5090.390796
812.079716	5065.966405
812.399281	5016.570659
812.718801	5009.760061
813.038276	4973.887210
813.357707	4939.236839
813.677093	4968.120130
813.996434	4902.297784
814.315731	4922.288480
814.634983	4918.908386
814.954191	4928.453811
815.273354	4985.358355
815.592473	5024.873440
815.911547	5102.255151
816.230577	5154.678110
816.549562	5241.280092
816.868502	5296.523577
817.187399	5353.405436
817.506250	5433.277477
817.825058	5459.380572
818.143821	5617.876970
818.462539	5787.874760
818.781213	6016.181056
819.099843	6375.496858
819.418429	7006.692169
819.736970	7628.684854
820.055466	8345.824277
820.373919	9268.738558
820.692327	10732.919008
821.010691	13452.429944
821.329011	19710.956909
821.647286	29336.092441
821.965517	39732.390921
822.283704	45274.048165
822.601847	46879.161632
822.919945	42345.150384
823.237999	37245.468741
823.556010	32030.392567
823.873976	27261.982788
824.191897	23014.399818
824.509775	19886.575585
824.827609	17058.959626
825.145398	15467.719414
825.463144	14679.963508
825.780845	14963.329287
826.098502	16203.044799
826.416116	18645.783786
826.733685	20908.548540
827.051210	21436.243922
827.368692	20014.404123
827.686129	17452.472095
828.003522	14960.528926
828.320872	12743.000966
828.638177	11078.974055
828.955439	9818.930089
829.272656	8740.549143
829.589830	7890.630770
829.906960	7146.974878
830.224046	6608.602332
830.541088	6188.954001
830.858086	5921.646818
831.175041	5719.312547
831.491952	5653.764944
831.808819	5684.263925
832.125642	5928.555719
832.442421	6480.350337
832.759157	7590.951818
833.075849	9351.574798
833.392497	11208.229239
833.709101	12333.021568
834.025662	12098.408788
834.342179	11056.114943
834.658653	9751.197146
834.975083	8638.369996
835.291469	7731.630257
835.607811	6978.391131
835.924110	6452.182890
836.240366	5955.122600
836.556578	5504.062839
836.872746	5142.236543
837.188871	4866.394686
837.504952	4638.506806
837.820990	4469.174448
838.136984	4350.677086
838.452935	4302.871824
838.768842	4334.963810
839.084706	4610.508238
839.400526	5352.467781
839.716303	6259.638539
840.032037	6833.742783
840.347727	6700.124480
840.663373	6103.549293
840.978977	5521.661507
841.294537	5070.480759
841.610054	4732.017689
841.925527	4492.094054
842.240957	4281.265439
842.556344	4094.354578
842.871687	3933.098148
843.186987	3781.974438
843.502244	3659.139163
843.817458	3571.468457
844.132629	3499.886593
844.447756	3450.286680
844.762840	3400.759864
845.077881	3361.287629
845.392879	3329.147753
845.707833	3301.562559
846.022745	3274.728497
846.337613	3262.385232
846.652438	3235.969586
846.967221	3228.354923
847.281960	3210.852037
847.596656	3198.934749
847.911309	3186.609128
848.225919	3174.389371
848.540485	3162.305725
848.855009	3155.507729
849.169490	3143.439207
849.483928	3136.895789
849.798323	3130.478401
850.112675	3118.089765
850.426984	3123.198974
850.741251	3113.615741
851.055474	3109.353445
851.369654	3109.976028
851.683792	3107.876387
851.997887	3113.555247
852.311938	3112.403343
852.625947	3108.514093
852.939914	3105.620471
853.253837	3112.395782
853.567718	3107.057200
853.881555	3101.201900
854.195350	3110.520472
854.509103	3104.239195
854.822812	3099.775253
855.136479	3095.822988
855.450103	3102.099225
855.763685	3092.659664
856.077224	3099.434975
856.390720	3106.618619
856.704173	3117.590691
857.017584	3123.410703
857.330953	3127.819192
857.644278	3135.017960
857.957561	3134.135758
858.270802	3134.095428
858.584000	3134.168525
858.897155	3127.730972
859.210268	3117.452059
859.523339	3105.161726
859.836367	3102.810028
860.149352	3095.941456
860.462295	3093.867021
860.775195	3084.336719
861.088054	3082.610124
861.400869	3080.946543
861.713642	3077.775658
862.026373	3088.243614
862.339062	3090.144129
862.651708	3097.731065
862.964312	3116.327882
863.276873	3120.391052
863.589392	3151.994045
863.901869	3180.272398
864.214303	3200.363916
864.526696	3219.704303
864.839045	3237.371027
865.151353	3251.377873
865.463619	3251.970208
865.775842	3253.104468
866.088023	3259.869696
866.400162	3252.229828
866.712258	3252.807040
867.024313	3253.706886
867.336325	3250.467944
867.648296	3257.248296
867.960224	3252.000455
868.272110	3256.681167
868.583954	3257.056732
868.895755	3262.415479
869.207515	3262.415479
869.519233	3280.064559
869.830909	3281.735701
870.142542	3295.704738
870.454134	3303.064823
870.765684	3315.050166
871.077191	3335.156808
871.388657	3344.218283
871.700081	3366.222919
872.011463	3386.614386
872.322803	3406.824372
872.634101	3419.792740
872.945357	3445.268211
873.256571	3472.001450
873.567744	3486.124243
873.878874	3493.794358
874.189963	3508.590145
874.501010	3512.605424
874.812015	3507.178622
875.122979	3525.563710
875.433900	3522.677649
875.744780	3525.586395
876.055618	3534.915050
876.366415	3533.611912
876.677169	3539.845299
876.987882	3558.356416
877.298554	3574.770412
877.609183	3616.662401
877.919771	3664.273578
878.230317	3737.766040
878.540822	3842.710260
878.851285	3999.961492
879.161707	4220.569947
879.472087	4601.502216
879.782425	5238.096603
880.092722	6441.883813
880.402977	8401.924757
880.713191	10804.820985
881.023363	13229.263104
881.333494	14610.871974
881.643583	15089.101034
881.953631	14698.038565
882.263637	13860.607130
882.573602	12829.320643
882.883526	11842.855056
883.193408	10873.829340
883.503248	9943.885169
883.813048	9084.149148
884.122806	8306.851116
884.432522	7521.749378
884.742197	6842.088414
885.051831	6263.467296
885.361424	5758.189925
885.670975	5346.367985
885.980485	5013.520761
886.289954	4737.875510
886.599382	4515.202704
886.908768	4327.069363
887.218113	4159.312366
887.527417	4023.470913
887.836680	3902.468098
888.145901	3795.570430
888.455082	3716.540262
888.764221	3646.503511
889.073319	3582.622010
889.382376	3549.640261
889.691392	3520.696476
890.000366	3511.985362
890.309300	3510.467975
890.618193	3512.716329
890.927044	3505.772140
891.235855	3517.598687
891.544625	3530.725851
891.853353	3560.251889
892.162041	3619.581229
892.470687	3713.490363
892.779293	3836.673478
893.087858	4012.027494
893.396381	4292.416471
893.704864	4713.935071
894.013306	5286.078306
894.321707	5864.558271
894.630068	6223.410287
894.938387	6266.817142
895.246665	6092.909938
895.554903	5771.334734
895.863100	5433.900060
896.171256	5163.621117
896.479371	4912.256583
896.787446	4687.940361
897.095480	4487.330164
897.403473	4334.298377
897.711425	4188.021737
898.019336	4060.863672
898.327207	3933.251904
898.635038	3829.744412
898.942827	3727.575347
899.250576	3637.139568
899.558284	3552.092782
899.865952	3498.139833
900.173579	3432.355296
900.481165	3383.904766
900.788711	3342.577387
901.096216	3304.085657
901.403681	3280.845937
901.711105	3268.767333
902.018489	3264.462187
902.325832	3294.560397
902.633135	3359.644213
902.940397	3529.263917
903.247619	3935.074281
903.554800	4705.518864
903.861941	5683.961455
904.169041	6406.222690
904.476101	6633.883719
904.783121	6356.673189
905.090100	5952.909534
905.397039	5535.743971
905.703938	5166.297970
906.010796	4834.844625
906.317614	4575.351231
906.624391	4330.797296
906.931129	4127.175010
907.237826	3942.877987
907.544483	3766.304012
907.851099	3592.117023
908.157675	3426.595778
908.464211	3280.714867
908.770707	3179.717871
909.077163	3096.909357
909.383578	3032.349820
909.689954	2989.454642
909.996289	2957.201340
910.302584	2934.564039
910.608839	2922.021648
910.915054	2912.708116
911.221229	2904.181004
911.527363	2908.221489
911.833458	2913.416398
912.139513	2927.115734
912.445527	2942.584514
912.751502	2979.914259
913.057436	3023.469828
913.363331	3079.479568
913.669186	3169.416273
913.975000	3291.626445
914.280775	3485.247082
914.586510	3759.258999
914.892205	4138.971310
915.197859	4649.068023
915.503475	5241.562397
915.809050	5741.042440
916.114585	6038.241145
916.420081	6100.033088
916.725536	6038.795672
917.030952	5800.611235
917.336328	5594.191108
917.641665	5375.468046
917.946961	5144.018590
918.252218	4943.610040
918.557435	4715.210482
918.862612	4508.760109
919.167750	4336.861804
919.472848	4141.680930
919.777906	3968.766832
920.082925	3808.286741
920.387904	3649.961743
920.692843	3534.955379
920.997743	3431.699946
921.302603	3336.938856
921.607423	3271.020729
921.912204	3200.689071
922.216946	3154.358346
922.521647	3102.570573
922.826310	3060.013152
923.130932	3017.506143
923.435516	2979.979794
923.740059	2950.723457
924.044564	2918.150042
924.349028	2892.077194
924.653454	2863.589634
924.957840	2835.865808
925.262186	2817.281594
925.566493	2792.363171
925.870761	2769.952722
926.174989	2758.829416
926.479178	2740.411560
926.783328	2721.905484
927.087438	2712.564226
927.391509	2697.889427
927.695541	2687.996163
927.999533	2676.744307
928.303486	2667.093018
928.607400	2659.717810
928.911275	2655.397542
929.215110	2646.847745
929.518906	2646.633496
929.822663	2645.128711
930.126381	2645.153917
930.430060	2649.164155
930.733699	2649.272540
931.037299	2649.106182
931.340861	2651.694814
931.644383	2657.683705
931.947866	2657.419044
932.251309	2651.631800
932.554714	2649.690955
932.858080	2651.294042
933.161407	2645.519401
933.464694	2639.094450
933.767943	2641.607465
934.071153	2633.287041
934.374323	2629.700260
934.677455	2630.269910
934.980548	2624.943931
935.283602	2623.066101
935.586617	2618.816409
935.889593	2621.768004
936.192530	2625.354785
936.495428	2630.711011
936.798287	2640.188380
937.101108	2653.290339
937.403890	2674.201045
937.706632	2699.910930
938.009336	2735.249418
938.312002	2761.662544
938.614628	2787.390073
938.917216	2806.730459
939.219765	2818.567089
939.522275	2831.001095
939.824747	2829.692915
940.127179	2824.220743
940.429573	2816.243117
940.731929	2816.475010
941.034246	2809.240954
941.336524	2806.642239
941.638763	2796.953142
941.940964	2793.676392
942.243126	2776.733073
942.545250	2765.375354
942.847335	2753.266502
943.149381	2738.442989
943.451389	2726.019066
943.753359	2713.186809
944.055290	2700.460416
944.357182	2694.244673
944.659036	2685.180678
944.960851	2687.073632
945.262628	2677.245902
945.564367	2679.769000
945.866067	2678.828825
946.167729	2677.618948
946.469352	2676.494770
946.770937	2673.896056
947.072484	2667.937412
947.373992	2667.682833
947.675462	2664.559839
947.976893	2656.398211
948.278286	2654.069197
948.579641	2648.922179
948.880958	2649.771614
949.182236	2647.634165
949.483476	2640.541261
949.784678	2643.139976
950.085841	2643.686941
950.386967	2648.922179
950.688054	2652.587098
950.989103	2663.050013
951.290114	2669.777433
951.591087	2683.050791
951.892021	2691.633355
952.192917	2705.519214
952.493776	2715.203270
952.794596	2719.505895
953.095378	2721.741647
953.396122	2722.336503
953.696828	2718.898436
953.997496	2712.518856
954.298126	2705.098277
954.598718	2696.498069
954.899272	2683.756552
955.199788	2673.157527
955.500266	2662.654282
955.800706	2647.031747
956.101108	2629.286885
956.401472	2617.974536
956.701798	2603.261928
957.002087	2587.475555
957.302337	2579.160172
957.602550	2566.859757
957.902724	2556.716955
958.202861	2544.547610
958.502960	2538.972093
958.803022	2530.901206
959.103045	2521.111285
959.403031	2513.484020
959.702979	2511.528052
960.002889	2506.033194
960.302762	2500.878614
960.602596	2496.704539
960.902393	2493.831081
961.202153	2489.309166
961.501875	2488.079125
961.801559	2485.586274
962.101205	2481.676859
962.400814	2480.298104
962.700385	2476.378607
962.999918	2477.238123
963.299414	2474.044552
963.598873	2473.754686
963.898293	2472.189408
964.197677	2467.044910
964.497022	2467.964921
964.796331	2466.782770
965.095601	2465.557770
965.394835	2467.024746
965.694030	2466.797894
965.993189	2465.668675
966.292309	2466.555918
966.591393	2464.720938
966.890439	2464.602471
967.189447	2467.566670
967.488419	2465.227574
967.787353	2464.857050
968.086249	2462.502831
968.385108	2462.717080
968.683930	2464.050465
968.982714	2468.484160
969.281462	2466.281176
969.580172	2470.147741
969.878844	2472.456589
970.177480	2476.988586
970.476078	2477.018833
970.774639	2481.334061
971.073162	2482.271716
971.371649	2484.973774
971.670098	2484.381438
971.968510	2487.575009
972.266885	2484.769607
972.565223	2491.499548
972.863524	2491.610453
973.161788	2491.938128
973.460014	2493.039620
973.758204	2496.155053
974.056356	2496.170177
974.354471	2497.112873
974.652550	2497.692605
974.950591	2497.574138
975.248595	2494.388129
975.546563	2494.975423
975.844493	2492.855618
976.142386	2489.929228
976.440243	2488.656337
976.738062	2486.982674
977.035845	2482.294401
977.333590	2483.055615
977.631299	2479.693165
977.928971	2476.008082
978.226606	2474.518421
978.524204	2474.324337
978.821765	2473.671507
979.119290	2473.053966
979.416777	2471.750827
979.714228	2474.016826
980.011642	2476.187043
980.309020	2480.401448
980.606360	2482.775831
980.903664	2492.260762
981.200931	2506.491939
981.498162	2525.751668
981.795356	2551.456511
982.092513	2592.206678
982.389633	2640.642084
982.686717	2680.852848
982.983764	2716.287118
983.280775	2734.256311
983.577749	2735.040211
983.874686	2726.704663
984.171587	2710.255378
984.468451	2694.108562
984.765279	2676.149451
985.062070	2653.572644
985.358824	2634.892648
985.655543	2614.113012
985.952224	2593.615681
986.248869	2562.042934
986.545478	2534.215765
986.842050	2514.673732
987.138586	2495.681185
987.435086	2480.648464
987.731549	2472.708647
988.027975	2467.443162
988.324366	2457.171811
988.620719	2451.745008
988.917037	2448.233845
989.213318	2447.102106
989.509563	2443.046497
989.805772	2441.783688
990.101944	2442.343257
990.398080	2441.710592
990.694180	2442.464244
990.990244	2441.050201
991.286271	2439.724377
991.582262	2440.472988
991.878217	2440.909048
992.174136	2443.744697
992.470019	2444.553803
992.765865	2443.487598
993.061676	2446.058587
993.357450	2447.694441
993.653188	2451.492951
993.948890	2459.367233
994.244556	2465.005764
994.540186	2474.205869
994.835780	2486.105513
995.131337	2499.825013
995.426859	2515.724813
995.722345	2538.102494
996.017795	2560.147460
996.313208	2572.498287
996.608586	2583.934145
996.903928	2587.306677
997.199234	2583.152766
997.494504	2580.322158
997.789738	2575.565829
998.084936	2562.221895
998.380099	2551.892571
998.675225	2538.349511
998.970316	2526.623787
999.265371	2510.497136
999.560390	2497.745537
999.855373	2487.360760
1000.150320	2477.076807
1000.445232	2467.241515
1000.740108	2460.062912
1001.034948	2453.985801
1001.329752	2450.207457
1001.624521	2444.924327
1001.919254	2436.828234
1002.213951	2438.680858
1002.508613	2431.318253
1002.803239	2432.528130
1003.097829	2426.173756
1003.392384	2430.559559
1003.686903	2428.457398
1003.981386	2426.914805
1004.275834	2425.203333
1004.570246	2425.677202
1004.864623	2424.958838
1005.158964	2425.175607
1005.453270	2421.293919
1005.747540	2422.655030
1006.041775	2421.606470
1006.335974	2419.751326
1006.630138	2421.031779
1006.924266	2418.760739
1007.218359	2421.493044
1007.512416	2419.146387
1007.806438	2418.039854
1008.100425	2420.620925
1008.394376	2418.450708
1008.688292	2418.727971
1008.982172	2417.676891
1009.276017	2418.760739
1009.569827	2419.078332
1009.863602	2416.076324
1010.157341	2415.829308
1010.451045	2413.679256
1010.744714	2416.615728
1011.038347	2417.513053
1011.331945	2413.573392
1011.625508	2416.645975
1011.919036	2414.634554
1012.212528	2413.684297
1012.505986	2413.381828
1012.799408	2412.716395
1013.092795	2413.649009
1013.386147	2414.760583
1013.679464	2415.138670
1013.972745	2415.216808
1014.265992	2413.543145
1014.559204	2415.599935
1014.852380	2414.546334
1015.145521	2414.402661
1015.438628	2412.424008
1015.731699	2411.937537
1016.024736	2413.933834
1016.317737	2414.795871
1016.610703	2414.997518
1016.903635	2413.447363
1017.196531	2412.025757
1017.489393	2414.127918
1017.782219	2412.842424
1018.075011	2418.186047
1018.367768	2416.149421
1018.660490	2413.371745
1018.953177	2413.371745
1019.245829	2413.371745
