Dividing Wavelength (nm)	Counts (n)	Blue Motor Position (mm): 19.200000	Red Motor Position (mm): 0.000000	
326.493990	1972.565691
326.888308	1972.565691
327.282561	1972.565691
327.676750	1948.244645
328.070874	1951.213884
328.464933	1955.914760
328.858929	1965.704681
329.252859	1978.693214
329.646726	1992.775677
330.040528	2008.307472
330.434265	2029.124917
330.827938	2045.964891
331.221547	2070.134703
331.615091	2084.121385
332.008571	2106.178953
332.401986	2129.549743
332.795338	2146.157824
333.188625	2167.749086
333.581847	2188.758095
333.975006	2208.010261
334.368100	2224.283106
334.761129	2237.518655
335.154095	2255.518095
335.546996	2290.133178
335.939833	2351.027796
336.332606	2366.098325
336.725315	2374.789274
337.117960	2387.717313
337.510540	2393.270144
337.903056	2402.770199
338.295508	2409.550551
338.687896	2416.618248
339.080220	2425.818354
339.472480	2430.330187
339.864676	2434.511824
340.256807	2435.177256
340.648875	2436.412339
341.040879	2438.723708
341.432818	2439.232865
341.824694	2441.115736
342.216506	2439.464758
342.608253	2440.828390
342.999937	2438.373348
343.391557	2437.712957
343.783113	2436.984510
344.174605	2434.506783
344.566033	2433.886721
344.957397	2432.772626
345.348697	2430.531833
345.739934	2427.854980
346.131106	2426.423293
346.522215	2424.449681
346.913260	2422.965061
347.304241	2422.912129
347.695159	2419.169072
348.086012	2419.799217
348.476802	2416.167065
348.867528	2416.111613
349.258191	2412.406364
349.648789	2414.629513
350.039324	2409.487536
350.429796	2412.146745
350.820203	2409.994172
351.210548	2410.067269
351.600828	2409.258164
351.991045	2407.975190
352.381198	2406.815725
352.771288	2411.123391
353.161314	2408.572567
353.551276	2407.597104
353.941175	2404.799263
354.331010	2405.494942
354.720782	2409.754718
355.110490	2410.435273
355.500135	2405.295817
355.889717	2406.467885
356.279235	2407.254305
356.668689	2411.491395
357.058080	2407.937382
357.447408	2410.011816
357.836672	2405.923441
358.225873	2408.693555
358.615010	2406.994686
359.004084	2410.939389
359.393095	2412.280336
359.782043	2411.672877
360.170927	2415.141190
360.559748	2414.735378
360.948505	2414.390058
361.337199	2414.697569
361.725830	2414.921900
362.114398	2417.066911
362.502903	2416.963568
362.891344	2416.963568
363.279722	2416.204874
363.668037	2420.832653
364.056289	2417.114802
364.444478	2420.131933
364.832603	2418.775862
365.220665	2418.619587
365.608665	2419.080852
365.996601	2419.632858
366.384474	2421.520771
366.772284	2419.708476
367.160031	2418.269226
367.547715	2424.880700
367.935336	2420.678898
368.322893	2421.210740
368.710388	2422.811306
369.097820	2422.118147
369.485189	2423.317942
369.872495	2425.107552
370.259738	2423.312901
370.646918	2424.079156
371.034035	2421.122519
371.421090	2425.258786
371.808081	2424.553025
372.195010	2424.580751
372.581875	2425.092428
372.968678	2423.978333
373.355418	2421.271233
373.742096	2425.735175
374.128710	2424.696698
374.515262	2426.614857
374.901751	2426.577048
375.288177	2428.391863
375.674540	2426.617377
376.060841	2428.830444
376.447079	2428.432192
376.833254	2428.442275
377.219367	2424.968920
377.605417	2429.475711
377.991404	2425.203333
378.377329	2428.023859
378.763191	2425.531008
379.148991	2428.459919
379.534727	2427.232398
379.920402	2430.930084
380.306013	2432.447472
380.691563	2430.950249
381.077049	2431.237595
381.462474	2429.367327
381.847835	2433.488470
382.233134	2431.174580
382.618371	2433.044848
383.003545	2430.153747
383.388657	2433.985023
383.773706	2433.249015
384.158693	2433.548964
384.543618	2436.989551
384.928480	2433.390167
385.313280	2435.194900
385.698017	2431.943356
386.082692	2435.688933
386.467305	2433.498552
386.851856	2436.147678
387.236344	2439.396702
387.620770	2435.225147
388.005133	2437.231527
388.389435	2439.842844
388.773674	2436.072061
389.157851	2438.988369
389.541965	2434.957966
389.926018	2438.582556
390.310008	2437.677669
390.693936	2440.041970
391.077802	2435.555343
391.461606	2436.987031
391.845348	2436.780343
392.229027	2441.529110
392.612645	2440.495674
392.996200	2438.925354
393.379694	2441.138421
393.763125	2439.104315
394.146494	2439.994079
394.529801	2442.186981
394.913047	2440.157916
395.296230	2443.255705
395.679351	2441.443411
396.062410	2443.278391
396.445408	2442.842331
396.828343	2441.191353
397.211217	2435.552822
397.594028	2439.764706
397.976778	2440.341918
398.359466	2440.856116
398.742092	2437.574325
399.124656	2444.604214
399.507158	2446.177054
399.889598	2444.682352
400.271977	2444.082455
400.654294	2446.713937
401.036549	2445.937599
401.418742	2448.057404
401.800874	2445.410799
402.182944	2446.547579
402.564952	2443.351487
402.946898	2446.320727
403.328783	2448.604370
403.710606	2445.312496
404.092367	2447.664194
404.474067	2447.621345
404.855705	2448.811057
405.237282	2446.502208
405.618797	2445.415840
406.000250	2450.209977
406.381642	2448.858948
406.762972	2448.034719
407.144240	2450.325924
407.525447	2449.312652
407.906593	2448.838783
408.287677	2451.971860
408.668700	2449.968002
409.049661	2450.678804
409.430560	2448.206118
409.811399	2450.562858
410.192176	2451.273661
410.572891	2452.334823
410.953545	2448.062446
411.334138	2450.648558
411.714669	2453.206943
412.095139	2456.156018
412.475547	2454.333641
412.855894	2452.470935
413.236180	2449.209308
413.616405	2452.407920
413.996568	2452.049998
414.376670	2453.643003
414.756711	2452.206274
415.136691	2452.614608
415.516609	2454.810030
415.896466	2455.152828
416.276262	2455.730041
416.655997	2453.779114
417.035670	2448.503547
417.415283	2456.095524
417.794834	2450.620831
418.174324	2455.152828
418.553753	2454.431943
418.933121	2456.534105
419.312428	2453.680812
419.691674	2454.951182
420.070859	2458.268262
420.449983	2456.213991
420.829045	2459.720114
421.208047	2456.529063
421.586988	2459.089970
421.965867	2457.128961
422.344686	2459.042079
422.723444	2460.085598
423.102141	2456.428240
423.480777	2457.970833
423.859352	2458.553087
424.237866	2458.033848
424.616319	2458.847994
424.994712	2460.186421
425.373044	2460.088118
425.751314	2459.173149
426.129524	2459.611729
426.507673	2461.141719
426.885762	2461.000567
427.263789	2461.171966
427.641756	2462.084415
428.019662	2460.849332
428.397508	2465.648511
428.775292	2460.534260
429.153016	2463.616926
429.530679	2461.292954
429.908282	2465.499797
430.285824	2461.902933
430.663305	2465.096504
431.040726	2464.889817
431.418086	2466.898717
431.795385	2464.864611
432.172624	2466.031638
432.549802	2463.705146
432.926920	2467.377627
433.303977	2466.742441
433.680974	2466.311423
434.057910	2466.891155
434.434786	2466.586165
434.811601	2470.417442
435.188355	2468.423666
435.565050	2468.015333
435.941683	2469.999027
436.318257	2468.683285
436.694770	2466.510548
437.071222	2467.153295
437.447614	2464.705815
437.823946	2468.108594
438.200218	2470.916517
438.576429	2469.192442
438.952580	2471.155971
439.328670	2471.284521
439.704700	2470.170426
440.080670	2469.343677
440.456580	2473.389202
440.832429	2474.997331
441.208218	2473.308544
441.583947	2470.593883
441.959616	2473.119501
442.335224	2472.002885
442.710773	2470.634212
443.086261	2474.004223
443.461689	2473.215283
443.837057	2475.415746
444.212365	2476.194605
444.587612	2478.959678
444.962800	2476.045891
445.337927	2477.291056
445.712995	2474.415077
446.088002	2478.624441
446.462949	2478.435397
446.837837	2476.981025
447.212664	2478.067393
447.587431	2482.435553
447.962139	2487.713641
448.336786	2489.772952
448.711374	2488.512664
449.085901	2483.426140
449.460369	2484.424288
449.834776	2481.344143
450.209124	2487.998466
450.583412	2487.784217
450.957640	2487.224649
451.331808	2488.825216
451.705917	2485.346819
452.079965	2487.378404
452.453954	2487.136429
452.827883	2486.667602
453.201752	2489.412510
453.575562	2483.763897
453.949311	2491.996101
454.323001	2488.311018
454.696632	2489.115082
455.070202	2492.477532
455.443713	2493.573982
455.817164	2494.153715
456.190556	2492.432161
456.563888	2496.404590
456.937160	2488.305977
457.310373	2499.240239
457.683526	2493.682367
458.056619	2503.013543
458.429653	2497.775784
458.802628	2502.073368
459.175542	2500.258552
459.548398	2504.440190
459.921194	2508.531086
460.293930	2510.386231
460.666607	2514.270440
461.039224	2516.992663
461.411782	2519.334279
461.784280	2520.350071
462.156719	2519.901408
462.529099	2520.332427
462.901419	2518.084073
463.273680	2517.897550
463.645882	2516.402848
464.018024	2519.485513
464.390106	2522.618590
464.762130	2529.048582
465.134094	2537.626105
465.505999	2553.982129
465.877845	2560.301215
466.249631	2568.233471
466.621358	2563.499827
466.993026	2564.568552
467.364634	2564.613922
467.736184	2555.496996
468.107674	2554.876934
468.479105	2555.018086
468.850477	2554.519012
469.221790	2554.128322
469.593043	2549.916438
469.964238	2550.647406
470.335373	2550.788558
470.706449	2559.272820
471.077467	2567.522668
471.448425	2582.489854
471.819324	2591.725248
472.190164	2589.323138
472.560945	2582.610842
472.931667	2573.098184
473.302330	2571.419480
473.672934	2569.050138
474.043479	2574.071127
474.413965	2569.806311
474.784393	2569.803790
475.154761	2576.843762
475.525070	2576.422825
475.895321	2577.085737
476.265513	2577.902404
476.635645	2588.987901
477.005719	2590.558221
477.375734	2597.900661
477.745691	2598.195569
478.115588	2605.742176
478.485427	2614.964967
478.855207	2629.133130
479.224928	2638.290386
479.594591	2653.071049
479.964194	2648.322282
480.333739	2654.684218
480.703226	2657.550114
481.072653	2664.733758
481.442022	2670.331960
481.811333	2673.878412
482.180584	2669.638801
482.549777	2673.495284
482.918912	2676.008299
483.287988	2678.022240
483.657005	2676.451921
484.025964	2677.409740
484.394864	2681.828311
484.763706	2687.905422
485.132489	2686.594722
485.501213	2686.350226
485.869879	2695.210054
486.238487	2699.094263
486.607036	2707.064327
486.975527	2706.928216
487.343959	2714.265616
487.712333	2723.251472
488.080648	2726.223232
488.448905	2736.151785
488.817104	2743.579925
489.185244	2761.052564
489.553326	2784.541821
489.921350	2815.292859
490.289315	2847.556244
490.657222	2869.296220
491.025070	2882.947664
491.392861	2888.142573
491.760593	2887.620814
492.128267	2888.631565
492.495883	2887.083931
492.863440	2888.424878
493.230939	2894.998543
493.598380	2898.608009
493.965763	2909.012950
494.333088	2920.574837
494.700354	2932.040941
495.067563	2953.070114
495.434713	2966.358596
495.801805	2993.265755
496.168839	3010.418281
496.535815	3030.280427
496.902733	3057.351423
497.269593	3078.864547
497.636395	3101.569904
498.003139	3140.964001
498.369825	3157.377998
498.736453	3194.954758
499.103023	3217.619786
499.469535	3250.485588
499.835989	3290.472021
500.202385	3319.370435
500.568723	3356.208667
500.935003	3404.036614
501.301226	3442.770320
501.667390	3504.559742
502.033497	3557.693504
502.399546	3590.443360
502.765537	3617.784058
503.131470	3677.201618
503.497345	3744.488418
503.863163	3759.979884
504.228923	3828.035461
504.594625	3910.649890
504.960269	3944.917134
505.325856	4035.753685
505.691385	4077.686003
506.056856	4149.630830
506.422270	4241.140375
506.787625	4297.485351
507.152924	4381.392837
507.518164	4468.743430
507.883347	4505.387577
508.248472	4602.230663
508.613540	4712.803332
508.978550	4820.767203
509.343503	4900.266199
509.708398	5004.842415
510.073236	5133.606087
510.438016	5235.371860
510.802738	5300.934586
511.167403	5446.399601
511.532010	5573.552624
511.896561	5700.763621
512.261053	5881.904882
512.625488	5959.142920
512.989866	6064.732408
513.354186	6175.431106
513.718449	6292.411081
514.082655	6484.947869
514.446803	6580.223157
514.810894	6763.101095
515.174927	6887.431072
515.538904	7008.232242
515.902822	7223.252577
516.266684	7301.612272
516.630488	7495.104359
516.994235	7624.397353
517.357925	7842.424736
517.721558	8020.294288
518.085133	8219.445070
518.448651	8388.928663
518.812112	8515.365842
519.175516	8693.459725
519.538863	8908.742200
519.902152	9064.085356
520.265385	9298.655286
520.628560	9483.224531
520.991678	9613.316547
521.354739	9825.571809
521.717743	10061.429754
522.080690	10225.426050
522.443580	10503.322176
522.806413	10698.586229
523.169189	10875.681964
523.531908	11099.864596
523.894569	11259.149934
524.257174	11483.682927
524.619722	11745.699418
524.982213	11942.019593
525.344647	12121.653549
525.707025	12334.077689
526.069345	12641.661171
526.431608	12838.167868
526.793815	13120.187658
527.155964	13218.222977
527.518057	13461.725832
527.880093	13626.117858
528.242072	13973.559223
528.603995	14113.766314
528.965860	14327.304550
529.327669	14562.179469
529.689421	14758.688687
530.051117	14961.305263
530.412755	15228.264606
530.774337	15469.451050
531.135862	15627.387880
531.497331	15912.349183
531.858743	16117.186388
532.220098	16459.979808
532.581396	16588.282214
532.942638	16701.539297
533.303824	17045.333387
533.664953	17254.700068
534.026025	17399.355977
534.387040	17812.775963
534.747999	18028.050876
535.108902	18328.516248
535.469748	18389.007574
535.830537	18666.959153
536.191270	19002.044649
536.551947	19096.352035
536.912567	19445.431774
537.273131	19736.898687
537.633638	19775.219018
537.994089	20153.897892
538.354483	20226.059488
538.714821	20708.878518
539.075103	21115.341712
539.435328	21250.726940
539.795497	21451.422836
540.155609	21690.991070
540.515665	22137.012197
540.875665	22122.687759
541.235609	22526.053163
541.595496	22755.140838
541.955328	23342.029448
542.315102	23273.205095
542.674821	23401.119333
543.034483	23668.323172
543.394090	23884.293764
543.753640	24111.947231
544.113134	24881.497010
544.472571	24608.805875
544.831953	25516.755491
545.191278	25331.011657
545.550548	25423.784011
545.909761	25905.635140
546.268918	26258.833502
546.628019	26669.863981
546.987064	26663.751582
547.346053	26488.674829
547.704986	27223.750677
548.063863	27205.393315
548.422684	27551.009782
548.781449	27694.309621
549.140158	28181.436317
549.498811	28311.868611
549.857408	28183.041925
550.215949	28945.511403
550.574434	29126.622417
550.932864	29226.220493
551.291237	29901.044470
551.649555	29860.337153
552.007817	30249.695712
552.366022	30243.699259
552.724173	30561.546530
553.082267	31049.777238
553.440305	31468.051855
553.798288	31227.109907
554.156215	31637.371610
554.514086	32002.799811
554.871902	32042.241799
555.229661	32254.406320
555.587365	32357.971785
555.945014	32611.022585
556.302606	32756.759822
556.660143	33119.924545
557.017625	33403.073553
557.375050	33439.695016
557.732421	33918.997841
558.089735	34084.030094
558.446994	34220.327771
558.804197	34758.148310
559.161345	34900.202984
559.518437	34525.093247
559.875474	34953.384637
560.232455	35276.363802
560.589381	35582.500472
560.946251	35523.735742
561.303065	36225.930664
561.659825	36257.077433
562.016528	36165.583011
562.373177	36136.364484
562.729770	36684.453853
563.086307	36472.705227
563.442789	37009.169696
563.799216	37198.712039
564.155587	37214.364822
564.511904	37384.755822
564.868164	37614.166131
565.224370	37981.918304
565.580520	37926.168183
565.936615	38257.480376
566.292654	38159.871035
566.648638	38523.181951
567.004567	38636.688571
567.360441	38797.705546
567.716260	38824.645472
568.072023	39233.530940
568.427732	39354.916883
568.783385	39108.964028
569.138982	39571.530223
569.494525	39683.700937
569.850013	39594.459911
570.205445	39702.862363
570.560823	39782.489908
570.916145	39812.048714
571.271412	39960.298966
571.626625	39863.473524
571.981782	40033.269668
572.336884	39889.687524
572.691931	40275.560125
573.046923	40046.001102
573.401860	40004.638435
573.756743	40107.084763
574.111570	40326.679945
574.466342	40277.110280
574.821059	40511.889417
575.175722	40183.891783
575.530330	40288.173092
575.884882	40141.286472
576.239380	40206.148477
576.593823	40283.777206
576.948211	40306.011215
577.302544	39974.787242
577.656823	40096.967168
578.011047	40370.296008
578.365216	40209.994878
578.719330	40109.655752
579.073389	40077.621740
579.427394	40233.158980
579.781344	40290.388679
580.135239	40055.158358
580.489080	40213.352286
580.842866	39813.976955
581.196597	40308.725876
581.550273	40324.970994
581.903895	40278.292430
582.257463	40731.759342
582.610975	40240.425803
582.964434	40565.814640
583.317837	40306.331328
583.671186	40239.127706
584.024481	40494.968784
584.377721	40136.789762
584.730906	40463.895112
585.084037	40543.840250
585.437113	40365.214525
585.790135	40445.076485
586.143103	40157.017392
586.496016	40333.419968
586.848874	40402.176265
587.201679	40476.301392
587.554428	40051.001927
587.907124	40277.533737
588.259765	40112.819076
588.612352	40407.880331
588.964884	39893.924614
589.317362	40203.743847
589.669786	40209.906658
590.022155	40037.836953
590.374470	40477.783491
590.726731	40088.021640
591.078937	39686.413078
591.431090	39821.725209
591.783188	39541.542919
592.135232	39288.890371
592.487222	39561.203419
592.839157	39691.915497
593.191038	39424.373901
593.542866	39234.105631
593.894639	38709.155158
594.246358	39011.548771
594.598022	39017.265440
594.949633	38697.023621
595.301190	38690.611273
595.652692	38570.306657
596.004141	38923.348743
596.355535	38021.909777
596.706876	38014.335444
597.058162	37878.037767
597.409395	38349.793985
597.760573	38453.056981
598.111698	38078.912624
598.462768	38118.558779
598.813785	38186.049747
599.164748	37700.321971
599.515657	38112.159034
599.866511	37635.386868
600.217312	38251.695652
600.568060	37280.698845
600.918753	38004.530399
601.269392	38010.529372
601.619978	37684.467542
601.970510	37917.416740
602.320988	38110.518138
602.671412	38424.024976
603.021783	38210.854744
603.372100	37891.938749
603.722363	38027.235756
604.072572	38104.390616
604.422728	38145.072727
604.772830	37972.841706
605.122878	38083.963861
605.472872	38042.003817
605.822813	38338.000206
606.172701	38189.631486
606.522534	38419.301414
606.872314	38697.515133
607.222041	38483.858431
607.571714	38881.837362
607.921333	38344.904066
608.270899	38651.139039
608.620411	38996.455557
608.969870	38807.404726
609.319276	38818.913680
609.668627	38888.849607
610.017926	39372.276096
610.367171	39539.055110
610.716362	39660.211681
611.065500	39621.634251
611.414585	39807.869597
611.763616	40108.876893
612.112594	40039.417355
612.461518	40258.931879
612.810389	40551.807794
613.159207	40434.316142
613.507971	40529.755266
613.856682	41003.490137
614.205340	40893.439228
614.553945	41572.943917
614.902496	41047.554863
615.250994	41516.780422
615.599439	41609.978754
615.947830	41836.631551
616.296169	41876.549928
616.644454	42024.853112
616.992686	42197.189998
617.340864	42725.570976
617.688990	42450.976806
618.037063	43036.015313
618.385082	43039.027402
618.733048	43304.461796
619.080961	43353.988612
619.428821	43345.123743
619.776628	43471.787774
620.124382	43300.759068
620.472083	43426.641721
620.819731	43564.925612
621.167326	43246.075152
621.514868	43236.040735
621.862357	42802.919920
622.209793	42834.832945
622.557176	42518.235880
622.904506	42268.161882
623.251783	41939.337499
623.599007	41711.963817
623.946179	41501.553617
624.293297	41463.427370
624.640363	40881.141333
624.987376	40867.610877
625.334336	40638.082101
625.681243	40307.702522
626.028097	40274.955186
626.374899	40123.397937
626.721647	40124.668308
627.068343	40008.701605
627.414987	39784.685331
627.761577	39568.399666
628.108115	39900.503320
628.454600	39347.574443
628.801032	39551.090864
629.147412	39507.275676
629.493739	39525.050784
629.840014	39189.461173
630.186236	39531.397597
630.532405	39153.953806
630.878521	39358.969971
631.224585	39252.803271
631.570597	38975.847320
631.916556	39120.377200
632.262462	39087.644988
632.608316	39101.576217
632.954117	38992.959516
633.299866	38988.412396
633.645562	38915.643340
633.991206	38445.465003
634.336797	38015.593212
634.682336	38004.573249
635.027823	37759.505117
635.373257	37571.202897
635.718639	37362.909982
636.063968	37207.080355
636.409245	36653.445716
636.754470	36700.792233
637.099642	36484.652762
637.444762	36004.452611
637.789829	36154.242936
638.134845	35792.648532
638.479808	35760.075117
638.824719	35673.059760
639.169577	35279.050737
639.514383	35359.666349
639.859137	35052.347528
640.203839	35293.347449
640.548489	34938.571206
640.893086	35006.823388
641.237632	34761.689721
641.582125	34880.686157
641.926566	34808.408614
642.270955	34787.901200
642.615292	34791.901356
642.959576	34771.966113
643.303809	34779.409377
643.647990	34928.723312
643.992118	34887.224534
644.336195	34896.275926
644.680219	34999.914487
645.024192	35294.045649
645.368112	35799.832176
645.711981	35811.630997
646.055797	36667.127407
646.399562	36607.034333
646.743274	37529.978862
647.086935	37975.808425
647.430544	37863.572176
647.774101	37980.269847
648.117606	38228.498783
648.461059	38521.692290
648.804460	38133.200810
649.147810	37536.086219
649.491108	37300.082082
649.834354	36925.879752
650.177548	36110.158045
650.520690	35662.574160
650.863781	35688.432759
651.206820	35532.961053
651.549807	35105.851814
651.892742	34631.776666
652.235626	34439.368426
652.578458	34312.699353
652.921238	33718.145669
653.263967	34038.606778
653.606644	33730.327617
653.949269	33675.923485
654.291843	33295.999446
654.634365	33687.729867
654.976836	33294.250165
655.319255	33287.318579
655.661622	33288.591470
656.003938	33067.975454
656.346203	32933.427058
656.688416	33157.307221
657.030577	32953.374904
657.372687	32794.364309
657.714746	33053.340985
658.056753	33180.713298
658.398708	32648.518687
658.740612	32707.142265
659.082465	32961.687767
659.424266	32782.694038
659.766016	32925.434309
660.107715	32800.335556
660.449362	32920.153700
660.790958	32904.085022
661.132503	32928.587551
661.473996	32957.352374
661.815438	33074.087853
662.156829	33256.244907
662.498168	33030.141595
662.839456	33050.263360
663.180693	33214.252095
663.521879	33369.900241
663.863013	33323.884588
664.204097	33321.384176
664.545129	33784.134373
664.886110	33736.664348
665.227040	33820.171061
665.567918	33930.521919
665.908746	33984.187522
666.249522	34161.522711
666.590248	34145.779188
666.930922	34266.774442
667.271545	34232.807147
667.612118	34322.398533
667.952639	34090.331537
668.293109	34147.132738
668.633528	34040.592992
668.973896	33976.973631
669.314213	34017.181874
669.654480	33738.917743
669.994695	33777.464926
670.334859	33666.272196
670.674973	33568.846857
671.015035	33725.006679
671.355047	33689.635423
671.695008	33641.189935
672.034918	33530.924777
672.374777	33622.903149
672.714585	33449.195070
673.054342	33691.172975
673.394049	33448.396047
673.733705	33715.635174
674.073310	33388.988570
674.412864	33454.211018
674.752368	33067.572162
675.091820	33365.358161
675.431223	32938.669858
675.770574	32660.698115
676.109875	32527.137785
676.449125	32266.633639
676.788324	32178.678107
677.127473	31645.825625
677.466571	31581.286253
677.805619	31221.342827
678.144616	31224.859032
678.483562	31147.857928
678.822458	30833.337819
679.161303	30763.331315
679.500098	30667.448569
679.838842	30553.180735
680.177535	30716.977906
680.516179	30980.355509
680.854771	31231.352038
681.193314	32091.456063
681.531805	33189.038764
681.870247	33973.845595
682.208638	34728.037498
682.546978	34946.500941
682.885268	35024.280904
683.223508	34489.585880
683.561697	34157.106661
683.899836	33957.786999
684.237925	33477.102898
684.575963	33319.271932
684.913951	32867.584548
685.251889	33005.971783
685.589776	32999.282172
685.927614	32989.961078
686.265401	33146.057886
686.603137	33248.642847
686.940824	33763.039664
687.278460	34125.798575
687.616046	34267.308804
687.953582	34888.270573
688.291068	34736.201647
688.628504	35021.654463
688.965889	34956.679031
689.303224	34558.546344
689.640510	34236.782097
689.977745	33493.229549
690.314930	32688.182485
690.652065	32168.610923
690.989150	31419.339186
691.326185	30536.096264
691.663170	29831.156434
692.000105	29083.696992
692.336990	28404.681295
692.673825	27967.051168
693.010610	27433.129961
693.347345	26869.297068
693.684030	26220.117440
694.020665	25949.853621
694.357251	25282.669512
694.693786	25245.869089
695.030272	25002.454455
695.366707	24456.749551
695.703093	24173.351005
696.039429	24169.134080
696.375716	23910.787548
696.711952	23867.398337
697.048139	23722.813004
697.384276	23547.897568
697.720363	23667.793851
698.056400	23469.971412
698.392388	23252.518720
698.728326	23209.348799
699.064214	23009.754395
699.400053	22947.125620
699.735842	22595.595880
700.071581	22320.366524
700.407270	22030.732071
700.742910	21845.840192
701.078501	21565.947769
701.414042	21282.786158
701.749533	21011.246926
702.084974	20651.832822
702.420366	20854.250272
702.755709	20422.180538
703.091002	20120.517891
703.426246	20149.433950
703.761440	20044.141890
704.096584	19780.176992
704.431679	19735.409026
704.766725	19649.255706
705.101721	19582.634338
705.436668	19684.876499
705.771565	19352.094811
706.106413	19695.891421
706.441212	19676.465334
706.775961	19812.914245
707.110661	19887.621625
707.445311	20250.511605
707.779913	20080.244113
708.114465	20322.222018
708.448967	20606.356573
708.783421	21299.928601
709.117825	21575.417577
709.452180	21796.081483
709.786485	22192.033871
710.120742	22984.593996
710.454949	23016.529706
710.789107	23481.308967
711.123216	24175.339741
711.457275	24294.028667
711.791286	24833.853065
712.125247	24898.432766
712.459159	24593.964718
712.793023	25261.226964
713.126837	24147.207582
713.460602	24401.006993
713.794318	24010.050388
714.127985	23624.644094
714.461602	22746.638932
714.795171	22693.182537
715.128691	21687.061490
715.462162	21152.149697
715.795584	20725.307639
716.128957	20472.481171
716.462281	20071.182639
716.795556	19834.674386
717.128782	19337.692234
717.461960	18796.151323
717.795088	18724.977793
718.128167	18315.671388
718.461198	17866.660857
718.794180	17713.036734
719.127113	17357.073299
719.459997	17174.127306
719.792833	16820.402143
720.125619	16791.246630
720.458357	16479.751213
720.791046	16309.829041
721.123686	16149.112015
721.456278	15905.669654
721.788821	15873.885179
722.121315	15607.001454
722.453761	15689.452045
722.786158	15621.872857
723.118506	15620.715913
723.450805	15488.204143
723.783056	15646.982845
724.115259	15550.374172
724.447412	15491.979967
724.779518	15725.312293
725.111574	15756.315389
725.443582	15948.902590
725.775542	15923.606080
726.107453	16385.337963
726.439315	16276.905265
726.771129	16678.047520
727.102895	17045.156946
727.434612	17250.508348
727.766281	17362.502622
728.097901	17627.301831
728.429473	17655.650759
728.760996	17646.886713
729.092471	17726.032829
729.423897	17612.869007
729.755276	17472.369529
730.086606	17587.512003
730.417887	18105.397300
730.749120	18631.292990
731.080305	18802.772879
731.411442	19121.789697
731.742530	19196.416418
732.073570	19286.673237
732.404562	19583.607280
732.735506	19394.561491
733.066401	19100.846223
733.397249	18584.679961
733.728048	17952.093291
734.058798	17120.678472
734.389501	16454.777337
734.720156	15991.240720
735.050762	15466.655731
735.381320	15114.894098
735.711831	14878.884918
736.042293	14537.102249
736.372707	14537.296334
736.703073	14333.474922
737.033391	14525.583213
737.363661	14488.477800
737.693883	14592.927987
738.024056	14764.675057
738.354182	14950.761690
738.684260	15234.069495
739.014290	15457.039730
739.344272	15645.160468
739.674207	15922.204639
740.004093	16032.696649
740.333931	16021.316244
740.663722	16064.138326
740.993464	16052.256326
741.323159	15870.361413
741.652806	15597.864362
741.982405	15396.127468
742.311956	15052.613162
742.641460	14929.971972
742.970915	14629.030210
743.300323	14297.937308
743.629683	14085.656840
743.958996	13807.919510
744.288260	13542.091906
744.617477	13234.899114
744.946647	13166.969566
745.275768	12900.075758
745.604842	12706.591232
745.933869	12545.730534
746.262847	12504.050274
746.591778	12416.704722
746.920662	12321.741986
747.249498	12313.287971
747.578286	12442.459977
747.907027	12583.168663
748.235720	12798.481385
748.564365	12824.949963
748.892963	12734.168864
749.221514	12797.490798
749.550017	12647.768529
749.878473	12607.870317
750.206881	12387.158519
750.535242	12299.694500
750.863555	12211.486910
751.191821	12120.378137
751.520039	12135.398255
751.848210	12052.372971
752.176334	12073.823081
752.504411	11985.060965
752.832440	11826.088178
753.160421	11893.521172
753.488356	11764.770103
753.816243	11677.853049
754.144082	11535.964733
754.471875	11482.926753
754.799620	11424.484657
755.127318	11397.244782
755.454969	11357.490243
755.782572	11314.206896
756.110129	11320.841054
756.437638	11241.442881
756.765100	11234.695297
757.092515	11233.291336
757.419882	11251.827658
757.747203	11252.276321
758.074477	11327.414719
758.401703	11283.390322
758.728882	11449.040117
759.056014	11489.560912
759.383099	11604.302615
759.710138	11706.718696
760.037129	11782.580500
760.364073	11800.191771
760.690970	11783.397167
761.017820	11786.757096
761.344623	11974.986219
761.671379	12287.986420
761.998088	12917.936566
762.324751	14467.262104
762.651366	17313.003533
762.977935	20961.014349
763.304456	23161.309124
763.630931	23628.896308
763.957359	22452.807718
764.283740	20557.069212
764.610074	18679.677984
764.936362	16560.944037
765.262602	15057.014090
765.588796	13592.921860
765.914943	12576.290008
766.241044	11737.769683
766.567097	11095.597259
766.893104	10555.505680
767.219064	10196.351195
767.544978	9819.083844
767.870845	9511.444910
768.196665	9324.226539
768.522438	9129.159091
768.848165	8966.665058
769.173846	8797.977968
769.499479	8674.378958
769.825066	8520.689301
770.150607	8339.079213
770.476101	8276.331971
770.801548	8165.235022
771.126949	8031.157974
771.452303	7941.163296
771.777611	7774.845548
772.102872	7753.854183
772.428087	7635.200545
772.753256	7516.556990
773.078378	7424.344203
773.403453	7282.564272
773.728482	7185.542225
774.053465	7112.747964
774.378401	7035.106633
774.703291	6942.442663
775.028135	6847.043868
775.352932	6806.717158
775.677683	6727.845785
776.002388	6641.001828
776.327046	6637.004193
776.651658	6552.428755
776.976224	6477.524770
777.300743	6463.775023
777.625216	6393.430762
777.949643	6352.012642
778.274024	6356.232088
778.598359	6288.277334
778.922647	6295.758407
779.246889	6256.339104
779.571086	6260.850937
779.895236	6268.926865
780.219339	6270.091372
780.543397	6260.974445
780.867409	6316.986706
781.191374	6309.873637
781.515294	6281.446571
781.839167	6332.263922
782.162995	6303.242000
782.486776	6250.960193
782.810511	6211.644234
783.134201	6133.899560
783.457844	6129.763293
783.781441	6077.191620
784.104993	6032.514394
784.428498	6000.127501
784.751958	5985.346838
785.075372	5961.771882
785.398739	5922.317292
785.722061	5947.250838
786.045337	5950.996416
786.368568	6057.594134
786.691752	6076.332103
787.014891	6325.652449
787.337983	6603.669563
787.661030	7042.489403
787.984031	7462.346942
788.306987	7723.352682
788.629897	7807.214797
788.952760	7726.256387
789.275579	7546.151083
789.598351	7250.063953
789.921078	6984.115362
790.243759	6709.347271
790.566395	6504.482341
790.888984	6312.432023
791.211529	6174.775756
791.534027	6012.052351
791.856480	5874.421289
792.178888	5813.025076
792.501249	5750.151805
792.823566	5646.404859
793.145836	5639.959744
793.468062	5624.861488
793.790241	5581.769705
794.112375	5621.967866
794.434464	5724.096602
794.756507	5755.626498
795.078505	5875.772318
795.400457	6088.259473
795.722364	6323.751934
796.044226	6519.799887
796.366042	6671.946951
796.687812	6623.831658
797.009538	6651.583210
797.331218	6557.621143
797.652852	6485.343600
797.974442	6368.071238
798.295986	6293.908303
798.617484	6168.370970
798.938938	6064.049332
799.260346	5992.265822
799.581709	5859.829669
799.903026	5802.161390
800.224299	5734.405761
800.545526	5615.898317
800.866708	5550.050765
801.187845	5503.553683
801.508936	5431.364360
801.829983	5403.433847
802.150984	5297.519204
802.471940	5268.237662
802.792851	5253.101598
803.113717	5228.795675
803.434538	5205.986974
803.755314	5171.432385
804.076045	5161.443339
804.396731	5126.493019
804.717372	5140.593126
805.037967	5142.196213
805.358518	5171.412220
805.679024	5229.365325
805.999485	5238.293208
806.319901	5258.518318
806.640272	5278.100680
806.960598	5324.234799
807.280879	5316.269776
807.601115	5350.121124
807.921306	5315.783305
808.241453	5312.360361
808.561554	5321.444521
808.881611	5283.910610
809.201623	5284.442451
809.521590	5232.717692
809.841513	5218.547009
810.161390	5232.316921
810.481223	5145.422552
810.801011	5129.235407
811.120755	5107.926449
811.440453	5050.389240
811.760107	5025.180950
812.079716	5000.905274
812.399281	4949.946770
812.718801	4941.638949
813.038276	4909.299947
813.357707	4876.172004
813.677093	4900.619080
813.996434	4834.622814
814.315731	4853.789281
814.634983	4848.846430
814.954191	4860.390672
815.273354	4918.021143
815.592473	4961.803564
815.911547	5030.469121
816.230577	5088.480198
816.549562	5165.617414
816.868502	5221.959870
817.187399	5278.763592
817.506250	5355.588256
817.825058	5383.980034
818.143821	5539.396287
818.462539	5700.680442
818.781213	5929.672335
819.099843	6293.832686
819.418429	6918.436689
819.736970	7525.646190
820.055466	8238.644305
820.373919	9142.271132
820.692327	10582.339742
821.010691	13265.047735
821.329011	19447.118040
821.647286	28967.619383
821.965517	39254.217314
822.283704	44692.654413
822.601847	46149.424366
822.919945	41589.851947
823.237999	36499.020050
823.556010	31316.575265
823.873976	26632.483825
824.191897	22452.527934
824.509775	19396.640967
824.827609	16643.276162
825.145398	15100.771305
825.463144	14360.225805
825.780845	14646.535617
826.098502	15888.575102
826.416116	18336.693000
826.733685	20610.747418
827.051210	21132.537088
827.368692	19712.983453
827.686129	17156.458062
828.003522	14703.135172
828.320872	12494.593069
828.638177	10855.020795
828.955439	9618.612279
829.272656	8568.300478
829.589830	7734.385247
829.906960	7011.057808
830.224046	6475.563762
830.541088	6067.159724
830.858086	5813.067926
831.175041	5610.201813
831.491952	5556.405140
831.808819	5589.999389
832.125642	5832.942675
832.442421	6377.558690
832.759157	7478.042574
833.075849	9235.638342
833.392497	11073.524567
833.709101	12174.983915
834.025662	11924.231882
834.342179	10879.929136
834.658653	9581.695910
834.975083	8480.571798
835.291469	7583.964778
835.607811	6853.488983
835.924110	6341.060736
836.240366	5853.676941
836.556578	5409.551287
836.872746	5053.880239
837.188871	4782.409063
837.504952	4565.667174
837.820990	4403.760436
838.136984	4287.715595
838.452935	4239.943101
838.768842	4270.258079
839.084706	4547.072878
839.400526	5282.075630
839.716303	6182.445871
840.032037	6738.558237
840.347727	6601.093533
840.663373	6001.889384
840.978977	5427.386889
841.294537	4989.502184
841.610054	4660.927338
841.925527	4421.250719
842.240957	4213.771951
842.556344	4036.361144
842.871687	3877.640415
843.186987	3728.777663
843.502244	3613.368007
843.817458	3527.796941
844.132629	3458.254224
844.447756	3408.601379
844.762840	3364.115717
845.077881	3324.661126
845.392879	3289.730971
845.707833	3266.191303
846.022745	3237.302971
846.337613	3226.696383
846.652438	3204.613609
846.967221	3195.718493
847.281960	3174.056655
847.596656	3166.804955
847.911309	3154.549910
848.225919	3144.943992
848.540485	3129.891106
848.855009	3124.766773
849.169490	3113.237654
849.483928	3105.943105
849.798323	3098.567897
850.112675	3089.824015
850.426984	3090.484407
850.741251	3082.794126
851.055474	3078.481419
851.369654	3082.952923
851.683792	3079.958477
851.997887	3082.975608
852.311938	3081.314548
852.625947	3082.211873
852.939914	3075.446645
853.253837	3080.558375
853.567718	3078.602407
853.881555	3075.744073
854.195350	3081.349836
854.509103	3074.488825
854.822812	3074.345153
855.136479	3068.126889
855.450103	3072.464802
855.763685	3068.010943
856.077224	3067.423648
856.390720	3075.761717
856.704173	3087.857965
857.017584	3092.579006
857.330953	3099.263576
857.644278	3105.930502
857.957561	3109.393775
858.270802	3106.338835
858.584000	3106.169957
858.897155	3100.937239
859.210268	3089.077925
859.523339	3076.137283
859.836367	3074.824062
860.149352	3068.595717
860.462295	3066.357444
860.775195	3055.831515
861.088054	3052.600135
861.400869	3052.953016
861.713642	3051.423026
862.026373	3060.928122
862.339062	3062.478276
862.651708	3071.537230
862.964312	3089.337544
863.276873	3096.508585
863.589392	3126.674850
863.901869	3151.220228
864.214303	3174.016326
864.526696	3191.766228
864.839045	3209.453117
865.151353	3222.398800
865.463619	3224.626990
865.775842	3224.400138
866.088023	3228.919532
866.400162	3220.019375
866.712258	3226.056157
867.024313	3220.273953
867.336325	3220.652040
867.648296	3219.389231
867.960224	3218.968295
868.272110	3221.105744
868.583954	3224.213615
868.895755	3231.268710
869.207515	3227.147567
869.519233	3244.814290
869.830909	3253.210332
870.142542	3262.465891
870.454134	3272.664145
870.765684	3283.215280
871.077191	3299.273875
871.388657	3313.973880
871.700081	3333.037003
872.011463	3353.357894
872.322803	3370.875904
872.634101	3384.459293
872.945357	3406.375709
873.256571	3433.313115
873.567744	3447.471196
873.878874	3454.163327
874.189963	3473.221409
874.501010	3472.051862
874.812015	3469.150678
875.122979	3484.042246
875.433900	3485.973008
875.744780	3486.467041
876.055618	3493.401148
876.366415	3491.813185
876.677169	3495.785614
876.987882	3514.455527
877.298554	3533.332128
877.609183	3574.208324
877.919771	3620.226497
878.230317	3684.526414
878.540822	3785.876292
878.851285	3938.136782
879.161707	4156.438908
879.472087	4530.789951
879.782425	5150.057893
880.092722	6327.144631
880.402977	8244.239986
880.713191	10608.152971
881.023363	12985.586330
881.333494	14321.514785
881.643583	14774.553198
881.953631	14362.078429
882.263637	13530.172098
882.573602	12481.614618
882.883526	11537.787110
883.193408	10581.954094
883.503248	9679.668214
883.813048	8852.974436
884.122806	8094.328673
884.432522	7328.605130
884.742197	6674.041550
885.051831	6114.314677
885.361424	5620.982320
885.670975	5232.082507
885.980485	4910.280451
886.289954	4646.343280
886.599382	4428.010907
886.908768	4250.302672
887.218113	4089.252930
887.527417	3956.930203
887.836680	3839.912420
888.145901	3738.053386
888.455082	3655.524656
888.764221	3591.479317
889.073319	3534.305071
889.382376	3498.767457
889.691392	3474.862305
890.000366	3467.461891
890.309300	3462.080459
890.618193	3468.404587
890.927044	3460.245479
891.235855	3468.681850
891.544625	3481.047801
891.853353	3513.149868
892.162041	3570.576172
892.470687	3662.052950
892.779293	3781.409829
893.087858	3951.168164
893.396381	4224.681008
893.704864	4639.570490
894.013306	5199.272157
894.321707	5773.235249
894.630068	6127.643488
894.938387	6164.915259
895.246665	5985.886242
895.554903	5670.234393
895.863100	5337.553528
896.171256	5063.690324
896.479371	4829.127957
896.787446	4609.169811
897.095480	4411.566663
897.403473	4262.184672
897.711425	4119.850213
898.019336	3998.948221
898.327207	3876.123028
898.635038	3774.904220
898.942827	3668.838343
899.250576	3587.101075
899.558284	3500.995647
899.865952	3448.008078
900.173579	3386.531207
900.481165	3340.152592
900.788711	3297.701035
901.096216	3267.295316
901.403681	3239.793301
901.711105	3227.593709
902.018489	3224.286712
902.325832	3256.101434
902.633135	3313.376503
902.940397	3484.498471
903.247619	3883.709964
903.554800	4626.052636
903.861941	5588.991158
904.169041	6285.981089
904.476101	6496.721484
904.783121	6226.979424
905.090100	5823.228372
905.397039	5412.525568
905.703938	5054.553233
906.010796	4737.890634
906.317614	4486.896625
906.624391	4249.801077
906.931129	4055.424267
907.237826	3876.712843
907.544483	3703.826472
907.851099	3532.641490
908.157675	3375.728015
908.464211	3236.632498
908.770707	3136.346304
909.077163	3060.217319
909.383578	2997.235663
909.689954	2955.394086
909.996289	2924.922832
910.302584	2905.615213
910.608839	2892.253634
910.915054	2881.311810
911.221229	2876.883156
911.527363	2878.680328
911.833458	2890.214488
912.139513	2896.863770
912.445527	2912.098137
912.751502	2946.814043
913.057436	2986.729899
913.363331	3046.270967
913.669186	3130.964872
913.975000	3248.043149
914.280775	3432.564504
914.586510	3700.090977
914.892205	4071.981937
915.197859	4562.914704
915.503475	5146.392974
915.809050	5636.816585
916.114585	5924.275780
916.420081	5993.090050
916.725536	5921.641777
917.030952	5686.701322
917.336328	5482.083408
917.641665	5272.361326
917.946961	5047.235998
918.252218	4847.969269
918.557435	4620.162047
918.862612	4425.298766
919.167750	4256.069752
919.472848	4067.891041
919.777906	3901.356523
920.082925	3742.287955
920.387904	3589.248606
920.692843	3483.215497
920.997743	3378.198180
921.302603	3288.889098
921.607423	3225.604974
921.912204	3159.021414
922.216946	3113.028447
922.521647	3061.951476
922.826310	3022.446474
923.130932	2986.510608
923.435516	2946.181378
923.740059	2922.377049
924.044564	2889.100393
924.349028	2865.235570
924.653454	2833.456137
924.957840	2810.314720
925.262186	2789.456946
925.566493	2770.829882
925.870761	2744.593197
926.174989	2733.870663
926.479178	2717.156717
926.783328	2703.785057
927.087438	2693.433047
927.391509	2678.019719
927.695541	2667.902124
927.999533	2656.751091
928.303486	2650.132056
928.607400	2641.304996
928.911275	2638.605458
929.215110	2632.372071
929.518906	2627.232615
929.822663	2626.673047
930.126381	2628.155146
930.430060	2631.706639
930.733699	2634.839716
931.037299	2637.914820
931.340861	2638.650828
931.644383	2638.895324
931.947866	2639.311220
932.251309	2634.970786
932.554714	2634.234778
932.858080	2631.535240
933.161407	2629.339817
933.464694	2624.142388
933.767943	2620.737088
934.071153	2616.658795
934.374323	2611.705861
934.677455	2612.257868
934.980548	2606.503390
935.283602	2603.050200
935.586617	2604.625561
935.889593	2606.654625
936.192530	2607.473812
936.495428	2615.027982
936.798287	2623.872686
937.101108	2636.742752
937.403890	2658.452481
937.706632	2681.777900
938.009336	2717.920452
938.312002	2745.808115
938.614628	2766.882659
938.917216	2787.974847
939.219765	2796.386012
939.522275	2808.061324
939.824747	2808.028557
940.127179	2801.031435
940.429573	2795.844088
940.731929	2792.146401
941.034246	2783.896553
941.336524	2784.819084
941.638763	2777.643002
941.940964	2770.320726
942.243126	2751.723909
942.545250	2744.111767
942.847335	2731.002246
943.149381	2715.515822
943.451389	2704.702547
943.753359	2692.686957
944.055290	2683.174299
944.357182	2674.359842
944.659036	2668.454130
944.960851	2665.210147
945.262628	2662.692091
945.564367	2663.309632
945.866067	2660.721000
946.167729	2657.688746
946.469352	2658.790238
946.770937	2653.580206
947.072484	2649.350677
947.373992	2648.816315
947.675462	2642.814822
947.976893	2640.495891
948.278286	2638.368524
948.579641	2634.310395
948.880958	2629.843933
949.182236	2628.994498
949.483476	2628.923922
949.784678	2628.117337
950.085841	2625.737913
950.386967	2630.763943
950.688054	2635.865591
950.989103	2644.261633
951.290114	2649.025523
951.591087	2664.852226
951.892021	2675.105932
952.192917	2688.530525
952.493776	2698.285158
952.794596	2701.501414
953.095378	2704.581559
953.396122	2700.306661
953.696828	2697.460929
953.997496	2694.287523
954.298126	2683.635565
954.598718	2675.695747
954.899272	2667.463543
955.199788	2653.668426
955.500266	2642.996303
955.800706	2630.874849
956.101108	2613.981942
956.401472	2598.863522
956.701798	2584.332396
957.002087	2570.585169
957.302337	2561.334652
957.602550	2550.397869
957.902724	2541.903524
958.202861	2534.137627
958.502960	2523.125226
958.803022	2517.675739
959.103045	2510.660973
959.403031	2502.388440
959.702979	2500.019098
960.002889	2495.230002
960.302762	2488.421923
960.602596	2485.379587
960.902393	2481.936479
961.202153	2477.880871
961.501875	2475.014975
961.801559	2476.005561
962.101205	2471.347535
962.400814	2468.774026
962.700385	2466.966772
962.999918	2465.217492
963.299414	2466.175311
963.598873	2465.877883
963.898293	2459.536112
964.197677	2460.670371
964.497022	2460.050309
964.796331	2457.935545
965.095601	2456.191306
965.394835	2458.424537
965.694030	2455.924125
965.993189	2454.696604
966.292309	2455.447736
966.591393	2453.776593
966.890439	2454.752057
967.189447	2453.615277
967.488419	2455.354475
967.787353	2453.227108
968.086249	2454.053857
968.385108	2456.672736
968.683930	2457.144084
968.982714	2457.809517
969.281462	2458.182562
969.580172	2459.765484
969.878844	2461.945783
970.177480	2465.416618
970.476078	2470.306537
970.774639	2474.818370
971.073162	2473.255612
971.371649	2472.244861
971.670098	2477.371714
971.968510	2476.333236
972.266885	2474.858699
972.565223	2482.130563
972.863524	2484.444453
973.161788	2485.112406
973.460014	2485.152735
973.758204	2482.614514
974.056356	2487.789258
974.354471	2485.750112
974.652550	2487.426295
974.950591	2488.971409
975.248595	2484.850266
975.546563	2483.171562
975.844493	2484.051243
976.142386	2478.604276
976.440243	2479.670480
976.738062	2474.883905
977.035845	2474.994810
977.333590	2473.061527
977.631299	2469.560446
977.928971	2467.919551
978.226606	2465.756896
978.524204	2464.652883
978.821765	2464.713377
979.119290	2463.833695
979.416777	2463.253963
979.714228	2463.828654
980.011642	2462.429734
980.309020	2469.631022
980.606360	2471.571867
980.903664	2479.161324
981.200931	2495.177069
981.498162	2512.574091
981.795356	2540.446631
982.092513	2580.854000
982.389633	2624.948972
982.686717	2665.953718
982.983764	2698.088553
983.280775	2715.662015
983.577749	2714.545400
983.874686	2706.005685
984.171587	2688.230577
984.468451	2674.914369
984.765279	2659.077584
985.062070	2635.583286
985.358824	2620.905967
985.655543	2599.004674
985.952224	2573.451065
986.248869	2550.539021
986.545478	2523.493231
986.842050	2504.369613
987.138586	2485.369505
987.435086	2471.289562
987.731549	2460.619960
988.027975	2456.501337
988.324366	2451.024123
988.620719	2447.205449
988.917037	2439.668924
989.213318	2439.033739
989.509563	2437.092895
989.805772	2434.053079
990.101944	2434.952925
990.398080	2433.831268
990.694180	2430.998140
990.990244	2430.383119
991.286271	2435.976279
991.582262	2431.028387
991.878217	2433.901844
992.174136	2436.296392
992.470019	2435.396547
992.765865	2436.457709
993.061676	2439.076589
993.357450	2442.617999
993.653188	2443.132197
993.948890	2451.777776
994.244556	2455.609053
994.540186	2464.632718
994.835780	2475.509008
995.131337	2489.089876
995.426859	2507.974038
995.722345	2524.687984
996.017795	2546.014585
996.313208	2556.016235
996.608586	2567.900755
996.903928	2569.123235
997.199234	2568.316650
997.494504	2566.988306
997.789738	2559.965979
998.084936	2551.459032
998.380099	2539.017464
998.675225	2525.192099
998.970316	2514.368742
999.265371	2497.755620
999.560390	2487.837149
999.855373	2475.335088
1000.150320	2466.324025
1000.445232	2458.648869
1000.740108	2449.289967
1001.034948	2447.076900
1001.329752	2441.544234
1001.624521	2436.372010
1001.919254	2429.884045
1002.213951	2431.068716
1002.508613	2425.450350
1002.803239	2427.275248
1003.097829	2419.083373
1003.392384	2423.292736
1003.686903	2424.779877
1003.981386	2420.036151
1004.275834	2421.903898
1004.570246	2420.615883
1004.864623	2418.425502
1005.158964	2418.473393
1005.453270	2418.349885
1005.747540	2418.085224
1006.041775	2413.291087
1006.335974	2414.339647
1006.630138	2414.909297
1006.924266	2416.547672
1007.218359	2416.151942
1007.512416	2410.402506
1007.806438	2414.168248
1008.100425	2411.317475
1008.394376	2412.653381
1008.688292	2414.203536
1008.982172	2412.401323
1009.276017	2415.662950
1009.569827	2410.591549
1009.863602	2413.996848
1010.157341	2413.134811
1010.451045	2413.946437
1010.744714	2411.614903
1011.038347	2411.607342
1011.331945	2409.885787
1011.625508	2407.763462
1011.919036	2407.627351
1012.212528	2410.112639
1012.505986	2408.572567
1012.799408	2409.301014
1013.092795	2411.057856
1013.386147	2409.389234
1013.679464	2410.238668
1013.972745	2408.668349
1014.265992	2410.720098
1014.559204	2411.078020
1014.852380	2409.467372
1015.145521	2410.342012
1015.438628	2409.243040
1015.731699	2410.503329
1016.024736	2407.622309
1016.317737	2410.526014
1016.610703	2411.534245
1016.903635	2408.035684
1017.196531	2408.751528
1017.489393	2409.686662
1017.782219	2404.784140
1018.075011	2413.225552
1018.367768	2412.340829
1018.660490	2409.132135
1018.953177	2409.132135
1019.245829	2409.132135
