Dividing Wavelength (nm)	Counts (n)	Blue Motor Position (mm): 49.400000	Red Motor Position (mm): 0.000000	
326.493990	1974.040229
326.888308	1974.040229
327.282561	1974.040229
327.676750	1950.805551
328.070874	1952.655654
328.464933	1958.233691
328.858929	1967.756431
329.252859	1982.395941
329.646726	1994.928250
330.040528	2008.267143
330.434265	2028.860256
330.827938	2047.653678
331.221547	2066.842830
331.615091	2088.734041
332.008571	2111.638523
332.401986	2131.951853
332.795338	2150.339461
333.188625	2169.810918
333.581847	2187.757426
333.975006	2208.597556
334.368100	2226.486090
334.761129	2242.572412
335.154095	2258.484814
335.546996	2299.802111
335.939833	2382.199771
336.332606	2396.781308
336.725315	2412.771848
337.117960	2418.581778
337.510540	2425.599064
337.903056	2435.938471
338.295508	2443.739656
338.687896	2452.425564
339.080220	2457.325566
339.472480	2463.964765
339.864676	2465.570373
340.256807	2472.237299
340.648875	2469.769654
341.040879	2473.933647
341.432818	2475.511528
341.824694	2476.101343
342.216506	2473.971456
342.608253	2475.027577
342.999937	2475.279635
343.391557	2472.612865
343.783113	2473.230406
344.174605	2467.637246
344.566033	2467.939715
344.957397	2464.602471
345.348697	2464.456278
345.739934	2465.900568
346.131106	2460.115844
346.522215	2458.895885
346.913260	2457.030658
347.304241	2457.484362
347.695159	2456.108127
348.086012	2454.255503
348.476802	2451.147632
348.867528	2452.385235
349.258191	2449.458845
349.648789	2450.358691
350.039324	2446.519853
350.429796	2449.375666
350.820203	2445.738474
351.210548	2449.118567
351.600828	2446.754266
351.991045	2446.146807
352.381198	2445.254523
352.771288	2445.372990
353.161314	2442.615479
353.551276	2443.989193
353.941175	2442.040787
354.331010	2446.277877
354.720782	2448.196036
355.110490	2449.657971
355.500135	2445.809050
355.889717	2447.021447
356.279235	2447.086982
356.668689	2450.068825
357.058080	2448.538835
357.447408	2445.279729
357.836672	2447.306272
358.225873	2445.667898
358.615010	2446.862651
359.004084	2453.547221
359.393095	2452.710389
359.782043	2455.886316
360.170927	2454.270627
360.559748	2455.697273
360.948505	2459.374795
361.337199	2458.989147
361.725830	2459.505865
362.114398	2463.395115
362.502903	2457.300360
362.891344	2460.670371
363.279722	2458.094342
363.668037	2464.952832
364.056289	2462.543160
364.444478	2467.085240
364.832603	2464.408387
365.220665	2465.361165
365.608665	2467.972483
365.996601	2467.410394
366.384474	2467.705302
366.772284	2470.949284
367.160031	2469.993985
367.547715	2471.672690
367.935336	2471.687813
368.322893	2474.440283
368.710388	2471.196301
369.097820	2476.469348
369.485189	2473.558081
369.872495	2480.363639
370.259738	2475.924903
370.646918	2481.823053
371.034035	2480.837507
371.421090	2485.026706
371.808081	2486.899495
372.195010	2490.914774
372.581875	2490.574496
372.968678	2496.815444
373.355418	2501.843995
373.742096	2509.562002
374.128710	2516.115502
374.515262	2526.311236
374.901751	2537.197607
375.288177	2551.758980
375.674540	2562.118551
376.060841	2580.223855
376.447079	2592.753643
376.833254	2620.790020
377.219367	2638.849954
377.605417	2666.127637
377.991404	2690.967923
378.377329	2724.675598
378.763191	2751.396234
379.148991	2795.806279
379.534727	2836.874039
379.920402	2880.326264
380.306013	2922.649272
380.691563	2977.703713
381.077049	3028.142977
381.462474	3079.318251
381.847835	3148.704692
382.233134	3215.870506
382.618371	3273.314454
383.003545	3352.470651
383.388657	3426.880603
383.773706	3512.860002
384.158693	3583.479006
384.543618	3674.456709
384.928480	3749.544696
385.313280	3844.497349
385.698017	3947.881332
386.082692	4064.581523
386.467305	4126.945637
386.851856	4247.388885
387.236344	4398.883120
387.620770	4462.381494
388.005133	4579.401798
388.389435	4722.767172
388.773674	4811.315039
389.157851	4938.011838
389.541965	5075.731120
389.926018	5103.981747
390.310008	5281.556391
390.693936	5399.675667
391.077802	5521.159912
391.461606	5651.730838
391.845348	5766.976656
392.229027	5890.910903
392.612645	6112.638493
392.996200	6233.139714
393.379694	6410.167393
393.763125	6633.147710
394.146494	6727.452575
394.529801	6868.183947
394.913047	7112.808457
395.296230	7118.056299
395.679351	7181.085845
396.062410	7445.322965
396.445408	7343.305135
396.828343	7502.305648
397.211217	7644.894684
397.594028	7530.790688
397.976778	7745.407730
398.359466	7908.272287
398.742092	7890.867704
399.124656	8037.535034
399.507158	8228.254487
399.889598	8252.966223
400.271977	8466.983368
400.654294	8497.074016
401.036549	8695.335035
401.418742	8729.748471
401.800874	9025.916260
402.182944	9106.597407
402.564952	9472.063416
402.946898	9303.809866
403.328783	9356.487403
403.710606	9555.522239
404.092367	9806.710332
404.474067	10161.771400
404.855705	9957.312283
405.237282	9915.513556
405.618797	10337.952166
406.000250	10578.115255
406.381642	10945.275093
406.762972	10893.366332
407.144240	10697.487258
407.525447	10949.852461
407.906593	10887.505990
408.287677	11145.489559
408.668700	11296.724174
409.049661	11265.305183
409.430560	11424.613206
409.811399	11398.250492
410.192176	11558.942312
410.572891	11634.312603
410.953545	12114.270779
411.334138	11599.316913
411.714669	12171.896208
412.095139	11504.601194
412.475547	11990.999444
412.855894	11847.417300
413.236180	12166.451762
413.616405	11858.139834
413.996568	12131.897173
414.376670	12104.435488
414.756711	11987.843682
415.136691	12255.397881
415.516609	12420.659507
415.896466	12492.458140
416.276262	12783.582254
416.655997	13219.992422
417.035670	13259.263011
417.415283	13900.790167
417.794834	13995.957069
418.174324	13735.286566
418.553753	13639.028253
418.933121	14122.250576
419.312428	13940.489253
419.691674	13845.186240
420.070859	14294.705928
420.449983	13957.979537
420.829045	14495.263193
421.208047	14244.198608
421.586988	14691.830384
421.965867	14943.351194
422.344686	14939.280462
422.723444	15504.108983
423.102141	14198.369478
423.480777	15371.635022
423.859352	14887.643923
424.237866	15972.447299
424.616319	15684.055490
424.994712	16330.724623
425.373044	16119.865761
425.751314	16778.343797
426.129524	15924.999959
426.507673	16988.272566
426.885762	16703.298660
427.263789	16883.073768
427.641756	17054.271353
428.019662	17102.875637
428.397508	17148.172925
428.775292	17433.623221
429.153016	17401.891678
429.530679	17479.858163
429.908282	17502.003952
430.285824	17230.573105
430.663305	17928.392306
431.040726	17526.355246
431.418086	17356.546499
431.795385	18000.448038
432.172624	18413.658816
432.549802	17961.868088
432.926920	18159.078027
433.303977	18040.963792
433.680974	18306.914904
434.057910	18583.281040
434.434786	18608.509495
434.811601	18526.580662
435.188355	19552.304236
435.565050	19197.386840
435.941683	19152.265993
436.318257	20018.351347
436.694770	19836.642957
437.071222	20417.192316
437.447614	19505.943264
437.823946	19528.257932
438.200218	19678.736374
438.576429	19455.042734
438.952580	19724.752026
439.328670	19691.470329
439.704700	20104.242526
440.080670	19680.873823
440.456580	20250.415823
440.832429	20425.333779
441.208218	19451.589543
441.583947	19876.052177
441.959616	19982.639813
442.335224	20210.207580
442.710773	20342.817653
443.086261	20874.467819
443.461689	20230.415045
443.837057	20367.032835
444.212365	21000.199238
444.587612	20989.396045
444.962800	20588.256310
445.337927	20989.932928
445.712995	19740.336753
446.088002	21566.245197
446.462949	21758.378694
446.837837	21930.143408
447.212664	21878.769009
447.587431	24643.967923
447.962139	27537.101238
448.336786	29897.424922
448.711374	28396.791889
449.085901	24767.909731
449.460369	24701.429515
449.834776	24598.695841
450.209124	27034.452830
450.583412	26601.856295
450.957640	27141.214386
451.331808	25801.570601
451.705917	24449.679333
452.079965	24479.134795
452.453954	24815.039478
452.827883	24714.337389
453.201752	24533.085223
453.575562	24684.284551
453.949311	25770.078513
454.323001	25836.094943
454.696632	25597.792039
455.070202	27118.151107
455.443713	27275.548533
455.817164	27842.466612
456.190556	28375.056954
456.563888	27832.890940
456.937160	28268.837322
457.310373	26631.694884
457.683526	27051.575109
458.056619	27023.059822
458.429653	26973.953942
458.802628	27528.095217
459.175542	27634.982802
459.548398	28931.134032
459.921194	30488.865694
460.293930	31160.070123
460.666607	33156.457787
461.039224	34913.879635
461.411782	35298.325589
461.784280	34118.471257
462.156719	33613.418218
462.529099	33060.902716
462.901419	31771.060490
463.273680	30720.642824
463.645882	30792.151592
464.018024	30775.059560
464.390106	31594.615064
464.762130	34246.390536
465.134094	38257.997094
465.505999	43545.184454
465.877845	48108.419271
466.249631	49297.718204
466.621358	47559.374603
466.993026	45428.226815
467.364634	43340.480840
467.736184	41390.244940
468.107674	40150.572277
468.479105	39380.193228
468.850477	38687.831077
469.221790	37273.132073
469.593043	35567.041774
469.964238	34688.522414
470.335373	34582.406125
470.706449	36245.591164
471.077467	38735.356555
471.448425	43286.225422
471.819324	46174.247008
472.190164	44390.263320
472.560945	40853.069668
472.931667	37767.644060
473.302330	36662.849988
473.672934	35845.169793
474.043479	36343.266040
474.413965	35553.904527
474.784393	35184.703022
475.154761	36053.578655
475.525070	36113.631400
475.895321	35648.461450
476.265513	36243.602429
476.635645	37188.347427
477.005719	37026.218878
477.375734	37467.362690
477.745691	38160.629728
478.115588	39476.544802
478.485427	41421.326174
478.855207	44724.214557
479.224928	47326.622009
479.594591	48989.837295
479.964194	47978.831371
480.333739	48116.333883
480.703226	48134.280391
481.072653	48764.628788
481.442022	49265.255694
481.811333	49540.016223
482.180584	48245.505888
482.549777	47713.707007
482.918912	47204.578195
483.287988	46920.269721
483.657005	46100.381501
484.025964	45448.893025
484.394864	45478.172046
484.763706	45026.998859
485.132489	44169.223847
485.501213	44010.422460
485.869879	44139.511287
486.238487	43741.867592
486.607036	43936.902272
486.975527	43403.465016
487.343959	43607.036891
487.712333	43695.294892
488.080648	43583.958489
488.448905	44039.091502
488.817104	43838.012478
489.185244	44791.728209
489.553326	46438.088397
489.921350	49139.972939
490.289315	52064.593302
490.657222	52697.079148
491.025070	53004.614739
491.392861	52095.361984
491.760593	50818.762869
492.128267	49145.293877
492.495883	47613.667830
492.863440	46211.561628
493.230939	44862.899219
493.598380	43785.029951
493.965763	43461.821413
494.333088	42659.935153
494.700354	42185.232381
495.067563	41901.937179
495.434713	41765.858792
495.801805	41853.826927
496.168839	41469.070942
496.535815	41145.890131
496.902733	41169.578512
497.269593	40768.748808
497.636395	40710.485673
498.003139	41106.564089
498.369825	40566.016286
498.736453	40862.796575
499.103023	40399.638044
499.469535	40268.300863
499.835989	40365.665709
500.202385	40027.043843
500.568723	40055.866640
500.935003	40250.140107
501.301226	40055.869161
501.667390	40658.067755
502.033497	40933.556731
502.399546	40342.897337
502.765537	39695.146877
503.131470	40056.615252
503.497345	40395.584957
503.863163	39089.056512
504.228923	39705.209020
504.594625	40099.981777
504.960269	39388.044826
505.325856	40066.919370
505.691385	39452.579157
506.056856	39585.085885
506.422270	40021.677535
506.787625	39593.733985
507.152924	39801.749637
507.518164	39890.529397
507.883347	39116.266139
508.248472	39357.550886
508.613540	39845.380823
508.978550	40141.818313
509.343503	39891.567875
509.708398	40084.074417
510.073236	40614.552515
510.438016	40611.772319
510.802738	40063.486344
511.167403	40679.850581
511.532010	40904.499520
511.896561	41211.747764
512.261053	42049.940414
512.625488	41607.027158
512.989866	41482.155257
513.354186	41317.853971
513.718449	41309.979688
514.082655	41984.370126
514.446803	41673.577951
514.810894	42194.505583
515.174927	42106.015689
515.538904	42002.276305
515.902822	42663.360617
516.266684	42131.123156
516.630488	42547.802248
516.994235	42408.323603
517.357925	42957.474136
517.721558	43123.502017
518.085133	43437.480202
518.448651	43572.633537
518.812112	43351.533570
519.175516	43449.256337
519.538863	43792.228719
519.902152	43758.004325
520.265385	44218.460797
520.628560	44270.699754
520.991678	44050.711362
521.354739	44280.134273
521.717743	44585.666005
522.080690	44500.175597
522.443580	45046.984514
522.806413	45078.950470
523.169189	45030.890630
523.531908	45224.115537
523.894569	45094.953613
524.257174	45245.981541
524.619722	45544.014557
524.982213	45529.987546
525.344647	45453.094827
525.707025	45492.950189
526.069345	45885.247740
526.431608	45806.562890
526.793815	46131.860986
527.155964	45675.197983
527.518057	45827.145921
527.880093	45619.944416
528.242072	46151.229099
528.603995	45855.620879
528.965860	45855.230189
529.327669	45948.604962
529.689421	45849.773140
530.051117	45797.561910
530.412755	45954.336753
530.774337	46010.028901
531.135862	45840.580596
531.497331	46041.059723
531.858743	45935.142560
532.220098	46280.862370
532.581396	45986.113667
532.942638	45661.775911
533.303824	45955.392875
533.664953	45924.233503
534.026025	45646.443241
534.387040	46099.262365
534.747999	46070.958807
535.108902	46232.754639
535.469748	45742.446975
535.830537	45866.986160
536.191270	46050.723615
536.551947	45729.251755
536.912567	46038.544187
537.273131	46135.909033
537.633638	45621.847452
537.994089	45959.869420
538.354483	45580.610813
538.714821	46148.983265
539.075103	46484.099008
539.435328	46257.501663
539.795497	46137.123951
540.155609	46135.820813
540.515665	46600.690814
540.875665	46051.207566
541.235609	46389.264822
541.595496	46343.660024
541.955328	47009.866149
542.315102	46391.682055
542.674821	46181.624736
543.034483	46215.569346
543.394090	46188.858792
543.753640	46140.448592
544.113134	47137.737537
544.472571	46158.339647
544.831953	47401.034481
545.191278	46614.627084
545.550548	46352.025819
545.909761	46784.103115
546.268918	46991.004672
546.628019	47288.541133
546.987064	46864.411216
547.346053	46153.679100
547.704986	47014.539298
548.063863	46579.606188
548.422684	46773.436033
548.781449	46616.794780
549.140158	47017.586676
549.498811	46869.893471
549.857408	46314.317988
550.215949	47123.529044
550.574434	47058.432625
550.932864	46832.099941
551.291237	47553.095846
551.649555	47142.294740
552.007817	47384.693581
552.366022	47044.834112
552.724173	47226.088799
553.082267	47611.626163
553.440305	47913.152698
553.798288	47233.196826
554.156215	47523.073254
554.514086	47740.936800
554.871902	47486.920619
555.229661	47504.214298
555.587365	47329.029160
555.945014	47414.632994
556.302606	47349.176132
556.660143	47568.284843
557.017625	47643.420720
557.375050	47449.679095
557.732421	47785.976989
558.089735	47778.359806
558.446994	47689.890076
558.804197	48153.837547
559.161345	48096.454093
559.518437	47343.817385
559.875474	47662.267074
560.232455	47833.454576
560.589381	47990.428545
560.946251	47691.225982
561.303065	48372.159838
561.659825	48169.364301
562.016528	47859.897948
562.373177	47573.383970
562.729770	48030.548568
563.086307	47550.683654
563.442789	48006.025875
563.799216	48069.229341
564.155587	47856.971559
564.511904	47890.475067
564.868164	47982.423193
565.224370	48214.570848
565.580520	47951.591496
565.936615	48174.937296
566.292654	47873.786327
566.648638	48115.285323
567.004567	48069.793951
567.360441	48123.875449
567.716260	47959.599369
568.072023	48256.286396
568.427732	48238.324765
568.783385	47803.943661
569.138982	48182.519192
569.494525	48167.544444
569.850013	47923.441693
570.205445	47896.310203
570.560823	47866.096047
570.916145	47722.450889
571.271412	47760.803987
571.626625	47522.256587
571.981782	47568.662929
572.336884	47247.395236
572.691931	47575.024865
573.046923	47157.766041
573.401860	47016.666665
573.756743	46998.473141
574.111570	47124.814539
574.466342	46974.376426
574.821059	47097.514170
575.175722	46610.505941
575.530330	46633.455794
575.884882	46361.067128
576.239380	46324.508680
576.593823	46308.074519
576.948211	46223.665439
577.302544	45749.905362
577.656823	45755.743018
578.011047	45981.304406
578.365216	45703.577158
578.719330	45510.800915
579.073389	45365.222474
579.427394	45459.015662
579.781344	45404.571200
580.135239	45061.389611
580.489080	45154.116595
580.842866	44646.109439
581.196597	45089.698210
581.550273	45037.955807
581.903895	44892.137912
582.257463	45313.389330
582.610975	44702.025918
582.964434	44983.158465
583.317837	44629.700484
583.671186	44471.526720
584.024481	44698.688674
584.377721	44229.248866
584.730906	44533.260690
585.084037	44546.178647
585.437113	44248.962298
585.790135	44291.257579
586.143103	43883.909663
586.496016	44017.669119
586.848874	44048.894026
587.201679	44064.347683
587.554428	43529.423286
587.907124	43720.866145
588.259765	43485.280423
588.612352	43720.898912
588.964884	43116.618321
589.317362	43417.232407
589.669786	43349.769166
590.022155	43129.894200
590.374470	43539.384606
590.726731	43076.198350
591.078937	42591.078033
591.431090	42694.719115
591.783188	42348.245652
592.135232	42017.440096
592.487222	42270.316975
592.839157	42336.335926
593.191038	42028.969214
593.542866	41791.571197
593.894639	41195.283356
594.246358	41464.503657
594.598022	41453.629888
594.949633	41045.130068
595.301190	41012.796107
595.652692	40838.004180
596.004141	41165.447287
596.355535	40205.861132
596.706876	40146.806535
597.058162	39969.375564
597.409395	40441.633377
597.760573	40521.079441
598.111698	40096.707548
598.462768	40101.811716
598.813785	40154.224593
599.164748	39609.716963
599.515657	39988.705868
599.866511	39476.257456
600.217312	40089.859141
600.568060	39065.370650
600.918753	39803.302312
601.269392	39745.099670
601.619978	39394.709231
601.970510	39608.625553
602.320988	39776.884145
602.671412	40092.001631
603.021783	39849.791833
603.372100	39491.945527
603.722363	39605.295871
604.072572	39688.719406
604.422728	39691.817195
604.772830	39510.751551
605.122878	39601.638514
605.472872	39532.458760
605.822813	39821.352163
606.172701	39649.710957
606.522534	39875.496676
606.872314	40134.803548
607.222041	39884.961442
607.571714	40280.666814
607.921333	39733.595757
608.270899	40022.418584
608.620411	40356.392506
608.969870	40153.707875
609.319276	40154.620323
609.668627	40200.446933
610.017926	40669.906905
610.367171	40835.009735
610.716362	40917.510738
611.065500	40872.770498
611.414585	41058.859651
611.763616	41352.829496
612.112594	41279.579010
612.461518	41500.832732
612.810389	41777.070318
613.159207	41632.825263
613.507971	41717.625032
613.856682	42186.296064
614.205340	42081.861001
614.553945	42782.092393
614.902496	42223.973648
615.250994	42707.251423
615.599439	42769.292904
615.947830	42964.221720
616.296169	43026.684137
616.644454	43148.685101
616.992686	43313.162827
617.340864	43835.380996
617.688990	43542.966346
618.037063	44147.723326
618.385082	44119.558400
618.733048	44430.590030
619.080961	44440.097646
619.428821	44436.989775
619.776628	44564.840998
620.124382	44392.103341
620.472083	44519.546231
620.819731	44631.631246
621.167326	44319.104913
621.514868	44294.451150
621.862357	43851.116957
622.209793	43870.210327
622.557176	43559.536619
622.904506	43316.406810
623.251783	42975.362670
623.599007	42754.106428
623.946179	42519.788556
624.293297	42470.561688
624.640363	41898.070614
624.987376	41875.181255
625.334336	41631.771662
625.681243	41279.158074
626.028097	41241.293967
626.374899	41100.292894
626.721647	41061.113046
627.068343	40948.551643
627.414987	40713.684285
627.761577	40484.954532
628.108115	40834.992091
628.454600	40281.712853
628.801032	40475.396504
629.147412	40425.524369
629.493739	40429.320358
629.840014	40081.155588
630.186236	40407.605588
630.532405	40022.879850
630.878521	40243.936967
631.224585	40105.257345
631.570597	39821.092544
631.916556	39992.703503
632.262462	39934.485738
632.608316	39952.883429
632.954117	39848.594559
633.299866	39840.248928
633.645562	39750.206359
633.991206	39256.871482
634.336797	38831.236780
634.682336	38836.613171
635.027823	38582.100437
635.373257	38404.775330
635.718639	38163.770367
636.063968	38023.522947
636.409245	37448.044988
636.754470	37498.194387
637.099642	37259.150433
637.444762	36781.425489
637.789829	36915.081601
638.134845	36566.516059
638.479808	36531.101953
638.824719	36424.191683
639.169577	36021.242174
639.514383	36086.608295
639.859137	35786.699971
640.203839	36037.726747
640.548489	35677.604360
640.893086	35725.384416
641.237632	35482.042879
641.582125	35587.433241
641.926566	35515.322056
642.270955	35481.294268
642.615292	35497.468810
642.959576	35473.414944
643.303809	35478.249411
643.647990	35609.357219
643.992118	35585.706646
644.336195	35575.768011
644.680219	35669.871230
645.024192	35955.694571
645.368112	36471.071893
645.711981	36488.305078
646.055797	37353.629218
646.399562	37267.891794
646.743274	38230.394256
647.086935	38669.718211
647.430544	38549.489213
647.774101	38664.430041
648.117606	38922.703476
648.461059	39230.586906
648.804460	38854.862148
649.147810	38234.233095
649.491108	37997.356838
649.834354	37640.307034
650.177548	36802.343757
650.520690	36344.425506
650.863781	36365.890739
651.206820	36219.183080
651.549807	35775.294360
651.892742	35303.465045
652.235626	35112.594358
652.578458	34974.247452
652.921238	34348.022718
653.263967	34671.339641
653.606644	34369.429978
653.949269	34318.935261
654.291843	33923.192081
654.634365	34313.884025
654.976836	33906.236160
655.319255	33907.398146
655.661622	33899.012187
656.003938	33687.059394
656.346203	33530.571896
656.688416	33752.818725
657.030577	33552.586615
657.372687	33389.195257
657.714746	33671.394008
658.056753	33800.782783
658.398708	33239.914089
658.740612	33284.908907
659.082465	33567.006835
659.424266	33382.760224
659.766016	33496.380270
660.107715	33369.154150
660.449362	33497.285157
660.790958	33490.192254
661.132503	33511.155892
661.473996	33541.115469
661.815438	33652.116636
662.156829	33854.314796
662.498168	33616.379896
662.839456	33632.814058
663.180693	33789.241062
663.521879	33942.852581
663.863013	33893.688728
664.204097	33899.702825
664.545129	34357.797516
664.886110	34306.954959
665.227040	34388.392278
665.567918	34484.567412
665.908746	34561.654216
666.249522	34727.298969
666.590248	34738.069394
666.930922	34835.290567
667.271545	34797.340761
667.612118	34898.589815
667.952639	34665.963250
668.293109	34727.805605
668.633528	34618.790653
668.973896	34557.545675
669.314213	34590.726550
669.654480	34327.275850
669.994695	34353.104202
670.334859	34227.675253
670.674973	34139.266017
671.015035	34296.837363
671.355047	34246.735855
671.695008	34175.252294
672.034918	34077.975669
672.374777	34169.593599
672.714585	33999.134543
673.054342	34221.993872
673.394049	33971.367868
673.733705	34269.007673
674.073310	33933.874286
674.412864	34002.963299
674.752368	33611.691623
675.091820	33893.819798
675.431223	33486.928107
675.770574	33223.076635
676.109875	33066.697522
676.449125	32788.337609
676.788324	32714.865313
677.127473	32178.173992
677.466571	32111.875257
677.805619	31737.231827
678.144616	31735.172515
678.483562	31656.749806
678.822458	31312.340695
679.161303	31253.240728
679.500098	31168.370383
679.838842	31050.067105
680.177535	31201.253829
680.516179	31464.021453
680.854771	31698.848481
681.193314	32558.997877
681.531805	33674.859801
681.870247	34451.303358
682.208638	35193.464548
682.546978	35408.749543
682.885268	35534.314603
683.223508	34996.191595
683.561697	34669.411400
683.899836	34476.483921
684.237925	33964.206909
684.575963	33823.984694
684.913951	33351.003475
685.251889	33503.077443
685.589776	33483.328723
685.927614	33459.287460
686.265401	33611.805049
686.603137	33686.262891
686.940824	34207.422417
687.278460	34573.198458
687.616046	34713.130806
687.953582	35330.747770
688.291068	35206.269078
688.628504	35500.521228
688.965889	35423.270587
689.303224	35059.662242
689.640510	34706.700815
689.977745	33988.643902
690.314930	33189.958775
690.652065	32668.443847
690.989150	31933.196600
691.326185	31034.391637
691.663170	30335.087817
692.000105	29568.913090
692.336990	28883.842968
692.673825	28424.939172
693.010610	27896.263285
693.347345	27324.213312
693.684030	26664.391808
694.020665	26362.802259
694.357251	25699.638470
694.693786	25638.673276
695.030272	25415.244297
695.366707	24845.457801
695.703093	24567.047477
696.039429	24556.945004
696.375716	24281.854280
696.711952	24243.130657
697.048139	24079.318363
697.384276	23900.826228
697.720363	24018.466595
698.056400	23823.507531
698.392388	23610.871662
698.728326	23581.801848
699.064214	23366.315207
699.400053	23314.809738
699.735842	22966.647489
700.071581	22671.087159
700.407270	22377.147561
700.742910	22193.531094
701.078501	21921.119743
701.414042	21631.255917
701.749533	21337.800269
702.084974	20990.462249
702.420366	21178.610713
702.755709	20740.887325
703.091002	20442.556881
703.426246	20462.776949
703.761440	20366.773216
704.096584	20093.981257
704.431679	20039.541837
704.766725	19944.954667
705.101721	19873.297186
705.436668	19963.667431
705.771565	19641.930910
706.106413	19985.321707
706.441212	19967.057607
706.775961	20091.921946
707.110661	20166.841054
707.445311	20512.563385
707.779913	20353.136894
708.114465	20592.160683
708.448967	20870.986903
708.783421	21566.346020
709.117825	21837.406342
709.452180	22057.735012
709.786485	22460.820632
710.120742	23265.479527
710.454949	23255.228341
710.789107	23742.155911
711.123216	24443.209012
711.457275	24563.521190
711.791286	25126.663445
712.125247	25181.415417
712.459159	24898.221038
712.793023	25576.551137
713.126837	24467.991324
713.460602	24740.344702
713.794318	24367.921900
714.127985	23975.261386
714.461602	23073.887954
714.795171	23048.672103
715.128691	22029.920446
715.462162	21482.748566
715.795584	21064.846994
716.128957	20800.224226
716.462281	20395.016280
716.795556	20145.796757
717.128782	19647.718154
717.461960	19095.174925
717.795088	19016.772380
718.128167	18616.290516
718.461198	18152.171646
718.794180	18003.676898
719.127113	17641.956465
719.459997	17433.565247
719.792833	17078.141216
720.125619	17043.354734
720.458357	16729.598360
720.791046	16559.109057
721.123686	16392.085548
721.456278	16151.924979
721.788821	16113.329905
722.121315	15849.251581
722.453761	15914.408495
722.786158	15844.240674
723.118506	15843.928123
723.450805	15713.591611
723.783056	15868.007194
724.115259	15770.143274
724.447412	15692.907756
724.779518	15933.393480
725.111574	15959.715865
725.443582	16148.668393
725.775542	16126.378932
726.107453	16601.371570
726.439315	16477.036552
726.771129	16878.851802
727.102895	17245.323522
727.434612	17457.304041
727.766281	17592.558198
728.097901	17851.068568
728.429473	17891.470895
728.760996	17875.732413
729.092471	17962.578891
729.423897	17841.331579
729.755276	17696.327830
730.086606	17822.840627
730.417887	18344.325307
730.749120	18854.613584
731.080305	19023.633391
731.411442	19373.852431
731.742530	19451.529050
732.073570	19539.529952
732.404562	19845.021354
732.735506	19660.797428
733.066401	19376.486433
733.397249	18872.096306
733.728048	18229.994458
734.058798	17389.868526
734.389501	16698.469235
734.720156	16242.143988
735.050762	15693.873137
735.381320	15348.176012
735.711831	15098.575882
736.042293	14738.466099
736.372707	14747.895577
736.703073	14526.457853
737.033391	14715.566657
737.363661	14678.032746
737.693883	14759.810344
738.024056	14934.035142
738.354182	15124.772238
738.684260	15402.547377
739.014290	15633.452388
739.344272	15817.729246
739.674207	16100.182576
740.004093	16218.052314
740.333931	16205.850201
740.663722	16257.950526
740.993464	16245.564411
741.323159	16083.019967
741.652806	15809.645756
741.982405	15602.892913
742.311956	15270.244815
742.641460	15146.187060
742.970915	14837.055944
743.300323	14498.764274
743.629683	14298.708605
743.958996	14011.662784
744.288260	13741.855189
744.617477	13446.050364
744.946647	13365.563301
745.275768	13094.644132
745.604842	12906.415009
745.933869	12727.345663
746.262847	12678.166686
746.591778	12604.281015
746.920662	12492.710198
747.249498	12495.697082
747.578286	12607.293104
747.907027	12749.516657
748.235720	12978.548879
748.564365	13002.751459
748.892963	12900.327816
749.221514	12959.712608
749.550017	12811.028817
749.878473	12775.506326
750.206881	12552.856205
750.535242	12459.667955
750.863555	12371.828370
751.191821	12277.503340
751.520039	12287.842747
751.848210	12188.655524
752.176334	12228.755383
752.504411	12137.981846
752.832440	11982.696663
753.160421	12039.810416
753.488356	11914.436920
753.816243	11824.689258
754.144082	11682.526199
754.471875	11629.382355
754.799620	11572.218191
755.127318	11537.880372
755.454969	11500.863179
755.782572	11457.731067
756.110129	11463.135183
756.437638	11382.701053
756.765100	11372.936338
757.092515	11366.650019
757.419882	11385.667772
757.747203	11386.915458
758.074477	11454.587907
758.401703	11414.548543
758.728882	11572.359343
759.056014	11617.880963
759.383099	11735.528890
759.710138	11835.810043
760.037129	11917.048238
760.364073	11941.331476
760.690970	11922.832962
761.017820	11925.179619
761.344623	12106.726692
761.671379	12430.217534
761.998088	13058.030232
762.324751	14596.751702
762.651366	17447.735931
762.977935	21116.352463
763.304456	23361.846224
763.630931	23883.885431
763.957359	22729.335171
764.283740	20835.101449
764.610074	18948.923491
764.936362	16818.126062
765.262602	15294.230625
765.588796	13812.060818
765.914943	12773.028599
766.241044	11911.752505
766.567097	11268.521439
766.893104	10709.447395
767.219064	10349.750986
767.544978	9956.619124
767.870845	9642.651021
768.196665	9456.750912
768.522438	9258.734388
768.848165	9090.533770
769.173846	8915.167151
769.499479	8798.499727
769.825066	8639.295048
770.150607	8453.518446
770.476101	8391.333293
770.801548	8278.232486
771.126949	8138.524469
771.452303	8054.622025
771.777611	7888.009370
772.102872	7860.971141
772.428087	7748.477793
772.753256	7618.461394
773.078378	7529.537961
773.403453	7389.474542
773.728482	7282.087883
774.053465	7216.215126
774.378401	7129.693802
774.703291	7034.090840
775.028135	6941.701614
775.352932	6900.527990
775.677683	6820.441699
776.002388	6724.742955
776.327046	6727.220682
776.651658	6642.120964
776.976224	6561.429735
777.300743	6547.969854
777.625216	6477.955789
777.949643	6438.687721
778.274024	6441.553617
778.598359	6367.851948
778.922647	6371.259768
779.246889	6332.770558
779.571086	6337.390776
779.895236	6352.279824
780.219339	6339.717268
780.543397	6334.267781
780.867409	6392.236009
781.191374	6385.221243
781.515294	6354.933991
781.839167	6405.287556
782.162995	6379.149174
782.486776	6328.846020
782.810511	6292.136338
783.134201	6214.792435
783.457844	6201.554365
783.781441	6155.919320
784.104993	6109.122288
784.428498	6087.725111
784.751958	6066.963119
785.075372	6045.523092
785.398739	6000.387121
785.722061	6027.813518
786.045337	6019.462847
786.368568	6131.842769
786.691752	6154.601058
787.014891	6400.531228
787.337983	6678.596233
787.661030	7111.225535
787.984031	7541.349384
788.306987	7798.536451
788.629897	7897.857264
788.952760	7819.167373
789.275579	7634.819938
789.598351	7335.393044
789.921078	7079.259579
790.243759	6795.742566
790.566395	6596.972390
790.888984	6399.028964
791.211529	6260.918992
791.534027	6096.524445
791.856480	5954.560512
792.178888	5893.986007
792.501249	5824.458413
792.823566	5715.574531
793.145836	5712.028079
793.468062	5695.699782
793.790241	5652.371065
794.112375	5691.132497
794.434464	5789.094719
794.756507	5817.219316
795.078505	5937.929745
795.400457	6154.333877
795.722364	6391.946143
796.044226	6585.249187
796.366042	6743.783393
796.687812	6694.659869
797.009538	6727.568522
797.331218	6639.096272
797.652852	6565.954171
797.974442	6446.987981
798.295986	6374.586929
798.617484	6247.353247
798.938938	6142.625797
799.260346	6072.899078
799.581709	5930.332726
799.903026	5881.957814
800.224299	5810.184386
800.545526	5693.305234
800.866708	5629.252333
801.187845	5575.788376
801.508936	5497.547148
801.829983	5471.257531
802.150984	5360.906673
802.471940	5329.979194
802.792851	5317.091484
803.113717	5290.847237
803.434538	5268.441829
803.755314	5236.732971
804.076045	5224.805601
804.396731	5182.475033
804.717372	5203.297518
805.037967	5204.053692
805.358518	5232.798351
805.679024	5292.898987
805.999485	5299.076921
806.319901	5313.174508
806.640272	5332.792158
806.960598	5378.185228
807.280879	5371.319176
807.601115	5413.712759
807.921306	5376.589702
808.241453	5368.755749
808.561554	5377.444178
808.881611	5348.644066
809.201623	5349.221278
809.521590	5293.735818
809.841513	5283.807266
810.161390	5298.290501
810.481223	5205.142581
810.801011	5195.128329
811.120755	5173.607643
811.440453	5119.543788
811.760107	5089.939613
812.079716	5063.302156
812.399281	5015.300289
812.718801	5004.519781
813.038276	4972.868897
813.357707	4940.159370
813.677093	4959.257781
813.996434	4899.378956
814.315731	4919.515845
814.634983	4913.118621
814.954191	4920.234209
815.273354	4982.552953
815.592473	5026.169016
815.911547	5101.307414
816.230577	5150.546885
816.549562	5242.089197
816.868502	5295.744718
817.187399	5353.075240
817.506250	5433.027940
817.825058	5459.342763
818.143821	5614.585096
818.462539	5786.669924
818.781213	6019.460326
819.099843	6372.820005
819.418429	7008.446491
819.736970	7624.455326
820.055466	8343.976694
820.373919	9267.029607
820.692327	10735.588299
821.010691	13442.962657
821.329011	19714.016889
821.647286	29341.564614
821.965517	39767.878124
822.283704	45305.557898
822.601847	46892.679486
822.919945	42338.513705
823.237999	37219.315235
823.556010	32014.928827
823.873976	27244.658863
824.191897	22990.771930
824.509775	19869.017247
824.827609	17040.035134
825.145398	15454.690552
825.463144	14665.240818
825.780845	14953.932576
826.098502	16197.257555
826.416116	18645.521646
826.733685	20922.535221
827.051210	21446.258174
827.368692	20020.030051
827.686129	17458.549206
828.003522	14966.933712
828.320872	12741.604566
828.638177	11066.567775
828.955439	9812.631167
829.272656	8734.860201
829.589830	7885.529122
829.906960	7138.384752
830.224046	6600.967505
830.541088	6177.808010
830.858086	5916.081384
831.175041	5716.272731
831.491952	5654.725284
831.808819	5677.743192
832.125642	5925.326860
832.442421	6475.982177
832.759157	7588.486693
833.075849	9360.353968
833.392497	11214.699560
833.709101	12344.023886
834.025662	12105.529418
834.342179	11058.237268
834.658653	9749.180684
834.975083	8633.787587
835.291469	7728.847540
835.607811	6973.095399
835.924110	6448.407066
836.240366	5950.094049
836.556578	5497.151417
836.872746	5140.555318
837.188871	4862.271022
837.504952	4635.910612
837.820990	4465.519612
838.136984	4349.353783
838.452935	4300.978871
838.768842	4328.024661
839.084706	4609.421869
839.400526	5350.658007
839.716303	6264.747749
840.032037	6831.988462
840.347727	6693.959149
840.663373	6098.319096
840.978977	5510.616339
841.294537	5066.858690
841.610054	4729.398810
841.925527	4485.991738
842.240957	4278.669245
842.556344	4091.811316
842.871687	3927.910801
843.186987	3776.779529
843.502244	3657.331910
843.817458	3568.461408
844.132629	3495.145388
844.447756	3446.702420
844.762840	3401.120307
845.077881	3359.157742
845.392879	3325.056857
845.707833	3299.604071
846.022745	3273.322015
846.337613	3263.068308
846.652438	3238.192735
846.967221	3227.702094
847.281960	3210.000082
847.596656	3196.046168
847.911309	3181.507480
848.225919	3174.069258
848.540485	3163.001405
848.855009	3152.798109
849.169490	3140.074237
849.483928	3136.074081
849.798323	3128.247690
850.112675	3119.352574
850.426984	3121.490023
850.741251	3112.998200
851.055474	3109.676079
851.369654	3110.759927
851.683792	3108.244392
851.997887	3107.883949
852.311938	3111.261522
852.625947	3109.335801
852.939914	3106.616099
853.253837	3109.849999
853.567718	3107.936881
853.881555	3100.423041
854.195350	3102.114348
854.509103	3104.037549
854.822812	3101.310284
855.136479	3094.943307
855.450103	3098.787187
855.763685	3089.521546
856.077224	3094.580344
856.390720	3101.154009
856.704173	3117.268057
857.017584	3118.293932
857.330953	3124.446660
857.644278	3134.876807
857.957561	3136.467291
858.270802	3131.743730
858.584000	3134.433186
858.897155	3126.384984
859.210268	3117.694034
859.523339	3104.032507
859.836367	3102.081581
860.149352	3096.947166
860.462295	3092.059767
860.775195	3083.565423
861.088054	3079.169537
861.400869	3080.228179
861.713642	3080.084506
862.026373	3087.694128
862.339062	3089.917277
862.651708	3097.468925
862.964312	3114.939044
863.276873	3124.202164
863.589392	3152.903973
863.901869	3182.792975
864.214303	3201.604040
864.526696	3222.250086
864.839045	3236.587127
865.151353	3253.411978
865.463619	3254.866351
865.775842	3253.227976
866.088023	3261.969337
866.400162	3252.731422
866.712258	3255.148656
867.024313	3250.155393
867.336325	3248.993407
867.648296	3253.958943
867.960224	3252.353336
868.272110	3255.904829
868.583954	3252.323089
868.895755	3263.920263
869.207515	3258.380035
869.519233	3277.412912
869.830909	3282.958181
870.142542	3298.719348
870.454134	3302.195224
870.765684	3314.125115
871.077191	3334.682940
871.388657	3345.481092
871.700081	3367.188300
872.011463	3381.883263
872.322803	3401.972262
872.634101	3421.305087
872.945357	3445.802574
873.256571	3470.564721
873.567744	3485.322699
873.878874	3491.288905
874.189963	3509.381606
874.501010	3510.402440
874.812015	3509.711802
875.122979	3522.884337
875.433900	3521.223276
875.744780	3525.644368
876.055618	3535.230122
876.366415	3535.996378
876.677169	3535.918240
876.987882	3554.628482
877.298554	3577.343922
877.609183	3612.064869
877.919771	3666.763908
878.230317	3731.620873
878.540822	3837.366637
878.851285	3998.436543
879.161707	4218.619020
879.472087	4604.040437
879.782425	5239.823199
880.092722	6443.988494
880.402977	8402.973317
880.713191	10815.735083
881.023363	13241.039240
881.333494	14608.598414
881.643583	15095.117651
881.953631	14692.480693
882.263637	13863.115104
882.573602	12819.046772
882.883526	11841.080570
883.193408	10868.009328
883.503248	9934.354868
883.813048	9089.875899
884.122806	8301.242833
884.432522	7520.665530
884.742197	6837.458114
885.051831	6258.630309
885.361424	5752.962249
885.670975	5340.472356
885.980485	5014.080329
886.289954	4736.063215
886.599382	4513.992827
886.908768	4326.799661
887.218113	4159.279598
887.527417	4021.951006
887.836680	3897.172366
888.145901	3793.654792
888.455082	3715.418605
888.764221	3640.446565
889.073319	3580.981114
889.382376	3546.860064
889.691392	3525.170500
890.000366	3517.071886
890.309300	3509.316071
890.618193	3513.734642
890.927044	3508.111235
891.235855	3514.112729
891.544625	3528.606046
891.853353	3557.701066
892.162041	3623.447794
892.470687	3713.767627
892.779293	3834.508303
893.087858	4011.273842
893.396381	4295.322696
893.704864	4710.801993
894.013306	5285.180980
894.321707	5865.700093
894.630068	6230.709878
894.938387	6269.446104
895.246665	6097.068890
895.554903	5774.918994
895.863100	5437.451553
896.171256	5160.787989
896.479371	4916.516358
896.787446	4688.149569
897.095480	4487.380576
897.403473	4333.126309
897.711425	4187.462169
898.019336	4062.360895
898.327207	3938.648459
898.635038	3833.943693
898.942827	3724.069225
899.250576	3636.123775
899.558284	3554.182340
899.865952	3496.640090
900.173579	3430.658948
900.481165	3388.356105
900.788711	3340.346676
901.096216	3307.589259
901.403681	3278.721091
901.711105	3268.331273
902.018489	3261.445057
902.325832	3296.047537
902.633135	3354.487113
902.940397	3528.048999
903.247619	3939.202986
903.554800	4701.238925
903.861941	5685.922464
904.169041	6404.798564
904.476101	6630.301979
904.783121	6362.031936
905.090100	5954.810049
905.397039	5532.966295
905.703938	5169.320142
906.010796	4837.743288
906.317614	4574.905089
906.624391	4330.131864
906.931129	4129.866986
907.237826	3944.831434
907.544483	3764.685801
907.851099	3590.360181
908.157675	3429.360850
908.464211	3284.611679
908.770707	3179.997655
909.077163	3095.258379
909.383578	3033.224461
909.689954	2985.474651
909.996289	2958.204530
910.302584	2931.640169
910.608839	2921.451998
910.915054	2909.953126
911.221229	2904.864081
911.527363	2908.019843
911.833458	2915.304310
912.139513	2928.983481
912.445527	2942.077878
912.751502	2976.738332
913.057436	3019.636030
913.363331	3081.559044
913.669186	3170.394257
913.975000	3290.587967
914.280775	3482.071155
914.586510	3757.834873
914.892205	4138.855363
915.197859	4650.086337
915.503475	5237.826902
915.809050	5744.878758
916.114585	6041.863214
916.420081	6108.834943
916.725536	6045.583585
917.030952	5803.482172
917.336328	5598.357622
917.641665	5382.039190
917.946961	5150.105784
918.252218	4945.394608
918.557435	4713.551943
918.862612	4513.529041
919.167750	4335.467925
919.472848	4140.271928
919.777906	3971.383191
920.082925	3805.544353
920.387904	3650.158348
920.692843	3534.710883
920.997743	3431.016869
921.302603	3335.595389
921.607423	3269.740276
921.912204	3203.446582
922.216946	3150.186792
922.521647	3104.193824
922.826310	3055.352605
923.130932	3017.617048
923.435516	2976.140955
923.740059	2950.622634
924.044564	2917.658529
924.349028	2889.077708
924.653454	2860.892616
924.957840	2836.241374
925.262186	2814.879485
925.566493	2793.646145
925.870761	2767.510282
926.174989	2755.524939
926.479178	2739.967938
926.783328	2725.608212
927.087438	2713.085986
927.391509	2696.551001
927.695541	2686.183868
927.999533	2676.247754
928.303486	2669.283400
928.607400	2659.347286
928.911275	2654.142294
929.215110	2648.743218
929.518906	2645.491674
929.822663	2644.768269
930.126381	2643.911272
930.430060	2647.810605
930.733699	2649.799340
931.037299	2653.071049
931.340861	2652.077942
931.644383	2656.846873
931.947866	2651.815802
932.251309	2651.256234
932.554714	2649.287663
932.858080	2647.881181
933.161407	2643.409678
933.464694	2638.897845
933.767943	2638.915489
934.071153	2630.264869
934.374323	2625.057357
934.677455	2626.292440
934.980548	2625.563993
935.283602	2619.310442
935.586617	2620.588374
935.889593	2624.775052
936.192530	2623.121554
936.495428	2631.313429
936.798287	2638.849954
937.101108	2652.065339
937.403890	2674.695078
937.706632	2701.483770
938.009336	2733.306054
938.312002	2762.748913
938.614628	2786.870834
938.917216	2807.605100
939.219765	2819.827377
939.522275	2828.725014
939.824747	2828.896413
940.127179	2822.002635
940.429573	2816.308652
940.731929	2815.527273
941.034246	2809.417394
941.336524	2806.284317
941.638763	2800.116466
941.940964	2790.641617
942.243126	2778.928496
942.545250	2766.592792
942.847335	2752.666605
943.149381	2738.931981
943.451389	2722.701987
943.753359	2713.020451
944.055290	2702.454192
944.357182	2692.371884
944.659036	2685.833508
944.960851	2683.476768
945.262628	2679.998372
945.564367	2681.019206
945.866067	2679.844617
946.167729	2675.065603
946.469352	2673.628874
946.770937	2674.269101
947.072484	2665.676454
947.373992	2667.531599
947.675462	2663.672596
947.976893	2657.018272
948.278286	2652.604742
948.579641	2650.968888
948.880958	2648.947385
949.182236	2645.854637
949.483476	2645.037970
949.784678	2643.097126
950.085841	2641.809111
950.386967	2642.938330
950.688054	2651.334372
950.989103	2661.641011
951.290114	2670.490756
951.591087	2682.450894
951.892021	2694.453881
952.192917	2707.744883
952.493776	2717.597818
952.794596	2720.385576
953.095378	2723.009497
953.396122	2723.034703
953.696828	2716.554299
953.997496	2713.262426
954.298126	2701.796322
954.598718	2695.714169
954.899272	2684.066583
955.199788	2673.636436
955.500266	2660.413490
955.800706	2643.021509
956.101108	2627.986267
956.401472	2616.830194
956.701798	2604.933071
957.002087	2587.354567
957.302337	2577.854513
957.602550	2564.702143
957.902724	2553.588919
958.202861	2545.064328
958.502960	2539.708102
958.803022	2528.027748
959.103045	2520.592047
959.403031	2514.104082
959.702979	2508.936899
960.002889	2503.671414
960.302762	2495.381236
960.602596	2495.182111
960.902393	2493.964672
961.202153	2487.935452
961.501875	2484.893116
961.801559	2483.721047
962.101205	2481.303814
962.400814	2482.138125
962.700385	2474.720067
962.999918	2476.308031
963.299414	2470.747638
963.598873	2472.181846
963.898293	2470.672021
964.197677	2468.605147
964.497022	2467.130610
964.796331	2467.440641
965.095601	2465.104066
965.394835	2463.926957
965.694030	2462.822944
965.993189	2461.988633
966.292309	2463.203551
966.591393	2466.634056
966.890439	2463.253963
967.189447	2462.994343
967.488419	2461.310598
967.787353	2465.371247
968.086249	2462.407049
968.385108	2462.281020
968.683930	2464.143726
968.982714	2465.827472
969.281462	2468.045579
969.580172	2469.504993
969.878844	2473.540437
970.177480	2474.750314
970.476078	2476.925572
970.774639	2481.558392
971.073162	2479.612507
971.371649	2482.596870
971.670098	2484.777169
971.968510	2487.136429
972.266885	2485.424957
972.565223	2493.339569
972.863524	2491.910402
973.161788	2493.430310
973.460014	2494.272182
973.758204	2494.446102
974.056356	2496.162615
974.354471	2496.223109
974.652550	2492.817809
974.950591	2497.097749
975.248595	2497.818634
975.546563	2492.258241
975.844493	2491.935607
976.142386	2493.730258
976.440243	2485.152735
976.738062	2486.710452
977.035845	2484.376397
977.333590	2479.020171
977.631299	2480.648464
977.928971	2481.699545
978.226606	2475.808956
978.524204	2475.466158
978.821765	2473.306023
979.119290	2473.096816
979.416777	2470.271249
979.714228	2473.306023
980.011642	2471.612196
980.309020	2478.649647
980.606360	2481.316417
980.903664	2489.946872
981.200931	2507.142248
981.498162	2525.212264
981.795356	2555.902809
982.092513	2594.389498
982.389633	2640.032105
982.686717	2682.261850
982.983764	2714.860472
983.280775	2733.376630
983.577749	2737.429717
983.874686	2728.804303
984.171587	2709.199256
984.468451	2692.510516
984.765279	2673.520490
985.062070	2654.192706
985.358824	2633.357617
985.655543	2613.167796
985.952224	2589.829774
986.248869	2563.618295
986.545478	2532.108562
986.842050	2515.555934
987.138586	2493.843684
987.435086	2485.213229
987.731549	2467.796042
988.027975	2462.762450
988.324366	2459.410083
988.620719	2453.978240
988.917037	2449.342899
989.213318	2447.664194
989.509563	2442.184460
989.805772	2443.863164
990.101944	2440.036929
990.398080	2441.985335
990.694180	2440.936775
990.990244	2442.249995
991.286271	2438.267484
991.582262	2439.905859
991.878217	2439.832762
992.174136	2441.047680
992.470019	2442.421394
992.765865	2442.786878
993.061676	2446.560182
993.357450	2446.872733
993.653188	2450.469597
993.948890	2456.702983
994.244556	2465.925774
994.540186	2472.572536
994.835780	2483.305152
995.131337	2502.948008
995.426859	2515.787827
995.722345	2536.295241
996.017795	2555.822150
996.313208	2571.169943
996.608586	2581.892477
996.903928	2585.837180
997.199234	2583.886254
997.494504	2579.150090
997.789738	2574.751683
998.084936	2562.264745
998.380099	2546.964843
998.675225	2539.992927
998.970316	2527.135464
999.265371	2511.855727
999.560390	2498.887359
999.855373	2485.424957
1000.150320	2474.576394
1000.445232	2466.087091
1000.740108	2458.391770
1001.034948	2452.947324
1001.329752	2448.150666
1001.624521	2442.882660
1001.919254	2435.227668
1002.213951	2434.461413
1002.508613	2433.790939
1002.803239	2430.864549
1003.097829	2427.572676
1003.392384	2427.486976
1003.686903	2426.168714
1003.981386	2428.732141
1004.275834	2423.650658
1004.570246	2425.304157
1004.864623	2423.955648
1005.158964	2421.891295
1005.453270	2421.838363
1005.747540	2422.191244
1006.041775	2420.857859
1006.335974	2421.689649
1006.630138	2420.726789
1006.924266	2420.038671
1007.218359	2418.299473
1007.512416	2420.860379
1007.806438	2418.967426
1008.100425	2418.047416
1008.394376	2420.878023
1008.688292	2417.840728
1008.982172	2415.970460
1009.276017	2417.810481
1009.569827	2416.313259
1009.863602	2418.027251
1010.157341	2415.501633
1010.451045	2416.144380
1010.744714	2416.275450
1011.038347	2414.906777
1011.331945	2414.332085
1011.625508	2413.623803
1011.919036	2415.915008
1012.212528	2414.702610
1012.505986	2417.555903
1012.799408	2412.512229
1013.092795	2413.908628
1013.386147	2410.142886
1013.679464	2413.465007
1013.972745	2412.754204
1014.265992	2411.372928
1014.559204	2412.792013
1014.852380	2413.278484
1015.145521	2411.932496
1015.438628	2412.076169
1015.731699	2410.248751
1016.024736	2414.052301
1016.317737	2414.032137
1016.610703	2413.437280
1016.903635	2409.850499
1017.196531	2409.623647
1017.489393	2414.143042
1017.782219	2410.783113
1018.075011	2415.806623
1018.367768	2415.902405
1018.660490	2416.565316
1018.953177	2416.565316
1019.245829	2416.565316
