Dividing Wavelength (nm)	Counts (n)	Blue Motor Position (mm): 27.000000	Red Motor Position (mm): 0.000000	
326.493990	1971.471761
326.888308	1971.471761
327.282561	1971.471761
327.676750	1946.467638
328.070874	1949.250355
328.464933	1955.478700
328.858929	1963.199227
329.252859	1977.266567
329.646726	1993.345327
330.040528	2005.731442
330.434265	2026.402694
330.827938	2044.729809
331.221547	2064.044990
331.615091	2086.019379
332.008571	2106.889756
332.401986	2127.656789
332.795338	2146.112454
333.188625	2167.376041
333.581847	2187.961592
333.975006	2203.841227
334.368100	2221.278578
334.761129	2238.567215
335.154095	2252.863928
335.546996	2292.457150
335.939833	2364.679240
336.332606	2382.696324
336.725315	2390.230329
337.117960	2399.811042
337.510540	2407.014850
337.903056	2414.503484
338.295508	2422.448343
338.687896	2427.567635
339.080220	2437.075251
339.472480	2441.456013
339.864676	2444.337033
340.256807	2449.436160
340.648875	2449.272323
341.040879	2452.130657
341.432818	2453.577468
341.824694	2451.651747
342.216506	2455.104937
342.608253	2453.900102
342.999937	2449.912549
343.391557	2450.522529
343.783113	2449.962961
344.174605	2446.963474
344.566033	2447.099585
344.957397	2445.461210
345.348697	2444.757969
345.739934	2440.281425
346.131106	2441.324943
346.522215	2434.216917
346.913260	2436.876125
347.304241	2438.204469
347.695159	2434.194231
348.086012	2433.906886
348.476802	2429.631987
348.867528	2430.995619
349.258191	2427.247521
349.648789	2427.547470
350.039324	2425.064702
350.429796	2423.892633
350.820203	2425.929260
351.210548	2424.149732
351.600828	2421.765267
351.991045	2420.439443
352.381198	2421.508168
352.771288	2424.341296
353.161314	2421.447674
353.551276	2421.987077
353.941175	2421.606470
354.331010	2422.927252
354.720782	2423.441450
355.110490	2423.086049
355.500135	2423.602767
355.889717	2422.592016
356.279235	2422.579413
356.668689	2423.832140
357.058080	2424.273241
357.447408	2420.557910
357.836672	2423.519588
358.225873	2422.735689
358.615010	2419.842066
359.004084	2422.246697
359.393095	2428.001174
359.782043	2427.781884
360.170927	2426.297264
360.559748	2427.587799
360.948505	2429.780701
361.337199	2429.841195
361.725830	2429.720207
362.114398	2429.629467
362.502903	2431.678696
362.891344	2434.390836
363.279722	2429.354724
363.668037	2432.646597
364.056289	2432.926381
364.444478	2433.155754
364.832603	2434.431166
365.220665	2433.861515
365.608665	2436.442586
365.996601	2434.267328
366.384474	2434.524427
366.772284	2439.051383
367.160031	2435.441917
367.547715	2435.131886
367.935336	2436.780343
368.322893	2437.589448
368.710388	2434.315219
369.097820	2439.742021
369.485189	2438.544747
369.872495	2439.605910
370.259738	2440.740170
370.646918	2441.496343
371.034035	2441.816456
371.421090	2441.660180
371.808081	2441.035077
372.195010	2442.514656
372.581875	2439.699171
372.968678	2442.620520
373.355418	2444.102619
373.742096	2440.893925
374.128710	2443.502722
374.515262	2440.999789
374.901751	2447.200408
375.288177	2446.413988
375.674540	2444.722681
376.060841	2445.945161
376.447079	2447.664194
376.833254	2446.865172
377.219367	2441.551795
377.605417	2444.301745
377.991404	2442.381065
378.377329	2443.243103
378.763191	2444.505912
379.148991	2449.867179
379.534727	2449.892384
379.920402	2449.458845
380.306013	2447.603701
380.691563	2452.493620
381.077049	2448.508588
381.462474	2451.097220
381.847835	2450.615790
382.233134	2451.916408
382.618371	2453.217025
383.003545	2451.964299
383.388657	2453.711058
383.773706	2452.680142
384.158693	2454.595781
384.543618	2454.537808
384.928480	2454.159721
385.313280	2455.152828
385.698017	2456.859259
386.082692	2454.976388
386.467305	2457.645679
386.851856	2455.704835
387.236344	2455.548559
387.620770	2459.417645
388.005133	2456.710545
388.389435	2459.117696
388.773674	2456.720627
389.157851	2461.650876
389.541965	2456.950000
389.926018	2459.402521
390.310008	2458.830350
390.693936	2458.444702
391.077802	2461.154322
391.461606	2462.036524
391.845348	2458.479990
392.229027	2463.332101
392.612645	2461.928139
392.996200	2461.988633
393.379694	2462.344034
393.763125	2465.353603
394.146494	2467.460806
394.529801	2465.023408
394.913047	2464.622636
395.296230	2465.608182
395.679351	2468.272431
396.062410	2468.438789
396.445408	2468.025415
396.828343	2465.608182
397.211217	2461.116513
397.594028	2465.164560
397.976778	2463.949642
398.359466	2467.221351
398.742092	2464.390743
399.124656	2468.882411
399.507158	2467.203707
399.889598	2470.619088
400.271977	2470.765282
400.654294	2471.178657
401.036549	2471.745786
401.418742	2472.091105
401.800874	2470.513224
402.182944	2471.463482
402.564952	2474.881384
402.946898	2472.663276
403.328783	2471.289562
403.710606	2474.906590
404.092367	2476.655870
404.474067	2475.115798
404.855705	2476.973463
405.237282	2476.696199
405.618797	2474.720067
406.000250	2475.914821
406.381642	2476.512197
406.762972	2480.983701
407.144240	2477.129739
407.525447	2481.631489
407.906593	2477.966570
408.287677	2480.265336
408.668700	2480.018320
409.049661	2480.139307
409.430560	2482.871613
409.811399	2484.320945
410.192176	2483.892447
410.572891	2482.738022
410.953545	2483.496716
411.334138	2482.881695
411.714669	2483.416057
412.095139	2482.864051
412.475547	2484.517550
412.855894	2482.843887
413.236180	2486.075266
413.616405	2482.017137
413.996568	2483.108547
414.376670	2486.423106
414.756711	2486.622231
415.136691	2484.469659
415.516609	2487.219608
415.896466	2488.336224
416.276262	2490.750936
416.655997	2485.893785
417.035670	2487.522077
417.415283	2488.389156
417.794834	2486.912098
418.174324	2490.236739
418.553753	2491.799496
418.933121	2492.303612
419.312428	2494.027686
419.691674	2493.175731
420.070859	2499.799808
420.449983	2494.970382
420.829045	2496.795280
421.208047	2492.636328
421.586988	2500.079592
421.965867	2501.178563
422.344686	2498.232009
422.723444	2499.131855
423.102141	2499.265445
423.480777	2501.228975
423.859352	2495.315701
424.237866	2503.608399
424.616319	2500.709736
424.994712	2503.018584
425.373044	2504.447751
425.751314	2508.092506
426.129524	2505.297186
426.507673	2511.364214
426.885762	2508.238699
427.263789	2509.806498
427.641756	2508.115191
428.019662	2510.424039
428.397508	2512.077538
428.775292	2514.038547
429.153016	2514.396468
429.530679	2511.785151
429.908282	2517.514422
430.285824	2514.086438
430.663305	2515.530728
431.040726	2519.356964
431.418086	2522.958868
431.795385	2520.352592
432.172624	2522.341327
432.549802	2523.825947
432.926920	2526.071781
433.303977	2525.799558
433.680974	2528.937677
434.057910	2533.121834
434.434786	2533.315919
434.811601	2534.062010
435.188355	2536.466640
435.565050	2538.732639
435.941683	2540.980993
436.318257	2547.736139
436.694770	2542.407640
437.071222	2548.182282
437.447614	2546.251520
437.823946	2549.750080
438.200218	2555.131512
438.576429	2558.690567
438.952580	2561.435475
439.328670	2563.998902
439.704700	2570.368400
440.080670	2573.970304
440.456580	2580.884247
440.832429	2585.229721
441.208218	2591.528643
441.583947	2599.768409
441.959616	2602.893924
442.335224	2615.413630
442.710773	2628.064405
443.086261	2637.947587
443.461689	2646.351191
443.837057	2658.933911
444.212365	2676.527538
444.587612	2690.315094
444.962800	2699.598378
445.337927	2722.044116
445.712995	2726.661813
446.088002	2768.609254
446.462949	2792.937862
446.837837	2820.855772
447.212664	2849.113960
447.587431	2934.415325
447.962139	3032.987526
448.336786	3122.175620
448.711374	3128.971096
449.085901	3088.699838
449.460369	3130.027217
449.834776	3180.952953
450.209124	3314.956905
450.583412	3365.202085
450.957640	3434.512910
451.331808	3457.876137
451.705917	3470.436172
452.079965	3538.988302
452.453954	3629.308135
452.827883	3705.454764
453.201752	3770.488169
453.575562	3864.614073
453.949311	4014.215355
454.323001	4116.946509
454.696632	4209.247515
455.070202	4419.514042
455.443713	4544.885017
455.817164	4705.375191
456.190556	4874.281572
456.563888	4950.919713
456.937160	5110.749496
457.310373	5081.384774
457.683526	5247.253859
458.056619	5385.719232
458.429653	5521.394326
458.802628	5729.427622
459.175542	5902.334158
459.548398	6231.907152
459.921194	6624.872656
460.293930	6920.811072
460.666607	7429.851664
461.039224	7912.579953
461.411782	8177.850510
461.784280	8165.746700
462.156719	8270.073378
462.529099	8363.173408
462.901419	8339.006116
463.273680	8338.703647
463.645882	8559.198675
464.018024	8782.700751
464.390106	9169.954628
464.762130	10037.320435
465.134094	11295.400872
465.505999	12958.722021
465.877845	14495.973996
466.249631	15136.029135
466.621358	14949.584581
466.993026	14654.576257
467.364634	14371.016395
467.736184	14131.511176
468.107674	14074.790633
468.479105	14132.857164
468.850477	14219.224732
469.221790	14055.397314
469.593043	13771.290486
469.964238	13758.768260
470.335373	13995.851205
470.706449	14889.360436
471.077467	16174.920202
471.448425	18313.125606
471.819324	19812.682352
472.190164	19395.857067
472.560945	18250.746368
472.931667	17243.639776
473.302330	17081.458295
473.672934	17029.045419
474.043479	17550.459523
474.413965	17488.957446
474.784393	17600.457687
475.154761	18322.116504
475.525070	18630.332650
475.895321	18687.320373
476.265513	19279.981105
476.635645	20058.690660
477.005719	20267.386867
477.375734	20799.483177
477.745691	21468.368675
478.115588	22478.860401
478.485427	23905.927876
478.855207	26117.131708
479.224928	28023.691052
479.594591	29399.832790
479.964194	29111.740930
480.333739	29560.411184
480.703226	29940.073083
481.072653	30729.285883
481.442022	31398.236916
481.811333	31936.780861
482.180584	31428.640115
482.549777	31401.591804
482.918912	31367.962266
483.287988	31497.519920
483.657005	31251.093197
484.025964	31144.540848
484.394864	31442.543617
484.763706	31456.187500
485.132489	31127.055606
485.501213	31307.972536
485.869879	31695.886803
486.238487	31681.660667
486.607036	32111.877778
486.975527	31994.446619
487.343959	32398.507703
487.712333	32723.223546
488.080648	32917.154214
488.448905	33510.011550
488.817104	33639.387722
489.185244	34623.950274
489.553326	36182.727976
489.921350	38649.606528
490.289315	41419.103025
490.657222	42264.557457
491.025070	42776.600056
491.392861	42191.727907
491.760593	41326.280259
492.128267	40108.496286
492.495883	39039.696054
492.863440	38084.732637
493.230939	37160.041348
493.598380	36470.471996
493.965763	36404.513539
494.333088	35907.596922
494.700354	35688.357141
495.067563	35617.831399
495.434713	35689.826638
495.801805	35933.768072
496.168839	35769.774297
496.535815	35649.462119
496.902733	35828.599521
497.269593	35632.652391
497.636395	35720.171863
498.003139	36201.687755
498.369825	35874.494185
498.736453	36274.277850
499.103023	36007.038723
499.469535	36027.213421
499.835989	36240.469352
500.202385	36060.590900
500.568723	36201.342436
500.935003	36496.159195
501.301226	36418.706908
501.667390	37077.812567
502.033497	37420.704290
502.399546	37004.352873
502.765537	36478.661350
503.131470	36932.203880
503.497345	37345.384411
503.863163	36220.208954
504.228923	36853.841664
504.594625	37313.138670
504.960269	36738.860506
505.325856	37453.980947
505.691385	36933.441483
506.056856	37127.606564
506.422270	37611.869885
506.787625	37265.719056
507.152924	37520.375463
507.518164	37674.470934
507.883347	36989.352920
508.248472	37274.357073
508.613540	37773.801829
508.978550	38127.665623
509.343503	37924.865045
509.708398	38156.614449
510.073236	38715.494409
510.438016	38763.478632
510.802738	38280.808315
511.167403	38895.720700
511.532010	39169.369654
511.896561	39504.157722
512.261053	40337.238642
512.625488	39931.884503
512.989866	39836.888999
513.354186	39703.931087
513.718449	39727.874047
514.082655	40418.431466
514.446803	40120.199325
514.810894	40654.702785
515.174927	40610.111259
515.538904	40536.840608
515.902822	41189.140710
516.266684	40698.596112
516.630488	41103.627617
516.994235	40977.145067
517.357925	41536.312372
517.721558	41715.117058
518.085133	42036.029350
518.448651	42180.733151
518.812112	41971.734474
519.175516	42100.762807
519.538863	42430.214814
519.902152	42415.731579
520.265385	42868.838048
520.628560	42924.043724
520.991678	42730.271852
521.354739	42954.842653
521.717743	43281.295173
522.080690	43196.553377
522.443580	43759.322587
522.806413	43801.378413
523.169189	43757.422072
523.531908	43945.905773
523.894569	43813.061287
524.257174	43973.564064
524.619722	44285.861024
524.982213	44294.965348
525.344647	44226.892127
525.707025	44268.496769
526.069345	44675.385940
526.431608	44611.131393
526.793815	44912.317651
527.155964	44466.021780
527.518057	44629.692922
527.880093	44433.846616
528.242072	44969.784284
528.603995	44667.277244
528.965860	44693.254310
529.327669	44789.197550
529.689421	44689.889340
530.051117	44655.735523
530.412755	44800.257842
530.774337	44878.577208
531.135862	44691.971337
531.497331	44892.029527
531.858743	44805.001567
532.220098	45152.624413
532.581396	44864.474580
532.942638	44528.143919
533.303824	44841.824676
533.664953	44824.626779
534.026025	44558.360595
534.387040	45011.366241
534.747999	44959.515453
535.108902	45135.113965
535.469748	44667.572152
535.830537	44789.618487
536.191270	44992.933262
536.551947	44652.229400
536.912567	44939.703719
537.273131	45076.311426
537.633638	44577.947998
537.994089	44923.544300
538.354483	44524.847004
538.714821	45093.123674
539.075103	45430.606239
539.435328	45201.488317
539.795497	45111.405419
540.155609	45099.102483
540.515665	45533.566765
540.875665	45018.817067
541.235609	45337.140726
541.595496	45310.059648
541.955328	45979.043448
542.315102	45370.140119
542.674821	45147.200132
543.034483	45193.258634
543.394090	45172.083267
543.753640	45124.537625
544.113134	46104.356451
544.472571	45139.945911
544.831953	46379.104377
545.191278	45613.920237
545.550548	45335.898082
545.909761	45772.857736
546.268918	45979.005640
546.628019	46284.204655
546.987064	45860.341919
547.346053	45149.614844
547.704986	46018.866043
548.063863	45595.086486
548.422684	45790.809284
548.781449	45646.612120
549.140158	46022.639347
549.498811	45857.246651
549.857408	45321.734960
550.215949	46146.898748
550.574434	46073.504589
550.932864	45861.387959
551.291237	46554.279432
551.649555	46160.502302
552.007817	46398.084321
552.366022	46076.882162
552.724173	46221.654018
553.082267	46623.648229
553.440305	46922.523117
553.798288	46250.265087
554.156215	46555.348156
554.514086	46756.510359
554.871902	46512.377361
555.229661	46512.256373
555.587365	46340.048037
555.945014	46457.222097
556.302606	46374.194293
556.660143	46589.930472
557.017625	46674.452977
557.375050	46478.440313
557.732421	46822.882191
558.089735	46799.949982
558.446994	46730.949189
558.804197	47173.784307
559.161345	47118.818086
559.518437	46383.845582
559.875474	46674.838626
560.232455	46848.692898
560.589381	47015.391253
560.946251	46709.559573
561.303065	47384.207110
561.659825	47179.732869
562.016528	46874.919501
562.373177	46594.853158
562.729770	47065.308759
563.086307	46588.332426
563.442789	47044.176242
563.799216	47085.758199
564.155587	46884.616161
564.511904	46889.438024
564.868164	47002.188471
565.224370	47237.396107
565.580520	46977.615367
565.936615	47194.039663
566.292654	46910.807476
566.648638	47143.033269
567.004567	47127.428377
567.360441	47145.334555
567.716260	46997.853079
568.072023	47291.044066
568.427732	47287.495094
568.783385	46841.713421
569.138982	47222.925475
569.494525	47181.086418
569.850013	46949.586552
570.205445	46912.171108
570.560823	46879.514513
570.916145	46762.274919
571.271412	46789.459341
571.626625	46551.378247
571.981782	46600.325331
572.336884	46305.357337
572.691931	46617.407281
573.046923	46223.267188
573.401860	46082.732421
573.756743	46061.925059
574.111570	46167.696028
574.466342	46018.714809
574.821059	46143.150650
575.175722	45681.184353
575.530330	45684.942533
575.884882	45408.994813
576.239380	45367.848915
576.593823	45357.948089
576.948211	45263.071053
577.302544	44808.986600
577.656823	44838.656311
578.011047	45061.550928
578.365216	44782.545748
578.719330	44590.833188
579.073389	44427.456953
579.427394	44518.230490
579.781344	44507.059293
580.135239	44161.389894
580.489080	44242.073562
580.842866	43723.495107
581.196597	44179.459910
581.550273	44125.721210
581.903895	43993.527033
582.257463	44413.145117
582.610975	43808.909897
582.964434	44076.859827
583.317837	43744.685597
583.671186	43570.730501
584.024481	43815.881813
584.377721	43345.489227
584.730906	43618.616421
585.084037	43648.921318
585.437113	43378.390317
585.790135	43400.382351
586.143103	42999.247657
586.496016	43120.053868
586.848874	43147.666788
587.201679	43166.061958
587.554428	42651.271930
587.907124	42852.408928
588.259765	42605.682256
588.612352	42862.196328
588.964884	42257.061261
589.317362	42538.468551
589.669786	42475.081083
590.022155	42255.009512
590.374470	42667.408664
590.726731	42214.423182
591.078937	41732.453586
591.431090	41829.790705
591.783188	41482.049393
592.135232	41169.240755
592.487222	41406.096848
592.839157	41483.455874
593.191038	41176.056395
593.542866	40947.445109
593.894639	40364.549093
594.246358	40631.878961
594.598022	40596.893353
594.949633	40209.026976
595.301190	40179.725270
595.652692	40017.256443
596.004141	40333.430050
596.355535	39374.146364
596.706876	39320.518570
597.058162	39153.134618
597.409395	39597.189696
597.760573	39691.635713
598.111698	39263.276268
598.462768	39278.679513
598.813785	39310.680758
599.164748	38785.387486
599.515657	39178.612610
599.866511	38648.610900
600.217312	39259.003890
600.568060	38255.491641
600.918753	38966.410280
601.269392	38935.686968
601.619978	38595.761964
601.970510	38796.231008
602.320988	38989.281995
602.671412	39283.052714
603.021783	39031.252121
603.372100	38692.781490
603.722363	38788.394534
604.072572	38869.506700
604.422728	38890.702231
604.772830	38699.153508
605.122878	38802.227461
605.472872	38734.560053
605.822813	39022.208291
606.172701	38842.962504
606.522534	39077.487063
606.872314	39325.751287
607.222041	39095.015155
607.571714	39499.744192
607.921333	38946.487640
608.270899	39223.988035
608.620411	39572.750182
608.969870	39367.229901
609.319276	39367.028255
609.668627	39424.847769
610.017926	39905.216799
610.367171	40056.731198
610.716362	40138.783539
611.065500	40099.802817
611.414585	40277.251432
611.763616	40587.171488
612.112594	40514.447803
612.461518	40734.607594
612.810389	41023.750535
613.159207	40887.455379
613.507971	40961.152007
613.856682	41425.079313
614.205340	41315.439258
614.553945	42018.521423
614.902496	41477.237611
615.250994	41927.442897
615.599439	42013.513037
615.947830	42231.484967
616.296169	42276.184878
616.644454	42401.323961
616.992686	42588.496962
617.340864	43084.201182
617.688990	42827.182994
618.037063	43402.053493
618.385082	43396.296496
618.733048	43675.747818
619.080961	43698.985017
619.428821	43712.180237
619.776628	43820.844828
620.124382	43645.475689
620.472083	43767.272487
620.819731	43899.665789
621.167326	43573.419957
621.514868	43558.722473
621.862357	43110.198412
622.209793	43147.818022
622.557176	42813.347547
622.904506	42558.885224
623.251783	42221.062382
623.599007	42009.160000
623.946179	41789.486680
624.293297	41734.805285
624.640363	41156.658035
624.987376	41144.954997
625.334336	40911.254666
625.681243	40561.103682
626.028097	40530.219052
626.374899	40380.864787
626.721647	40370.661492
627.068343	40261.512950
627.414987	40030.166838
627.761577	39809.823044
628.108115	40145.241257
628.454600	39601.819996
628.801032	39779.445051
629.147412	39754.667780
629.493739	39763.056260
629.840014	39424.547821
630.186236	39776.226275
630.532405	39376.409842
630.878521	39602.830747
631.224585	39475.947425
631.570597	39193.415958
631.916556	39353.265905
632.262462	39318.315586
632.608316	39319.316255
632.954117	39227.403417
633.299866	39207.989934
633.645562	39125.385587
633.991206	38636.249991
634.336797	38225.247238
634.682336	38217.146104
635.027823	37972.430852
635.373257	37787.566700
635.718639	37562.320384
636.063968	37412.051150
636.409245	36853.390480
636.754470	36897.162819
637.099642	36663.812849
637.444762	36187.494387
637.789829	36347.830805
638.134845	36000.200398
638.479808	35946.978416
638.824719	35868.916149
639.169577	35463.141073
639.514383	35554.766564
639.859137	35240.790900
640.203839	35473.049461
640.548489	35121.829752
640.893086	35190.369279
641.237632	34951.728618
641.582125	35057.865071
641.926566	34987.472919
642.270955	34962.796471
642.615292	34978.474460
642.959576	34960.283456
643.303809	34954.639884
643.647990	35099.673880
643.992118	35078.349800
644.336195	35077.581024
644.680219	35159.235113
645.024192	35468.257844
645.368112	35970.787786
645.711981	35997.180747
646.055797	36868.274487
646.399562	36804.420712
646.743274	37715.200936
647.086935	38177.515073
647.430544	38063.915192
647.774101	38182.019344
648.117606	38432.257180
648.461059	38713.167916
648.804460	38330.907302
649.147810	37733.825479
649.491108	37470.921744
649.834354	37120.624566
650.177548	36288.793852
650.520690	35854.921906
650.863781	35854.521134
651.206820	35704.854317
651.549807	35286.829237
651.892742	34809.179911
652.235626	34625.266015
652.578458	34481.789736
652.921238	33881.353025
653.263967	34213.181935
653.606644	33906.248763
653.949269	33857.062225
654.291843	33470.201558
654.634365	33862.582288
654.976836	33460.681339
655.319255	33462.198726
655.661622	33461.951710
656.003938	33233.587441
656.346203	33094.088631
656.688416	33325.313755
657.030577	33124.247334
657.372687	32969.022646
657.714746	33231.195413
658.056753	33362.061246
658.398708	32819.985973
658.740612	32867.458519
659.082465	33142.854233
659.424266	32972.057420
659.766016	33092.689711
660.107715	32975.132524
660.449362	33096.926801
660.790958	33085.833742
661.132503	33110.013636
661.473996	33133.943994
661.815438	33256.764145
662.156829	33448.459062
662.498168	33214.599935
662.839456	33243.916765
663.180693	33386.412540
663.521879	33548.959505
663.863013	33506.260932
664.204097	33520.746687
664.545129	33965.507526
664.886110	33939.689257
665.227040	34002.345758
665.567918	34114.992861
665.908746	34184.487688
666.249522	34350.949108
666.590248	34346.956514
666.930922	34460.339626
667.271545	34426.909214
667.612118	34512.744941
667.952639	34300.479597
668.293109	34343.762943
668.633528	34248.515383
668.973896	34167.695604
669.314213	34204.914443
669.654480	33949.658139
669.994695	33985.470496
670.334859	33862.486506
670.674973	33771.143319
671.015035	33920.507667
671.355047	33880.266656
671.695008	33815.296265
672.034918	33722.604569
672.374777	33807.999195
672.714585	33644.748989
673.054342	33880.985020
673.394049	33642.417456
673.733705	33909.575924
674.073310	33580.194494
674.412864	33656.245341
674.752368	33256.325565
675.091820	33565.363419
675.431223	33135.685712
675.770574	32849.880016
676.109875	32718.487382
676.449125	32436.361727
676.788324	32358.344830
677.127473	31837.318895
677.466571	31756.257141
677.805619	31418.646027
678.144616	31411.643864
678.483562	31330.072954
678.822458	31014.746260
679.161303	30953.947424
679.500098	30852.852125
679.838842	30733.008775
680.177535	30900.296945
680.516179	31162.313436
680.854771	31415.195357
681.193314	32290.808492
681.531805	33405.941970
681.870247	34187.073800
682.208638	34928.665339
682.546978	35155.701264
682.885268	35234.963326
683.223508	34701.455494
683.561697	34362.226169
683.899836	34163.279553
684.237925	33663.693646
684.575963	33515.864330
684.913951	33065.404466
685.251889	33213.563978
685.589776	33202.667523
685.927614	33206.745817
686.265401	33345.808566
686.603137	33448.101140
686.940824	33948.964980
687.278460	34327.689224
687.616046	34492.988659
687.953582	35091.310606
688.291068	34957.682221
688.628504	35222.521758
688.965889	35177.370664
689.303224	34770.607522
689.640510	34432.756953
689.977745	33692.168603
690.314930	32883.103740
690.652065	32350.773017
690.989150	31602.688472
691.326185	30707.109847
691.663170	30006.943989
692.000105	29248.464584
692.336990	28572.955010
692.673825	28123.498336
693.010610	27600.428213
693.347345	27033.396708
693.684030	26370.104370
694.020665	26095.487514
694.357251	25436.109632
694.693786	25382.985953
695.030272	25150.918956
695.366707	24603.230358
695.703093	24322.675023
696.039429	24313.220339
696.375716	24052.290216
696.711952	24016.906358
697.048139	23868.096537
697.384276	23690.078271
697.720363	23805.583709
698.056400	23598.006637
698.392388	23395.221183
698.728326	23345.336445
699.064214	23136.960351
699.400053	23074.878541
699.735842	22720.094736
700.071581	22442.556532
700.407270	22174.606602
700.742910	21966.853090
701.078501	21699.601360
701.414042	21425.670102
701.749533	21120.244234
702.084974	20766.574524
702.420366	20971.298303
702.755709	20536.299658
703.091002	20243.423743
703.426246	20266.734038
703.761440	20157.061216
704.096584	19886.562982
704.431679	19847.042857
704.766725	19759.039434
705.101721	19695.846050
705.436668	19793.727614
705.771565	19469.384817
706.106413	19815.712086
706.441212	19790.564290
706.775961	19918.967519
707.110661	19997.730507
707.445311	20344.927375
707.779913	20192.596309
708.114465	20434.793504
708.448967	20723.528112
708.783421	21417.092578
709.117825	21691.961492
709.452180	21922.526225
709.786485	22309.185245
710.120742	23111.913378
710.454949	23134.868272
710.789107	23607.494089
711.123216	24314.304187
711.457275	24422.336114
711.791286	24964.484484
712.125247	25033.626430
712.459159	24726.244595
712.793023	25382.290274
713.126837	24275.197437
713.460602	24524.611044
713.794318	24139.577795
714.127985	23753.979937
714.461602	22845.185928
714.795171	22805.915339
715.128691	21784.524638
715.462162	21262.039289
715.795584	20830.682878
716.128957	20573.745348
716.462281	20169.464975
716.795556	19930.095867
717.128782	19437.297872
717.461960	18894.416015
717.795088	18811.121030
718.128167	18415.153518
718.461198	17952.617571
718.794180	17798.249878
719.127113	17452.366231
719.459997	17246.241012
719.792833	16899.906181
720.125619	16869.908795
720.458357	16551.446503
720.791046	16387.669497
721.123686	16220.141872
721.456278	15987.840462
721.788821	15943.314471
722.121315	15679.571384
722.453761	15766.932059
722.786158	15687.342323
723.118506	15689.540266
723.450805	15553.240068
723.783056	15716.427260
724.115259	15620.942765
724.447412	15559.395317
724.779518	15797.882223
725.111574	15823.496326
725.443582	16012.559760
725.775542	16001.544839
726.107453	16458.674149
726.439315	16351.524424
726.771129	16750.130979
727.102895	17125.379348
727.434612	17323.544585
727.766281	17450.758102
728.097901	17705.157411
728.429473	17742.877844
728.760996	17721.833548
729.092471	17793.223848
729.423897	17677.846960
729.755276	17551.986992
730.086606	17661.851379
730.417887	18182.874793
730.749120	18696.049131
731.080305	18876.109064
731.411442	19197.719556
731.742530	19268.262943
732.073570	19364.070072
732.404562	19657.278703
732.735506	19466.642429
733.066401	19180.178862
733.397249	18659.490684
733.728048	18013.744082
734.058798	17183.181218
734.389501	16519.495670
734.720156	16051.180040
735.050762	15522.945254
735.381320	15174.840978
735.711831	14931.519606
736.042293	14592.847329
736.372707	14597.354120
736.703073	14386.974167
737.033391	14571.238423
737.363661	14542.665163
737.693883	14645.923117
738.024056	14819.139684
738.354182	15004.132386
738.684260	15286.043791
739.014290	15523.177147
739.344272	15700.595516
739.674207	15984.896428
740.004093	16093.137563
740.333931	16086.337047
740.663722	16108.167763
740.993464	16103.499655
741.323159	15919.802529
741.652806	15649.994934
741.982405	15439.514158
742.311956	15099.281644
742.641460	14984.277801
742.970915	14675.807077
743.300323	14341.397095
743.629683	14128.284837
743.958996	13848.367208
744.288260	13580.381990
744.617477	13277.086010
744.946647	13211.230897
745.275768	12934.146396
745.604842	12749.708221
745.933869	12578.087180
746.262847	12532.842824
746.591778	12459.007564
746.920662	12356.324301
747.249498	12352.034279
747.578286	12478.083290
747.907027	12628.639870
748.235720	12838.132580
748.564365	12868.896222
748.892963	12775.329886
749.221514	12815.969147
749.550017	12681.508971
749.878473	12643.125626
750.206881	12429.506732
750.535242	12321.520175
750.863555	12245.033268
751.191821	12152.074392
751.520039	12167.482678
751.848210	12075.171590
752.176334	12106.270468
752.504411	12016.094308
752.832440	11856.398116
753.160421	11920.206520
753.488356	11798.127418
753.816243	11700.097141
754.144082	11563.940616
754.471875	11510.272493
754.799620	11454.671086
755.127318	11426.075141
755.454969	11386.514686
755.782572	11340.582213
756.110129	11350.049500
756.437638	11265.963054
756.765100	11258.401323
757.092515	11262.930800
757.419882	11277.230032
757.747203	11279.223809
758.074477	11352.655776
758.401703	11307.456791
758.728882	11476.358130
759.056014	11515.880776
759.383099	11625.198197
759.710138	11724.672766
760.037129	11809.540591
760.364073	11825.881491
760.690970	11814.022176
761.017820	11813.187865
761.344623	11997.878098
761.671379	12319.672592
761.998088	12954.351341
762.324751	14500.838709
762.651366	17358.646139
762.977935	21021.750170
763.304456	23211.221588
763.630931	23670.150590
763.957359	22493.109223
764.283740	20580.664332
764.610074	18706.315441
764.936362	16583.513283
765.262602	15083.659108
765.588796	13614.256023
765.914943	12589.197883
766.241044	11742.891496
766.567097	11116.744900
766.893104	10571.992774
767.219064	10211.963649
767.544978	9832.190844
767.870845	9521.766673
768.196665	9333.068723
768.522438	9137.451789
768.848165	8976.875915
769.173846	8812.665370
769.499479	8688.204322
769.825066	8534.418883
770.150607	8351.306532
770.476101	8279.162579
770.801548	8171.851537
771.126949	8033.308026
771.452303	7946.438863
771.777611	7784.164121
772.102872	7760.218640
772.428087	7645.116495
772.753256	7523.584358
773.078378	7434.852489
773.403453	7294.892414
773.728482	7194.162598
774.053465	7125.088708
774.378401	7041.861779
774.703291	6950.730320
775.028135	6853.804055
775.352932	6821.775084
775.677683	6734.984059
776.002388	6649.249156
776.327046	6646.942828
776.651658	6553.752058
776.976224	6484.965513
777.300743	6470.782227
777.625216	6399.510394
777.949643	6357.492377
778.274024	6363.945054
778.598359	6297.527852
778.922647	6297.477440
779.246889	6264.198263
779.571086	6271.933914
779.895236	6280.574451
780.219339	6274.446929
780.543397	6269.677997
780.867409	6320.747406
781.191374	6314.382950
781.515294	6282.729545
781.839167	6334.955898
782.162995	6306.090252
782.486776	6257.735504
782.810511	6219.609257
783.134201	6142.802237
783.457844	6129.034846
783.781441	6079.689512
784.104993	6042.289191
784.428498	6009.672926
784.751958	5991.973435
785.075372	5967.251616
785.398739	5931.088899
785.722061	5950.714111
786.045337	5951.828206
786.368568	6060.684362
786.691752	6082.963741
787.014891	6332.324416
787.337983	6609.829853
787.661030	7047.157511
787.984031	7470.127963
788.306987	7733.674445
788.629897	7811.938358
788.952760	7727.672951
789.275579	7547.217287
789.598351	7250.283243
789.921078	6983.192830
790.243759	6707.814760
790.566395	6507.086097
790.888984	6313.906561
791.211529	6174.468245
791.534027	6015.954204
791.856480	5879.351537
792.178888	5818.530016
792.501249	5752.458133
792.823566	5650.878883
793.145836	5644.824457
793.468062	5629.297704
793.790241	5586.379840
794.112375	5628.831397
794.434464	5723.204317
794.756507	5755.392085
795.078505	5874.179313
795.400457	6092.622592
795.722364	6328.505742
796.044226	6519.525144
796.366042	6677.356109
796.687812	6625.321319
797.009538	6651.563045
797.331218	6560.048459
797.652852	6492.723849
797.974442	6370.191043
798.295986	6299.377955
798.617484	6167.163613
798.938938	6063.744342
799.260346	5998.834445
799.581709	5855.199369
799.903026	5810.330579
800.224299	5736.800309
800.545526	5618.547443
800.866708	5554.381116
801.187845	5507.780690
801.508936	5431.127425
801.829983	5404.250514
802.150984	5296.821005
802.471940	5268.406541
802.792851	5254.293831
803.113717	5229.493874
803.434538	5209.392273
803.755314	5173.431203
804.076045	5162.408720
804.396731	5121.746773
804.717372	5142.944825
805.037967	5143.761492
805.358518	5173.884906
805.679024	5230.567640
805.999485	5239.684567
806.319901	5262.122743
806.640272	5278.367861
806.960598	5323.856713
807.280879	5316.894879
807.601115	5350.690775
807.921306	5315.730373
808.241453	5312.146112
808.561554	5319.349921
808.881611	5284.041680
809.201623	5281.584117
809.521590	5234.096448
809.841513	5215.907965
810.161390	5232.407661
810.481223	5146.551770
810.801011	5135.163804
811.120755	5107.704639
811.440453	5053.494591
811.760107	5022.055435
812.079716	4995.208770
812.399281	4942.601809
812.718801	4938.513433
813.038276	4906.988578
813.357707	4874.379874
813.677093	4894.829315
813.996434	4833.720448
814.315731	4850.603272
814.634983	4848.090257
814.954191	4855.558726
815.273354	4917.358231
815.592473	4957.233758
815.911547	5033.082959
816.230577	5081.399898
816.549562	5168.944576
816.868502	5219.043563
817.187399	5276.116986
817.506250	5352.208162
817.825058	5381.099015
818.143821	5531.753897
818.462539	5696.208939
818.781213	5923.547333
819.099843	6285.781963
819.418429	6911.666419
819.736970	7524.915223
820.055466	8231.760609
820.373919	9130.104307
820.692327	10572.300284
821.010691	13236.119073
821.329011	19396.184742
821.647286	28886.570232
821.965517	39113.707754
822.283704	44533.840423
822.601847	45995.712024
822.919945	41424.194590
823.237999	36343.046750
823.556010	31187.438547
823.873976	26539.877829
824.191897	22370.868804
824.509775	19338.060238
824.827609	16592.068121
825.145398	15058.097938
825.463144	14319.551255
825.780845	14610.030102
826.098502	15861.700711
826.416116	18305.286612
826.733685	20563.133720
827.051210	21075.317471
827.368692	19665.846144
827.686129	17113.378881
828.003522	14655.813861
828.320872	12467.053246
828.638177	10825.640950
828.955439	9593.905584
829.272656	8550.288436
829.589830	7714.205508
829.906960	6994.243040
830.224046	6464.395085
830.541088	6058.856943
830.858086	5806.146422
831.175041	5602.652685
831.491952	5547.068923
831.808819	5581.807514
832.125642	5821.214431
832.442421	6365.560743
832.759157	7462.820810
833.075849	9219.940189
833.392497	11046.375433
833.709101	12163.951350
834.025662	11912.382650
834.342179	10852.850578
834.658653	9558.927538
834.975083	8467.734500
835.291469	7569.872233
835.607811	6838.272260
835.924110	6328.387275
836.240366	5843.196382
836.556578	5398.722888
836.872746	5051.775557
837.188871	4779.956542
837.504952	4562.960075
837.820990	4396.710383
838.136984	4285.996562
838.452935	4236.449581
838.768842	4262.262809
839.084706	4544.401067
839.400526	5277.125217
839.716303	6175.783986
840.032037	6730.772175
840.347727	6586.829589
840.663373	5990.375389
840.978977	5420.951856
841.294537	4979.606399
841.610054	4655.140093
841.925527	4416.421294
842.240957	4212.919996
842.556344	4031.335113
842.871687	3873.983058
843.186987	3729.364957
843.502244	3612.291721
843.817458	3521.629089
844.132629	3455.937813
844.447756	3407.925864
844.762840	3362.119420
845.077881	3321.069304
845.392879	3290.260292
845.707833	3265.861108
846.022745	3238.865729
846.337613	3224.080025
846.652438	3204.757282
846.967221	3195.070705
847.281960	3177.840041
847.596656	3165.451405
847.911309	3154.922956
848.225919	3140.898466
848.540485	3132.129378
848.855009	3124.602936
849.169490	3112.799074
849.483928	3108.181377
849.798323	3101.559822
850.112675	3089.503902
850.426984	3092.750405
850.741251	3085.168510
851.055474	3080.024012
851.369654	3080.858323
851.683792	3077.460586
851.997887	3079.013261
852.311938	3083.114240
852.625947	3081.690114
852.939914	3072.958835
853.253837	3081.919486
853.567718	3077.795822
853.881555	3073.069741
854.195350	3080.192891
854.509103	3076.122159
854.822812	3075.275245
855.136479	3068.928433
855.450103	3071.907755
855.763685	3066.238977
856.077224	3070.642425
856.390720	3075.968404
856.704173	3088.709920
857.017584	3090.786876
857.330953	3096.987495
857.644278	3106.512755
857.957561	3108.816562
858.270802	3103.919082
858.584000	3105.587703
858.897155	3100.297012
859.210268	3086.685897
859.523339	3075.663414
859.836367	3075.199628
860.149352	3066.513720
860.462295	3065.402146
860.775195	3055.332441
861.088054	3050.959240
861.400869	3053.749518
861.713642	3047.420350
862.026373	3059.559448
862.339062	3062.828637
862.651708	3069.112435
862.964312	3087.923500
863.276873	3095.452464
863.589392	3128.401445
863.901869	3155.918583
864.214303	3171.745286
864.526696	3192.323276
864.839045	3206.125955
865.151353	3223.807802
865.463619	3221.728326
865.775842	3222.905436
866.088023	3227.969275
866.400162	3222.088769
866.712258	3220.130281
867.024313	3218.970815
867.336325	3220.266392
867.648296	3221.332596
867.960224	3217.846638
868.272110	3222.550034
868.583954	3223.714541
868.895755	3228.632187
869.207515	3228.002042
869.519233	3244.471492
869.830909	3249.424426
870.142542	3263.897578
870.454134	3267.136520
870.765684	3280.177985
871.077191	3296.097948
871.388657	3311.357521
871.700081	3326.513750
872.011463	3349.319930
872.322803	3369.456819
872.634101	3385.964078
872.945357	3402.862025
873.256571	3431.894030
873.567744	3446.069755
873.878874	3455.665591
874.189963	3465.700008
874.501010	3470.116059
874.812015	3468.328970
875.122979	3483.008810
875.433900	3480.047132
875.744780	3482.159375
876.055618	3489.403513
876.366415	3484.453100
876.677169	3493.537259
876.987882	3507.753313
877.298554	3527.829708
877.609183	3566.608784
877.919771	3615.099643
878.230317	3679.739838
878.540822	3782.254223
878.851285	3931.104372
879.161707	4149.731653
879.472087	4516.354607
879.782425	5139.698322
880.092722	6305.775179
880.402977	8215.023978
880.713191	10557.746473
881.023363	12912.981112
881.333494	14234.806938
881.643583	14677.828580
881.953631	14270.218524
882.263637	13444.263275
882.573602	12411.131726
882.883526	11476.421144
883.193408	10535.194872
883.503248	9631.966296
883.813048	8809.557498
884.122806	8057.717293
884.432522	7299.590769
884.742197	6646.519371
885.051831	6093.197283
885.361424	5609.019662
885.670975	5219.928285
885.980485	4899.734357
886.289954	4633.211074
886.599382	4419.501439
886.908768	4247.915686
887.218113	4085.320830
887.527417	3951.667239
887.836680	3829.666274
888.145901	3730.005183
888.455082	3657.611694
888.764221	3587.872371
889.073319	3528.601005
889.382376	3499.924401
889.691392	3471.898107
890.000366	3465.636993
890.309300	3462.801344
890.618193	3463.159266
890.927044	3459.005356
891.235855	3466.821665
891.544625	3480.518480
891.853353	3509.789939
892.162041	3567.503589
892.470687	3656.157321
892.779293	3774.286679
893.087858	3946.298410
893.396381	4218.349318
893.704864	4625.765290
894.013306	5187.838820
894.321707	5759.921562
894.630068	6106.626917
894.938387	6152.622405
895.246665	5967.985104
895.554903	5659.703423
895.863100	5326.548689
896.171256	5052.798912
896.479371	4819.154034
896.787446	4595.425105
897.095480	4402.989140
897.403473	4257.821553
897.711425	4113.014409
898.019336	3996.276409
898.327207	3873.252091
898.635038	3767.738220
898.942827	3665.186027
899.250576	3582.616968
899.558284	3499.909278
899.865952	3444.779219
900.173579	3382.062224
900.481165	3334.922395
900.788711	3294.106693
901.096216	3261.417331
901.403681	3238.233064
901.711105	3222.303018
902.018489	3220.798233
902.325832	3255.158738
902.633135	3312.290135
902.940397	3477.604693
903.247619	3879.175446
903.554800	4618.745483
903.861941	5577.925825
904.169041	6264.863695
904.476101	6475.445294
904.783121	6201.443459
905.090100	5803.779600
905.397039	5399.027878
905.703938	5040.188465
906.010796	4719.792891
906.317614	4473.991271
906.624391	4239.144078
906.931129	4046.486301
907.237826	3866.015514
907.544483	3696.690718
907.851099	3530.375491
908.157675	3372.158878
908.464211	3235.586458
908.770707	3138.277066
909.077163	3058.510888
909.383578	2996.141733
909.689954	2952.815536
909.996289	2926.790579
910.302584	2907.021695
910.608839	2893.768501
910.915054	2879.242416
911.221229	2876.721839
911.527363	2878.929865
911.833458	2888.127450
912.139513	2899.948956
912.445527	2915.032088
912.751502	2948.114660
913.057436	2988.370794
913.363331	3043.924310
913.669186	3129.613843
913.975000	3245.320926
914.280775	3428.604677
914.586510	3694.245759
914.892205	4066.693767
915.197859	4553.739804
915.503475	5129.815139
915.809050	5621.216734
916.114585	5903.957409
916.420081	5969.983922
916.725536	5901.346092
917.030952	5671.920659
917.336328	5462.690090
917.641665	5255.044963
917.946961	5033.216549
918.252218	4833.728009
918.557435	4608.771560
918.862612	4415.523969
919.167750	4247.154471
919.472848	4060.858631
919.777906	3892.516860
920.082925	3739.588417
920.387904	3584.948502
920.692843	3477.314826
920.997743	3383.072976
921.302603	3285.443470
921.607423	3224.576578
921.912204	3158.595436
922.216946	3108.904783
922.521647	3062.342165
922.826310	3024.893954
923.130932	2985.255361
923.435516	2945.226079
923.740059	2919.112902
924.044564	2887.676267
924.349028	2863.350179
924.653454	2834.545026
924.957840	2810.072744
925.262186	2789.267902
925.566493	2766.333173
925.870761	2744.787282
926.174989	2735.294789
926.479178	2720.395659
926.783328	2700.538554
927.087438	2694.713500
927.391509	2676.164575
927.695541	2666.548574
927.999533	2659.571617
928.303486	2648.440749
928.607400	2642.713998
928.911275	2638.557567
929.215110	2631.618419
929.518906	2628.008953
929.822663	2628.916360
930.126381	2631.401649
930.430060	2632.104890
930.733699	2634.070940
931.037299	2636.999851
931.340861	2635.996661
931.644383	2639.901035
931.947866	2638.663431
932.251309	2635.737042
932.554714	2635.442134
932.858080	2632.140178
933.161407	2629.120527
933.464694	2627.068777
933.767943	2621.213477
934.071153	2619.605349
934.374323	2617.097375
934.677455	2611.075717
934.980548	2607.020109
935.283602	2607.718308
935.586617	2603.834099
935.889593	2607.536827
936.192530	2609.825511
936.495428	2614.153341
936.798287	2624.797738
937.101108	2637.503966
937.403890	2660.814261
937.706632	2684.648837
938.009336	2719.077397
938.312002	2746.992786
938.614628	2768.470622
938.917216	2787.750515
939.219765	2795.352575
939.522275	2806.541416
939.824747	2805.071920
940.127179	2799.332566
940.429573	2791.843932
940.731929	2792.922739
941.034246	2784.204063
941.336524	2784.849331
941.638763	2778.570574
941.940964	2772.763165
942.243126	2755.330855
942.545250	2742.491036
942.847335	2730.858573
943.149381	2715.987170
943.451389	2703.091898
943.753359	2691.403983
944.055290	2680.981397
944.357182	2674.173319
944.659036	2668.794408
944.960851	2665.671413
945.262628	2661.444406
945.564367	2664.610250
945.866067	2658.825526
946.167729	2661.104128
946.469352	2656.068015
946.770937	2656.821667
947.072484	2649.597694
947.373992	2649.327992
947.675462	2646.746922
947.976893	2637.730818
948.278286	2633.302164
948.579641	2631.741927
948.880958	2631.308388
949.182236	2633.483646
949.483476	2627.008284
949.784678	2627.845115
950.085841	2625.430403
950.386967	2632.407359
950.688054	2636.352062
950.989103	2645.705923
951.290114	2652.907212
951.591087	2663.806186
951.892021	2675.471416
952.192917	2689.455577
952.493776	2697.440765
952.794596	2704.460571
953.095378	2705.136086
953.396122	2703.406970
953.696828	2699.621064
953.997496	2694.663089
954.298126	2686.120854
954.598718	2676.116684
954.899272	2667.531599
955.199788	2655.475679
955.500266	2644.463279
955.800706	2628.084570
956.101108	2609.901128
956.401472	2602.026846
956.701798	2585.620411
957.002087	2569.193811
957.302337	2564.603840
957.602550	2552.779814
957.902724	2544.449307
958.202861	2531.803573
958.502960	2525.797038
958.803022	2517.521984
959.103045	2512.153155
959.403031	2506.030674
959.702979	2498.539519
960.002889	2497.501041
960.302762	2489.422592
960.602596	2484.741881
960.902393	2482.974957
961.202153	2477.548154
961.501875	2476.108905
961.801559	2474.878863
962.101205	2472.348204
962.400814	2473.684110
962.700385	2467.183542
962.999918	2466.762606
963.299414	2465.429221
963.598873	2464.705815
963.898293	2461.003087
964.197677	2458.966461
964.497022	2458.719445
964.796331	2459.783128
965.095601	2459.324383
965.394835	2457.000411
965.694030	2458.898406
965.993189	2458.671554
966.292309	2454.973868
966.591393	2456.052674
966.890439	2454.207612
967.189447	2458.878241
967.488419	2453.164093
967.787353	2455.125102
968.086249	2455.392283
968.385108	2456.019907
968.683930	2456.743313
968.982714	2460.733386
969.281462	2461.134157
969.580172	2462.144909
969.878844	2463.503500
970.177480	2467.359983
970.476078	2469.194962
970.774639	2471.823924
971.073162	2475.309882
971.371649	2474.389872
971.670098	2475.020016
971.968510	2477.475058
972.266885	2476.741570
972.565223	2482.982518
972.863524	2482.985039
973.161788	2483.683239
973.460014	2480.996304
973.758204	2484.343630
974.056356	2485.646768
974.354471	2489.704897
974.652550	2487.736326
974.950591	2489.052067
975.248595	2486.649958
975.546563	2485.412354
975.844493	2482.433032
976.142386	2481.031592
976.440243	2479.851962
976.738062	2478.044708
977.035845	2472.305354
977.333590	2473.248050
977.631299	2467.695219
977.928971	2469.562967
978.226606	2465.593058
978.524204	2466.019036
978.821765	2467.506176
979.119290	2462.908644
979.416777	2462.175156
979.714228	2461.756740
980.011642	2463.359827
980.309020	2469.003399
980.606360	2473.026239
980.903664	2481.374390
981.200931	2492.502737
981.498162	2513.814215
981.795356	2542.838658
982.092513	2579.936510
982.389633	2623.935700
982.686717	2666.626712
982.983764	2693.906916
983.280775	2712.102961
983.577749	2713.486757
983.874686	2705.173895
984.171587	2690.126050
984.468451	2671.816580
984.765279	2657.774446
985.062070	2636.147896
985.358824	2618.486213
985.655543	2599.110538
985.952224	2575.427198
986.248869	2547.368135
986.545478	2521.703621
986.842050	2501.715446
987.138586	2482.407827
987.435086	2472.895169
987.731549	2460.357820
988.027975	2457.265072
988.324366	2446.106478
988.620719	2448.453135
988.917037	2440.510797
989.213318	2440.364604
989.509563	2436.349325
989.805772	2432.702050
990.101944	2433.705239
990.398080	2436.480395
990.694180	2434.264807
990.990244	2435.068872
991.286271	2432.278593
991.582262	2434.965528
991.878217	2433.349838
992.174136	2432.371854
992.470019	2436.838317
992.765865	2437.198759
993.061676	2437.367638
993.357450	2442.489450
993.653188	2445.146138
993.948890	2449.063115
994.244556	2451.881120
994.540186	2467.969962
994.835780	2475.045222
995.131337	2489.097438
995.426859	2504.825838
995.722345	2526.913653
996.017795	2544.819832
996.313208	2557.997408
996.608586	2569.002247
996.903928	2570.378482
997.199234	2568.997206
997.494504	2564.523182
997.789738	2560.747357
998.084936	2551.731254
998.380099	2537.237937
998.675225	2526.255783
998.970316	2514.328413
999.265371	2500.868532
999.560390	2487.023003
999.855373	2477.591004
1000.150320	2462.162553
1000.445232	2457.890175
1000.740108	2450.020934
1001.034948	2442.839810
1001.329752	2442.343257
1001.624521	2438.141455
1001.919254	2429.821030
1002.213951	2428.364137
1002.508613	2425.891451
1002.803239	2425.962027
1003.097829	2421.296439
1003.392384	2421.634197
1003.686903	2419.789134
1003.981386	2419.615214
1004.275834	2421.656882
1004.570246	2420.242838
1004.864623	2417.830646
1005.158964	2418.478434
1005.453270	2416.494740
1005.747540	2419.146387
1006.041775	2413.752353
1006.335974	2415.662950
1006.630138	2416.134298
1006.924266	2415.962898
1007.218359	2415.942734
1007.512416	2415.579771
1007.806438	2413.245717
1008.100425	2416.918197
1008.394376	2415.441139
1008.688292	2412.625655
1008.982172	2412.000552
1009.276017	2414.301838
1009.569827	2410.089954
1009.863602	2414.715213
1010.157341	2412.411406
1010.451045	2410.183216
1010.744714	2410.828483
1011.038347	2409.550551
1011.331945	2413.855696
1011.625508	2410.762948
1011.919036	2411.287228
1012.212528	2409.207752
1012.505986	2409.094326
1012.799408	2407.856723
1013.092795	2407.682803
1013.386147	2411.357804
1013.679464	2410.878895
1013.972745	2408.194480
1014.265992	2405.920920
1014.559204	2409.321178
1014.852380	2407.571898
1015.145521	2410.110119
1015.438628	2409.442166
1015.731699	2405.815056
1016.024736	2406.964439
1016.317737	2410.147927
1016.610703	2411.163720
1016.903635	2405.988976
1017.196531	2405.189953
1017.489393	2408.827145
1017.782219	2405.258008
1018.075011	2414.778227
1018.367768	2410.843607
1018.660490	2410.261353
1018.953177	2410.261353
1019.245829	2410.261353
