Dividing Wavelength (nm)	Counts (n)	Blue Motor Position (mm): 40.600000	Red Motor Position (mm): 0.000000	
326.493990	1970.329940
326.888308	1970.329940
327.282561	1970.329940
327.676750	1946.946547
328.070874	1948.405962
328.464933	1955.302260
328.858929	1963.887345
329.252859	1973.457976
329.646726	1991.641417
330.040528	2004.914776
330.434265	2024.721469
330.827938	2043.714016
331.221547	2064.617161
331.615091	2084.234811
332.008571	2104.495208
332.401986	2126.494803
332.795338	2145.018523
333.188625	2167.471823
333.581847	2184.132836
333.975006	2201.597913
334.368100	2219.950234
334.761129	2239.283059
335.154095	2250.620614
335.546996	2296.280865
335.939833	2380.122815
336.332606	2393.461708
336.725315	2402.437483
337.117960	2411.773700
337.510540	2419.559762
337.903056	2429.279106
338.295508	2437.738162
338.687896	2441.347629
339.080220	2450.343568
339.472480	2452.372632
339.864676	2460.289764
340.256807	2459.909157
340.648875	2466.495425
341.040879	2467.551546
341.432818	2467.299489
341.824694	2469.104222
342.216506	2467.450723
342.608253	2470.505662
342.999937	2466.147585
343.391557	2466.742441
343.783113	2464.657924
344.174605	2463.352265
344.566033	2461.212295
344.957397	2462.376802
345.348697	2458.394290
345.739934	2458.038889
346.131106	2457.628035
346.522215	2453.068311
346.913260	2450.472117
347.304241	2449.925152
347.695159	2450.593105
348.086012	2449.451283
348.476802	2448.788372
348.867528	2444.019440
349.258191	2443.182609
349.648789	2441.493822
350.039324	2442.222269
350.429796	2442.935592
350.820203	2441.239244
351.210548	2440.251178
351.600828	2437.223965
351.991045	2439.820159
352.381198	2438.970725
352.771288	2439.467278
353.161314	2436.268666
353.551276	2436.124993
353.941175	2434.421083
354.331010	2437.365117
354.720782	2437.634819
355.110490	2440.783019
355.500135	2439.016095
355.889717	2441.183791
356.279235	2436.868563
356.668689	2439.558019
357.058080	2438.711105
357.447408	2439.671445
357.836672	2436.916454
358.225873	2439.111877
358.615010	2436.427462
359.004084	2441.582042
359.393095	2442.930551
359.782043	2443.593463
360.170927	2444.097578
360.559748	2443.626230
360.948505	2443.225458
361.337199	2447.384410
361.725830	2446.615634
362.114398	2452.695266
362.502903	2449.849535
362.891344	2449.650409
363.279722	2447.064297
363.668037	2450.162086
364.056289	2449.952878
364.444478	2451.865996
364.832603	2453.088476
365.220665	2451.974381
365.608665	2454.041254
365.996601	2456.004783
366.384474	2452.481017
366.772284	2456.062757
367.160031	2454.399176
367.547715	2456.455967
367.935336	2455.311625
368.322893	2455.830864
368.710388	2459.629373
369.097820	2462.800259
369.485189	2460.632563
369.872495	2459.730196
370.259738	2459.321863
370.646918	2460.130968
371.034035	2461.232460
371.421090	2460.859415
371.808081	2462.936370
372.195010	2464.771350
372.581875	2463.551391
372.968678	2464.844447
373.355418	2462.454940
373.742096	2465.285548
374.128710	2467.027266
374.515262	2468.232102
374.901751	2468.902576
375.288177	2473.013637
375.674540	2472.759058
376.060841	2472.154120
376.447079	2469.560446
376.833254	2471.869295
377.219367	2470.107411
377.605417	2470.767803
377.991404	2470.591362
378.377329	2474.863740
378.763191	2470.593883
379.148991	2479.287353
379.534727	2478.936992
379.920402	2481.820532
380.306013	2482.725419
380.691563	2482.657364
381.077049	2481.901191
381.462474	2483.290029
381.847835	2485.755153
382.233134	2489.170535
382.618371	2484.754484
383.003545	2488.056440
383.388657	2489.001656
383.773706	2491.587768
384.158693	2495.053561
384.543618	2494.186483
384.928480	2493.778149
385.313280	2495.177069
385.698017	2497.458192
386.082692	2498.509272
386.467305	2499.209992
386.851856	2505.214007
387.236344	2500.364417
387.620770	2507.278359
388.005133	2508.321878
388.389435	2514.482168
388.773674	2513.625172
389.157851	2518.792355
389.541965	2524.388035
389.926018	2525.789476
390.310008	2533.459592
390.693936	2540.943185
391.077802	2551.290153
391.461606	2561.004456
391.845348	2572.210941
392.229027	2586.447160
392.612645	2606.009357
392.996200	2622.451081
393.379694	2645.327837
393.763125	2673.059224
394.146494	2704.216075
394.529801	2731.098028
394.913047	2772.861467
395.296230	2805.868422
395.679351	2842.943588
396.062410	2899.744789
396.445408	2934.377516
396.828343	2990.243583
397.211217	3048.688200
397.594028	3089.869386
397.976778	3165.557270
398.359466	3248.045670
398.742092	3302.411994
399.124656	3389.147566
399.507158	3485.138697
399.889598	3558.742064
400.271977	3672.755320
400.654294	3755.009307
401.036549	3878.328532
401.418742	3967.004949
401.800874	4126.365905
402.182944	4237.505703
402.564952	4430.607101
402.946898	4483.309844
403.328783	4598.895940
403.710606	4761.765538
404.092367	4950.103046
404.474067	5185.081309
404.855705	5231.759873
405.237282	5328.910469
405.618797	5607.545125
406.000250	5833.373694
406.381642	6108.091373
406.762972	6223.037242
407.144240	6264.639364
407.525447	6503.824470
407.906593	6611.168279
408.287677	6859.258584
408.668700	7077.716986
409.049661	7200.332971
409.430560	7423.716580
409.811399	7544.991618
410.192176	7771.271370
410.572891	7949.521529
410.953545	8370.077268
411.334138	8193.921708
411.714669	8693.111886
412.095139	8402.005416
412.475547	8846.819187
412.855894	8884.413592
413.236180	9224.779697
413.616405	9140.710895
413.996568	9451.805540
414.376670	9551.955623
414.756711	9582.764634
415.136691	9909.943081
415.516609	10150.469133
415.896466	10313.391664
416.276262	10641.590944
416.655997	11087.468399
417.035670	11233.891233
417.415283	11853.527178
417.794834	12040.589274
418.174324	11935.163624
418.553753	11950.849174
418.933121	12469.619193
419.312428	12409.374884
419.691674	12415.867890
420.070859	12918.531422
420.449983	12696.400540
420.829045	13270.940844
421.208047	13131.474802
421.586988	13610.765024
421.965867	13908.142690
422.344686	13977.950068
422.723444	14556.629159
423.102141	13421.583123
423.480777	14578.878291
423.859352	14179.714689
424.237866	15253.339306
424.616319	15031.757909
424.994712	15693.923549
425.373044	15542.497370
425.751314	16224.527676
426.129524	15444.734273
426.507673	16507.870769
426.885762	16264.085611
427.263789	16477.971686
427.641756	16662.924059
428.019662	16754.564674
428.397508	16814.468705
428.775292	17121.999254
429.153016	17116.932895
429.530679	17201.939352
429.908282	17243.927122
430.285824	16998.609452
430.663305	17696.209363
431.040726	17321.427301
431.418086	17171.090011
431.795385	17802.504612
432.172624	18225.175115
432.549802	17806.179613
432.926920	18000.006938
433.303977	17886.233136
433.680974	18145.479514
434.057910	18441.027241
434.434786	18472.168968
434.811601	18396.624758
435.188355	19413.180992
435.565050	19074.654909
435.941683	19038.640906
436.318257	19892.453571
436.694770	19711.531600
437.071222	20297.669079
437.447614	19385.202588
437.823946	19408.656557
438.200218	19567.195804
438.576429	19342.793882
438.952580	19621.673033
439.328670	19583.403114
439.704700	19996.757564
440.080670	19570.719571
440.456580	20154.472583
440.832429	20323.643624
441.208218	19346.516774
441.583947	19779.919893
441.959616	19885.728672
442.335224	20116.169896
442.710773	20254.713407
443.086261	20781.682862
443.461689	20147.140225
443.837057	20270.003226
444.212365	20908.185577
444.587612	20903.240205
444.962800	20498.463277
445.337927	20911.704302
445.712995	19665.299178
446.088002	21471.683233
446.462949	21661.994353
446.837837	21837.015652
447.212664	21807.913071
447.587431	24572.988477
447.962139	27458.837325
448.336786	29800.733071
448.711374	28276.162119
449.085901	24660.132383
449.460369	24586.718059
449.834776	24505.754608
450.209124	26959.329555
450.583412	26509.779620
450.957640	27023.137960
451.331808	25704.621651
451.705917	24351.215516
452.079965	24387.892431
452.453954	24731.487395
452.827883	24636.927951
453.201752	24436.201808
453.575562	24591.469347
453.949311	25693.611771
454.323001	25731.738017
454.696632	25516.052250
455.070202	27039.325105
455.443713	27193.516357
455.817164	27755.574764
456.190556	28279.166646
456.563888	27723.921359
456.937160	28156.626279
457.310373	26525.026589
457.683526	26949.690869
458.056619	26927.315708
458.429653	26878.945836
458.802628	27441.795704
459.175542	27556.265185
459.548398	28858.856489
459.921194	30403.155996
460.293930	31083.661354
460.666607	33107.374592
461.039224	34837.130588
461.411782	35200.592739
461.784280	33982.518900
462.156719	33475.214986
462.529099	32898.388518
462.901419	31624.756123
463.273680	30599.161099
463.645882	30690.837002
464.018024	30675.900063
464.390106	31497.870280
464.762130	34199.364133
465.134094	38261.674616
465.505999	43527.177452
465.877845	48097.164895
466.249631	49215.050843
466.621358	47425.199252
466.993026	45233.756743
467.364634	43150.557890
467.736184	41204.770807
468.107674	39973.562242
468.479105	39211.692661
468.850477	38516.139459
469.221790	37111.106868
469.593043	35399.882154
469.964238	34517.798698
470.335373	34423.824028
470.706449	36095.306806
471.077467	38639.834251
471.448425	43209.962847
471.819324	46075.899137
472.190164	44249.010189
472.560945	40706.241021
472.931667	37609.190512
473.302330	36536.012037
473.672934	35718.964507
474.043479	36214.061267
474.413965	35437.529491
474.784393	35071.841670
475.154761	35954.424200
475.525070	35988.565415
475.895321	35532.126743
476.265513	36121.966948
476.635645	37070.991886
477.005719	36902.156082
477.375734	37367.434417
477.745691	38055.118378
478.115588	39367.812155
478.485427	41318.824393
478.855207	44661.369012
479.224928	47302.628638
479.594591	48904.629192
479.964194	47882.678923
480.333739	47978.939755
480.703226	47993.233947
481.072653	48642.945417
481.442022	49147.340585
481.811333	49404.792312
482.180584	48112.389180
482.549777	47601.770707
482.918912	47081.725276
483.287988	46771.278419
483.657005	45934.593074
484.025964	45307.085367
484.394864	45312.769268
484.763706	44871.607813
485.132489	44006.092109
485.501213	43856.873955
485.869879	43993.708514
486.238487	43590.527112
486.607036	43799.659379
486.975527	43272.049697
487.343959	43463.280827
487.712333	43544.859299
488.080648	43451.693735
488.448905	43886.405034
488.817104	43685.499930
489.185244	44646.540458
489.553326	46304.028993
489.921350	49041.625068
490.289315	51953.163637
490.657222	52596.881174
491.025070	52879.745358
491.392861	51940.205351
491.760593	50662.202275
492.128267	48948.381366
492.495883	47413.314732
492.863440	46018.719850
493.230939	44675.388461
493.598380	43598.298051
493.965763	43264.611475
494.333088	42483.777073
494.700354	42003.909639
495.067563	41714.592778
495.434713	41588.795825
495.801805	41646.015442
496.168839	41274.379060
496.535815	40951.954422
496.902733	40984.830306
497.269593	40588.066293
497.636395	40503.465649
498.003139	40907.809037
498.369825	40375.911854
498.736453	40667.900526
499.103023	40217.536444
499.469535	40091.633627
499.835989	40179.160660
500.202385	39844.922078
500.568723	39848.702943
500.935003	40045.953211
501.301226	39856.552020
501.667390	40454.258946
502.033497	40715.463812
502.399546	40143.655814
502.765537	39470.165222
503.131470	39837.511582
503.497345	40187.765910
503.863163	38873.877380
504.228923	39484.479578
504.594625	39864.438905
504.960269	39163.733644
505.325856	39840.732879
505.691385	39230.095393
506.056856	39357.182882
506.422270	39787.667173
506.787625	39360.343685
507.152924	39553.752594
507.518164	39645.778857
507.883347	38870.920743
508.248472	39124.705031
508.613540	39581.206718
508.978550	39884.903469
509.343503	39644.274073
509.708398	39842.091470
510.073236	40347.767092
510.438016	40358.454338
510.802738	39815.587604
511.167403	40433.834712
511.532010	40642.483028
511.896561	40955.604217
512.261053	41782.736575
512.625488	41332.165806
512.989866	41200.407689
513.354186	41049.173073
513.718449	41036.912987
514.082655	41717.766185
514.446803	41391.217882
514.810894	41910.111410
515.174927	41839.298322
515.538904	41728.372772
515.902822	42400.648446
516.266684	41842.983405
516.630488	42257.668720
516.994235	42111.485341
517.357925	42672.966536
517.721558	42850.079915
518.085133	43160.816638
518.448651	43282.525215
518.812112	43067.174684
519.175516	43157.827233
519.538863	43508.812529
519.902152	43481.917973
520.265385	43930.409266
520.628560	43959.458915
520.991678	43775.187098
521.354739	44008.330381
521.717743	44313.035364
522.080690	44221.062032
522.443580	44760.543632
522.806413	44812.223020
523.169189	44762.754178
523.531908	44944.102126
523.894569	44801.356813
524.257174	44974.578421
524.619722	45279.664011
524.982213	45271.782167
525.344647	45186.662284
525.707025	45239.087763
526.069345	45647.375855
526.431608	45562.162711
526.793815	45889.126908
527.155964	45416.380103
527.518057	45586.221617
527.880093	45389.760290
528.242072	45900.502272
528.603995	45609.599968
528.965860	45614.754548
529.327669	45707.476491
529.689421	45617.118849
530.051117	45589.548779
530.412755	45730.386014
530.774337	45809.703529
531.135862	45613.942922
531.497331	45823.160889
531.858743	45721.745477
532.220098	46071.568786
532.581396	45786.998172
532.942638	45455.897708
533.303824	45758.555982
533.664953	45729.007259
534.026025	45450.959898
534.387040	45931.132322
534.747999	45878.298509
535.108902	46052.019192
535.469748	45571.211582
535.830537	45692.443770
536.191270	45881.219858
536.551947	45540.727724
536.912567	45859.752104
537.273131	45964.988712
537.633638	45455.012986
537.994089	45814.076730
538.354483	45418.867912
538.714821	45984.681979
539.075103	46338.497882
539.435328	46111.744262
539.795497	45971.179248
540.155609	45962.866386
540.515665	46432.386852
540.875665	45885.063738
541.235609	46232.288333
541.595496	46189.620006
541.955328	46867.196454
542.315102	46233.190699
542.674821	46038.642490
543.034483	46063.606284
543.394090	46028.897939
543.753640	45997.315111
544.113134	46993.449631
544.472571	46032.555297
544.831953	47252.224661
545.191278	46481.475088
545.550548	46200.365226
545.909761	46666.659354
546.268918	46863.072790
546.628019	47163.094540
546.987064	46727.614465
547.346053	46023.471137
547.704986	46898.184426
548.063863	46452.236395
548.422684	46650.862898
548.781449	46496.374218
549.140158	46896.661998
549.498811	46732.136380
549.857408	46175.557708
550.215949	47016.301182
550.574434	46958.327912
550.932864	46734.072183
551.291237	47442.056871
551.649555	47052.975576
552.007817	47293.667987
552.366022	46932.968388
552.724173	47109.194523
553.082267	47500.246910
553.440305	47813.363057
553.798288	47138.110582
554.156215	47440.673074
554.514086	47634.628948
554.871902	47387.125938
555.229661	47387.025115
555.587365	47231.313955
555.945014	47320.096236
556.302606	47248.350534
556.660143	47451.725804
557.017625	47561.559943
557.375050	47353.907255
557.732421	47697.101447
558.089735	47672.798044
558.446994	47602.758773
558.804197	48069.070545
559.161345	47991.976179
559.518437	47264.189840
559.875474	47563.485664
560.232455	47713.853201
560.589381	47878.550218
560.946251	47581.164991
561.303065	48259.190101
561.659825	48082.974047
562.016528	47751.399715
562.373177	47471.729102
562.729770	47953.539902
563.086307	47473.407807
563.442789	47910.765711
563.799216	47960.058114
564.155587	47759.289121
564.511904	47784.832647
564.868164	47866.060759
565.224370	48109.535887
565.580520	47838.329372
565.936615	48044.953665
566.292654	47781.361813
566.648638	48011.084673
567.004567	47956.529306
567.360441	48015.019293
567.716260	47851.517030
568.072023	48159.642436
568.427732	48144.476124
568.783385	47684.128037
569.138982	48078.799972
569.494525	48046.486176
569.850013	47796.999472
570.205445	47767.198691
570.560823	47725.367196
570.916145	47606.542159
571.271412	47616.130434
571.626625	47375.674957
571.981782	47415.759692
572.336884	47110.716952
572.691931	47426.026002
573.046923	47025.886936
573.401860	46884.606078
573.756743	46868.996146
574.111570	46985.126686
574.466342	46837.551948
574.821059	46951.676110
575.175722	46459.122612
575.530330	46479.030128
575.884882	46213.265538
576.239380	46163.842066
576.593823	46135.588919
576.948211	46063.233238
577.302544	45583.766575
577.656823	45604.032014
578.011047	45831.935018
578.365216	45550.976390
578.719330	45350.056163
579.073389	45198.491352
579.427394	45284.586698
579.781344	45250.808446
580.135239	44906.585859
580.489080	44978.959184
580.842866	44467.972707
581.196597	44927.584785
581.550273	44883.608279
581.903895	44730.130351
582.257463	45145.085368
582.610975	44533.895875
582.964434	44822.557386
583.317837	44454.054081
583.671186	44309.415815
584.024481	44512.536507
584.377721	44055.946600
584.730906	44332.469012
585.084037	44354.203947
585.437113	44066.417076
585.790135	44103.961070
586.143103	43703.816962
586.496016	43834.760934
586.848874	43865.098597
587.201679	43860.054923
587.554428	43351.037016
587.907124	43542.333681
588.259765	43296.527020
588.612352	43540.087847
588.964884	42925.281327
589.317362	43223.324425
589.669786	43155.510823
590.022155	42935.179633
590.374470	43362.036814
590.726731	42868.462482
591.078937	42386.576065
591.431090	42491.847961
591.783188	42135.324958
592.135232	41818.546412
592.487222	42053.996023
592.839157	42168.964577
593.191038	41825.309120
593.542866	41589.824221
593.894639	40995.754487
594.246358	41275.873762
594.598022	41237.896229
594.949633	40850.367610
595.301190	40816.266725
595.652692	40642.488069
596.004141	40972.318162
596.355535	40003.020224
596.706876	39945.765320
597.058162	39780.067634
597.409395	40247.521227
597.760573	40321.051497
598.111698	39900.949462
598.462768	39919.395044
598.813785	39970.895472
599.164748	39401.779449
599.515657	39800.204523
599.866511	39267.914129
600.217312	39892.255992
600.568060	38849.616827
600.918753	39599.455694
601.269392	39554.901977
601.619978	39198.573058
601.970510	39420.845093
602.320988	39609.132189
602.671412	39919.097616
603.021783	39652.758335
603.372100	39312.079678
603.722363	39408.857229
604.072572	39484.930761
604.422728	39505.813741
604.772830	39312.392230
605.122878	39416.045915
605.472872	39357.097182
605.822813	39630.184048
606.172701	39468.370571
606.522534	39707.316222
606.872314	39959.875509
607.222041	39716.869209
607.571714	40094.648237
607.921333	39555.390969
608.270899	39852.753511
608.620411	40185.845230
608.969870	40007.307726
609.319276	39992.579995
609.668627	40035.686901
610.017926	40523.206808
610.367171	40675.046361
610.716362	40768.925249
611.065500	40714.831148
611.414585	40907.269634
611.763616	41188.306399
612.112594	41120.366769
612.461518	41345.066119
612.810389	41647.127016
613.159207	41507.103927
613.507971	41562.556619
613.856682	42046.870352
614.205340	41933.270470
614.553945	42632.801143
614.902496	42083.350662
615.250994	42541.924262
615.599439	42630.444403
615.947830	42847.196375
616.296169	42890.356213
616.644454	43011.227959
616.992686	43172.396168
617.340864	43706.645050
617.688990	43423.085187
618.037063	44027.557342
618.385082	43987.281043
618.733048	44292.137260
619.080961	44310.262729
619.428821	44313.746166
619.776628	44432.488025
620.124382	44244.410136
620.472083	44379.177823
620.819731	44505.841854
621.167326	44180.783213
621.514868	44146.584025
621.862357	43704.099267
622.209793	43723.653903
622.557176	43411.601439
622.904506	43148.344823
623.251783	42805.725323
623.599007	42586.094852
623.946179	42371.671894
624.293297	42321.262876
624.640363	41751.345310
624.987376	41712.306615
625.334336	41482.167860
625.681243	41134.323203
626.028097	41089.522469
626.374899	40942.267844
626.721647	40919.617940
627.068343	40812.087608
627.414987	40584.666035
627.761577	40358.025840
628.108115	40695.720133
628.454600	40163.356643
628.801032	40339.169404
629.147412	40306.096914
629.493739	40305.106327
629.840014	39961.380294
630.186236	40293.153752
630.532405	39912.914641
630.878521	40129.656530
631.224585	40010.904589
631.570597	39711.540709
631.916556	39879.098581
632.262462	39809.195421
632.608316	39829.518832
632.954117	39733.507537
633.299866	39732.161549
633.645562	39650.131893
633.991206	39150.419957
634.336797	38714.042556
634.682336	38721.601767
635.027823	38463.426634
635.373257	38290.923391
635.718639	38059.015190
636.063968	37905.070955
636.409245	37336.688420
636.754470	37385.859835
637.099642	37143.672722
637.444762	36666.933323
637.789829	36817.767167
638.134845	36469.546944
638.479808	36432.547396
638.824719	36330.678279
639.169577	35935.517353
639.514383	36000.515470
639.859137	35707.276592
640.203839	35941.975071
640.548489	35575.349596
640.893086	35640.766128
641.237632	35400.381228
641.582125	35515.374988
641.926566	35451.201100
642.270955	35418.794042
642.615292	35439.321621
642.959576	35406.065129
643.303809	35393.631123
643.647990	35559.212862
643.992118	35531.342843
644.336195	35523.599631
644.680219	35612.437364
645.024192	35913.928611
645.368112	36442.193643
645.711981	36446.370239
646.055797	37321.580082
646.399562	37249.612570
646.743274	38201.778147
647.086935	38644.467072
647.430544	38525.705049
647.774101	38644.673759
648.117606	38893.540401
648.461059	39191.686842
648.804460	38805.216865
649.147810	38183.004890
649.491108	37927.118441
649.834354	37564.790549
650.177548	36737.693479
650.520690	36268.876254
650.863781	36304.411347
651.206820	36151.069529
651.549807	35715.849074
651.892742	35223.734156
652.235626	35042.194644
652.578458	34902.184158
652.921238	34293.598422
653.263967	34623.436077
653.606644	34319.172195
653.949269	34254.063172
654.291843	33869.518916
654.634365	34278.094353
654.976836	33879.210534
655.319255	33867.399111
655.661622	33857.583984
656.003938	33641.822600
656.346203	33497.305322
656.688416	33727.209663
657.030577	33514.972045
657.372687	33369.207082
657.714746	33630.416989
658.056753	33751.941564
658.398708	33199.521843
658.740612	33262.924435
659.082465	33527.809344
659.424266	33348.205635
659.766016	33477.710357
660.107715	33348.888711
660.449362	33484.515914
660.790958	33462.080259
661.132503	33491.185361
661.473996	33531.842267
661.815438	33632.292298
662.156829	33830.691949
662.498168	33581.991665
662.839456	33629.539828
663.180693	33781.359218
663.521879	33959.143070
663.863013	33892.667894
664.204097	33902.954369
664.545129	34372.447109
664.886110	34324.780479
665.227040	34390.789347
665.567918	34508.926267
665.908746	34560.663629
666.249522	34735.810957
666.590248	34742.722379
666.930922	34846.411352
667.271545	34807.823840
667.612118	34905.705404
667.952639	34672.947769
668.293109	34736.632666
668.633528	34633.437726
668.973896	34544.335332
669.314213	34568.878189
669.654480	34316.843182
669.994695	34346.399467
670.334859	34237.419803
670.674973	34132.180675
671.015035	34295.677898
671.355047	34256.697175
671.695008	34192.324161
672.034918	34105.855770
672.374777	34190.738718
672.714585	34020.012482
673.054342	34233.139863
673.394049	33984.013602
673.733705	34275.672078
674.073310	33930.300108
674.412864	34006.212323
674.752368	33616.848723
675.091820	33902.543515
675.431223	33481.738239
675.770574	33217.362487
676.109875	33070.831268
676.449125	32792.859524
676.788324	32714.562843
677.127473	32172.452282
677.466571	32090.084870
677.805619	31742.262898
678.144616	31745.053177
678.483562	31668.984686
678.822458	31350.456860
679.161303	31279.479934
679.500098	31175.778358
679.838842	31071.842369
680.177535	31217.561962
680.516179	31499.105363
680.854771	31741.078227
681.193314	32621.787969
681.531805	33777.129689
681.870247	34548.763985
682.208638	35283.857477
682.546978	35513.098907
682.885268	35588.083550
683.223508	35051.545985
683.561697	34718.146754
683.899836	34519.406826
684.237925	34008.737941
684.575963	33861.874006
684.913951	33403.227309
685.251889	33546.718712
685.589776	33536.210427
685.927614	33521.966646
686.265401	33665.145498
686.603137	33775.642549
686.940824	34283.632060
687.278460	34668.640103
687.616046	34825.508208
687.953582	35440.755829
688.291068	35291.068848
688.628504	35559.651443
688.965889	35484.240822
689.303224	35092.122232
689.640510	34733.068570
689.977745	34010.812376
690.314930	33195.569579
690.652065	32652.007165
690.989150	31911.907808
691.326185	31009.284170
691.663170	30311.258282
692.000105	29553.903055
692.336990	28845.005919
692.673825	28410.009794
693.010610	27875.075316
693.347345	27293.018652
693.684030	26642.019167
694.020665	26366.189914
694.357251	25680.305645
694.693786	25630.786391
695.030272	25397.615382
695.366707	24842.173489
695.703093	24562.293669
696.039429	24547.828078
696.375716	24291.041783
696.711952	24248.703652
697.048139	24086.053344
697.384276	23906.099275
697.720363	24036.942423
698.056400	23834.628317
698.392388	23620.079330
698.728326	23576.904367
699.064214	23366.559703
699.400053	23312.478204
699.735842	22948.587555
700.071581	22658.522083
700.407270	22379.146378
700.742910	22183.201769
701.078501	21913.308475
701.414042	21622.020523
701.749533	21320.408289
702.084974	20980.034622
702.420366	21184.846621
702.755709	20728.130685
703.091002	20430.964748
703.426246	20467.573607
703.761440	20364.348421
704.096584	20085.953220
704.431679	20041.686848
704.766725	19950.028589
705.101721	19889.663292
705.436668	19986.216512
705.771565	19659.350617
706.106413	20006.179481
706.441212	19987.285236
706.775961	20113.760225
707.110661	20187.933242
707.445311	20546.807943
707.779913	20393.335055
708.114465	20637.982251
708.448967	20915.616238
708.783421	21633.471504
709.117825	21911.012229
709.452180	22121.233386
709.786485	22529.264378
710.120742	23332.000073
710.454949	23344.965920
710.789107	23827.152286
711.123216	24518.188614
711.457275	24649.366998
711.791286	25210.240734
712.125247	25249.881848
712.459159	24939.039260
712.793023	25599.445537
713.126837	24481.325176
713.460602	24749.837195
713.794318	24371.276788
714.127985	23963.921310
714.461602	23064.720616
714.795171	23011.274303
715.128691	21994.042554
715.462162	21444.498811
715.795584	21022.350068
716.128957	20763.290213
716.462281	20348.620021
716.795556	20115.731316
717.128782	19608.939078
717.461960	19065.268280
717.795088	18989.918154
718.128167	18592.312268
718.461198	18127.717008
718.794180	17980.603536
719.127113	17619.727497
719.459997	17415.810303
719.792833	17068.522694
720.125619	17031.964247
720.458357	16715.430197
720.791046	16541.580965
721.123686	16382.688837
721.456278	16138.250849
721.788821	16098.637462
722.121315	15839.743965
722.453761	15909.722742
722.786158	15839.733883
723.118506	15844.666652
723.450805	15710.660180
723.783056	15867.613984
724.115259	15770.612102
724.447412	15699.183993
724.779518	15938.727021
725.111574	15964.711648
725.443582	16159.088458
725.775542	16141.091539
726.107453	16627.136908
726.439315	16505.347672
726.771129	16911.331956
727.102895	17286.590407
727.434612	17488.145820
727.766281	17617.080891
728.097901	17876.657465
728.429473	17909.576199
728.760996	17882.855563
729.092471	17983.330801
729.423897	17849.815841
729.755276	17711.179069
730.086606	17828.302717
730.417887	18362.062607
730.749120	18880.262975
731.080305	19045.990908
731.411442	19390.137878
731.742530	19462.430545
732.073570	19550.368432
732.404562	19846.054791
732.735506	19651.320059
733.066401	19360.377426
733.397249	18843.896091
733.728048	18195.674283
734.058798	17354.320829
734.389501	16672.361099
734.720156	16206.351796
735.050762	15668.130485
735.381320	15318.932279
735.711831	15075.631071
736.042293	14726.490838
736.372707	14737.906531
736.703073	14526.409962
737.033391	14714.134970
737.363661	14676.520400
737.693883	14785.895795
738.024056	14959.593792
738.354182	15146.799560
738.684260	15435.763540
739.014290	15657.198743
739.344272	15844.467526
739.674207	16128.229035
740.004093	16240.195583
740.333931	16229.425157
740.663722	16265.633245
740.993464	16254.209990
741.323159	16072.720890
741.652806	15802.709128
741.982405	15580.631178
742.311956	15241.616102
742.641460	15117.386948
742.970915	14809.100226
743.300323	14464.434017
743.629683	14252.403086
743.958996	13977.725736
744.288260	13710.990725
744.617477	13407.170465
744.946647	13340.160927
745.275768	13061.488463
745.604842	12876.130277
745.933869	12708.534597
746.262847	12653.034014
746.591778	12589.286103
746.920662	12475.315697
747.249498	12472.674132
747.578286	12601.730191
747.907027	12745.284609
748.235720	12965.449441
748.564365	12987.837205
748.892963	12892.171229
749.221514	12955.982154
749.550017	12804.923979
749.878473	12773.000873
750.206881	12540.467569
750.535242	12453.487501
750.863555	12365.035415
751.191821	12257.759661
751.520039	12285.536419
751.848210	12189.734331
752.176334	12221.833878
752.504411	12133.462452
752.832440	11965.395423
753.160421	12030.159127
753.488356	11905.199005
753.816243	11813.689460
754.144082	11669.368787
754.471875	11609.552976
754.799620	11559.766541
755.127318	11526.452076
755.454969	11488.787095
755.782572	11441.317070
756.110129	11453.292331
756.437638	11371.139167
756.765100	11363.602642
757.092515	11367.774197
757.419882	11379.041176
757.747203	11384.384799
758.074477	11463.256171
758.401703	11418.919223
758.728882	11577.004767
759.056014	11619.965480
759.383099	11729.860113
759.710138	11838.431443
760.037129	11916.897003
760.364073	11933.116915
760.690970	11925.051069
761.017820	11923.989906
761.344623	12108.750715
761.671379	12430.560333
761.998088	13076.687542
762.324751	14642.081758
762.651366	17541.375363
762.977935	21219.549924
763.304456	23450.653711
763.630931	23924.774230
763.957359	22727.664029
764.283740	20777.337388
764.610074	18898.582528
764.936362	16752.568377
765.262602	15225.527260
765.588796	13748.106220
765.914943	12715.955176
766.241044	11852.650018
766.567097	11225.890922
766.893104	10671.565645
767.219064	10309.903186
767.544978	9926.588971
767.870845	9609.187842
768.196665	9420.651209
768.522438	9224.777176
768.848165	9056.647134
769.173846	8891.161176
769.499479	8764.807176
769.825066	8610.741952
770.150607	8430.762678
770.476101	8363.135599
770.801548	8254.851614
771.126949	8110.180581
771.452303	8022.847632
771.777611	7858.443002
772.102872	7836.118253
772.428087	7718.372022
772.753256	7595.758558
773.078378	7501.514187
773.403453	7356.608740
773.728482	7255.258862
774.053465	7192.214192
774.378401	7103.426870
774.703291	7013.046543
775.028135	6912.203302
775.352932	6878.540997
775.677683	6789.368027
776.002388	6706.786365
776.327046	6704.122115
776.651658	6616.196830
776.976224	6540.675305
777.300743	6523.303488
777.625216	6455.532737
777.949643	6411.092445
778.274024	6417.056130
778.598359	6350.548187
778.922647	6350.974165
779.246889	6314.599719
779.571086	6316.243135
779.895236	6332.480692
780.219339	6322.572304
780.543397	6325.700340
780.867409	6377.583895
781.191374	6369.855807
781.515294	6342.593247
781.839167	6391.285752
782.162995	6368.671135
782.486776	6312.185007
782.810511	6273.350478
783.134201	6192.180339
783.457844	6181.064595
783.781441	6131.436956
784.104993	6092.143682
784.428498	6063.330968
784.751958	6042.450508
785.075372	6020.574421
785.398739	5981.167722
785.722061	6001.405434
786.045337	6001.113047
786.368568	6116.840295
786.691752	6140.170755
787.014891	6386.670575
787.337983	6667.840931
787.661030	7113.849456
787.984031	7537.689507
788.306987	7802.952501
788.629897	7886.572641
788.952760	7805.984755
789.275579	7619.320911
789.598351	7315.057029
789.921078	7053.816875
790.243759	6768.787516
790.566395	6568.013482
790.888984	6376.464759
791.211529	6225.809877
791.534027	6069.143418
791.856480	5932.818015
792.178888	5866.718406
792.501249	5806.585002
792.823566	5700.919897
793.145836	5695.286407
793.468062	5675.144477
793.790241	5630.235358
794.112375	5676.626577
794.434464	5773.792296
794.756507	5802.126102
795.078505	5930.602428
795.400457	6146.567979
795.722364	6388.311471
796.044226	6583.827582
796.366042	6737.544965
796.687812	6684.857346
797.009538	6713.564196
797.331218	6623.889631
797.652852	6552.920267
797.974442	6426.193221
798.295986	6359.168560
798.617484	6229.709209
798.938938	6123.373630
799.260346	6051.254883
799.581709	5910.798255
799.903026	5858.748342
800.224299	5785.840654
800.545526	5670.988046
800.866708	5605.266523
801.187845	5553.720725
801.508936	5476.097038
801.829983	5448.375733
802.150984	5341.442778
802.471940	5316.983099
802.792851	5298.701355
803.113717	5271.985760
803.434538	5249.774436
803.755314	5216.767482
804.076045	5204.827509
804.396731	5168.768135
804.717372	5188.940312
805.037967	5188.325292
805.358518	5218.582297
805.679024	5279.088746
805.999485	5285.707781
806.319901	5306.767201
806.640272	5323.113143
806.960598	5369.887488
807.280879	5359.081775
807.601115	5402.118106
807.921306	5364.228793
808.241453	5351.588100
808.561554	5365.602508
808.881611	5330.667312
809.201623	5326.316796
809.521590	5280.326349
809.841513	5260.532259
810.161390	5279.429024
810.481223	5191.390313
810.801011	5177.441440
811.120755	5149.498325
811.440453	5097.690387
811.760107	5069.953958
812.079716	5041.872211
812.399281	4988.688038
812.718801	4984.781143
813.038276	4949.901400
813.357707	4911.026542
813.677093	4943.410914
813.996434	4874.495821
814.315731	4895.441815
814.634983	4892.333943
814.954191	4898.219491
815.273354	4957.256443
815.592473	5002.475593
815.911547	5072.855142
816.230577	5128.406137
816.549562	5217.720260
816.868502	5270.498620
817.187399	5321.895704
817.506250	5405.755298
817.825058	5435.823260
818.143821	5589.696920
818.462539	5761.121356
818.781213	5985.664431
819.099843	6355.929619
819.418429	6988.019735
819.736970	7612.623738
820.055466	8329.624529
820.373919	9250.832380
820.692327	10712.514937
821.010691	13430.707612
821.329011	19706.588749
821.647286	29320.888321
821.965517	39699.837670
822.283704	45168.955231
822.601847	46638.166752
822.919945	42014.720393
823.237999	36869.146607
823.556010	31653.664619
823.873976	26930.216892
824.191897	22700.451880
824.509775	19609.428070
824.827609	16839.016604
825.145398	15273.279590
825.463144	14517.469476
825.780845	14814.935361
826.098502	16093.306442
826.416116	18569.364935
826.733685	20875.687779
827.051210	21393.454608
827.368692	19957.751637
827.686129	17370.182820
828.003522	14869.604154
828.320872	12630.616003
828.638177	10976.081584
828.955439	9722.243279
829.272656	8657.745671
829.589830	7812.233266
829.906960	7074.049546
830.224046	6536.135746
830.541088	6122.330112
830.858086	5867.792172
831.175041	5666.451007
831.491952	5607.827429
831.808819	5638.762470
832.125642	5886.061313
832.442421	6443.476817
832.759157	7563.164978
833.075849	9346.513480
833.392497	11206.059023
833.709101	12325.545537
834.025662	12062.261195
834.342179	11006.545277
834.658653	9691.525008
834.975083	8579.587622
835.291469	7672.066503
835.607811	6923.150168
835.924110	6400.122894
836.240366	5910.311784
836.556578	5453.580725
836.872746	5102.429071
837.188871	4829.727854
837.504952	4602.732258
837.820990	4434.662709
838.136984	4324.886543
838.452935	4272.919809
838.768842	4302.846618
839.084706	4588.269187
839.400526	5337.964382
839.716303	6242.216312
840.032037	6812.769063
840.347727	6664.438152
840.663373	6054.488784
840.978977	5477.049816
841.294537	5029.891908
841.610054	4696.870765
841.925527	4456.896718
842.240957	4250.738732
842.556344	4064.238725
842.871687	3906.992533
843.186987	3757.149276
843.502244	3635.455822
843.817458	3547.722102
844.132629	3477.869353
844.447756	3428.501334
844.762840	3381.968963
845.077881	3344.417408
845.392879	3307.097746
845.707833	3287.391876
846.022745	3258.896754
846.337613	3245.953591
846.652438	3223.003738
846.967221	3213.085268
847.281960	3192.971064
847.596656	3182.540917
847.911309	3171.566325
848.225919	3156.964623
848.540485	3149.143273
848.855009	3144.207983
849.169490	3130.594347
849.483928	3123.541773
849.798323	3117.504991
850.112675	3103.485542
850.426984	3108.725822
850.741251	3100.125613
851.055474	3099.079574
851.369654	3099.109821
851.683792	3095.848194
851.997887	3096.289295
852.311938	3097.983123
852.625947	3099.613936
852.939914	3090.733944
853.253837	3096.639655
853.567718	3097.393308
853.881555	3089.216556
854.195350	3093.826692
854.509103	3093.229315
854.822812	3089.808892
855.136479	3085.314703
855.450103	3092.132864
855.763685	3083.749425
856.077224	3084.742532
856.390720	3091.515322
856.704173	3101.711056
857.017584	3108.569546
857.330953	3114.288735
857.644278	3123.889612
857.957561	3123.831639
858.270802	3123.083028
858.584000	3121.111937
858.897155	3117.260495
859.210268	3105.383537
859.523339	3093.478852
859.836367	3089.864345
860.149352	3085.460897
860.462295	3081.034764
860.775195	3071.837178
861.088054	3066.004563
861.400869	3068.404153
861.713642	3066.848957
862.026373	3075.267684
862.339062	3081.947212
862.651708	3088.906525
862.964312	3106.366562
863.276873	3115.012141
863.589392	3144.278559
863.901869	3172.370389
864.214303	3192.257741
864.526696	3209.730380
864.839045	3230.560428
865.151353	3239.503435
865.463619	3237.867580
865.775842	3242.432345
866.088023	3247.914600
866.400162	3239.705081
866.712258	3240.491501
867.024313	3241.219948
867.336325	3240.864546
867.648296	3244.209352
867.960224	3236.166191
868.272110	3242.659197
868.583954	3241.524937
868.895755	3254.047164
869.207515	3247.639857
869.519233	3265.404883
869.830909	3272.122221
870.142542	3281.060187
870.454134	3289.181485
870.765684	3303.412663
871.077191	3318.460507
871.388657	3330.561797
871.700081	3351.706917
872.011463	3369.950852
872.322803	3393.001528
872.634101	3410.804363
872.945357	3428.728186
873.256571	3458.768421
873.567744	3472.956749
873.878874	3478.461689
874.189963	3495.636900
874.501010	3496.647651
874.812015	3492.765963
875.122979	3511.511493
875.433900	3503.422962
875.744780	3510.634333
876.055618	3516.991228
876.366415	3516.930734
876.677169	3522.594470
876.987882	3541.418139
877.298554	3556.077814
877.609183	3598.224381
877.919771	3646.352277
878.230317	3716.971280
878.540822	3820.992969
878.851285	3973.971824
879.161707	4200.007080
879.472087	4581.365327
879.782425	5214.899734
880.092722	6405.113637
880.402977	8365.225157
880.713191	10756.055383
881.023363	13163.871777
881.333494	14505.146375
881.643583	14958.688904
881.953631	14563.142330
882.263637	13706.252040
882.573602	12663.673369
882.883526	11702.897502
883.193408	10732.135108
883.503248	9810.828955
883.813048	8968.179925
884.122806	8204.193059
884.432522	7429.413084
884.742197	6758.485918
885.051831	6193.662438
885.361424	5690.706519
885.670975	5291.855468
885.980485	4963.381445
886.289954	4692.164848
886.599382	4472.065550
886.908768	4293.066780
887.218113	4131.119713
887.527417	3994.196933
887.836680	3871.149929
888.145901	3769.041358
888.455082	3688.849203
888.764221	3622.157259
889.073319	3562.359092
889.382376	3527.466745
889.691392	3504.927747
890.000366	3497.197137
890.309300	3492.975171
890.618193	3496.229236
890.927044	3489.562310
891.235855	3493.010459
891.544625	3507.881863
891.853353	3542.038201
892.162041	3602.743775
892.470687	3693.121581
892.779293	3815.334274
893.087858	3988.339112
893.396381	4269.607771
893.704864	4692.111916
894.013306	5267.294967
894.321707	5845.578327
894.630068	6210.426796
894.938387	6246.576910
895.246665	6066.237193
895.554903	5744.556125
895.863100	5405.911574
896.171256	5132.665912
896.479371	4885.031832
896.787446	4658.101771
897.095480	4459.863437
897.403473	4309.316939
897.711425	4159.680370
898.019336	4042.153430
898.327207	3913.359511
898.635038	3811.654232
898.942827	3705.830330
899.250576	3614.282976
899.558284	3533.783311
899.865952	3476.104949
900.173579	3410.174219
900.481165	3366.386757
900.788711	3320.320693
901.096216	3288.632000
901.403681	3260.477155
901.711105	3253.507760
902.018489	3246.475351
902.325832	3279.308386
902.633135	3340.361800
902.940397	3511.824045
903.247619	3925.266716
903.554800	4689.598900
903.861941	5667.103837
904.169041	6375.456528
904.476101	6590.131544
904.783121	6312.058978
905.090100	5896.703189
905.397039	5482.779088
905.703938	5119.148058
906.010796	4793.562616
906.317614	4536.471332
906.624391	4296.363695
906.931129	4093.404320
907.237826	3911.416146
907.544483	3739.006164
907.851099	3565.582910
908.157675	3403.459402
908.464211	3260.751898
908.770707	3159.586023
909.077163	3080.732294
909.383578	3016.515556
909.689954	2971.319091
909.996289	2941.210800
910.302584	2920.836977
910.608839	2907.309040
910.915054	2895.772360
911.221229	2891.568038
911.527363	2894.585168
911.833458	2902.464492
912.139513	2916.425967
912.445527	2928.852411
912.751502	2962.802062
913.057436	3008.548013
913.363331	3067.862229
913.669186	3154.045795
913.975000	3274.443672
914.280775	3463.653299
914.586510	3737.327459
914.892205	4120.256026
915.197859	4627.673367
915.503475	5219.588007
915.809050	5718.163164
916.114585	6012.158215
916.420081	6075.598615
916.725536	6007.293501
917.030952	5765.771821
917.336328	5558.610644
917.641665	5342.692984
917.946961	5114.331235
918.252218	4912.332201
918.557435	4678.767981
918.862612	4476.569821
919.167750	4305.445333
919.472848	4110.521558
919.777906	3940.831278
920.082925	3780.754479
920.387904	3625.212198
920.692843	3512.948222
920.997743	3409.649939
921.302603	3318.213490
921.607423	3250.659508
921.912204	3183.264322
922.216946	3133.944194
922.521647	3084.755135
922.826310	3039.944319
923.130932	3003.915192
923.435516	2962.575210
923.740059	2937.006478
924.044564	2907.750141
924.349028	2878.524052
924.653454	2848.803929
924.957840	2822.932728
925.262186	2802.145530
925.566493	2782.495112
925.870761	2754.615011
926.174989	2744.779720
926.479178	2727.828840
926.783328	2715.107488
927.087438	2701.753472
927.391509	2690.342820
927.695541	2676.262877
927.999533	2666.687206
928.303486	2657.592964
928.607400	2653.428971
928.911275	2647.871099
929.215110	2639.916158
929.518906	2637.108235
929.822663	2639.258287
930.126381	2635.169912
930.430060	2636.868781
930.733699	2641.000006
931.037299	2646.993938
931.340861	2644.707775
931.644383	2649.010400
931.947866	2648.687766
932.251309	2643.654174
932.554714	2645.758855
932.858080	2642.792136
933.161407	2637.904738
933.464694	2634.254942
933.767943	2629.521299
934.071153	2624.954013
934.374323	2622.113323
934.677455	2617.442694
934.980548	2617.601491
935.283602	2616.154679
935.586617	2611.663011
935.889593	2615.524535
936.192530	2617.011676
936.495428	2622.083076
936.798287	2631.242853
937.101108	2646.557878
937.403890	2668.053358
937.706632	2696.682071
938.009336	2727.808675
938.312002	2757.617018
938.614628	2781.587705
938.917216	2802.891621
939.219765	2812.696665
939.522275	2820.487768
939.824747	2821.732933
940.127179	2815.171872
940.429573	2809.583752
940.731929	2810.281952
941.034246	2799.093111
941.336524	2798.127730
941.638763	2790.865948
941.940964	2784.476286
942.243126	2765.634973
942.545250	2758.554673
942.847335	2740.623288
943.149381	2730.495610
943.451389	2716.239227
943.753359	2702.431507
944.055290	2692.873479
944.357182	2685.911646
944.659036	2680.777231
944.960851	2675.489060
945.262628	2672.308092
945.564367	2672.270283
945.866067	2668.333142
946.167729	2671.360355
946.469352	2669.933709
946.770937	2667.435817
947.072484	2659.369971
947.373992	2661.333500
947.675462	2656.302429
947.976893	2651.316727
948.278286	2645.640388
948.579641	2640.649646
948.880958	2640.634523
949.182236	2639.822897
949.483476	2636.533544
949.784678	2636.435241
950.085841	2636.916672
950.386967	2641.181488
950.688054	2647.215749
950.989103	2655.624393
951.290114	2663.571772
951.591087	2676.149451
951.892021	2687.325689
952.192917	2700.165508
952.493776	2711.739997
952.794596	2712.851572
953.095378	2715.379711
953.396122	2712.796119
953.696828	2711.538351
953.997496	2702.986034
954.298126	2695.507482
954.598718	2688.475072
954.899272	2674.836231
955.199788	2668.136537
955.500266	2652.332520
955.800706	2636.478091
956.101108	2617.384721
956.401472	2608.227465
956.701798	2596.020311
957.002087	2578.489698
957.302337	2569.584500
957.602550	2560.084446
957.902724	2548.845193
958.202861	2539.655170
958.502960	2531.080167
958.803022	2526.147398
959.103045	2513.121057
959.403031	2508.606703
959.702979	2500.054386
960.002889	2499.164622
960.302762	2494.788901
960.602596	2489.929228
960.902393	2488.623569
961.202153	2486.992756
961.501875	2480.333392
961.801559	2479.297435
962.101205	2474.800726
962.400814	2476.557568
962.700385	2473.737042
962.999918	2471.778554
963.299414	2469.280662
963.598873	2467.934674
963.898293	2466.145064
964.197677	2464.657924
964.497022	2462.984261
964.796331	2461.933180
965.095601	2459.400001
965.394835	2460.640124
965.694030	2461.673561
965.993189	2462.205403
966.292309	2459.336986
966.591393	2458.028807
966.890439	2458.152315
967.189447	2458.205247
967.488419	2458.192644
967.787353	2456.723148
968.086249	2456.017386
968.385108	2460.486369
968.683930	2458.169959
968.982714	2461.484518
969.281462	2462.336473
969.580172	2465.751854
969.878844	2468.393419
970.177480	2470.755200
970.476078	2470.772844
970.774639	2474.682258
971.073162	2479.693165
971.371649	2478.112764
971.670098	2478.448000
971.968510	2480.439256
972.266885	2480.265336
972.565223	2484.434371
972.863524	2487.423775
973.161788	2489.649444
973.460014	2486.604587
973.758204	2488.497541
974.056356	2489.919146
974.354471	2490.503920
974.652550	2490.440905
974.950591	2490.566934
975.248595	2487.713641
975.546563	2488.996615
975.844493	2485.939155
976.142386	2485.077118
976.440243	2477.739718
976.738062	2482.657364
977.035845	2477.253247
977.333590	2475.168730
977.631299	2474.016826
977.928971	2472.126393
978.226606	2466.187914
978.524204	2472.196970
978.821765	2468.733697
979.119290	2464.642801
979.416777	2466.709674
979.714228	2469.517596
980.011642	2468.584983
980.309020	2473.663945
980.606360	2477.225521
980.903664	2486.027375
981.200931	2498.675630
981.498162	2517.781603
981.795356	2546.465769
982.092513	2587.389856
982.389633	2633.226547
982.686717	2676.908145
982.983764	2709.660522
983.280775	2728.650548
983.577749	2726.976885
983.874686	2718.704352
984.171587	2699.941177
984.468451	2683.375945
984.765279	2667.665189
985.062070	2648.476037
985.358824	2628.719755
985.655543	2605.391816
985.952224	2582.525142
986.248869	2557.697459
986.545478	2528.153777
986.842050	2508.072341
987.138586	2484.270533
987.435086	2475.609831
987.731549	2463.473253
988.027975	2458.172480
988.324366	2452.269288
988.620719	2449.673094
988.917037	2443.817794
989.213318	2440.475509
989.509563	2440.646908
989.805772	2437.407967
990.101944	2436.485436
990.398080	2435.381423
990.694180	2436.460230
990.990244	2435.351176
991.286271	2432.661721
991.582262	2434.393357
991.878217	2437.438214
992.174136	2435.426793
992.470019	2438.731270
992.765865	2437.854109
993.061676	2440.656991
993.357450	2447.339040
993.653188	2445.889708
993.948890	2451.109823
994.244556	2459.331945
994.540186	2468.400981
994.835780	2479.486478
995.131337	2495.403921
995.426859	2510.451766
995.722345	2531.317101
996.017795	2551.078424
996.313208	2566.232133
996.608586	2576.924420
996.903928	2579.681931
997.199234	2577.662949
997.494504	2576.044739
997.789738	2564.124931
998.084936	2558.395659
998.380099	2547.138763
998.675225	2534.044366
998.970316	2519.777900
999.265371	2506.877587
999.560390	2490.196409
999.855373	2482.291880
1000.150320	2470.482977
1000.445232	2459.339507
1000.740108	2456.357664
1001.034948	2446.056066
1001.329752	2442.045828
1001.624521	2440.334357
1001.919254	2431.456885
1002.213951	2431.396391
1002.508613	2429.453026
1002.803239	2427.733993
1003.097829	2420.535225
1003.392384	2427.381112
1003.686903	2419.186716
1003.981386	2423.622932
1004.275834	2422.763415
1004.570246	2420.625966
1004.864623	2418.085224
1005.158964	2416.300656
1005.453270	2416.746798
1005.747540	2419.257292
1006.041775	2414.621952
1006.335974	2417.092117
1006.630138	2413.480130
1006.924266	2416.562796
1007.218359	2414.896694
1007.512416	2415.693197
1007.806438	2416.303176
1008.100425	2415.103382
1008.394376	2414.122877
1008.688292	2415.955337
1008.982172	2412.093813
1009.276017	2412.658422
1009.569827	2414.080028
1009.863602	2415.453742
1010.157341	2411.902249
1010.451045	2413.601118
1010.744714	2410.261353
1011.038347	2411.196488
1011.331945	2411.403175
1011.625508	2409.671538
1011.919036	2411.589697
1012.212528	2408.398647
1012.505986	2411.723288
1012.799408	2406.906466
1013.092795	2407.665159
1013.386147	2408.985942
1013.679464	2409.280849
1013.972745	2410.896539
1014.265992	2410.647002
1014.559204	2412.010634
1014.852380	2408.055849
1015.145521	2407.261867
1015.438628	2407.433266
1015.731699	2410.319327
1016.024736	2410.473082
1016.317737	2410.268915
1016.610703	2409.611045
1016.903635	2408.355797
1017.196531	2408.149110
1017.489393	2407.670200
1017.782219	2407.549213
1018.075011	2411.546848
1018.367768	2410.694893
1018.660490	2413.754873
1018.953177	2413.754873
1019.245829	2413.754873
