Dividing Wavelength (nm)	Counts (n)	Blue Motor Position (mm): 5.200000	Red Motor Position (mm): 0.000000	
326.493990	1978.625158
326.888308	1978.625158
327.282561	1978.625158
327.676750	1956.534822
328.070874	1954.306632
328.464933	1960.837447
328.858929	1971.282718
329.252859	1985.057671
329.646726	1999.210710
330.040528	2011.768224
330.434265	2030.312109
330.827938	2050.706097
331.221547	2070.396843
331.615091	2091.960379
332.008571	2114.887547
332.401986	2130.931019
332.795338	2153.132260
333.188625	2173.017092
333.581847	2194.671368
333.975006	2211.806250
334.368100	2226.833930
334.761129	2245.224059
335.154095	2260.551687
335.546996	2275.695313
335.939833	2290.697787
336.332606	2300.722122
336.725315	2312.321817
337.117960	2323.067036
337.510540	2329.030721
337.903056	2339.382730
338.295508	2344.494460
338.687896	2350.876561
339.080220	2356.310925
339.472480	2362.254445
339.864676	2365.475743
340.256807	2372.805580
340.648875	2371.109232
341.040879	2370.945395
341.432818	2372.591331
341.824694	2374.080992
342.216506	2375.472351
342.608253	2375.048894
342.999937	2373.453369
343.391557	2371.565457
343.783113	2370.348018
344.174605	2370.559746
344.566033	2366.723428
344.957397	2365.483304
345.348697	2360.895854
345.739934	2364.643952
346.131106	2360.810155
346.522215	2359.688498
346.913260	2357.674557
347.304241	2355.451408
347.695159	2354.450739
348.086012	2353.145080
348.476802	2350.004442
348.867528	2349.086952
349.258191	2349.296159
349.648789	2346.863803
350.039324	2346.165603
350.429796	2347.970336
350.820203	2344.922958
351.210548	2345.031343
351.600828	2344.708709
351.991045	2343.224090
352.381198	2341.709223
352.771288	2345.966477
353.161314	2343.100581
353.551276	2344.479337
353.941175	2343.193843
354.331010	2345.222907
354.720782	2341.913390
355.110490	2342.883812
355.500135	2342.551096
355.889717	2345.427074
356.279235	2344.191991
356.668689	2344.219718
357.058080	2347.768690
357.447408	2340.063286
357.836672	2341.552947
358.225873	2341.207628
358.615010	2340.801815
359.004084	2348.381190
359.393095	2346.894050
359.782043	2348.976046
360.170927	2349.152487
360.559748	2348.260202
360.948505	2346.510922
361.337199	2350.082579
361.725830	2350.470748
362.114398	2351.287415
362.502903	2348.633248
362.891344	2351.370594
363.279722	2351.209277
363.668037	2350.773218
364.056289	2351.652899
364.444478	2351.446212
364.832603	2353.369412
365.220665	2354.410410
365.608665	2355.718589
365.996601	2354.007118
366.384474	2351.950327
366.772284	2355.169104
367.160031	2351.131139
367.547715	2355.748836
367.935336	2354.627180
368.322893	2353.782786
368.710388	2355.206912
369.097820	2358.181193
369.485189	2356.401666
369.872495	2358.077849
370.259738	2355.627849
370.646918	2359.166739
371.034035	2358.032479
371.421090	2359.126409
371.808081	2356.933508
372.195010	2356.762108
372.581875	2358.710514
372.968678	2359.305370
373.355418	2357.233456
373.742096	2359.779239
374.128710	2361.440299
374.515262	2356.812520
374.901751	2358.695391
375.288177	2359.118848
375.674540	2360.633714
376.060841	2359.817048
376.447079	2359.978364
376.833254	2359.607840
377.219367	2354.508713
377.605417	2359.517099
377.991404	2358.617253
378.377329	2359.075998
378.763191	2357.402335
379.148991	2361.465505
379.534727	2360.989116
379.920402	2362.491380
380.306013	2362.642614
380.691563	2362.935001
381.077049	2361.868797
381.462474	2361.762933
381.847835	2363.678571
382.233134	2363.237470
382.618371	2363.870135
383.003545	2364.459950
383.388657	2362.430886
383.773706	2364.470033
384.158693	2364.351565
384.543618	2365.937008
384.928480	2363.481966
385.313280	2365.160671
385.698017	2364.391895
386.082692	2366.824251
386.467305	2367.323326
386.851856	2365.783253
387.236344	2365.352234
387.620770	2365.087574
388.005133	2365.407687
388.389435	2369.002030
388.773674	2367.257791
389.157851	2370.874818
389.541965	2367.358614
389.926018	2366.279807
390.310008	2364.913654
390.693936	2366.239477
391.077802	2368.535723
391.461606	2371.041177
391.845348	2366.564632
392.229027	2365.753006
392.612645	2368.608820
392.996200	2370.317771
393.379694	2369.271732
393.763125	2368.734849
394.146494	2370.353059
394.529801	2368.581093
394.913047	2367.714015
395.296230	2372.523276
395.679351	2370.088398
396.062410	2370.443800
396.445408	2372.848430
396.828343	2371.852802
397.211217	2366.768799
397.594028	2368.311392
397.976778	2368.576052
398.359466	2369.811135
398.742092	2370.710981
399.124656	2370.935312
399.507158	2369.450693
399.889598	2373.735673
400.271977	2373.281969
400.654294	2373.072762
401.036549	2372.293903
401.418742	2372.777854
401.800874	2375.361445
402.182944	2373.985210
402.564952	2372.170395
402.946898	2373.823893
403.328783	2372.586290
403.710606	2374.527134
404.092367	2373.894470
404.474067	2374.970756
404.855705	2374.945550
405.237282	2378.421426
405.618797	2374.796836
406.000250	2374.348173
406.381642	2374.252392
406.762972	2375.081661
407.144240	2373.627288
407.525447	2376.551158
407.906593	2376.135263
408.287677	2376.178112
408.668700	2378.187012
409.049661	2378.948226
409.430560	2376.667104
409.811399	2378.431508
410.192176	2375.855478
410.572891	2377.718185
410.953545	2375.545448
411.334138	2379.943854
411.714669	2378.292876
412.095139	2375.116949
412.475547	2379.112064
412.855894	2377.665253
413.236180	2379.006200
413.616405	2378.159286
413.996568	2377.970243
414.376670	2379.548124
414.756711	2379.696838
415.136691	2379.522918
415.516609	2378.683566
415.896466	2380.468134
416.276262	2379.394368
416.655997	2377.161137
417.035670	2374.174254
417.415283	2379.953937
417.794834	2373.077803
418.174324	2382.910573
418.553753	2380.107692
418.933121	2380.677342
419.312428	2377.637526
419.691674	2380.049718
420.070859	2380.836138
420.449983	2382.051057
420.829045	2381.622558
421.208047	2381.045346
421.586988	2382.829915
421.965867	2383.432333
422.344686	2379.205325
422.723444	2381.509133
423.102141	2382.030892
423.480777	2381.859493
423.859352	2383.031561
424.237866	2382.605583
424.616319	2382.971067
424.994712	2382.177085
425.373044	2380.510984
425.751314	2384.808568
426.129524	2382.262785
426.507673	2382.817312
426.885762	2382.587939
427.263789	2381.539379
427.641756	2382.212373
428.019662	2383.994421
428.397508	2383.107178
428.775292	2385.950389
429.153016	2383.271016
429.530679	2384.306973
429.908282	2383.646582
430.285824	2385.126160
430.663305	2384.743033
431.040726	2383.331510
431.418086	2382.943341
431.795385	2383.833104
432.172624	2384.425440
432.549802	2382.847559
432.926920	2384.594319
433.303977	2384.760677
433.680974	2383.954092
434.057910	2384.901829
434.434786	2382.393855
434.811601	2386.756974
435.188355	2382.779503
435.565050	2384.659854
435.941683	2385.519370
436.318257	2382.303114
436.694770	2378.723895
437.071222	2382.981149
437.447614	2380.818494
437.823946	2382.691283
438.200218	2385.277395
438.576429	2386.517519
438.952580	2384.634648
439.328670	2385.405944
439.704700	2385.650440
440.080670	2383.102137
440.456580	2385.645399
440.832429	2386.149515
441.208218	2385.574823
441.583947	2386.973743
441.959616	2386.540204
442.335224	2389.068343
442.710773	2385.652961
443.086261	2386.250338
443.461689	2385.796634
443.837057	2385.577344
444.212365	2387.563558
444.587612	2389.695966
444.962800	2386.005842
445.337927	2387.079608
445.712995	2388.773435
446.088002	2389.285112
446.462949	2388.339896
446.837837	2386.434340
447.212664	2385.249669
447.587431	2390.265617
447.962139	2386.552807
448.336786	2387.545914
448.711374	2386.504916
449.085901	2388.735627
449.460369	2387.467776
449.834776	2387.825698
450.209124	2386.852756
450.583412	2391.281409
450.957640	2388.533980
451.331808	2389.660678
451.705917	2388.997767
452.079965	2390.883158
452.453954	2391.999774
452.827883	2386.802344
453.201752	2390.973899
453.575562	2390.525236
453.949311	2388.286964
454.323001	2390.517674
454.696632	2390.978940
455.070202	2391.735113
455.443713	2391.944321
455.817164	2385.932745
456.190556	2385.441233
456.563888	2384.543907
456.937160	2385.897457
457.310373	2390.227808
457.683526	2391.909033
458.056619	2387.883672
458.429653	2389.524567
458.802628	2390.820144
459.175542	2392.342572
459.548398	2389.028013
459.921194	2389.733775
460.293930	2391.125133
460.666607	2392.234187
461.039224	2391.223436
461.411782	2390.832747
461.784280	2392.201420
462.156719	2393.396173
462.529099	2391.919115
462.901419	2392.400545
463.273680	2394.512789
463.645882	2391.014228
464.018024	2390.963817
464.390106	2392.503889
464.762130	2391.946842
465.134094	2393.756616
465.505999	2388.294526
465.877845	2390.847870
466.249631	2391.795607
466.621358	2390.235370
466.993026	2393.277706
467.364634	2393.159239
467.736184	2390.709238
468.107674	2390.517674
468.479105	2395.266441
468.850477	2392.269475
469.221790	2393.431461
469.593043	2389.522047
469.964238	2393.169321
470.335373	2393.131513
470.706449	2393.169321
471.077467	2392.670247
471.448425	2391.253683
471.819324	2393.381050
472.190164	2394.119579
472.560945	2392.665206
472.931667	2392.723179
473.302330	2390.404248
473.672934	2396.216699
474.043479	2392.960113
474.413965	2393.171842
474.784393	2388.241593
475.154761	2391.659496
475.525070	2389.166645
475.895321	2390.222767
476.265513	2390.225288
476.635645	2396.645197
477.005719	2392.413148
477.375734	2394.049003
477.745691	2394.101935
478.115588	2394.999260
478.485427	2395.841133
478.855207	2395.987326
479.224928	2392.914743
479.594591	2392.589589
479.964194	2394.563200
480.333739	2395.735269
480.703226	2395.949518
481.072653	2392.594630
481.442022	2394.154867
481.811333	2396.562018
482.180584	2394.941287
482.549777	2395.601678
482.918912	2393.630587
483.287988	2395.631925
483.657005	2394.742161
484.025964	2394.144785
484.394864	2397.177039
484.763706	2393.381050
485.132489	2396.935063
485.501213	2398.170146
485.869879	2395.009343
486.238487	2397.406411
486.607036	2396.753582
486.975527	2396.488921
487.343959	2394.636297
487.712333	2398.596123
488.080648	2396.138561
488.448905	2396.869528
488.817104	2393.895248
489.185244	2396.400701
489.553326	2395.881462
489.921350	2396.985475
490.289315	2395.977244
490.657222	2395.279044
491.025070	2395.941956
491.392861	2397.971020
491.760593	2396.219219
492.128267	2395.405073
492.495883	2396.037738
492.863440	2397.618140
493.230939	2396.234343
493.598380	2394.810217
493.965763	2392.294681
494.333088	2394.459857
494.700354	2390.973899
495.067563	2394.903478
495.434713	2391.561193
495.801805	2396.199055
496.168839	2395.447923
496.535815	2395.072357
496.902733	2394.328787
497.269593	2397.834909
497.636395	2397.038407
498.003139	2395.420197
498.369825	2397.638304
498.736453	2395.659651
499.103023	2398.021432
499.469535	2395.029507
499.835989	2399.506052
500.202385	2396.940104
500.568723	2396.622512
500.935003	2398.618809
501.301226	2397.842471
501.667390	2400.358007
502.033497	2398.046638
502.399546	2398.308778
502.765537	2395.838612
503.131470	2403.417987
503.497345	2398.696947
503.863163	2398.492780
504.228923	2397.340876
504.594625	2397.852553
504.960269	2395.752913
505.325856	2394.721997
505.691385	2397.794580
506.056856	2397.751730
506.422270	2396.337687
506.787625	2397.776936
507.152924	2396.680485
507.518164	2399.848850
507.883347	2395.742830
508.248472	2396.506565
508.613540	2396.640156
508.978550	2398.979251
509.343503	2397.018242
509.708398	2397.713922
510.073236	2397.040927
510.438016	2399.077554
510.802738	2398.921278
511.167403	2400.892369
511.532010	2397.235012
511.896561	2396.783829
512.261053	2398.442368
512.625488	2394.974054
512.989866	2397.197203
513.354186	2393.325597
513.718449	2395.205948
514.082655	2398.417162
514.446803	2396.723335
514.810894	2399.193500
515.174927	2399.208624
515.538904	2399.269117
515.902822	2397.383726
516.266684	2399.012019
516.630488	2395.911709
516.994235	2397.734086
517.357925	2397.736607
517.721558	2398.046638
518.085133	2397.197203
518.448651	2400.594941
518.812112	2399.213665
519.175516	2401.036042
519.538863	2399.667369
519.902152	2398.555794
520.265385	2398.344066
520.628560	2399.838768
520.991678	2397.713922
521.354739	2400.068140
521.717743	2396.504045
522.080690	2398.298695
522.443580	2398.671741
522.806413	2400.350445
523.169189	2400.113511
523.531908	2397.290465
523.894569	2400.753737
524.257174	2398.853222
524.619722	2399.987482
524.982213	2401.633419
525.344647	2399.780795
525.707025	2402.157699
526.069345	2399.586710
526.431608	2398.384395
526.793815	2399.536299
527.155964	2400.277348
527.518057	2402.099725
527.880093	2402.092164
528.242072	2399.352297
528.603995	2398.984292
528.965860	2399.291803
529.327669	2401.993861
529.689421	2400.388254
530.051117	2403.662483
530.412755	2401.953532
530.774337	2403.370096
531.135862	2401.701474
531.497331	2400.673079
531.858743	2396.372975
532.220098	2397.976062
532.581396	2396.372975
532.942638	2398.578479
533.303824	2401.267935
533.664953	2398.593603
534.026025	2397.920609
534.387040	2401.358676
534.747999	2399.957235
535.108902	2403.864129
535.469748	2403.904458
535.830537	2402.003943
536.191270	2403.423028
536.551947	2404.358162
536.912567	2404.244736
537.273131	2404.821948
537.633638	2401.038562
537.994089	2402.724828
538.354483	2403.833882
538.714821	2402.147616
539.075103	2402.639129
539.435328	2403.072668
539.795497	2401.726680
540.155609	2405.169788
540.515665	2402.366907
540.875665	2402.208110
541.235609	2404.070817
541.595496	2403.286917
541.955328	2405.000909
542.315102	2407.745818
542.674821	2404.708523
543.034483	2403.244067
543.394090	2406.631723
543.753640	2406.243554
544.113134	2408.101219
544.472571	2404.600138
544.831953	2405.827659
545.191278	2404.617782
545.550548	2404.542164
545.909761	2403.065106
546.268918	2404.852195
546.628019	2408.713719
546.987064	2405.971332
547.346053	2408.602814
547.704986	2407.239182
548.063863	2407.387896
548.422684	2407.080385
548.781449	2409.230437
549.140158	2404.983265
549.498811	2407.425704
549.857408	2409.747156
550.215949	2405.472257
550.574434	2405.341187
550.932864	2408.363359
551.291237	2402.497977
551.649555	2407.239182
552.007817	2411.181364
552.366022	2406.672052
552.724173	2409.331261
553.082267	2410.548699
553.440305	2409.946281
553.798288	2411.032650
554.156215	2411.967784
554.514086	2411.791344
554.871902	2409.316137
555.229661	2410.775551
555.587365	2407.889491
555.945014	2410.306724
556.302606	2411.556930
556.660143	2410.256312
557.017625	2412.035840
557.375050	2409.467372
557.732421	2410.354615
558.089735	2410.518452
558.446994	2408.862433
558.804197	2412.476941
559.161345	2409.106929
559.518437	2410.994841
559.875474	2409.747156
560.232455	2412.429050
560.589381	2411.183885
560.946251	2412.345871
561.303065	2413.636406
561.659825	2414.891653
562.016528	2410.566343
562.373177	2412.076169
562.729770	2413.046591
563.086307	2411.156158
563.442789	2413.694379
563.799216	2413.807805
564.155587	2411.173802
564.511904	2411.846796
564.868164	2411.829152
565.224370	2412.673546
565.580520	2411.398134
565.936615	2410.780592
566.292654	2413.487692
566.648638	2413.391910
567.004567	2410.140366
567.360441	2413.437280
567.716260	2411.514080
568.072023	2410.931827
568.427732	2407.400499
568.783385	2411.907290
569.138982	2406.805642
569.494525	2406.281363
569.850013	2407.130797
570.205445	2412.809657
570.560823	2413.341498
570.916145	2412.035840
571.271412	2410.715057
571.626625	2412.257650
571.981782	2411.725809
572.336884	2410.097516
572.691931	2410.364697
573.046923	2412.280336
573.401860	2412.111457
573.756743	2411.002403
574.111570	2409.230437
574.466342	2411.730850
574.821059	2409.893349
575.175722	2411.753535
575.530330	2412.497105
575.884882	2410.044584
576.239380	2413.086920
576.593823	2412.277815
576.948211	2411.861920
577.302544	2411.007444
577.656823	2409.628689
578.011047	2411.224214
578.365216	2407.516445
578.719330	2409.903432
579.073389	2409.815211
579.427394	2410.704975
579.781344	2411.020047
580.135239	2409.532907
580.489080	2410.647002
580.842866	2408.103740
581.196597	2411.655233
581.550273	2406.200704
581.903895	2406.535941
582.257463	2408.766651
582.610975	2408.728843
582.964434	2406.961918
583.317837	2407.881929
583.671186	2410.256312
584.024481	2408.554923
584.377721	2407.092988
584.730906	2407.551733
585.084037	2408.015519
585.437113	2408.539799
585.790135	2407.793709
586.143103	2409.331261
586.496016	2407.692886
586.848874	2401.945970
587.201679	2405.086609
587.554428	2401.094015
587.907124	2405.941085
588.259765	2401.487225
588.612352	2406.654408
588.964884	2405.512587
589.317362	2407.801270
589.669786	2405.961249
590.022155	2408.844789
590.374470	2405.671383
590.726731	2406.926630
591.078937	2405.988976
591.431090	2407.377813
591.783188	2403.959911
592.135232	2404.834551
592.487222	2405.338667
592.839157	2404.408574
593.191038	2405.714233
593.542866	2403.919582
593.894639	2403.869170
594.246358	2405.653739
594.598022	2406.243554
594.949633	2403.596948
595.301190	2404.106105
595.652692	2403.745662
596.004141	2404.640467
596.355535	2406.954357
596.706876	2402.397153
597.058162	2404.320354
597.409395	2404.632905
597.760573	2405.779768
598.111698	2403.463357
598.462768	2404.632905
598.813785	2403.246588
599.164748	2404.884963
599.515657	2405.822618
599.866511	2404.816907
600.217312	2404.153996
600.568060	2405.144582
600.918753	2405.681465
601.269392	2403.271794
601.619978	2402.245919
601.970510	2406.787998
602.320988	2403.143244
602.671412	2404.968142
603.021783	2402.200548
603.372100	2402.646691
603.722363	2403.859088
604.072572	2402.185425
604.422728	2406.180539
604.772830	2401.865312
605.122878	2399.072512
605.472872	2403.919582
605.822813	2397.300547
606.172701	2404.615261
606.522534	2405.515107
606.872314	2405.981414
607.222041	2403.223903
607.571714	2405.449572
607.921333	2404.348080
608.270899	2404.340518
608.620411	2402.666855
608.969870	2402.069478
609.319276	2405.673903
609.668627	2405.056362
610.017926	2404.189284
610.367171	2404.257339
610.716362	2403.949829
611.065500	2402.959242
611.414585	2402.392112
611.763616	2402.820610
612.112594	2404.736249
612.461518	2401.275497
612.810389	2403.382699
613.159207	2402.500497
613.507971	2403.503687
613.856682	2405.126938
614.205340	2403.574263
614.553945	2404.448903
614.902496	2403.601989
615.250994	2405.240364
615.599439	2402.049314
615.947830	2403.755744
616.296169	2401.227606
616.644454	2401.303223
616.992686	2403.488563
617.340864	2402.049314
617.688990	2401.220044
618.037063	2403.511248
618.385082	2401.366237
618.733048	2404.862278
619.080961	2400.844478
619.428821	2407.382855
619.776628	2405.278173
620.124382	2404.542164
620.472083	2404.370765
620.819731	2403.251629
621.167326	2402.518141
621.514868	2402.674417
621.862357	2401.671227
622.209793	2404.133831
622.557176	2402.092164
622.904506	2404.542164
623.251783	2399.508572
623.599007	2401.315826
623.946179	2398.707029
624.293297	2400.577297
624.640363	2406.490570
624.987376	2404.368245
625.334336	2403.735580
625.681243	2403.130641
626.028097	2404.209448
626.374899	2403.906979
626.721647	2401.998902
627.068343	2404.597617
627.414987	2406.629202
627.761577	2404.325395
628.108115	2403.523851
628.454600	2404.337998
628.801032	2404.925292
629.147412	2405.686506
629.493739	2402.470250
629.840014	2405.736918
630.186236	2404.320354
630.532405	2403.604510
630.878521	2406.125087
631.224585	2405.164747
631.570597	2405.585683
631.916556	2405.905797
632.262462	2405.983934
632.608316	2406.994686
632.954117	2405.530231
633.299866	2407.163564
633.645562	2404.985786
633.991206	2406.672052
634.336797	2404.920251
634.682336	2408.507032
635.027823	2407.297155
635.373257	2406.150293
635.718639	2406.228430
636.063968	2406.321692
636.409245	2407.534089
636.754470	2406.651887
637.099642	2406.810684
637.444762	2408.809501
637.789829	2408.144069
638.134845	2406.929151
638.479808	2405.865467
638.824719	2406.724984
639.169577	2407.806312
639.514383	2404.890004
639.859137	2406.140210
640.203839	2406.356980
640.548489	2406.205745
640.893086	2406.213307
641.237632	2403.836403
641.582125	2404.466547
641.926566	2405.331105
642.270955	2407.592062
642.615292	2407.806312
642.959576	2409.081723
643.303809	2406.581311
643.647990	2408.963256
643.992118	2408.771693
644.336195	2409.162382
644.680219	2411.486354
645.024192	2411.990469
645.368112	2408.108781
645.711981	2412.794533
646.055797	2411.007444
646.399562	2412.295459
646.743274	2413.654050
647.086935	2414.851324
647.430544	2416.835018
647.774101	2416.167065
648.117606	2413.860737
648.461059	2418.526325
648.804460	2418.584298
649.147810	2416.703948
649.491108	2415.166396
649.834354	2413.104564
650.177548	2417.306366
650.520690	2417.273598
650.863781	2418.405337
651.206820	2419.862231
651.549807	2415.738567
651.892742	2416.154462
652.235626	2419.398445
652.578458	2421.026737
652.921238	2421.392221
653.263967	2420.482293
653.606644	2418.846438
653.949269	2420.381470
654.291843	2421.394742
654.634365	2420.497416
654.976836	2419.045564
655.319255	2422.281985
655.661622	2422.987746
656.003938	2423.023034
656.346203	2422.841553
656.688416	2423.877510
657.030577	2422.902047
657.372687	2426.080494
657.714746	2425.392377
658.056753	2427.688622
658.398708	2422.483631
658.740612	2424.542942
659.082465	2421.989598
659.424266	2425.231060
659.766016	2426.463622
660.107715	2433.092739
660.449362	2429.992430
660.790958	2431.040990
661.132503	2431.033428
661.473996	2433.962338
661.815438	2432.432348
662.156829	2437.430652
662.498168	2435.154571
662.839456	2436.077102
663.180693	2434.736155
663.521879	2437.468461
663.863013	2440.336877
664.204097	2439.658842
664.545129	2443.306117
664.886110	2441.624892
665.227040	2441.841662
665.567918	2440.954419
665.908746	2444.916766
666.249522	2448.566561
666.590248	2449.867179
666.930922	2448.180913
667.271545	2447.389452
667.612118	2455.145267
667.952639	2450.945986
668.293109	2452.435647
668.633528	2452.463373
668.973896	2455.795576
669.314213	2455.808178
669.654480	2457.960751
669.994695	2454.061419
670.334859	2457.844805
670.674973	2458.875721
671.015035	2459.054682
671.355047	2460.405711
671.695008	2460.861935
672.034918	2465.512400
672.374777	2466.387040
672.714585	2466.404684
673.054342	2467.324694
673.394049	2466.858388
673.733705	2471.002216
674.073310	2469.399129
674.412864	2472.930457
674.752368	2469.542802
675.091820	2473.653863
675.431223	2472.048256
675.770574	2473.235447
676.109875	2468.794191
676.449125	2470.936681
676.788324	2470.740076
677.127473	2471.705457
677.466571	2469.560446
677.805619	2475.534213
678.144616	2475.516569
678.483562	2475.788792
678.822458	2474.510859
679.161303	2476.441621
679.500098	2481.558392
679.838842	2479.126036
680.177535	2478.541262
680.516179	2480.376242
680.854771	2481.611324
681.193314	2488.661378
681.531805	2495.015753
681.870247	2501.498676
682.208638	2506.842299
682.546978	2507.454800
682.885268	2510.620644
683.223508	2509.766169
683.561697	2512.511077
683.899836	2510.441683
684.237925	2508.291631
684.575963	2508.258864
684.913951	2513.700789
685.251889	2513.625172
685.589776	2517.648013
685.927614	2518.568023
686.265401	2524.100690
686.603137	2525.136647
686.940824	2528.247039
687.278460	2535.213913
687.616046	2537.875642
687.953582	2546.455686
688.291068	2545.530635
688.628504	2551.370811
688.965889	2551.388455
689.303224	2551.005328
689.640510	2549.888712
689.977745	2547.897456
690.314930	2543.057949
690.652065	2541.084337
690.989150	2538.326826
691.326185	2533.867925
691.663170	2530.782739
692.000105	2529.971113
692.336990	2523.437778
692.673825	2524.745957
693.010610	2521.965761
693.347345	2515.215656
693.684030	2513.247085
694.020665	2516.183558
694.357251	2508.523524
694.693786	2515.578619
695.030272	2513.897394
695.366707	2512.132990
695.703093	2511.817918
696.039429	2514.678773
696.375716	2512.019564
696.711952	2516.387724
697.048139	2518.303363
697.384276	2516.107940
697.720363	2518.376459
698.056400	2517.665657
698.392388	2518.043743
698.728326	2520.410565
699.064214	2520.503826
699.400053	2519.556089
699.735842	2519.427540
700.071581	2517.499299
700.407270	2516.927128
700.742910	2513.675583
701.078501	2515.389576
701.414042	2515.606345
701.749533	2510.229955
702.084974	2512.024606
702.420366	2514.041067
702.755709	2513.403361
703.091002	2509.733401
703.426246	2510.741632
703.761440	2513.244565
704.096584	2511.883453
704.431679	2508.654594
704.766725	2512.173320
705.101721	2510.179543
705.436668	2513.194153
705.771565	2510.519821
706.106413	2516.596932
706.441212	2516.861593
706.775961	2519.523322
707.110661	2519.044412
707.445311	2524.589682
707.779913	2524.506503
708.114465	2530.427338
708.448967	2533.288192
708.783421	2537.691640
709.117825	2544.822352
709.452180	2546.828732
709.786485	2551.043136
710.120742	2563.333469
710.454949	2564.417317
710.789107	2570.033163
711.123216	2576.788309
711.457275	2583.417426
711.791286	2587.866245
712.125247	2590.041502
712.459159	2595.503593
712.793023	2598.752616
713.126837	2591.778180
713.460602	2595.433017
713.794318	2593.106524
714.127985	2587.886409
714.461602	2578.633371
714.795171	2579.870975
715.128691	2571.510221
715.462162	2568.281362
715.795584	2564.770198
716.128957	2560.540670
716.462281	2558.070505
716.795556	2554.982798
717.128782	2553.341902
717.461960	2548.333516
717.795088	2547.642878
718.128167	2543.120963
718.461198	2542.798329
718.794180	2541.361600
719.127113	2540.870088
719.459997	2537.091743
719.792833	2536.741383
720.125619	2536.837165
720.458357	2535.531506
720.791046	2533.472195
721.123686	2534.520755
721.456278	2533.089067
721.788821	2532.834489
722.121315	2534.024201
722.453761	2533.283151
722.786158	2534.719880
723.118506	2533.575538
723.450805	2534.077133
723.783056	2536.388502
724.115259	2541.006199
724.447412	2538.473019
724.779518	2542.205994
725.111574	2545.752445
725.443582	2548.588094
725.775542	2547.617672
726.107453	2555.905329
726.439315	2557.052192
726.771129	2568.614078
727.102895	2568.198183
727.434612	2575.510377
727.766281	2574.565160
728.097901	2578.880388
728.429473	2580.523804
728.760996	2582.293249
729.092471	2581.022878
729.423897	2586.699218
729.755276	2583.286356
730.086606	2588.703076
730.417887	2595.266658
730.749120	2604.731425
731.080305	2605.338884
731.411442	2612.073865
731.742530	2615.814402
732.073570	2618.617283
732.404562	2623.025772
732.735506	2621.185751
733.066401	2620.706841
733.397249	2614.402878
733.728048	2604.093719
734.058798	2592.675505
734.389501	2586.472366
734.720156	2580.448187
735.050762	2572.745304
735.381320	2570.227247
735.711831	2570.920406
736.042293	2562.216854
736.372707	2568.130127
736.703073	2565.433110
737.033391	2568.351938
737.363661	2569.150961
737.693883	2570.819583
738.024056	2580.783423
738.354182	2582.426840
738.684260	2592.473859
739.014290	2593.227512
739.344272	2600.942998
739.674207	2607.468771
740.004093	2612.444390
740.333931	2610.937085
740.663722	2612.772065
740.993464	2612.933382
741.323159	2614.612086
741.652806	2613.447580
741.982405	2607.620006
742.311956	2601.736979
742.641460	2602.583893
742.970915	2598.230857
743.300323	2593.716504
743.629683	2591.868921
743.958996	2585.534711
744.288260	2582.699062
744.617477	2577.030284
744.946647	2571.686661
745.275768	2571.023750
745.604842	2569.322360
745.933869	2567.104252
746.262847	2567.280693
746.591778	2567.994016
746.920662	2572.704974
747.249498	2567.888152
747.578286	2573.617423
747.907027	2578.419122
748.235720	2582.401634
748.564365	2586.217787
748.892963	2583.500605
749.221514	2586.807602
749.550017	2590.946390
749.878473	2585.441450
750.206881	2584.022365
750.535242	2585.572520
750.863555	2586.089238
751.191821	2583.866089
751.520039	2579.172775
751.848210	2582.883064
752.176334	2583.712334
752.504411	2584.498754
752.832440	2584.317272
753.160421	2584.297108
753.488356	2586.769794
753.816243	2585.035637
754.144082	2581.847107
754.471875	2583.019175
754.799620	2585.504464
755.127318	2584.914649
755.454969	2581.695872
755.782572	2584.062694
756.110129	2587.694845
756.437638	2584.191243
756.765100	2585.224680
757.092515	2588.672829
757.419882	2588.902202
757.747203	2588.067891
758.074477	2590.142326
758.401703	2590.437233
758.728882	2594.921339
759.056014	2599.975096
759.383099	2602.462906
759.710138	2606.440376
760.037129	2606.117742
760.364073	2610.516149
760.690970	2610.735439
761.017820	2613.487909
761.344623	2618.123250
761.671379	2626.668006
761.998088	2636.079840
762.324751	2675.221879
762.651366	2736.769326
762.977935	2822.189158
763.304456	2869.437372
763.630931	2885.279198
763.957359	2860.494365
764.283740	2820.268478
764.610074	2777.769031
764.936362	2733.530385
765.262602	2704.601724
765.588796	2669.414470
765.914943	2647.525780
766.241044	2629.856536
766.567097	2615.025461
766.893104	2601.396702
767.219064	2592.874631
767.544978	2586.623600
767.870845	2578.318299
768.196665	2575.984245
768.522438	2570.423852
768.848165	2565.455795
769.173846	2564.079560
769.499479	2564.064437
769.825066	2559.850032
770.150607	2555.945658
770.476101	2553.798127
770.801548	2552.706717
771.126949	2547.715975
771.452303	2548.567930
771.777611	2544.842517
772.102872	2541.535520
772.428087	2542.004347
772.753256	2537.807587
773.078378	2537.240457
773.403453	2533.199972
773.728482	2530.996988
774.053465	2528.307533
774.378401	2527.654703
774.703291	2525.502130
775.028135	2525.860052
775.352932	2526.976668
775.677683	2519.823271
776.002388	2522.424506
776.327046	2521.819567
776.651658	2518.820081
776.976224	2514.441839
777.300743	2519.208250
777.625216	2514.293125
777.949643	2515.893691
778.274024	2516.975019
778.598359	2509.544358
778.922647	2510.338340
779.246889	2512.299348
779.571086	2508.054697
779.895236	2513.920079
780.219339	2514.698938
780.543397	2516.738084
780.867409	2517.542148
781.191374	2516.972498
781.515294	2519.200688
781.839167	2522.406862
782.162995	2518.230266
782.486776	2520.251769
782.810511	2523.266379
783.134201	2516.329751
783.457844	2514.300687
783.781441	2518.026099
784.104993	2512.836231
784.428498	2515.434946
784.751958	2514.673732
785.075372	2514.618279
785.398739	2512.949657
785.722061	2515.964267
786.045337	2515.530728
786.368568	2521.431399
786.691752	2518.381501
787.014891	2530.883562
787.337983	2537.545447
787.661030	2553.447767
787.984031	2567.618450
788.306987	2580.385172
788.629897	2583.740060
788.952760	2582.759556
789.275579	2576.959708
789.598351	2567.295816
789.921078	2559.784497
790.243759	2550.944834
790.566395	2541.308668
790.888984	2536.721218
791.211529	2530.669313
791.534027	2526.606143
791.856480	2521.806965
792.178888	2521.466687
792.501249	2520.244207
792.823566	2517.053157
793.145836	2515.636592
793.468062	2516.173475
793.790241	2514.071314
794.112375	2518.331089
794.434464	2520.529032
794.756507	2522.885772
795.078505	2525.900382
795.400457	2533.557894
795.722364	2541.129707
796.044226	2550.266799
796.366042	2556.159907
796.687812	2552.941131
797.009538	2559.129147
797.331218	2558.705690
797.652852	2556.258210
797.974442	2550.344937
798.295986	2550.400389
798.617484	2545.326468
798.938938	2541.480068
799.260346	2541.046528
799.581709	2533.300795
799.903026	2537.812628
800.224299	2529.532533
800.545526	2524.723272
800.866708	2522.515247
801.187845	2523.417613
801.508936	2517.557272
801.829983	2519.752694
802.150984	2517.388393
802.471940	2512.397651
802.792851	2517.572395
803.113717	2514.837569
803.434538	2512.790861
803.755314	2512.954698
804.076045	2514.330933
804.396731	2510.151817
804.717372	2509.325068
805.037967	2510.507218
805.358518	2514.313289
805.679024	2514.056191
805.999485	2518.920904
806.319901	2519.929135
806.640272	2518.391583
806.960598	2523.412572
807.280879	2521.711183
807.601115	2523.301667
807.921306	2522.283354
808.241453	2522.180010
808.561554	2525.096317
808.881611	2524.564476
809.201623	2524.347706
809.521590	2522.474917
809.841513	2523.215967
810.161390	2522.845442
810.481223	2520.617252
810.801011	2517.249762
811.120755	2518.840246
811.440453	2517.065759
811.760107	2516.881757
812.079716	2511.878412
812.399281	2510.930675
812.718801	2511.656601
813.038276	2508.689882
813.357707	2512.919410
813.677093	2514.497292
813.996434	2512.294307
814.315731	2511.737260
814.634983	2511.139883
814.954191	2515.576098
815.273354	2515.651716
815.592473	2517.839577
815.911547	2525.822244
816.230577	2525.255114
816.549562	2528.546987
816.868502	2536.338091
817.187399	2536.406146
817.506250	2542.165664
817.825058	2543.713299
818.143821	2548.285625
818.462539	2559.734086
818.781213	2571.810170
819.099843	2589.948241
819.418429	2621.208436
819.736970	2648.922179
820.055466	2683.136491
820.373919	2730.427555
820.692327	2797.318625
821.010691	2907.157806
821.329011	3123.929942
821.647286	3415.709406
821.965517	3721.672156
822.283704	3905.777615
822.601847	3998.769260
822.919945	3900.020617
823.237999	3764.673198
823.556010	3604.132613
823.873976	3438.127417
824.191897	3283.520270
824.509775	3169.209586
824.827609	3061.069274
825.145398	3004.041221
825.463144	2976.705564
825.780845	2991.796258
826.098502	3040.755944
826.416116	3138.287148
826.733685	3229.980695
827.051210	3258.624531
827.368692	3213.077706
827.686129	3112.947788
828.003522	3002.120541
828.320872	2902.000705
828.638177	2830.958245
828.955439	2769.292330
829.272656	2719.384907
829.589830	2677.160203
829.906960	2649.038126
830.224046	2618.624845
830.541088	2597.852770
830.858086	2587.752819
831.175041	2575.948957
831.491952	2573.632547
831.808819	2576.957188
832.125642	2592.516709
832.442421	2621.669702
832.759157	2681.140194
833.075849	2763.091711
833.392497	2846.061542
833.709101	2908.090419
834.025662	2900.866446
834.342179	2855.173427
834.658653	2794.011628
834.975083	2740.189749
835.291469	2692.235773
835.607811	2652.778662
835.924110	2620.409413
836.240366	2598.971907
836.556578	2571.757237
836.872746	2552.747046
837.188871	2534.437576
837.504952	2520.536594
837.820990	2515.989473
838.136984	2511.470079
838.452935	2505.592093
838.768842	2510.093844
839.084706	2522.565658
839.400526	2566.673234
839.716303	2616.376490
840.032037	2649.033085
840.347727	2644.483443
840.663373	2615.443877
840.978977	2578.494740
841.294537	2551.486758
841.610054	2530.404653
841.925527	2520.879392
842.240957	2507.422032
842.556344	2497.130517
842.871687	2487.640544
843.186987	2478.364821
843.502244	2470.588842
843.817458	2466.434931
844.132629	2460.453602
844.447756	2459.273972
844.762840	2449.116047
845.077881	2447.888526
845.392879	2446.005655
845.707833	2448.677466
846.022745	2442.071034
846.337613	2445.022630
846.652438	2445.977928
846.967221	2444.999945
847.281960	2444.566405
847.596656	2446.290480
847.911309	2441.398040
848.225919	2440.495674
848.540485	2441.617330
848.855009	2443.361570
849.169490	2439.726898
849.483928	2439.124480
849.798323	2438.978286
850.112675	2438.895107
850.426984	2439.318564
850.741251	2438.171702
851.055474	2441.965170
851.369654	2438.736311
851.683792	2437.617175
851.997887	2438.302772
852.311938	2436.409818
852.625947	2438.078440
852.939914	2438.411157
853.253837	2441.219079
853.567718	2439.457196
853.881555	2438.824531
854.195350	2437.924685
854.509103	2439.253029
854.822812	2440.379727
855.136479	2440.480550
855.450103	2438.401074
855.763685	2439.048862
856.077224	2437.128183
856.390720	2440.828390
856.704173	2442.885181
857.017584	2441.380396
857.330953	2440.878801
857.644278	2443.285952
857.957561	2447.323917
858.270802	2443.076744
858.584000	2441.945005
858.897155	2444.488267
859.210268	2440.656991
859.523339	2441.024995
859.836367	2443.313679
860.149352	2441.914758
860.462295	2442.824687
860.775195	2437.075251
861.088054	2436.427463
861.400869	2436.331681
861.713642	2435.489808
862.026373	2445.302414
862.339062	2438.254881
862.651708	2441.350149
862.964312	2442.186981
863.276873	2441.211518
863.589392	2447.132353
863.901869	2450.376335
864.214303	2451.981943
864.526696	2449.065635
864.839045	2452.481017
865.151353	2455.334310
865.463619	2454.013528
865.775842	2454.182406
866.088023	2453.700976
866.400162	2453.189299
866.712258	2455.414968
867.024313	2452.236521
867.336325	2455.883796
867.648296	2456.481172
867.960224	2453.592591
868.272110	2455.016717
868.583954	2453.557303
868.895755	2459.117696
869.207515	2455.503189
869.519233	2458.754733
869.830909	2457.945628
870.142542	2458.416976
870.454134	2461.171966
870.765684	2459.520988
871.077191	2459.430248
871.388657	2468.584983
871.700081	2464.486525
872.011463	2466.641618
872.322803	2467.838892
872.634101	2470.031794
872.945357	2468.184211
873.256571	2475.345170
873.567744	2474.210911
873.878874	2472.829634
874.189963	2474.936837
874.501010	2477.437249
874.812015	2476.885243
875.122979	2477.651498
875.433900	2479.410861
875.744780	2480.373721
876.055618	2483.562251
876.366415	2481.341623
876.677169	2479.776344
876.987882	2481.618886
877.298554	2483.320276
877.609183	2486.304639
877.919771	2488.132057
878.230317	2498.181597
878.540822	2513.862106
878.851285	2522.081708
879.161707	2543.428473
879.472087	2574.376117
879.782425	2619.529732
880.092722	2691.547656
880.402977	2782.142232
880.713191	2872.784698
881.023363	2958.935497
881.333494	3008.071623
881.643583	3043.458003
881.953631	3052.310269
882.263637	3037.907693
882.573602	3008.353928
882.883526	2969.458906
883.193408	2927.423244
883.503248	2879.307951
883.813048	2831.164932
884.122806	2790.286216
884.432522	2746.647467
884.742197	2706.172043
885.051831	2674.947136
885.361424	2644.743063
885.670975	2618.841614
885.980485	2597.593151
886.289954	2579.109760
886.599382	2557.793241
886.908768	2546.513660
887.218113	2535.554191
887.527417	2525.368540
887.836680	2511.825480
888.145901	2509.012516
888.455082	2502.816938
888.764221	2497.611947
889.073319	2490.614825
889.382376	2490.514002
889.691392	2485.314052
890.000366	2485.906387
890.309300	2483.829432
890.618193	2488.600884
890.927044	2485.220791
891.235855	2487.222129
891.544625	2487.690956
891.853353	2492.202789
892.162041	2495.978613
892.470687	2502.426249
892.779293	2511.490243
893.087858	2522.767304
893.396381	2543.393185
893.704864	2577.610017
894.013306	2616.278188
894.321707	2658.114723
894.630068	2686.254444
894.938387	2692.359282
895.246665	2685.576409
895.554903	2666.566218
895.863100	2639.999337
896.171256	2620.323714
896.479371	2599.680189
896.787446	2584.760894
897.095480	2568.321691
897.403473	2557.760474
897.711425	2542.813453
898.019336	2533.749458
898.327207	2523.100021
898.635038	2514.698938
898.942827	2506.829697
899.250576	2497.483397
899.558284	2489.084835
899.865952	2486.448312
900.173579	2481.812971
900.481165	2477.822897
900.788711	2474.246199
901.096216	2472.025570
901.403681	2468.035497
901.711105	2469.338635
902.018489	2468.756382
902.325832	2471.871815
902.633135	2477.225521
902.940397	2492.573313
903.247619	2521.146573
903.554800	2576.122877
903.861941	2638.391209
904.169041	2686.635051
904.476101	2706.328319
904.783121	2696.765250
905.090100	2671.995541
905.397039	2644.301962
905.703938	2615.884978
906.010796	2591.190886
906.317614	2572.369738
906.624391	2551.166645
906.931129	2536.852288
907.237826	2520.365195
907.544483	2505.889521
907.851099	2492.288488
908.157675	2479.105871
908.464211	2465.666155
908.770707	2457.494444
909.077163	2449.920111
909.383578	2444.110181
909.689954	2441.186312
909.996289	2437.823862
910.302584	2438.945519
910.608839	2434.945363
910.915054	2436.775302
911.221229	2436.709767
911.527363	2438.373348
911.833458	2438.824531
912.139513	2435.835127
912.445527	2440.714964
912.751502	2444.450459
913.057436	2449.249637
913.363331	2452.138218
913.669186	2461.237501
913.975000	2471.919706
914.280775	2488.094248
914.586510	2512.889163
914.892205	2541.611138
915.197859	2579.185378
915.503475	2621.233642
915.809050	2656.604898
916.114585	2676.419153
916.420081	2686.007428
916.725536	2685.299146
917.030952	2672.978566
917.336328	2657.101452
917.641665	2641.342805
917.946961	2627.023407
918.252218	2608.524893
918.557435	2593.469487
918.862612	2577.509194
919.167750	2558.403221
919.472848	2542.490819
919.777906	2529.565300
920.082925	2516.191119
920.387904	2506.476816
920.692843	2495.966010
920.997743	2487.595174
921.302603	2481.906232
921.607423	2472.915334
921.912204	2466.089612
922.216946	2459.730196
922.521647	2459.901595
922.826310	2454.467232
923.130932	2449.058073
923.435516	2442.433997
923.740059	2441.876950
924.044564	2440.961980
924.349028	2435.293203
924.653454	2430.531833
924.957840	2431.252718
925.262186	2424.323652
925.566493	2424.426996
925.870761	2419.917684
926.174989	2422.937335
926.479178	2419.302663
926.783328	2418.168403
927.087438	2419.809299
927.391509	2417.722261
927.695541	2415.738567
927.999533	2414.203536
928.303486	2414.049781
928.607400	2412.393762
928.911275	2414.682445
929.215110	2412.613052
929.518906	2412.376117
929.822663	2411.078020
930.126381	2412.126580
930.430060	2415.415933
930.733699	2412.630696
931.037299	2412.592887
931.340861	2412.890315
931.644383	2413.926272
931.947866	2414.364853
932.251309	2412.892836
932.554714	2411.009965
932.858080	2413.901067
933.161407	2410.263874
933.464694	2411.330078
933.767943	2410.561302
934.071153	2410.425191
934.374323	2414.707651
934.677455	2411.778741
934.980548	2413.323854
935.283602	2409.936199
935.586617	2411.123391
935.889593	2410.256312
936.192530	2410.833524
936.495428	2413.069276
936.798287	2409.588359
937.101108	2414.374935
937.403890	2417.026582
937.706632	2421.046902
938.009336	2421.634197
938.312002	2424.507654
938.614628	2427.388674
938.917216	2431.164498
939.219765	2432.041659
939.522275	2432.543253
939.824747	2434.400919
940.127179	2430.942687
940.429573	2428.472522
940.731929	2428.938828
941.034246	2427.582758
941.336524	2431.214909
941.638763	2429.211051
941.940964	2428.875814
942.243126	2427.507141
942.545250	2425.120154
942.847335	2424.563107
943.149381	2424.205185
943.451389	2422.322314
943.753359	2423.960689
944.055290	2416.824936
944.357182	2418.801068
944.659036	2419.315266
944.960851	2417.853331
945.262628	2415.252096
945.564367	2416.766962
945.866067	2418.319638
946.167729	2415.788979
946.469352	2416.461973
946.770937	2414.863927
947.072484	2416.726633
947.373992	2417.704617
947.675462	2417.497930
947.976893	2415.700758
948.278286	2415.171437
948.579641	2412.834862
948.880958	2413.187743
949.182236	2412.068607
949.483476	2414.649678
949.784678	2413.008782
950.085841	2414.324523
950.386967	2415.441139
950.688054	2415.040367
950.989103	2415.506674
951.290114	2418.768301
951.591087	2420.046233
951.892021	2418.937179
952.192917	2420.784762
952.493776	2419.952972
952.794596	2421.359454
953.095378	2420.986408
953.396122	2421.072108
953.696828	2421.871131
953.997496	2420.552869
954.298126	2419.771490
954.598718	2413.979204
954.899272	2416.570358
955.199788	2415.816705
955.500266	2411.781261
955.800706	2410.707496
956.101108	2407.660118
956.401472	2407.360169
956.701798	2401.991341
957.002087	2403.733059
957.302337	2406.324212
957.602550	2405.016033
957.902724	2403.702812
958.202861	2403.102915
958.502960	2398.714591
958.803022	2401.998902
959.103045	2403.231464
959.403031	2400.090826
959.702979	2398.757440
960.002889	2400.506721
960.302762	2396.985475
960.602596	2397.255177
960.902393	2395.435320
961.202153	2396.899775
961.501875	2394.361554
961.801559	2396.002450
962.101205	2395.596637
962.400814	2397.557646
962.700385	2395.248797
962.999918	2395.576472
963.299414	2395.405073
963.598873	2396.100752
963.898293	2392.524054
964.197677	2394.306102
964.497022	2395.137892
964.796331	2392.229146
965.095601	2393.197048
965.394835	2395.384908
965.694030	2394.752244
965.993189	2396.433468
966.292309	2394.437172
966.591393	2392.085473
966.890439	2394.452295
967.189447	2395.062275
967.488419	2393.680998
967.787353	2395.682337
968.086249	2395.122768
968.385108	2394.807696
968.683930	2394.757285
968.982714	2396.045300
969.281462	2397.892882
969.580172	2397.597975
969.878844	2397.174518
970.177480	2396.781308
970.476078	2394.747202
970.774639	2393.020607
971.073162	2395.697460
971.371649	2395.755433
971.670098	2393.101266
971.968510	2392.924825
972.266885	2393.900289
972.565223	2395.415155
972.863524	2396.367933
973.161788	2399.432955
973.460014	2397.507234
973.758204	2398.903634
974.056356	2396.819117
974.354471	2399.125445
974.652550	2397.391288
974.950591	2397.736607
975.248595	2396.199055
975.546563	2397.955897
975.844493	2397.527399
976.142386	2397.807183
976.440243	2397.305588
976.738062	2397.958418
977.035845	2394.893396
977.333590	2396.141082
977.631299	2395.556308
977.928971	2396.801473
978.226606	2395.500855
978.524204	2396.372975
978.821765	2395.203427
979.119290	2395.505896
979.416777	2396.080588
979.714228	2395.659651
980.011642	2396.448592
980.309020	2396.403222
980.606360	2396.320042
980.903664	2396.181411
981.200931	2397.608057
981.498162	2399.821124
981.795356	2402.339180
982.092513	2407.730694
982.389633	2409.860582
982.686717	2414.299318
982.983764	2414.808474
983.280775	2419.736202
983.577749	2418.049936
983.874686	2417.354257
984.171587	2417.079514
984.468451	2416.409041
984.765279	2410.553740
985.062070	2412.902918
985.358824	2407.791188
985.655543	2410.372259
985.952224	2406.102402
986.248869	2402.959242
986.545478	2397.159395
986.842050	2396.932543
987.138586	2394.099414
987.435086	2392.395504
987.731549	2390.610936
988.027975	2395.780639
988.324366	2392.332490
988.620719	2391.830895
988.917037	2392.645041
989.213318	2394.802655
989.509563	2388.418034
989.805772	2392.944990
990.101944	2390.111862
990.398080	2390.716800
990.694180	2391.967006
990.990244	2393.063457
991.286271	2391.266286
991.582262	2391.515823
991.878217	2392.135885
992.174136	2392.476163
992.470019	2391.684702
992.765865	2389.751419
993.061676	2390.338713
993.357450	2391.775442
993.653188	2394.848026
993.948890	2391.331821
994.244556	2396.952707
994.540186	2394.721997
994.835780	2395.503376
995.131337	2399.806000
995.426859	2401.272976
995.722345	2402.941598
996.017795	2403.758265
996.313208	2405.394119
996.608586	2406.483009
996.903928	2403.975035
997.199234	2404.151475
997.494504	2405.298338
997.789738	2406.112484
998.084936	2403.322205
998.380099	2403.112997
998.675225	2401.005795
998.970316	2400.131155
999.265371	2399.059910
999.560390	2395.889024
999.855373	2398.212996
1000.150320	2395.193345
1000.445232	2393.015566
1000.740108	2393.862480
1001.034948	2390.071532
1001.329752	2391.672099
1001.624521	2393.091183
1001.919254	2388.637324
1002.213951	2390.820144
1002.508613	2386.457025
1002.803239	2390.769732
1003.097829	2386.590616
1003.392384	2390.091697
1003.686903	2388.642365
1003.981386	2391.972047
1004.275834	2389.204454
1004.570246	2391.878786
1004.864623	2389.630431
1005.158964	2390.626059
1005.453270	2392.239228
1005.747540	2391.054557
1006.041775	2389.849722
1006.335974	2387.619011
1006.630138	2388.770915
1006.924266	2388.649927
1007.218359	2388.483569
1007.512416	2388.140770
1007.806438	2386.459546
1008.100425	2388.559186
1008.394376	2391.677140
1008.688292	2392.612274
1008.982172	2388.171017
1009.276017	2392.864332
1009.569827	2386.683877
1009.863602	2389.280071
1010.157341	2390.419372
1010.451045	2390.482386
1010.744714	2387.470297
1011.038347	2389.325442
1011.331945	2389.156563
1011.625508	2389.980792
1011.919036	2388.234032
1012.212528	2387.971892
1012.505986	2388.483569
1012.799408	2389.489279
1013.092795	2387.752602
1013.386147	2391.049516
1013.679464	2386.474669
1013.972745	2388.715462
1014.265992	2388.617159
1014.559204	2390.903323
1014.852380	2391.082284
1015.145521	2389.408621
1015.438628	2388.145812
1015.731699	2389.988353
1016.024736	2388.498692
1016.317737	2388.836450
1016.610703	2389.794269
1016.903635	2389.882489
1017.196531	2385.836963
1017.489393	2385.811757
1017.782219	2385.136243
1018.075011	2391.236039
1018.367768	2388.052550
1018.660490	2390.273178
1018.953177	2390.273178
1019.245829	2390.273178
