Dividing Wavelength (nm)	Counts (n)	Blue Motor Position (mm): 31.200000	Red Motor Position (mm): 0.000000	
326.493990	1971.522172
326.888308	1971.522172
327.282561	1971.522172
327.676750	1945.507298
328.070874	1945.275405
328.464933	1955.266972
328.858929	1963.904989
329.252859	1976.081896
329.646726	1988.964565
330.040528	2006.283449
330.434265	2025.472601
330.827938	2041.669828
331.221547	2064.022304
331.615091	2085.472414
332.008571	2108.271032
332.401986	2126.288116
332.795338	2145.061373
333.188625	2166.430824
333.581847	2185.872034
333.975006	2203.437935
334.368100	2218.566437
334.761129	2238.289952
335.154095	2253.269740
335.546996	2292.152160
335.939833	2369.992617
336.332606	2385.012734
336.725315	2395.500855
337.117960	2408.499470
337.510540	2412.169430
337.903056	2422.521440
338.295508	2427.676019
338.687896	2435.101639
339.080220	2441.831579
339.472480	2446.093875
339.864676	2453.920266
340.256807	2455.530915
340.648875	2455.064608
341.040879	2456.637448
341.432818	2458.180041
341.824694	2461.469394
342.216506	2460.766153
342.608253	2458.530402
342.999937	2457.749023
343.391557	2456.009825
343.783113	2455.717438
344.174605	2452.395317
344.566033	2453.915225
344.957397	2449.877261
345.348697	2446.658484
345.739934	2449.166458
346.131106	2446.108998
346.522215	2445.584718
346.913260	2442.812084
347.304241	2441.314861
347.695159	2440.460386
348.086012	2439.361414
348.476802	2436.797987
348.867528	2436.694644
349.258191	2430.867070
349.648789	2433.531320
350.039324	2431.043510
350.429796	2436.946701
350.820203	2427.411359
351.210548	2429.445464
351.600828	2429.866401
351.991045	2429.561411
352.381198	2428.626277
352.771288	2432.815476
353.161314	2428.275917
353.551276	2429.531164
353.941175	2427.350865
354.331010	2428.974117
354.720782	2429.899168
355.110490	2433.092739
355.500135	2431.719025
355.889717	2424.931111
356.279235	2429.430341
356.668689	2431.073757
357.058080	2429.165680
357.447408	2429.453026
357.836672	2426.025042
358.225873	2429.800866
358.615010	2428.137285
359.004084	2431.968562
359.393095	2434.514345
359.782043	2433.848912
360.170927	2432.147523
360.559748	2434.859664
360.948505	2436.326639
361.337199	2438.108687
361.725830	2437.286979
362.114398	2437.516352
362.502903	2435.658687
362.891344	2437.002154
363.279722	2438.874943
363.668037	2439.898297
364.056289	2439.658842
364.444478	2440.047011
364.832603	2439.573142
365.220665	2442.439038
365.608665	2440.094902
365.996601	2441.735798
366.384474	2443.641354
366.772284	2445.751077
367.160031	2443.709409
367.547715	2443.946343
367.935336	2444.253854
368.322893	2443.517845
368.710388	2444.589091
369.097820	2448.259051
369.485189	2445.486416
369.872495	2448.838783
370.259738	2445.874585
370.646918	2448.317024
371.034035	2447.938937
371.421090	2447.598659
371.808081	2450.719134
372.195010	2448.528752
372.581875	2450.862807
372.968678	2451.122426
373.355418	2449.519339
373.742096	2451.480348
374.128710	2451.964299
374.515262	2450.489761
374.901751	2451.298866
375.288177	2451.175358
375.674540	2454.242900
376.060841	2452.423044
376.447079	2454.900771
376.833254	2451.387087
377.219367	2448.652261
377.605417	2451.833229
377.991404	2451.077056
378.377329	2455.838425
378.763191	2449.940275
379.148991	2456.622325
379.534727	2455.654423
379.920402	2459.952007
380.306013	2456.057716
380.691563	2461.923098
381.077049	2460.872017
381.462474	2459.609208
381.847835	2456.435802
382.233134	2462.117182
382.618371	2462.260855
383.003545	2463.367389
383.388657	2464.035342
383.773706	2461.386215
384.158693	2461.925619
384.543618	2462.069292
384.928480	2462.200362
385.313280	2465.192286
385.698017	2462.860753
386.082692	2467.178501
386.467305	2466.583645
386.851856	2466.134982
387.236344	2466.331587
387.620770	2467.796042
388.005133	2469.366362
388.389435	2469.620940
388.773674	2468.416104
389.157851	2470.687144
389.541965	2470.238481
389.926018	2468.922740
390.310008	2469.815024
390.693936	2471.713019
391.077802	2471.662607
391.461606	2471.375262
391.845348	2473.066569
392.229027	2475.824080
392.612645	2476.865078
392.996200	2475.624954
393.379694	2478.183340
393.763125	2478.155613
394.146494	2476.552527
394.529801	2482.559061
394.913047	2480.429174
395.296230	2479.156283
395.679351	2477.328864
396.062410	2478.344657
396.445408	2480.701396
396.828343	2481.107209
397.211217	2475.171250
397.594028	2479.965388
397.976778	2479.216776
398.359466	2483.819350
398.742092	2482.153248
399.124656	2481.908752
399.507158	2483.022848
399.889598	2484.751963
400.271977	2484.252889
400.654294	2487.534680
401.036549	2488.908395
401.418742	2488.346306
401.800874	2493.914260
402.182944	2490.556852
402.564952	2491.005515
402.946898	2493.495845
403.328783	2491.892758
403.710606	2495.403921
404.092367	2495.782008
404.474067	2495.822337
404.855705	2493.926863
405.237282	2495.479539
405.618797	2496.412152
406.000250	2498.894920
406.381642	2498.899962
406.762972	2501.685199
407.144240	2499.575476
407.525447	2501.334839
407.906593	2499.898110
408.287677	2502.960611
408.668700	2501.980107
409.049661	2504.838441
409.430560	2506.333143
409.811399	2508.906652
410.192176	2507.447238
410.572891	2509.955212
410.953545	2512.316993
411.334138	2507.555623
411.714669	2513.569719
412.095139	2510.824811
412.475547	2514.504853
412.855894	2511.117198
413.236180	2517.516943
413.616405	2516.342354
413.996568	2518.585667
414.376670	2518.875534
414.756711	2519.823271
415.136691	2520.274454
415.516609	2524.201513
415.896466	2523.405010
416.276262	2527.904240
416.655997	2527.536236
417.035670	2528.052954
417.415283	2535.453368
417.794834	2532.075795
418.174324	2538.810777
418.553753	2537.573173
418.933121	2543.869574
419.312428	2546.107847
419.691674	2552.439536
420.070859	2557.543704
420.449983	2560.991853
420.829045	2563.761967
421.208047	2571.001064
421.586988	2581.365677
421.965867	2590.263313
422.344686	2595.238932
422.723444	2611.995728
423.102141	2610.997579
423.480777	2632.430045
423.859352	2641.667959
424.237866	2669.066630
424.616319	2681.185564
424.994712	2708.206149
425.373044	2727.707852
425.751314	2762.822009
426.129524	2774.436828
426.507673	2822.053047
426.885762	2846.293435
427.263789	2887.358674
427.641756	2928.696136
428.019662	2974.280769
428.397508	3020.475383
428.775292	3079.199784
429.153016	3128.161990
429.530679	3189.807740
429.908282	3253.245620
430.285824	3299.525933
430.663305	3402.950245
431.040726	3459.869913
431.418086	3520.635982
431.795385	3642.291627
432.172624	3759.193464
432.549802	3817.922907
432.926920	3921.813526
433.303977	4010.953728
433.680974	4131.086945
434.057910	4266.872945
434.434786	4378.216910
434.811601	4488.048528
435.188355	4725.063418
435.565050	4813.575997
435.941683	4934.586374
436.318257	5179.899003
436.694770	5289.400426
437.071222	5520.497001
437.447614	5527.640316
437.823946	5666.201470
438.200218	5846.387432
438.576429	5960.821625
438.952580	6166.871226
439.328670	6315.494524
439.704700	6563.713378
440.080670	6635.264995
440.456580	6930.270797
440.832429	7144.413972
441.208218	7081.394507
441.583947	7350.319900
441.959616	7563.714463
442.335224	7813.397772
442.710773	8029.393570
443.086261	8383.108651
443.461689	8379.284935
443.837057	8599.699305
444.212365	9001.627981
444.587612	9207.629691
444.962800	9263.841077
445.337927	9606.092574
445.712995	9335.906892
446.088002	10221.236851
446.462949	10517.243323
446.837837	10792.717175
447.212664	11002.265337
447.587431	12416.661872
447.962139	13994.701822
448.336786	15320.061497
448.711374	14895.104831
449.085901	13437.538375
449.460369	13635.930464
449.834776	13846.471734
450.209124	15347.215672
450.583412	15375.143665
450.957640	15893.734723
451.331808	15431.607108
451.705917	14919.645168
452.079965	15161.028217
452.453954	15590.474031
452.827883	15767.002636
453.201752	15870.978954
453.575562	16188.768252
453.949311	17086.985920
454.323001	17367.884054
454.696632	17459.988455
455.070202	18692.540488
455.443713	19021.531229
455.817164	19636.264653
456.190556	20233.008719
456.563888	20089.978581
456.937160	20603.936819
457.310373	19677.392907
457.683526	20188.664209
458.056619	20394.212216
458.429653	20558.347144
458.802628	21185.832166
459.175542	21477.886373
459.548398	22657.276918
459.921194	24053.230392
460.293930	24771.282263
460.666607	26534.360286
461.039224	28135.289595
461.411782	28673.921760
461.784280	27905.443227
462.156719	27729.237256
462.529099	27480.428587
462.901419	26623.520653
463.273680	25952.840504
463.645882	26212.802726
464.018024	26361.978030
464.390106	27228.963230
464.762130	29701.944099
465.134094	33356.490771
465.505999	38159.775253
465.877845	42448.904892
466.249631	43725.216661
466.621358	42309.136381
466.993026	40561.343136
467.364634	38864.596616
467.736184	37263.624457
468.107674	36299.796171
468.479105	35746.509372
468.850477	35264.945589
469.221790	34105.467601
469.593043	32667.367561
469.964238	31968.890490
470.335373	31992.651969
470.706449	33654.390196
471.077467	36107.191326
471.448425	40503.180824
471.819324	43331.618492
472.190164	41702.741026
472.560945	38430.439844
472.931667	35600.237772
473.302330	34638.425947
473.672934	33946.739311
474.043479	34503.209598
474.413965	33814.114115
474.784393	33521.528066
475.154761	34423.284625
475.525070	34518.267525
475.895321	34115.754076
476.265513	34755.436169
476.635645	35722.415177
477.005719	35593.775013
477.375734	36078.050937
477.745691	36789.544267
478.115588	38097.564894
478.485427	40048.844313
478.855207	43319.814630
479.224928	45949.892976
479.594591	47590.632278
479.964194	46575.963955
480.333739	46728.738643
480.703226	46762.892460
481.072653	47426.353677
481.442022	47960.211869
481.811333	48244.404396
482.180584	46985.824886
482.549777	46500.881009
482.918912	45997.579771
483.287988	45724.417288
483.657005	44931.148881
484.025964	44309.816587
484.394864	44315.911342
484.763706	43911.028550
485.132489	43064.898603
485.501213	42908.131322
485.869879	43080.841252
486.238487	42701.859909
486.607036	42911.897064
486.975527	42392.237281
487.343959	42594.684978
487.712333	42689.090667
488.080648	42612.160138
488.448905	43052.812437
488.817104	42877.269378
489.185244	43799.276252
489.553326	45470.486807
489.921350	48171.050567
490.289315	51126.487503
490.657222	51773.287706
491.025070	52069.415165
491.392861	51148.363590
491.760593	49847.793789
492.128267	48152.390736
492.495883	46626.567057
492.863440	45259.189364
493.230939	43928.765850
493.598380	42869.006927
493.965763	42549.168400
494.333088	41777.458487
494.700354	41320.976965
495.067563	41057.579198
495.434713	40945.869749
495.801805	41005.317556
496.168839	40633.179579
496.535815	40325.028967
496.902733	40359.908711
497.269593	39956.361825
497.636395	39893.738091
498.003139	40292.107712
498.369825	39757.745405
498.736453	40045.864991
499.103023	39608.340728
499.469535	39481.764917
499.835989	39570.088453
500.202385	39247.956201
500.568723	39284.701172
500.935003	39465.444181
501.301226	39285.898446
501.667390	39869.195234
502.033497	40121.668821
502.399546	39561.170652
502.765537	38903.277389
503.131470	39268.871949
503.497345	39613.215524
503.863163	38301.373702
504.228923	38913.387423
504.594625	39309.034821
504.960269	38610.721588
505.325856	39277.547774
505.691385	38653.762959
506.056856	38776.578070
506.422270	39228.010876
506.787625	38801.085639
507.152924	38983.207404
507.518164	39086.140204
507.883347	38337.503652
508.248472	38571.680372
508.613540	39018.707210
508.978550	39307.131786
509.343503	39077.025798
509.708398	39272.572156
510.073236	39792.289911
510.438016	39791.637082
510.802738	39241.755582
511.167403	39853.759221
511.532010	40073.876162
511.896561	40365.809382
512.261053	41201.730992
512.625488	40761.789496
512.989866	40616.049738
513.354186	40467.491975
513.718449	40455.065531
514.082655	41112.552980
514.446803	40789.929216
514.810894	41296.164406
515.174927	41229.936248
515.538904	41109.654317
515.902822	41767.928186
516.266684	41241.772877
516.630488	41657.229489
516.994235	41490.931906
517.357925	42051.883779
517.721558	42215.078532
518.085133	42529.349104
518.448651	42645.235149
518.812112	42431.064248
519.175516	42534.339846
519.538863	42867.698747
519.902152	42813.307218
520.265385	43269.939974
520.628560	43300.580107
520.991678	43094.643932
521.354739	43317.344465
521.717743	43635.612672
522.080690	43534.149368
522.443580	44087.839460
522.806413	44125.338083
523.169189	44084.527422
523.531908	44254.661323
523.894569	44110.290238
524.257174	44266.765133
524.619722	44572.178398
524.982213	44555.053598
525.344647	44488.477600
525.707025	44514.875602
526.069345	44921.454742
526.431608	44834.628429
526.793815	45135.761754
527.155964	44668.691288
527.518057	44858.004259
527.880093	44638.189787
528.242072	45153.478889
528.603995	44861.376791
528.965860	44873.745262
529.327669	44961.720958
529.689421	44861.573396
530.051117	44821.965050
530.412755	44981.787271
530.774337	45029.549683
531.135862	44838.734448
531.497331	45043.874122
531.858743	44952.246110
532.220098	45278.670903
532.581396	44995.201782
532.942638	44662.588971
533.303824	44954.345750
533.664953	44938.755982
534.026025	44664.844888
534.387040	45108.965500
534.747999	45061.147636
535.108902	45223.888685
535.469748	44745.720119
535.830537	44860.678591
536.191270	45046.399740
536.551947	44708.627309
536.912567	45016.563671
537.273131	45127.085928
537.633638	44639.916382
537.994089	44981.628475
538.354483	44582.106950
538.714821	45127.864786
539.075103	45477.148692
539.435328	45259.428819
539.795497	45128.789838
540.155609	45131.489376
540.515665	45577.858343
540.875665	45031.616556
541.235609	45356.881885
541.595496	45319.947871
541.955328	46002.275606
542.315102	45371.476025
542.674821	45194.163521
543.034483	45201.783225
543.394090	45194.387852
543.753640	45145.617209
544.113134	46137.103786
544.472571	45170.608730
544.831953	46372.225722
545.191278	45615.175484
545.550548	45328.689232
545.909761	45790.297607
546.268918	45990.869995
546.628019	46300.558158
546.987064	45866.388783
547.346053	45157.584909
547.704986	46013.184663
548.063863	45601.579492
548.422684	45786.794005
548.781449	45653.233675
549.140158	46041.420166
549.498811	45890.288894
549.857408	45333.150653
550.215949	46158.382497
550.574434	46089.487567
550.932864	45885.477113
551.291237	46583.707167
551.649555	46200.985288
552.007817	46443.121989
552.366022	46091.153669
552.724173	46272.463808
553.082267	46667.012234
553.440305	46962.466700
553.798288	46300.016234
554.156215	46608.867566
554.514086	46813.515727
554.871902	46545.225519
555.229661	46577.864470
555.587365	46409.252997
555.945014	46508.467946
556.302606	46435.855166
556.660143	46655.135276
557.017625	46755.159330
557.375050	46562.224290
557.732421	46910.149605
558.089735	46891.212511
558.446994	46809.228226
558.804197	47263.784027
559.161345	47203.733802
559.518437	46489.724936
559.875474	46790.344063
560.232455	46959.464692
560.589381	47125.255640
560.946251	46832.765373
561.303065	47504.355450
561.659825	47321.001123
562.016528	47005.019079
562.373177	46724.599855
562.729770	47195.526804
563.086307	46727.957264
563.442789	47180.741099
563.799216	47232.125581
564.155587	47034.403965
564.511904	47053.101605
564.868164	47157.178746
565.224370	47393.805467
565.580520	47116.466388
565.936615	47346.095987
566.292654	47068.323369
566.648638	47298.169737
567.004567	47263.358049
567.360441	47303.198288
567.716260	47152.124990
568.072023	47455.042883
568.427732	47455.877194
568.783385	47000.058584
569.138982	47406.746109
569.494525	47365.302783
569.850013	47134.508678
570.205445	47100.337216
570.560823	47057.220227
570.916145	46925.867923
571.271412	46971.155128
571.626625	46719.740183
571.981782	46790.941440
572.336884	46467.548900
572.691931	46802.420147
573.046923	46393.207004
573.401860	46246.363234
573.756743	46234.403097
574.111570	46353.752414
574.466342	46192.480861
574.821059	46321.254616
575.175722	45855.663729
575.530330	45864.384925
575.884882	45580.701554
576.239380	45558.361681
576.593823	45527.824891
576.948211	45446.523682
577.302544	44978.928937
577.656823	45029.690836
578.011047	45236.549542
578.365216	44967.800590
578.719330	44759.550524
579.073389	44612.167351
579.427394	44707.296444
579.781344	44675.406105
580.135239	44340.194580
580.489080	44410.438018
580.842866	43912.097275
581.196597	44362.547056
581.550273	44297.385102
581.903895	44154.838915
582.257463	44592.093476
582.610975	43997.272610
582.964434	44255.193164
583.317837	43911.361266
583.671186	43749.827574
584.024481	43981.108150
584.377721	43499.292310
584.730906	43795.253411
585.084037	43820.323069
585.437113	43525.198799
585.790135	43569.371910
586.143103	43184.114330
586.496016	43299.801249
586.848874	43313.709793
587.201679	43331.341228
587.554428	42819.664113
587.907124	43016.924463
588.259765	42778.777835
588.612352	43008.838452
588.964884	42421.833895
589.317362	42705.318141
589.669786	42656.761747
590.022155	42429.619958
590.374470	42849.830378
590.726731	42371.976884
591.078937	41889.407391
591.431090	41997.519976
591.783188	41650.746565
592.135232	41332.586743
592.487222	41581.473549
592.839157	41657.436176
593.191038	41345.003105
593.542866	41108.908226
593.894639	40510.142657
594.246358	40795.771914
594.598022	40752.153330
594.949633	40368.173683
595.301190	40328.683804
595.652692	40183.831289
596.004141	40492.904432
596.355535	39527.430209
596.706876	39477.248043
597.058162	39305.342176
597.409395	39769.130851
597.760573	39847.606492
598.111698	39428.051423
598.462768	39426.929766
598.813785	39474.545984
599.164748	38949.358577
599.515657	39324.133077
599.866511	38808.460847
600.217312	39417.825442
600.568060	38396.472549
600.918753	39125.246955
601.269392	39098.017163
601.619978	38751.316848
601.970510	38963.226791
602.320988	39147.692692
602.671412	39446.479360
603.021783	39172.467443
603.372100	38829.374074
603.722363	38937.501783
604.072572	39015.720326
604.422728	39031.541987
604.772830	38867.621308
605.122878	38937.244684
605.472872	38874.525168
605.822813	39161.994446
606.172701	38992.707459
606.522534	39216.552333
606.872314	39476.973300
607.222041	39230.362574
607.571714	39624.222883
607.921333	39083.559133
608.270899	39374.831961
608.620411	39693.944562
608.969870	39503.482208
609.319276	39490.108026
609.668627	39550.632119
610.017926	40028.132732
610.367171	40175.594044
610.716362	40278.282348
611.065500	40203.948014
611.414585	40404.422099
611.763616	40708.156660
612.112594	40630.759825
612.461518	40842.208502
612.810389	41132.044602
613.159207	41007.679336
613.507971	41073.778945
613.856682	41539.999977
614.205340	41433.727412
614.553945	42119.735189
614.902496	41578.282499
615.250994	42038.320555
615.599439	42115.067081
615.947830	42313.670898
616.296169	42377.383521
616.644454	42489.037517
616.992686	42673.301773
617.340864	43202.897669
617.688990	42895.483067
618.037063	43516.969116
618.385082	43486.581040
618.733048	43783.867965
619.080961	43781.594405
619.428821	43788.057164
619.776628	43881.542841
620.124382	43725.907299
620.472083	43838.929968
620.819731	43953.827946
621.167326	43635.607630
621.514868	43621.169766
621.862357	43188.855535
622.209793	43214.250348
622.557176	42878.905232
622.904506	42635.520845
623.251783	42292.901345
623.599007	42084.590785
623.946179	41843.371574
624.293297	41796.753504
624.640363	41208.166025
624.987376	41189.337315
625.334336	40957.043466
625.681243	40610.012956
626.028097	40579.168656
626.374899	40425.897415
626.721647	40407.454353
627.068343	40299.245986
627.414987	40056.123739
627.761577	39856.972956
628.108115	40179.490856
628.454600	39640.518413
628.801032	39814.667593
629.147412	39785.121391
629.493739	39787.309251
629.840014	39451.170154
630.186236	39791.420312
630.532405	39409.076519
630.878521	39632.510540
631.224585	39487.680711
631.570597	39217.996624
631.916556	39367.199654
632.262462	39319.391872
632.608316	39347.138383
632.954117	39233.157894
633.299866	39229.946679
633.645562	39128.526226
633.991206	38646.831373
634.336797	38215.253151
634.682336	38220.997546
635.027823	37962.731672
635.373257	37794.248749
635.718639	37546.042498
636.063968	37414.211284
636.409245	36848.737495
636.754470	36894.697695
637.099642	36668.982552
637.444762	36193.669800
637.789829	36334.154155
638.134845	35987.577348
638.479808	35948.110155
638.824719	35859.355600
639.169577	35442.815140
639.514383	35522.929157
639.859137	35222.713322
640.203839	35470.433102
640.548489	35098.668170
640.893086	35182.192528
641.237632	34909.836629
641.582125	35035.373963
641.926566	34971.406762
642.270955	34942.021876
642.615292	34961.329495
642.959576	34926.094351
643.303809	34928.073003
643.647990	35081.094708
643.992118	35047.923916
644.336195	35045.957866
644.680219	35121.083661
645.024192	35431.326351
645.368112	35942.078414
645.711981	35967.984904
646.055797	36826.556418
646.399562	36756.396160
646.743274	37695.051444
647.086935	38140.417222
647.430544	38017.287039
647.774101	38139.356059
648.117606	38372.620330
648.461059	38671.991772
648.804460	38289.882392
649.147810	37682.632562
649.491108	37430.663090
649.834354	37077.507577
650.177548	36246.990084
650.520690	35800.139687
650.863781	35806.403320
651.206820	35667.441394
651.549807	35241.239563
651.892742	34759.045636
652.235626	34566.781069
652.578458	34447.860250
652.921238	33843.257025
653.263967	34165.721993
653.606644	33852.104250
653.949269	33801.087773
654.291843	33404.230498
654.634365	33822.411854
654.976836	33402.440889
655.319255	33419.600976
655.661622	33407.527413
656.003938	33181.605583
656.346203	33055.624627
656.688416	33280.628968
657.030577	33071.547112
657.372687	32909.854623
657.714746	33178.769934
658.056753	33298.058757
658.398708	32766.242232
658.740612	32812.983811
659.082465	33080.527928
659.424266	32907.938984
659.766016	33026.574978
660.107715	32904.999992
660.449362	33048.380489
660.790958	33021.473331
661.132503	33040.501166
661.473996	33073.906372
661.815438	33170.560415
662.156829	33392.330855
662.498168	33157.027437
662.839456	33192.615463
663.180693	33323.446008
663.521879	33483.280832
663.863013	33434.812658
664.204097	33431.901392
664.545129	33906.468053
664.886110	33865.281826
665.227040	33936.475521
665.567918	34042.969896
665.908746	34097.270685
666.249522	34283.601813
666.590248	34275.057058
666.930922	34383.824993
667.271545	34365.144998
667.612118	34443.976041
667.952639	34219.256526
668.293109	34264.163124
668.633528	34167.327600
668.973896	34085.577729
669.314213	34124.291270
669.654480	33860.187740
669.994695	33894.366763
670.334859	33783.746204
670.674973	33695.110116
671.015035	33849.583673
671.355047	33780.650935
671.695008	33739.701643
672.034918	33634.218019
672.374777	33721.674477
672.714585	33556.879157
673.054342	33792.187616
673.394049	33560.397883
673.733705	33822.686597
674.073310	33506.318905
674.412864	33578.374637
674.752368	33178.301106
675.091820	33461.520691
675.431223	33046.074162
675.770574	32773.289765
676.109875	32643.190187
676.449125	32364.976468
676.788324	32277.066307
677.127473	31748.140884
677.466571	31668.538544
677.805619	31328.326194
678.144616	31327.146564
678.483562	31252.217374
678.822458	30930.508580
679.161303	30864.663549
679.500098	30765.327612
679.838842	30662.651911
680.177535	30810.680353
680.516179	31070.723233
680.854771	31322.549032
681.193314	32192.503472
681.531805	33310.800273
681.870247	34099.503916
682.208638	34834.599929
682.546978	35056.503959
682.885268	35132.164117
683.223508	34606.603664
683.561697	34257.554172
683.899836	34071.704473
684.237925	33575.992692
684.575963	33433.529684
684.913951	32974.215034
685.251889	33131.894765
685.589776	33113.784419
685.927614	33106.313429
686.265401	33264.376288
686.603137	33359.515464
686.940824	33869.264338
687.278460	34251.842544
687.616046	34398.794699
687.953582	34997.472048
688.291068	34857.380903
688.628504	35140.071167
688.965889	35073.137247
689.303224	34678.596382
689.640510	34329.146118
689.977745	33601.344655
690.314930	32801.860505
690.652065	32282.001597
690.989150	31545.083207
691.326185	30636.344650
691.663170	29941.320769
692.000105	29179.471353
692.336990	28505.637962
692.673825	28046.759372
693.010610	27522.970884
693.347345	26952.866796
693.684030	26312.378117
694.020665	26049.602932
694.357251	25367.244950
694.693786	25325.405894
695.030272	25088.456540
695.366707	24554.520209
695.703093	24254.937039
696.039429	24240.998249
696.375716	23993.565815
696.711952	23962.650939
697.048139	23802.674963
697.384276	23629.392861
697.720363	23752.671758
698.056400	23550.443351
698.392388	23335.198685
698.728326	23301.107882
699.064214	23082.992278
699.400053	23034.317417
699.735842	22675.435154
700.071581	22391.782030
700.407270	22108.890121
700.742910	21905.522413
701.078501	21649.444400
701.414042	21368.301771
701.749533	21073.487532
702.084974	20726.825026
702.420366	20924.750808
702.755709	20483.856534
703.091002	20201.758606
703.426246	20220.935155
703.761440	20114.889443
704.096584	19843.619913
704.431679	19808.246137
704.766725	19716.199709
705.101721	19665.863788
705.436668	19744.735160
705.771565	19421.224153
706.106413	19769.789695
706.441212	19740.709799
706.775961	19870.559840
707.110661	19948.843918
707.445311	20297.855601
707.779913	20151.334465
708.114465	20386.337934
708.448967	20686.105106
708.783421	21374.046166
709.117825	21653.341212
709.452180	21863.295187
709.786485	22269.050099
710.120742	23068.130957
710.454949	23093.354370
710.789107	23562.685793
711.123216	24253.631380
711.457275	24376.045719
711.791286	24928.465440
712.125247	24984.921322
712.459159	24687.594068
712.793023	25334.487532
713.126837	24238.933896
713.460602	24488.934798
713.794318	24093.496608
714.127985	23717.870152
714.461602	22819.506290
714.795171	22778.955249
715.128691	21764.982605
715.462162	21231.361347
715.795584	20802.447375
716.128957	20543.775689
716.462281	20139.051693
716.795556	19896.436082
717.128782	19416.808103
717.461960	18876.378766
717.795088	18795.899266
718.128167	18392.624602
718.461198	17920.679341
718.794180	17794.683262
719.127113	17424.360100
719.459997	17222.819811
719.792833	16873.704783
720.125619	16849.948346
720.458357	16535.113165
720.791046	16367.504882
721.123686	16205.580500
721.456278	15978.950387
721.788821	15929.501709
722.121315	15667.744837
722.453761	15749.063690
722.786158	15669.695763
723.118506	15684.287383
723.450805	15545.791764
723.783056	15704.814962
724.115259	15606.404077
724.447412	15544.208841
724.779518	15782.541992
725.111574	15807.649459
725.443582	16000.670199
725.775542	15978.564739
726.107453	16456.496371
726.439315	16340.980851
726.771129	16734.450470
727.102895	17109.293026
727.434612	17315.423286
727.766281	17443.871886
728.097901	17701.046350
728.429473	17733.415599
728.760996	17714.707877
729.092471	17807.213050
729.423897	17676.584151
729.755276	17549.436168
730.086606	17657.079927
730.417887	18185.667593
730.749120	18695.136683
731.080305	18869.858034
731.411442	19197.472540
731.742530	19263.241953
732.073570	19367.223313
732.404562	19653.873403
732.735506	19463.078333
733.066401	19195.027580
733.397249	18660.133431
733.728048	18033.399541
734.058798	17187.536775
734.389501	16510.608116
734.720156	16060.866617
735.050762	15531.023703
735.381320	15174.273849
735.711831	14927.698411
736.042293	14591.690384
736.372707	14597.543163
736.703073	14401.384306
737.033391	14577.350822
737.363661	14545.364701
737.693883	14654.747657
738.024056	14826.711497
738.354182	15010.839641
738.684260	15289.199553
739.014290	15517.117681
739.344272	15714.148658
739.674207	15992.440515
740.004093	16097.326762
740.333931	16081.840337
740.663722	16129.350692
740.993464	16114.237312
741.323159	15943.463185
741.652806	15665.166287
741.982405	15442.783347
742.311956	15112.799498
742.641460	14994.861704
742.970915	14692.889027
743.300323	14353.742881
743.629683	14136.128873
743.958996	13865.832286
744.288260	13594.986213
744.617477	13300.769351
744.946647	13224.700860
745.275768	12948.682563
745.604842	12760.889500
745.933869	12594.291969
746.262847	12551.661451
746.591778	12467.401085
746.920662	12370.739481
747.249498	12374.790048
747.578286	12486.242398
747.907027	12634.656487
748.235720	12857.294006
748.564365	12880.563972
748.892963	12787.365640
749.221514	12851.174045
749.550017	12707.480996
749.878473	12662.685303
750.206881	12435.979573
750.535242	12347.565297
750.863555	12264.156886
751.191821	12163.608552
751.520039	12195.713140
751.848210	12092.039290
752.176334	12123.317129
752.504411	12031.164837
752.832440	11878.276723
753.160421	11937.419540
753.488356	11822.493835
753.816243	11727.727705
754.144082	11587.321488
754.471875	11529.292766
754.799620	11477.963738
755.127318	11448.750251
755.454969	11405.686194
755.782572	11362.123063
756.110129	11378.335414
756.437638	11295.542024
756.765100	11283.438213
757.092515	11282.583738
757.419882	11301.727520
757.747203	11309.972327
758.074477	11380.258614
758.401703	11338.621204
758.728882	11504.328972
759.056014	11549.079295
759.383099	11649.146199
759.710138	11755.285172
760.037129	11841.647699
760.364073	11852.287055
760.690970	11839.994201
761.017820	11839.094355
761.344623	12027.275587
761.671379	12343.388701
761.998088	12980.557779
762.324751	14538.123083
762.651366	17414.502124
762.977935	21067.995195
763.304456	23280.930663
763.630931	23747.126489
763.957359	22564.852404
764.283740	20641.997530
764.610074	18771.623589
764.936362	16643.729866
765.262602	15131.328259
765.588796	13657.118434
765.914943	12628.816311
766.241044	11779.974223
766.567097	11153.194963
766.893104	10603.590726
767.219064	10245.751982
767.544978	9863.771152
767.870845	9551.708606
768.196665	9366.310091
768.522438	9166.244339
768.848165	8998.661262
769.173846	8837.505655
769.499479	8714.980411
769.825066	8558.427378
770.150607	8382.052529
770.476101	8310.911766
770.801548	8201.813635
771.126949	8063.227274
771.452303	7971.243861
771.777611	7813.793503
772.102872	7791.224257
772.428087	7675.244951
772.753256	7547.219808
773.078378	7456.554656
773.403453	7317.285219
773.728482	7219.847277
774.053465	7152.855384
774.378401	7066.248361
774.703291	6975.043805
775.028135	6876.935390
775.352932	6843.293249
775.677683	6755.395691
776.002388	6666.081568
776.327046	6664.811198
776.651658	6576.144863
776.976224	6506.773545
777.300743	6488.600185
777.625216	6426.377223
777.949643	6375.640531
778.274024	6384.618826
778.598359	6316.228012
778.922647	6318.367982
779.246889	6282.187621
779.571086	6288.005112
779.895236	6303.380631
780.219339	6297.835362
780.543397	6296.156658
780.867409	6344.675243
781.191374	6341.332958
781.515294	6310.523946
781.839167	6359.370207
782.162995	6335.124777
782.486776	6284.433455
782.810511	6242.178503
783.134201	6161.825031
783.457844	6150.495038
783.781441	6104.713799
784.104993	6061.047325
784.428498	6033.245361
784.751958	6011.938925
785.075372	5986.831458
785.398739	5949.773936
785.722061	5974.160518
786.045337	5975.698070
786.368568	6086.401808
786.691752	6109.991888
787.014891	6355.574218
787.337983	6635.580067
787.661030	7075.476193
787.984031	7497.483784
788.306987	7763.611337
788.629897	7849.484872
788.952760	7766.557891
789.275579	7582.623831
789.598351	7281.959334
789.921078	7019.947883
790.243759	6744.685760
790.566395	6537.822012
790.888984	6344.239183
791.211529	6203.820363
791.534027	6043.347834
791.856480	5902.553448
792.178888	5846.916753
792.501249	5779.995436
792.823566	5670.083159
793.145836	5666.919835
793.468062	5648.207072
793.790241	5606.718376
794.112375	5656.033463
794.434464	5748.795735
794.756507	5781.343945
795.078505	5901.434312
795.400457	6120.109483
795.722364	6357.832655
796.044226	6551.667541
796.366042	6713.526388
796.687812	6653.791235
797.009538	6686.586462
797.331218	6585.982675
797.652852	6523.885742
797.974442	6398.562657
798.295986	6328.321740
798.617484	6205.320107
798.938938	6094.699547
799.260346	6026.366707
799.581709	5886.744389
799.903026	5836.836966
800.224299	5760.337457
800.545526	5646.901413
800.866708	5578.997071
801.187845	5532.401686
801.508936	5450.896310
801.829983	5428.143062
802.150984	5321.676414
802.471940	5295.880829
802.792851	5281.231236
803.113717	5259.254326
803.434538	5226.549841
803.755314	5198.737795
804.076045	5186.881001
804.396731	5149.551257
804.717372	5173.393394
805.037967	5168.647148
805.358518	5199.614956
805.679024	5258.609058
805.999485	5268.623311
806.319901	5290.690962
806.640272	5304.493641
806.960598	5348.853274
807.280879	5340.948745
807.601115	5378.069281
807.921306	5341.646945
808.241453	5337.971943
808.561554	5348.265980
808.881611	5314.679292
809.201623	5307.755267
809.521590	5260.136528
809.841513	5239.172890
810.161390	5260.209625
810.481223	5168.952137
810.801011	5159.605838
811.120755	5136.731603
811.440453	5078.599537
811.760107	5052.347728
812.079716	5023.172050
812.399281	4972.785718
812.718801	4967.684070
813.038276	4934.155356
813.357707	4895.961054
813.677093	4916.783540
813.996434	4860.393193
814.315731	4880.565370
814.634983	4875.274679
814.954191	4880.560329
815.273354	4941.386891
815.592473	4974.928208
815.911547	5054.384354
816.230577	5110.671358
816.549562	5200.192168
816.868502	5251.279221
817.187399	5303.835770
817.506250	5390.843565
817.825058	5410.178911
818.143821	5567.616666
818.462539	5734.962809
818.781213	5966.389579
819.099843	6331.853068
819.418429	6959.277597
819.736970	7581.731547
820.055466	8288.387890
820.373919	9209.308396
820.692327	10658.567030
821.010691	13361.648845
821.329011	19593.624053
821.647286	29206.469252
821.965517	39590.815157
822.283704	45066.080405
822.601847	46552.585604
822.919945	41950.848974
823.237999	36803.450290
823.556010	31587.834712
823.873976	26864.316408
824.191897	22643.418786
824.509775	19566.084230
824.827609	16795.392979
825.145398	15233.492283
825.463144	14468.545078
825.780845	14760.609367
826.098502	16030.720517
826.416116	18499.834821
826.733685	20802.185235
827.051210	21319.067342
827.368692	19868.682010
827.686129	17308.728634
828.003522	14826.209902
828.320872	12593.283738
828.638177	10937.589854
828.955439	9693.692704
829.272656	8634.987382
829.589830	7787.554297
829.906960	7051.437451
830.224046	6517.619587
830.541088	6111.859635
830.858086	5848.759295
831.175041	5647.161032
831.491952	5586.606692
831.808819	5621.335201
832.125642	5869.753180
832.442421	6420.852119
832.759157	7533.780092
833.075849	9310.980907
833.392497	11158.876343
833.709101	12280.437292
834.025662	12033.299766
834.342179	10967.108330
834.658653	9654.114605
834.975083	8547.858599
835.291469	7646.059191
835.607811	6902.829276
835.924110	6381.463063
836.240366	5897.103961
836.556578	5441.209733
836.872746	5084.225465
837.188871	4811.889731
837.504952	4589.073252
837.820990	4421.051594
838.136984	4308.485149
838.452935	4258.857510
838.768842	4290.231131
839.084706	4573.531374
839.400526	5318.583666
839.716303	6222.671758
840.032037	6798.923534
840.347727	6644.220605
840.663373	6041.321290
840.978977	5462.927024
841.294537	5019.645763
841.610054	4689.041853
841.925527	4445.907003
842.240957	4240.137185
842.556344	4055.462076
842.871687	3896.958117
843.186987	3746.482195
843.502244	3630.560862
843.817458	3540.661966
844.132629	3471.131851
844.447756	3421.133687
844.762840	3378.828324
845.077881	3335.066068
845.392879	3303.952066
845.707833	3276.223199
846.022745	3251.960126
846.337613	3240.100812
846.652438	3216.407388
846.967221	3205.180739
847.281960	3185.353881
847.596656	3178.775175
847.911309	3167.442661
848.225919	3154.252482
848.540485	3141.364772
848.855009	3136.689102
849.169490	3122.697380
849.483928	3115.818725
849.798323	3113.237654
850.112675	3101.111159
850.426984	3103.684668
850.741251	3095.432299
851.055474	3091.676639
851.369654	3092.609253
851.683792	3088.384766
851.997887	3092.087493
852.311938	3092.919284
852.625947	3094.661003
852.939914	3089.307297
853.253837	3090.917946
853.567718	3090.159252
853.881555	3085.163469
854.195350	3089.677822
854.509103	3087.757142
854.822812	3082.978128
855.136479	3080.021492
855.450103	3082.443766
855.763685	3077.752972
856.077224	3079.219948
856.390720	3089.181268
856.704173	3098.298195
857.017584	3105.164247
857.330953	3109.237499
857.644278	3116.355608
857.957561	3118.984570
858.270802	3120.454066
858.584000	3119.496247
858.897155	3110.384361
859.210268	3101.108638
859.523339	3089.526587
859.836367	3086.464086
860.149352	3080.724733
860.462295	3079.207345
860.775195	3070.254256
861.088054	3063.473904
861.400869	3062.800910
861.713642	3064.046075
862.026373	3068.512537
862.339062	3072.230388
862.651708	3084.956781
862.964312	3097.920108
863.276873	3107.369751
863.589392	3137.490646
863.901869	3165.670696
864.214303	3184.469158
864.526696	3201.389791
864.839045	3221.728326
865.151353	3236.924885
865.463619	3233.844740
865.775842	3238.593507
866.088023	3244.489136
866.400162	3236.153588
866.712258	3238.376737
867.024313	3232.909606
867.336325	3231.641755
867.648296	3234.230388
867.960224	3232.685274
868.272110	3232.849112
868.583954	3235.667117
868.895755	3242.487798
869.207515	3241.010740
869.519233	3259.675612
869.830909	3269.321860
870.142542	3278.068262
870.454134	3286.595373
870.765684	3293.993267
871.077191	3312.940443
871.388657	3328.162208
871.700081	3346.746421
872.011463	3367.992364
872.322803	3387.690673
872.634101	3403.345976
872.945357	3423.989501
873.256571	3451.375569
873.567744	3465.395018
873.878874	3472.553457
874.189963	3488.876713
874.501010	3490.194974
874.812015	3486.525014
875.122979	3502.545801
875.433900	3498.661592
875.744780	3504.441275
876.055618	3510.397398
876.366415	3508.585104
876.677169	3516.058614
876.987882	3530.083104
877.298554	3552.112947
877.609183	3589.508226
877.919771	3638.909013
878.230317	3708.169426
878.540822	3812.692709
878.851285	3964.507058
879.161707	4185.899411
879.472087	4564.444694
879.782425	5196.476837
880.092722	6386.315174
880.402977	8338.897731
880.713191	10728.797864
881.023363	13135.013692
881.333494	14484.230628
881.643583	14951.308655
881.953631	14545.894022
882.263637	13697.407336
882.573602	12643.012200
882.883526	11683.743638
883.193408	10720.636236
883.503248	9793.552921
883.813048	8958.412689
884.122806	8187.103548
884.432522	7416.817761
884.742197	6748.842191
885.051831	6181.989647
885.361424	5677.738151
885.670975	5281.788284
885.980485	4952.989107
886.289954	4681.709495
886.599382	4466.782421
886.908768	4286.127632
887.218113	4119.273001
887.527417	3987.877847
887.836680	3861.417982
888.145901	3762.934000
888.455082	3683.903832
888.764221	3614.222482
889.073319	3553.700910
889.382376	3521.419881
889.691392	3496.544308
890.000366	3492.042557
890.309300	3483.964108
890.618193	3487.916373
890.927044	3484.627020
891.235855	3491.672033
891.544625	3502.918847
891.853353	3533.349772
892.162041	3595.177003
892.470687	3685.252340
892.779293	3807.333963
893.087858	3979.015498
893.396381	4263.548304
893.704864	4680.487015
894.013306	5249.756792
894.321707	5828.309855
894.630068	6194.093457
894.938387	6234.677266
895.246665	6049.987033
895.554903	5727.393516
895.863100	5388.302823
896.171256	5120.897338
896.479371	4874.773084
896.787446	4649.259587
897.095480	4448.636788
897.403473	4300.278151
897.711425	4151.833814
898.019336	4026.021737
898.327207	3907.771392
898.635038	3804.891524
898.942827	3695.831202
899.250576	3607.651338
899.558284	3523.007845
899.865952	3467.361068
900.173579	3402.965369
900.481165	3358.361240
900.788711	3313.134528
901.096216	3284.087399
901.403681	3256.005652
901.711105	3244.834455
902.018489	3239.810945
902.325832	3271.245060
902.633135	3330.357630
902.940397	3507.473529
903.247619	3911.627874
903.554800	4675.750851
903.861941	5646.871166
904.169041	6364.038315
904.476101	6577.929432
904.783121	6299.637575
905.090100	5891.049535
905.397039	5471.350792
905.703938	5110.101707
906.010796	4781.020225
906.317614	4522.779558
906.624391	4283.765851
906.931129	4085.950974
907.237826	3903.867018
907.544483	3731.207499
907.851099	3563.044689
908.157675	3402.194072
908.464211	3256.078749
908.770707	3154.381032
909.077163	3071.489339
909.383578	3011.055987
909.689954	2965.254583
909.996289	2939.244750
910.302584	2915.727767
910.608839	2901.368041
910.915054	2892.871176
911.221229	2887.940927
911.527363	2892.843449
911.833458	2897.506517
912.139513	2913.111408
912.445527	2924.665733
912.751502	2959.709314
913.057436	3004.636077
913.363331	3059.632545
913.669186	3147.262922
913.975000	3267.373454
914.280775	3459.832105
914.586510	3728.011407
914.892205	4107.585086
915.197859	4612.781798
915.503475	5203.098393
915.809050	5706.974323
916.114585	5996.066852
916.420081	6064.566050
916.725536	5997.556513
917.030952	5759.316623
917.336328	5548.520775
917.641665	5334.937169
917.946961	5104.158187
918.252218	4902.471704
918.557435	4669.114172
918.862612	4470.560766
919.167750	4293.724651
919.472848	4102.859004
919.777906	3935.470011
920.082925	3775.889766
920.387904	3617.710961
920.692843	3505.580576
920.997743	3407.630957
921.302603	3311.047490
921.607423	3243.526276
921.912204	3179.710309
922.216946	3129.618884
922.521647	3081.564085
922.826310	3038.477343
923.130932	2999.668020
923.435516	2960.089921
923.740059	2931.695622
924.044564	2901.287382
924.349028	2874.556664
924.653454	2845.922910
924.957840	2821.629590
925.262186	2800.277782
925.566493	2778.794905
925.870761	2752.139804
926.174989	2741.306365
926.479178	2727.276834
926.783328	2710.399051
927.087438	2700.795652
927.391509	2688.921215
927.695541	2674.440500
927.999533	2661.436844
928.303486	2655.130360
928.607400	2648.380255
928.911275	2644.460758
929.215110	2635.081692
929.518906	2636.503297
929.822663	2632.843419
930.126381	2634.443986
930.430060	2637.708133
930.733699	2640.281642
931.037299	2641.862043
931.340861	2639.938843
931.644383	2646.391520
931.947866	2644.601911
932.251309	2643.167702
932.554714	2639.631333
932.858080	2638.277783
933.161407	2636.399953
933.464694	2631.719242
933.767943	2626.950310
934.071153	2625.788324
934.374323	2620.114506
934.677455	2616.623507
934.980548	2615.063270
935.283602	2611.496653
935.586617	2610.175871
935.889593	2614.100409
936.192530	2615.345574
936.495428	2619.617952
936.798287	2629.685136
937.101108	2643.636530
937.403890	2665.799962
937.706632	2690.930114
938.009336	2727.942266
938.312002	2757.445619
938.614628	2778.525204
938.917216	2798.659572
939.219765	2804.792136
939.522275	2816.762356
939.824747	2818.486430
940.127179	2811.398568
940.429573	2807.731128
940.731929	2802.478246
941.034246	2793.802420
941.336524	2792.151442
941.638763	2786.344033
941.940964	2780.062756
942.243126	2763.429468
942.545250	2754.204157
942.847335	2737.722104
943.149381	2725.530074
943.451389	2711.911397
943.753359	2700.052082
944.055290	2690.862059
944.357182	2683.345698
944.659036	2675.932682
944.960851	2673.669204
945.262628	2670.379851
945.564367	2668.297854
945.866067	2668.479336
946.167729	2668.565035
946.469352	2664.229643
946.770937	2662.981957
947.072484	2654.437202
947.373992	2654.522901
947.675462	2650.232879
947.976893	2646.628454
948.278286	2646.245327
948.579641	2641.158802
948.880958	2635.497587
949.182236	2638.194604
949.483476	2630.247225
949.784678	2634.138996
950.085841	2633.924747
950.386967	2637.352731
950.688054	2643.051756
950.989103	2651.326810
951.290114	2659.130516
951.591087	2673.003771
951.892021	2683.446522
952.192917	2698.144006
952.493776	2709.400902
952.794596	2708.869060
953.095378	2713.456510
953.396122	2712.768393
953.696828	2708.039791
953.997496	2702.302957
954.298126	2694.219467
954.598718	2686.889630
954.899272	2672.749193
955.199788	2661.063798
955.500266	2650.890750
955.800706	2635.575725
956.101108	2617.067128
956.401472	2605.447269
956.701798	2591.929415
957.002087	2576.495922
957.302337	2570.655745
957.602550	2556.399362
957.902724	2545.606252
958.202861	2533.656197
958.502960	2526.679240
958.803022	2523.868797
959.103045	2514.663650
959.403031	2507.500170
959.702979	2504.286434
960.002889	2497.569097
960.302762	2495.746720
960.602596	2487.101141
960.902393	2487.086017
961.202153	2481.676859
961.501875	2479.937661
961.801559	2474.818370
962.101205	2473.331229
962.400814	2474.314254
962.700385	2470.677062
962.999918	2468.993316
963.299414	2466.601289
963.598873	2465.315795
963.898293	2463.448047
964.197677	2464.821762
964.497022	2459.969651
964.796331	2460.337655
965.095601	2454.983950
965.394835	2457.723817
965.694030	2456.208950
965.993189	2457.716255
966.292309	2457.454115
966.591393	2454.603343
966.890439	2456.667695
967.189447	2456.090483
967.488419	2455.568724
967.787353	2458.338838
968.086249	2456.917232
968.385108	2458.527881
968.683930	2459.526029
968.982714	2458.744651
969.281462	2459.057202
969.580172	2462.767491
969.878844	2464.917543
970.177480	2466.835703
970.476078	2471.279480
970.774639	2472.756538
971.073162	2477.286014
971.371649	2476.718885
971.670098	2475.682928
971.968510	2479.085706
972.266885	2479.420943
972.565223	2484.699031
972.863524	2482.957312
973.161788	2484.666264
973.460014	2487.280102
973.758204	2487.106182
974.056356	2490.544249
974.354471	2489.142808
974.652550	2490.622387
974.950591	2490.657675
975.248595	2487.922849
975.546563	2486.360091
975.844493	2484.351192
976.142386	2483.378249
976.440243	2479.015130
976.738062	2480.852631
977.035845	2477.079327
977.333590	2472.151599
977.631299	2472.504480
977.928971	2469.424335
978.226606	2470.198152
978.524204	2467.256639
978.821765	2465.774540
979.119290	2465.746813
979.416777	2464.857050
979.714228	2463.841257
980.011642	2467.397791
980.309020	2470.180508
980.606360	2474.404995
980.903664	2483.174082
981.200931	2500.122441
981.498162	2519.485513
981.795356	2547.410985
982.092513	2587.984712
982.389633	2631.593213
982.686717	2671.834224
982.983764	2706.590459
983.280775	2722.676781
983.577749	2724.942779
983.874686	2715.329299
984.171587	2698.640559
984.468451	2680.999041
984.765279	2663.365085
985.062070	2646.394041
985.358824	2626.587347
985.655543	2602.057093
985.952224	2580.606983
986.248869	2555.000442
986.545478	2527.006915
986.842050	2507.822804
987.138586	2487.706079
987.435086	2471.907103
987.731549	2462.253294
988.027975	2457.973354
988.324366	2454.283229
988.620719	2445.887188
988.917037	2440.737649
989.213318	2439.058945
989.509563	2435.620878
989.805772	2434.988213
990.101944	2433.677513
990.398080	2433.468305
990.694180	2434.932760
990.990244	2434.131217
991.286271	2431.938315
991.582262	2434.882349
991.878217	2433.317071
992.174136	2435.938471
992.470019	2437.140786
992.765865	2437.642381
993.061676	2440.944336
993.357450	2443.553133
993.653188	2442.670932
993.948890	2451.225770
994.244556	2457.554938
994.540186	2466.450054
994.835780	2479.441108
995.131337	2492.439723
995.426859	2510.171982
995.722345	2529.887934
996.017795	2549.324103
996.313208	2564.543346
996.608586	2571.369069
996.903928	2576.589183
997.199234	2574.688668
997.494504	2572.359655
997.789738	2563.817420
998.084936	2552.134546
998.380099	2540.713812
998.675225	2531.029756
998.970316	2519.200688
999.265371	2502.827020
999.560390	2489.467963
999.855373	2478.775675
1000.150320	2468.630353
1000.445232	2460.065433
1000.740108	2450.215018
1001.034948	2445.584718
1001.329752	2441.864347
1001.624521	2439.242947
1001.919254	2427.134095
1002.213951	2425.500762
1002.508613	2425.591502
1002.803239	2425.331883
1003.097829	2421.298960
1003.392384	2420.532704
1003.686903	2423.310380
1003.981386	2421.122519
1004.275834	2422.231573
1004.570246	2417.475245
1004.864623	2417.991963
1005.158964	2417.606315
1005.453270	2415.499112
1005.747540	2418.707807
1006.041775	2414.649678
1006.335974	2415.751170
1006.630138	2416.126736
1006.924266	2414.674884
1007.218359	2414.765624
1007.512416	2415.854514
1007.806438	2414.856365
1008.100425	2412.305541
1008.394376	2411.758576
1008.688292	2412.025757
1008.982172	2413.739750
1009.276017	2414.145563
1009.569827	2412.335788
1009.863602	2412.935686
1010.157341	2411.178843
1010.451045	2410.760428
1010.744714	2407.977711
1011.038347	2408.907804
1011.331945	2407.851682
1011.625508	2411.801426
1011.919036	2410.760428
1012.212528	2409.419481
1012.505986	2408.368400
1012.799408	2408.370921
1013.092795	2408.844789
1013.386147	2408.698596
1013.679464	2408.428894
1013.972745	2408.295303
1014.265992	2407.236661
1014.559204	2409.979049
1014.852380	2409.432084
1015.145521	2406.230951
1015.438628	2406.740108
1015.731699	2408.166754
1016.024736	2409.941240
1016.317737	2410.737742
1016.610703	2407.748338
1016.903635	2406.588873
1017.196531	2407.022412
1017.489393	2409.361507
1017.782219	2406.031825
1018.075011	2412.471899
1018.367768	2409.795047
1018.660490	2409.893349
1018.953177	2409.893349
1019.245829	2409.893349
