Dividing Wavelength (nm)	Counts (n)	Blue Motor Position (mm): 50.000000	Red Motor Position (mm): 0.000000	
326.493990	1976.414612
326.888308	1976.414612
327.282561	1976.414612
327.676750	1953.568103
328.070874	1954.546087
328.464933	1959.791407
328.858929	1969.210803
329.252859	1982.171610
329.646726	1995.641573
330.040528	2010.165137
330.434265	2030.395288
330.827938	2048.233411
331.221547	2067.888869
331.615091	2088.537436
332.008571	2110.441249
332.401986	2131.876235
332.795338	2148.033133
333.188625	2171.754283
333.581847	2190.270441
333.975006	2207.821218
334.368100	2226.765874
334.761129	2243.709192
335.154095	2258.205030
335.546996	2298.733386
335.939833	2383.379401
336.332606	2400.491597
336.725315	2411.622465
337.117960	2420.736871
337.510540	2426.796338
337.903056	2438.234716
338.295508	2443.621189
338.687896	2451.986984
339.080220	2457.345730
339.472480	2464.829323
339.864676	2467.072637
340.256807	2470.364510
340.648875	2473.220324
341.040879	2474.762917
341.432818	2475.912300
341.824694	2477.008751
342.216506	2475.400623
342.608253	2474.833493
342.999937	2475.314923
343.391557	2474.815849
343.783113	2472.063379
344.174605	2469.449541
344.566033	2469.867957
344.957397	2467.362503
345.348697	2464.531895
345.739934	2464.461319
346.131106	2460.970320
346.522215	2461.071143
346.913260	2460.498972
347.304241	2456.216512
347.695159	2453.852211
348.086012	2456.216512
348.476802	2451.107302
348.867528	2453.884978
349.258191	2448.168310
349.648789	2451.359360
350.039324	2447.659153
350.429796	2453.179217
350.820203	2447.558330
351.210548	2447.817950
351.600828	2447.757456
351.991045	2449.098403
352.381198	2446.691252
352.771288	2447.462548
353.161314	2445.632609
353.551276	2446.025819
353.941175	2443.162444
354.331010	2447.276026
354.720782	2448.730398
355.110490	2451.858434
355.500135	2448.100254
355.889717	2449.446242
356.279235	2446.345933
356.668689	2450.704010
357.058080	2447.008844
357.447408	2447.926334
357.836672	2452.024793
358.225873	2447.742332
358.615010	2448.992538
359.004084	2454.724330
359.393095	2452.455811
359.782043	2458.442181
360.170927	2455.392283
360.559748	2458.638786
360.948505	2458.674074
361.337199	2463.014508
361.725830	2457.580144
362.114398	2460.420834
362.502903	2460.355299
362.891344	2465.230095
363.279722	2461.688684
363.668037	2461.983592
364.056289	2464.385702
364.444478	2464.942749
364.832603	2465.671196
365.220665	2467.128089
365.608665	2465.913171
365.996601	2468.136320
366.384474	2472.247381
366.772284	2471.135807
367.160031	2473.384161
367.547715	2471.181177
367.935336	2470.916517
368.322893	2473.595890
368.710388	2475.748462
369.097820	2475.047742
369.485189	2479.037815
369.872495	2480.167034
370.259738	2481.502940
370.646918	2484.575523
371.034035	2486.027375
371.421090	2489.001656
371.808081	2488.633652
372.195010	2496.006339
372.581875	2501.443224
372.968678	2509.322547
373.355418	2515.341685
373.742096	2530.054292
374.128710	2537.794984
374.515262	2549.356870
374.901751	2563.182235
375.288177	2580.743094
375.674540	2598.387133
376.060841	2620.989146
376.447079	2641.703247
376.833254	2666.714932
377.219367	2689.153108
377.605417	2724.786504
377.991404	2750.345154
378.377329	2790.376956
378.763191	2821.869044
379.148991	2867.577186
379.534727	2917.288004
379.920402	2966.610654
380.306013	3015.073786
380.691563	3075.096284
381.077049	3129.593678
381.462474	3183.453366
381.847835	3259.552104
382.233134	3327.285047
382.618371	3391.526991
383.003545	3473.750731
383.388657	3551.500446
383.773706	3642.578973
384.158693	3714.775858
384.543618	3807.205413
384.928480	3887.836149
385.313280	3989.216273
385.698017	4094.478086
386.082692	4213.043504
386.467305	4274.704377
386.851856	4403.652051
387.236344	4553.250812
387.620770	4618.876553
388.005133	4736.532043
388.389435	4885.639291
388.773674	4964.419923
389.157851	5097.816415
389.541965	5226.101178
389.926018	5251.213686
390.310008	5428.122898
390.693936	5551.860539
391.077802	5665.667108
391.461606	5800.502850
391.845348	5910.818420
392.229027	6032.474065
392.612645	6251.330718
392.996200	6367.181474
393.379694	6540.640017
393.763125	6761.553460
394.146494	6855.699529
394.529801	6987.808007
394.913047	7229.959832
395.296230	7226.181487
395.679351	7284.316073
396.062410	7539.597583
396.445408	7431.086747
396.828343	7587.823782
397.211217	7717.268009
397.594028	7602.488498
397.976778	7805.100033
398.359466	7969.522307
398.742092	7943.330992
399.124656	8089.998322
399.507158	8268.147658
399.889598	8292.541801
400.271977	8501.404367
400.654294	8525.037296
401.036549	8724.924087
401.418742	8745.350842
401.800874	9048.626658
402.182944	9131.190676
402.564952	9487.043205
402.946898	9309.748345
403.328783	9370.201862
403.710606	9560.434843
404.092367	9816.439759
404.474067	10167.039406
404.855705	9962.154311
405.237282	9913.328215
405.618797	10337.334624
406.000250	10575.355224
406.381642	10938.202354
406.762972	10896.726261
407.144240	10696.647906
407.525447	10943.556059
407.906593	10885.532379
408.287677	11140.924794
408.668700	11293.996910
409.049661	11264.748136
409.430560	11430.123187
409.811399	11395.583722
410.192176	11551.607433
410.572891	11632.633899
410.953545	12104.332144
411.334138	11586.633370
411.714669	12173.005262
412.095139	11497.130204
412.475547	11991.574135
412.855894	11841.173831
413.236180	12156.092191
413.616405	11845.872186
413.996568	12120.476439
414.376670	12097.604724
414.756711	11974.083852
415.136691	12250.865883
415.516609	12420.074733
415.896466	12490.754230
416.276262	12774.876182
416.655997	13215.500754
417.035670	13254.736055
417.415283	13885.081932
417.794834	13977.211539
418.174324	13728.783477
418.553753	13627.390750
418.933121	14112.314462
419.312428	13921.980657
419.691674	13829.210823
420.070859	14285.536070
420.449983	13944.955716
420.829045	14487.943438
421.208047	14229.929622
421.586988	14684.631617
421.965867	14921.349078
422.344686	14927.937866
422.723444	15475.883563
423.102141	14178.991283
423.480777	15354.295973
423.859352	14870.846799
424.237866	15958.072449
424.616319	15659.752088
424.994712	16307.772250
425.373044	16106.274810
425.751314	16763.502640
426.129524	15910.236940
426.507673	16976.017521
426.885762	16679.254877
427.263789	16869.591202
427.641756	17033.978188
428.019662	17091.001199
428.397508	17143.978685
428.775292	17420.309533
429.153016	17388.688896
429.530679	17466.804095
429.908282	17492.831572
430.285824	17212.613995
430.663305	17900.925579
431.040726	17514.422834
431.418086	17350.333277
431.795385	17968.650961
432.172624	18393.902534
432.549802	17953.633363
432.926920	18141.476838
433.303977	18022.503087
433.680974	18282.447664
434.057910	18559.970745
434.434786	18596.887115
434.811601	18514.592799
435.188355	19523.758702
435.565050	19182.686836
435.941683	19139.660587
436.318257	19997.138172
436.694770	19816.077569
437.071222	20394.953266
437.447614	19482.953082
437.823946	19505.832359
438.200218	19658.937242
438.576429	19430.499876
438.952580	19717.472600
439.328670	19672.820580
439.704700	20087.697459
440.080670	19663.320526
440.456580	20231.148533
440.832429	20405.955584
441.208218	19426.540050
441.583947	19857.596513
441.959616	19961.507296
442.335224	20191.426761
442.710773	20328.019345
443.086261	20852.269098
443.461689	20219.488344
443.837057	20349.058601
444.212365	20982.487143
444.587612	20980.571505
444.962800	20561.908719
445.337927	20977.592183
445.712995	19732.021370
446.088002	21553.561654
446.462949	21749.652456
446.837837	21902.538050
447.212664	21861.868541
447.587431	24629.504852
447.962139	27516.298917
448.336786	29886.334383
448.711374	28377.622902
449.085901	24747.029272
449.460369	24671.026316
449.834776	24577.245731
450.209124	27022.525460
450.583412	26586.155621
450.957640	27106.987472
451.331808	25780.032271
451.705917	24427.856178
452.079965	24448.156904
452.453954	24811.863552
452.827883	24701.089237
453.201752	24517.865980
453.575562	24657.700026
453.949311	25748.436839
454.323001	25813.684494
454.696632	25588.586892
455.070202	27112.976363
455.443713	27239.663079
455.817164	27823.970619
456.190556	28351.073665
456.563888	27807.118041
456.937160	28225.455673
457.310373	26600.865708
457.683526	27020.103185
458.056619	27016.438266
458.429653	26943.187780
458.802628	27522.950720
459.175542	27632.379046
459.548398	28921.840665
459.921194	30474.253910
460.293930	31139.792082
460.666607	33135.221926
461.039224	34896.749794
461.411782	35275.171569
461.784280	34091.649798
462.156719	33590.022223
462.529099	33024.734957
462.901419	31740.286766
463.273680	30692.490501
463.645882	30787.755706
464.018024	30759.321077
464.390106	31585.016707
464.762130	34240.159670
465.134094	38268.298692
465.505999	43536.700192
465.877845	48126.489287
466.249631	49277.740112
466.621358	47533.263947
466.993026	45395.234983
467.364634	43304.577742
467.736184	41358.765455
468.107674	40126.223504
468.479105	39355.466369
468.850477	38659.151953
469.221790	37236.545899
469.593043	35533.132453
469.964238	34656.637116
470.335373	34565.472890
470.706449	36227.042238
471.077467	38723.499761
471.448425	43282.905822
471.819324	46144.521844
472.190164	44356.061612
472.560945	40827.231234
472.931667	37743.365863
473.302330	36635.862171
473.672934	35815.926060
474.043479	36311.458880
474.413965	35538.748298
474.784393	35166.869941
475.154761	36057.228451
475.525070	36083.016473
475.895321	35629.602493
476.265513	36223.077371
476.635645	37179.575819
477.005719	36996.201328
477.375734	37449.927859
477.745691	38128.893144
478.115588	39450.270308
478.485427	41404.410582
478.855207	44728.277727
479.224928	47334.355139
479.594591	48976.183330
479.964194	47953.272721
480.333739	48091.806149
480.703226	48101.190257
481.072653	48748.514740
481.442022	49256.060630
481.811333	49508.869454
482.180584	48228.897807
482.549777	47694.419553
482.918912	47178.154987
483.287988	46898.010507
483.657005	46051.691517
484.025964	45410.255101
484.394864	45424.929900
484.763706	45002.256876
485.132489	44121.375736
485.501213	43984.450435
485.869879	44118.895488
486.238487	43716.644178
486.607036	43914.534673
486.975527	43370.815983
487.343959	43574.213938
487.712333	43663.147454
488.080648	43572.857868
488.448905	44034.819124
488.817104	43821.152339
489.185244	44770.225168
489.553326	46406.810558
489.921350	49146.165996
490.289315	52058.589287
490.657222	52700.431516
491.025070	52983.865349
491.392861	52091.374431
491.760593	50800.390384
492.128267	49109.783989
492.495883	47568.937672
492.863440	46183.913420
493.230939	44841.484398
493.598380	43768.563022
493.965763	43440.111684
494.333088	42638.318686
494.700354	42165.899556
495.067563	41880.350958
495.434713	41750.284148
495.801805	41825.067144
496.168839	41445.995060
496.535815	41121.327108
496.902733	41149.658393
497.269593	40752.791036
497.636395	40686.983814
498.003139	41078.247928
498.369825	40545.254294
498.736453	40856.270801
499.103023	40369.368436
499.469535	40253.253019
499.835989	40355.409481
500.202385	40024.750118
500.568723	40056.688348
500.935003	40235.041851
501.301226	40035.260924
501.667390	40655.489205
502.033497	40899.881823
502.399546	40337.281492
502.765537	39659.205970
503.131470	40033.201613
503.497345	40387.783771
503.863163	39070.293337
504.228923	39661.358543
504.594625	40079.479405
504.960269	39360.547852
505.325856	40057.174820
505.691385	39419.678066
506.056856	39550.173374
506.422270	39986.238223
506.787625	39567.305736
507.152924	39760.928893
507.518164	39874.390143
507.883347	39103.002864
508.248472	39346.820790
508.613540	39814.060134
508.978550	40106.971337
509.343503	39878.148323
509.708398	40060.055839
510.073236	40557.557230
510.438016	40584.096384
510.802738	40027.517712
511.167403	40649.732207
511.532010	40900.590105
511.896561	41188.480319
512.261053	42017.772812
512.625488	41556.517317
512.989866	41445.972375
513.354186	41285.144444
513.718449	41270.056270
514.082655	41960.293576
514.446803	41623.554581
514.810894	42144.643531
515.174927	42086.198913
515.538904	41962.010088
515.902822	42622.867549
516.266684	42097.120573
516.630488	42511.074921
516.994235	42372.130639
517.357925	42923.277468
517.721558	43085.902571
518.085133	43397.708019
518.448651	43551.939600
518.812112	43317.039475
519.175516	43410.104216
519.538863	43743.236265
519.902152	43715.262902
520.265385	44177.861864
520.628560	44208.234816
520.991678	44007.564126
521.354739	44227.214761
521.717743	44545.301486
522.080690	44464.738806
522.443580	44998.360064
522.806413	45053.827880
523.169189	44988.348333
523.531908	45187.781420
523.894569	45043.818669
524.257174	45207.825048
524.619722	45502.803124
524.982213	45494.144942
525.344647	45419.624086
525.707025	45456.225383
526.069345	45848.457399
526.431608	45772.391429
526.793815	46096.996366
527.155964	45639.632642
527.518057	45810.099260
527.880093	45586.879488
528.242072	46104.144722
528.603995	45811.770402
528.965860	45820.741135
529.327669	45900.572848
529.689421	45809.731255
530.051117	45775.746317
530.412755	45915.101453
530.774337	45977.490773
531.135862	45801.700697
531.497331	45992.049625
531.858743	45891.954995
532.220098	46246.985817
532.581396	45957.875643
532.942638	45622.941382
533.303824	45906.647438
533.664953	45872.914557
534.026025	45596.394666
534.387040	46077.071206
534.747999	46015.763213
535.108902	46175.104004
535.469748	45712.336163
535.830537	45831.743454
536.191270	46036.038734
536.551947	45675.765113
536.912567	45998.066243
537.273131	46094.349760
537.633638	45586.037615
537.994089	45930.555110
538.354483	45526.549479
538.714821	46097.379494
539.075103	46470.795403
539.435328	46216.829634
539.795497	46091.156189
540.155609	46107.991123
540.515665	46567.396514
540.875665	46028.242589
541.235609	46335.498396
541.595496	46300.727037
541.955328	46961.614745
542.315102	46341.454519
542.674821	46140.211658
543.034483	46167.960689
543.394090	46137.786863
543.753640	46088.615448
544.113134	47101.269830
544.472571	46116.377082
544.831953	47361.640385
545.191278	46577.241887
545.550548	46300.411965
545.909761	46762.358098
546.268918	46950.347766
546.628019	47256.973428
546.987064	46810.501117
547.346053	46105.873838
547.704986	46970.096486
548.063863	46539.319808
548.422684	46741.583503
548.781449	46573.753409
549.140158	46979.082343
549.498811	46823.373703
549.857408	46266.174969
550.215949	47087.625947
550.574434	47032.533697
550.932864	46793.714075
551.291237	47503.271602
551.649555	47121.293293
552.007817	47352.193262
552.366022	47017.243877
552.724173	47175.715069
553.082267	47573.464628
553.440305	47863.641005
553.798288	47192.237451
554.156215	47495.135180
554.514086	47712.476966
554.871902	47452.784446
555.229661	47470.010069
555.587365	47289.577090
555.945014	47392.086433
556.302606	47306.686767
556.660143	47539.378866
557.017625	47616.906771
557.375050	47406.448681
557.732421	47745.995598
558.089735	47734.748784
558.446994	47652.814910
558.804197	48126.955594
559.161345	48050.430879
559.518437	47318.714960
559.875474	47615.170094
560.232455	47760.713247
560.589381	47944.974981
560.946251	47641.686563
561.303065	48326.590327
561.659825	48125.342425
562.016528	47795.930747
562.373177	47519.352883
562.729770	48000.107560
563.086307	47515.566976
563.442789	47954.613668
563.799216	48023.793422
564.155587	47789.079819
564.511904	47821.552412
564.868164	47930.469061
565.224370	48168.686266
565.580520	47898.276253
565.936615	48112.782390
566.292654	47832.242178
566.648638	48068.218590
567.004567	48019.763019
567.360441	48058.174091
567.716260	47910.720341
568.072023	48197.284731
568.427732	48192.006643
568.783385	47734.968074
569.138982	48139.392121
569.494525	48110.241648
569.850013	47863.235192
570.205445	47839.040174
570.560823	47805.970205
570.916145	47669.977518
571.271412	47695.447948
571.626625	47454.500959
571.981782	47510.848456
572.336884	47186.666976
572.691931	47500.229266
573.046923	47121.522665
573.401860	46969.794017
573.756743	46945.488093
574.111570	47062.521001
574.466342	46916.934998
574.821059	47034.933286
575.175722	46555.874957
575.530330	46570.806854
575.884882	46295.695966
576.239380	46260.400327
576.593823	46229.404793
576.948211	46168.948755
577.302544	45679.283838
577.656823	45706.201079
578.011047	45926.973370
578.365216	45616.818901
578.719330	45435.420541
579.073389	45294.046423
579.427394	45395.252627
579.781344	45353.804260
580.135239	45002.282082
580.489080	45077.054997
580.842866	44557.445626
581.196597	45026.338468
581.550273	44965.063243
581.903895	44841.209655
582.257463	45251.310041
582.610975	44633.846833
582.964434	44916.020378
583.317837	44557.455708
583.671186	44395.674999
584.024481	44631.747192
584.377721	44153.303883
584.730906	44433.317294
585.084037	44471.473788
585.437113	44166.030276
585.790135	44196.919947
586.143103	43807.410153
586.496016	43937.426552
586.848874	43963.091067
587.201679	43964.978979
587.554428	43459.857884
587.907124	43650.279909
588.259765	43382.657654
588.612352	43649.458201
588.964884	43032.579766
589.317362	43323.512316
589.669786	43272.989873
590.022155	43040.086044
590.374470	43462.743944
590.726731	42982.379956
591.078937	42498.771985
591.431090	42608.137298
591.783188	42262.414967
592.135232	41935.970008
592.487222	42172.432891
592.839157	42268.608024
593.191038	41943.335134
593.542866	41703.466952
593.894639	41113.949380
594.246358	41395.452452
594.598022	41372.759698
594.949633	40973.356640
595.301190	40941.615015
595.652692	40764.738571
596.004141	41086.132293
596.355535	40128.494544
596.706876	40069.583620
597.058162	39898.249924
597.409395	40355.258247
597.760573	40441.310743
598.111698	40020.994458
598.462768	40027.202639
598.813785	40062.876365
599.164748	39518.910659
599.515657	39927.009707
599.866511	39388.085155
600.217312	39997.384214
600.568060	38971.317843
600.918753	39716.155885
601.269392	39665.121764
601.619978	39312.850975
601.970510	39523.170434
602.320988	39702.592661
602.671412	40008.719249
603.021783	39767.915933
603.372100	39432.170045
603.722363	39529.522288
604.072572	39592.745919
604.422728	39609.646387
604.772830	39427.398593
605.122878	39509.506386
605.472872	39439.807393
605.822813	39722.928676
606.172701	39554.760824
606.522534	39786.479982
606.872314	40057.028626
607.222041	39804.527312
607.571714	40199.766377
607.921333	39653.723716
608.270899	39938.435482
608.620411	40276.538109
608.969870	40066.052292
609.319276	40073.654352
609.668627	40120.642947
610.017926	40593.583836
610.367171	40765.918201
610.716362	40844.479542
611.065500	40783.216920
611.414585	40978.864101
611.763616	41258.406164
612.112594	41204.690149
612.461518	41415.075143
612.810389	41685.371730
613.159207	41565.172978
613.507971	41634.120839
613.856682	42125.766930
614.205340	42000.466531
614.553945	42693.957901
614.902496	42151.938080
615.250994	42616.606436
615.599439	42686.244935
615.947830	42900.355342
616.296169	42943.855458
616.644454	43074.615428
616.992686	43226.533119
617.340864	43749.565434
617.688990	43481.207170
618.037063	44063.347014
618.385082	44032.606057
618.733048	44356.815264
619.080961	44363.255338
619.428821	44368.437644
619.776628	44487.393752
620.124382	44312.574098
620.472083	44434.726297
620.819731	44556.883537
621.167326	44246.764355
621.514868	44216.625817
621.862357	43774.874547
622.209793	43798.749451
622.557176	43468.284172
622.904506	43232.708533
623.251783	42893.131368
623.599007	42669.609127
623.946179	42437.368211
624.293297	42384.509192
624.640363	41802.820532
624.987376	41796.748463
625.334336	41550.195710
625.681243	41212.130892
626.028097	41162.029385
626.374899	41010.653617
626.721647	40976.645993
627.068343	40876.211085
627.414987	40646.463019
627.761577	40422.338360
628.108115	40747.134861
628.454600	40205.846008
628.801032	40387.382999
629.147412	40364.982632
629.493739	40358.741684
629.840014	40008.323518
630.186236	40336.129588
630.532405	39956.255961
630.878521	40153.097895
631.224585	40043.699815
631.570597	39754.289694
631.916556	39929.305952
632.262462	39883.691072
632.608316	39892.974357
632.954117	39782.379003
633.299866	39770.905337
633.645562	39682.342346
633.991206	39190.396307
634.336797	38770.105228
634.682336	38776.212586
635.027823	38515.441259
635.373257	38340.941719
635.718639	38107.722819
636.063968	37972.556881
636.409245	37388.266986
636.754470	37441.267157
637.099642	37178.723864
637.444762	36727.548157
637.789829	36855.217899
638.134845	36508.550352
638.479808	36461.100491
638.824719	36369.134721
639.169577	35964.723277
639.514383	36024.045055
639.859137	35720.580197
640.203839	35980.028221
640.548489	35596.270384
640.893086	35674.047826
641.237632	35418.388229
641.582125	35520.332963
641.926566	35466.085107
642.270955	35431.273419
642.615292	35463.448583
642.959576	35422.826965
643.303809	35414.516623
643.647990	35552.009053
643.992118	35531.163882
644.336195	35522.732552
644.680219	35624.188294
645.024192	35909.827633
645.368112	36423.133041
645.711981	36429.487415
646.055797	37291.983468
646.399562	37215.436067
646.743274	38189.691980
647.086935	38621.103844
647.430544	38507.902214
647.774101	38615.243503
648.117606	38876.614727
648.461059	39186.867499
648.804460	38794.033065
649.147810	38185.608646
649.491108	37934.783515
649.834354	37575.974349
650.177548	36749.547752
650.520690	36296.746273
650.863781	36315.580023
651.206820	36156.277041
651.549807	35731.025467
651.892742	35248.970172
652.235626	35047.518103
652.578458	34923.195687
652.921238	34309.387315
653.263967	34626.904390
653.606644	34314.945187
653.949269	34261.370325
654.291843	33859.751680
654.634365	34269.531953
654.976836	33864.409707
655.319255	33844.817262
655.661622	33853.924107
656.003938	33630.971516
656.346203	33484.341995
656.688416	33704.171590
657.030577	33502.079294
657.372687	33348.835779
657.714746	33621.433653
658.056753	33746.386213
658.398708	33193.074208
658.740612	33235.462750
659.082465	33511.430635
659.424266	33341.659697
659.766016	33450.029381
660.107715	33331.141329
660.449362	33452.756645
660.790958	33446.029225
661.132503	33450.460400
661.473996	33484.029443
661.815438	33608.303968
662.156829	33798.957886
662.498168	33576.958073
662.839456	33601.752988
663.180693	33744.082405
663.521879	33913.387037
663.863013	33845.825493
664.204097	33858.002400
664.545129	34320.689582
664.886110	34271.704690
665.227040	34331.404555
665.567918	34458.981035
665.908746	34518.343142
666.249522	34696.578178
666.590248	34686.553843
666.930922	34806.800486
667.271545	34761.392293
667.612118	34844.639387
667.952639	34629.767766
668.293109	34687.824214
668.633528	34580.409828
668.973896	34527.782703
669.314213	34542.127306
669.654480	34280.746000
669.994695	34308.671472
670.334859	34196.891447
670.674973	34103.534319
671.015035	34268.208650
671.355047	34208.680185
671.695008	34148.766072
672.034918	34046.710432
672.374777	34128.170437
672.714585	33964.816888
673.054342	34191.809964
673.394049	33952.690393
673.733705	34233.379318
674.073310	33897.051178
674.412864	33968.723783
674.752368	33569.033379
675.091820	33875.429669
675.431223	33446.339256
675.770574	33181.834955
676.109875	33024.838301
676.449125	32753.644389
676.788324	32691.567620
677.127473	32134.479791
677.466571	32057.561866
677.805619	31704.429039
678.144616	31700.872505
678.483562	31632.033028
678.822458	31297.960804
679.161303	31229.073437
679.500098	31133.808232
679.838842	31019.810099
680.177535	31188.910564
680.516179	31438.062031
680.854771	31678.391479
681.193314	32537.825031
681.531805	33664.958975
681.870247	34436.885658
682.208638	35170.131567
682.546978	35399.768728
682.885268	35504.896950
683.223508	34977.519161
683.561697	34641.697656
683.899836	34450.978203
684.237925	33953.134014
684.575963	33783.821821
684.913951	33315.846468
685.251889	33477.183556
685.589776	33458.044816
685.927614	33446.311530
686.265401	33589.918880
686.603137	33679.296017
686.940824	34184.414591
687.278460	34575.343469
687.616046	34705.934559
687.953582	35313.277651
688.291068	35195.284404
688.628504	35481.468187
688.965889	35412.454791
689.303224	35030.327768
689.640510	34699.509609
689.977745	33958.071824
690.314930	33156.926614
690.652065	32643.270846
690.989150	31912.482499
691.326185	31007.134118
691.663170	30296.853185
692.000105	29528.208294
692.336990	28854.939512
692.673825	28394.364573
693.010610	27879.786274
693.347345	27290.855997
693.684030	26624.299512
694.020665	26352.515784
694.357251	25665.267883
694.693786	25617.001356
695.030272	25375.179726
695.366707	24825.789739
695.703093	24533.153279
696.039429	24528.482650
696.375716	24269.957157
696.711952	24225.920158
697.048139	24072.981632
697.384276	23879.451736
697.720363	24013.054916
698.056400	23807.663185
698.392388	23599.536628
698.728326	23552.691706
699.064214	23353.374565
699.400053	23291.169247
699.735842	22935.596502
700.071581	22648.374241
700.407270	22354.210311
700.742910	22175.370337
701.078501	21903.989902
701.414042	21609.815890
701.749533	21308.763223
702.084974	20966.037858
702.420366	21169.229126
702.755709	20725.741178
703.091002	20425.525343
703.426246	20437.341808
703.761440	20352.635300
704.096584	20070.290355
704.431679	20027.811072
704.766725	19927.517316
705.101721	19865.349807
705.436668	19954.754671
705.771565	19619.631366
706.106413	19968.156578
706.441212	19949.519432
706.775961	20081.708568
707.110661	20157.545166
707.445311	20511.991214
707.779913	20342.840338
708.114465	20575.802139
708.448967	20870.323991
708.783421	21557.846635
709.117825	21826.036019
709.452180	22044.375954
709.786485	22439.098300
710.120742	23246.885231
710.454949	23264.466255
710.789107	23736.028389
711.123216	24447.015083
711.457275	24560.466250
711.791286	25120.919050
712.125247	25181.594378
712.459159	24886.676795
712.793023	25556.946090
713.126837	24447.708242
713.460602	24729.972528
713.794318	24355.203069
714.127985	23953.844043
714.461602	23058.956057
714.795171	23026.463300
715.128691	22010.917816
715.462162	21459.907098
715.795584	21037.226512
716.128957	20769.934453
716.462281	20353.146977
716.795556	20125.760691
717.128782	19625.285020
717.461960	19072.676256
717.795088	18992.048041
718.128167	18584.770701
718.461198	18133.466444
718.794180	17985.082602
719.127113	17616.231457
719.459997	17411.573214
719.792833	17066.506233
720.125619	17030.225049
720.458357	16704.311932
720.791046	16532.292639
721.123686	16374.471756
721.456278	16132.082997
721.788821	16087.279742
722.121315	15832.850187
722.453761	15899.315280
722.786158	15827.483879
723.118506	15830.863973
723.450805	15696.789445
723.783056	15846.226889
724.115259	15759.503919
724.447412	15680.231775
724.779518	15914.779019
725.111574	15940.110818
725.443582	16141.255377
725.775542	16119.717047
726.107453	16585.335660
726.439315	16472.325594
726.771129	16864.408896
727.102895	17235.294146
727.434612	17441.038758
727.766281	17565.358653
728.097901	17839.047936
728.429473	17878.557980
728.760996	17857.932099
729.092471	17952.794011
729.423897	17829.119384
729.755276	17693.771965
730.086606	17793.730484
730.417887	18334.106888
730.749120	18840.941975
731.080305	19014.471093
731.411442	19353.612198
731.742530	19420.069729
732.073570	19517.363998
732.404562	19820.896913
732.735506	19645.048863
733.066401	19357.975317
733.397249	18837.453497
733.728048	18205.933031
734.058798	17364.559413
734.389501	16672.913105
734.720156	16216.287910
735.050762	15680.173802
735.381320	15318.559233
735.711831	15075.578139
736.042293	14723.214088
736.372707	14726.079984
736.703073	14514.328837
737.033391	14702.202558
737.363661	14651.972502
737.693883	14758.613070
738.024056	14926.160859
738.354182	15101.804742
738.684260	15391.199740
739.014290	15608.360045
739.344272	15800.596885
739.674207	16081.235399
740.004093	16213.774895
740.333931	16193.428798
740.663722	16239.991416
740.993464	16235.976137
741.323159	16059.102213
741.652806	15792.437777
741.982405	15578.367700
742.311956	15241.787502
742.641460	15126.876920
742.970915	14811.456965
743.300323	14474.087826
743.629683	14274.115336
743.958996	13986.809896
744.288260	13723.830543
744.617477	13417.840067
744.946647	13344.332482
745.275768	13072.962129
745.604842	12886.021021
745.933869	12704.229452
746.262847	12656.890497
746.591778	12587.783839
746.920662	12467.532155
747.249498	12475.663536
747.578286	12597.162906
747.907027	12735.663567
748.235720	12959.153040
748.564365	12988.578255
748.892963	12881.166390
749.221514	12938.081017
749.550017	12795.121456
749.878473	12755.447575
750.206881	12534.178730
750.535242	12444.967951
750.863555	12355.984023
751.191821	12261.180084
751.520039	12272.610901
751.848210	12177.990963
752.176334	12212.858104
752.504411	12123.622119
752.832440	11962.302676
753.160421	12024.550843
753.488356	11889.072354
753.816243	11808.008080
754.144082	11670.659323
754.471875	11610.157915
754.799620	11548.968389
755.127318	11522.895542
755.454969	11482.646969
755.782572	11429.304000
756.110129	11447.205137
756.437638	11368.895853
756.765100	11356.930675
757.092515	11353.694254
757.419882	11372.369208
757.747203	11374.098324
758.074477	11445.135744
758.401703	11403.573951
758.728882	11563.192005
759.056014	11600.975453
759.383099	11717.136241
759.710138	11818.675161
760.037129	11903.739591
760.364073	11921.073599
760.690970	11902.829663
761.017820	11904.896536
761.344623	12089.097777
761.671379	12413.223805
761.998088	13043.153787
762.324751	14580.441049
762.651366	17440.844673
762.977935	21104.994744
763.304456	23337.711700
763.630931	23838.701569
763.957359	22687.075179
764.283740	20784.826022
764.610074	18906.066121
764.936362	16770.328362
765.262602	15252.182361
765.588796	13774.363070
765.914943	12743.310997
766.241044	11882.203782
766.567097	11243.424055
766.893104	10691.407626
767.219064	10323.030350
767.544978	9927.395555
767.870845	9619.204615
768.196665	9440.137789
768.522438	9239.464578
768.848165	9068.019977
769.173846	8903.514524
769.499479	8780.833004
769.825066	8621.852656
770.150607	8434.014222
770.476101	8369.842854
770.801548	8263.829909
771.126949	8120.673743
771.452303	8037.136783
771.777611	7866.733180
772.102872	7849.121909
772.428087	7732.083961
772.753256	7605.971935
773.078378	7514.895929
773.403453	7365.975204
773.728482	7266.220851
774.053465	7203.014864
774.378401	7118.265507
774.703291	7021.520723
775.028135	6923.944149
775.352932	6887.985599
775.677683	6801.418905
776.002388	6714.937911
776.327046	6716.079732
776.651658	6626.689992
776.976224	6549.441871
777.300743	6536.448297
777.625216	6471.949254
777.949643	6425.958808
778.274024	6428.900321
778.598359	6360.065886
778.922647	6360.151585
779.246889	6319.882848
779.571086	6324.341749
779.895236	6339.535787
780.219339	6329.609755
780.543397	6331.265774
780.867409	6377.031889
781.191374	6373.152721
781.515294	6340.639799
781.839167	6394.882615
782.162995	6365.427153
782.486776	6320.114742
782.810511	6274.971209
783.134201	6200.689807
783.457844	6192.702099
783.781441	6139.270909
784.104993	6095.531338
784.428498	6071.858079
784.751958	6054.120779
785.075372	6031.710330
785.398739	5984.777188
785.722061	6014.489748
786.045337	6012.921950
786.368568	6122.761130
786.691752	6141.453729
787.014891	6382.914916
787.337983	6661.191649
787.661030	7102.887467
787.984031	7528.131479
788.306987	7784.421220
788.629897	7877.889253
788.952760	7791.637632
789.275579	7626.426417
789.598351	7326.235788
789.921078	7062.109573
790.243759	6783.222860
790.566395	6576.772487
790.888984	6387.018415
791.211529	6242.576754
791.534027	6079.412248
791.856480	5947.502896
792.178888	5879.573348
792.501249	5808.830836
792.823566	5704.163879
793.145836	5698.066604
793.468062	5679.321073
793.790241	5641.053674
794.112375	5679.295867
794.434464	5779.894613
794.756507	5809.672709
795.078505	5926.267036
795.400457	6139.379294
795.722364	6379.484410
796.044226	6577.112765
796.366042	6731.946764
796.687812	6681.232756
797.009538	6709.531273
797.331218	6620.275124
797.652852	6558.853705
797.974442	6432.915600
798.295986	6361.167378
798.617484	6236.240024
798.938938	6124.626357
799.260346	6060.409619
799.581709	5921.674544
799.903026	5869.977512
800.224299	5792.593280
800.545526	5677.763357
800.866708	5612.246001
801.187845	5561.524431
801.508936	5488.720087
801.829983	5458.342094
802.150984	5349.369992
802.471940	5322.787988
802.792851	5306.091687
803.113717	5281.261483
803.434538	5260.872537
803.755314	5223.628492
804.076045	5212.701791
804.396731	5181.333211
804.717372	5190.992062
805.037967	5194.256209
805.358518	5224.200663
805.679024	5278.158653
805.999485	5290.532165
806.319901	5306.920956
806.640272	5321.862936
806.960598	5365.426067
807.280879	5359.119584
807.601115	5395.657867
807.921306	5363.613772
808.241453	5359.348956
808.561554	5369.539649
808.881611	5334.385163
809.201623	5336.583106
809.521590	5284.739879
809.841513	5265.835553
810.161390	5284.079488
810.481223	5196.663360
810.801011	5183.218603
811.120755	5158.038039
811.440453	5109.153970
811.760107	5078.397891
812.079716	5050.071647
812.399281	4999.975181
812.718801	4997.336137
813.038276	4958.680569
813.357707	4920.110701
813.677093	4947.108601
813.996434	4887.189446
814.315731	4905.892127
814.634983	4901.647475
814.954191	4910.222478
815.273354	4969.521571
815.592473	5011.446327
815.911547	5085.586576
816.230577	5139.027848
816.549562	5228.268874
816.868502	5278.546822
817.187399	5333.933979
817.506250	5416.021608
817.825058	5442.129744
818.143821	5596.736891
818.462539	5766.999342
818.781213	5996.729763
819.099843	6355.150761
819.418429	6981.874569
819.736970	7604.580577
820.055466	8319.305287
820.373919	9238.632788
820.692327	10693.071207
821.010691	13405.438828
821.329011	19645.006014
821.647286	29230.500433
821.965517	39583.220658
822.283704	45078.920223
822.601847	46636.694735
822.919945	42085.339397
823.237999	36989.015163
823.556010	31786.277212
823.873976	27080.796157
824.191897	22828.542558
824.509775	19733.894159
824.827609	16931.226869
825.145398	15351.067114
825.463144	14585.754425
825.780845	14864.651221
826.098502	16116.636902
826.416116	18558.808759
826.733685	20831.151705
827.051210	21346.569357
827.368692	19922.992881
827.686129	17367.886574
828.003522	14898.018618
828.320872	12673.556551
828.638177	11012.740855
828.955439	9754.463814
829.272656	8694.369654
829.589830	7845.656116
829.906960	7102.862261
830.224046	6567.945426
830.541088	6161.313354
830.858086	5891.352004
831.175041	5689.594945
831.491952	5626.066324
831.808819	5656.010778
832.125642	5900.431122
832.442421	6447.381191
832.759157	7559.094246
833.075849	9328.831633
833.392497	11172.442088
833.709101	12300.317082
834.025662	12052.015049
834.342179	11010.719352
834.658653	9702.459271
834.975083	8600.463040
835.291469	7688.717435
835.607811	6947.990453
835.924110	6420.504279
836.240366	5930.793992
836.556578	5477.228777
836.872746	5117.648315
837.188871	4846.081357
837.504952	4622.463334
837.820990	4452.084937
838.136984	4335.760312
838.452935	4287.811377
838.768842	4314.784071
839.084706	4597.103810
839.400526	5336.943548
839.716303	6248.336273
840.032037	6814.351985
840.347727	6671.571385
840.663373	6073.287246
840.978977	5494.814842
841.294537	5049.585176
841.610054	4717.163930
841.925527	4473.832475
842.240957	4264.294394
842.556344	4076.647525
842.871687	3919.247578
843.186987	3767.256790
843.502244	3649.427380
843.817458	3561.953279
844.132629	3487.467710
844.447756	3439.062551
844.762840	3393.614028
845.077881	3354.479551
845.392879	3317.396823
845.707833	3294.696508
846.022745	3269.087446
846.337613	3255.055394
846.652438	3231.286354
846.967221	3222.338306
847.281960	3200.232846
847.596656	3190.415199
847.911309	3179.586801
848.225919	3170.739576
848.540485	3156.561331
848.855009	3151.762152
849.169490	3137.054586
849.483928	3130.735499
849.798323	3125.497741
850.112675	3117.021040
850.426984	3116.837038
850.741251	3108.534258
851.055474	3105.204576
851.369654	3107.430245
851.683792	3102.033690
851.997887	3103.543516
852.311938	3104.874380
852.625947	3106.903445
852.939914	3096.821137
853.253837	3104.753392
853.567718	3102.293309
853.881555	3095.286106
854.195350	3102.537805
854.509103	3100.357506
854.822812	3097.030345
855.136479	3093.304932
855.450103	3095.729727
855.763685	3089.110692
856.077224	3091.255703
856.390720	3102.895727
856.704173	3111.097685
857.017584	3116.703448
857.330953	3121.946248
857.644278	3128.282978
857.957561	3133.188021
858.270802	3129.306332
858.584000	3126.823564
858.897155	3125.981691
859.210268	3112.196656
859.523339	3100.435644
859.836367	3100.317177
860.149352	3090.494489
860.462295	3089.261927
860.775195	3077.263981
861.088054	3075.166861
861.400869	3076.827921
861.713642	3075.885225
862.026373	3085.087851
862.339062	3084.939137
862.651708	3092.707555
862.964312	3108.614916
863.276873	3115.753190
863.589392	3149.907007
863.901869	3177.908097
864.214303	3196.807382
864.526696	3216.004096
864.839045	3233.396077
865.151353	3247.319744
865.463619	3247.564240
865.775842	3247.700351
866.088023	3252.965836
866.400162	3247.281935
866.712258	3248.448962
867.024313	3244.995772
867.336325	3246.727408
867.648296	3249.890732
867.960224	3246.389651
868.272110	3249.802512
868.583954	3250.926689
868.895755	3257.376846
869.207515	3253.948861
869.519233	3268.311108
869.830909	3278.973149
870.142542	3288.155611
870.454134	3296.856642
870.765684	3310.215700
871.077191	3328.046261
871.388657	3337.896676
871.700081	3360.236549
872.011463	3376.937892
872.322803	3397.820871
872.634101	3414.038263
872.945357	3436.907458
873.256571	3463.595326
873.567744	3478.262563
873.878874	3485.887308
874.189963	3502.971779
874.501010	3503.768281
874.812015	3502.334073
875.122979	3517.384438
875.433900	3512.960825
875.744780	3515.108357
876.055618	3526.571941
876.366415	3525.306611
876.677169	3529.024462
876.987882	3547.220507
877.298554	3567.768250
877.609183	3605.954990
877.919771	3654.493740
878.230317	3724.722054
878.540822	3826.868434
878.851285	3980.805108
879.161707	4207.896486
879.472087	4586.025874
879.782425	5218.632708
880.092722	6411.715027
880.402977	8360.894806
880.713191	10752.957594
881.023363	13149.194458
881.333494	14503.881046
881.643583	14970.001254
881.953631	14579.858796
882.263637	13753.399431
882.573602	12714.233622
882.883526	11756.684093
883.193408	10784.222830
883.503248	9856.078352
883.813048	9019.879478
884.122806	8244.857527
884.432522	7468.971018
884.742197	6800.050232
885.051831	6224.022788
885.361424	5712.998502
885.670975	5312.627543
885.980485	4985.499508
886.289954	4712.752920
886.599382	4491.332840
886.908768	4310.340294
887.218113	4142.424500
887.527417	4006.164632
887.836680	3884.125859
888.145901	3781.346815
888.455082	3700.249773
888.764221	3630.865852
889.073319	3575.337542
889.382376	3537.632232
889.691392	3513.626258
890.000366	3505.111749
890.309300	3500.448681
890.618193	3503.286851
890.927044	3497.517250
891.235855	3504.514372
891.544625	3518.395189
891.853353	3549.085734
892.162041	3611.051597
892.470687	3705.248077
892.779293	3825.098989
893.087858	3998.713807
893.396381	4280.847023
893.704864	4696.638872
894.013306	5272.741933
894.321707	5844.494479
894.630068	6207.202978
894.938387	6246.952476
895.246665	6071.301032
895.554903	5747.134675
895.863100	5411.187141
896.171256	5138.871572
896.479371	4895.598091
896.787446	4666.094521
897.095480	4472.042865
897.403473	4318.701047
897.711425	4171.486752
898.019336	4046.002351
898.327207	3924.835697
898.635038	3820.325016
898.942827	3713.412226
899.250576	3629.587919
899.558284	3543.280845
899.865952	3489.327896
900.173579	3420.710230
900.481165	3373.429248
900.788711	3333.833506
901.096216	3299.407466
901.403681	3270.572066
901.711105	3261.170314
902.018489	3257.170158
902.325832	3289.914973
902.633135	3351.795137
902.940397	3521.077083
903.247619	3927.925925
903.554800	4686.034805
903.861941	5664.744577
904.169041	6372.212546
904.476101	6595.911227
904.783121	6324.422407
905.090100	5917.654224
905.397039	5507.107696
905.703938	5141.906347
906.010796	4813.880987
906.317614	4553.475144
906.624391	4311.875325
906.931129	4112.772433
907.237826	3923.570368
907.544483	3752.196343
907.851099	3576.156730
908.157675	3417.990528
908.464211	3272.701953
908.770707	3170.157322
909.077163	3088.457863
909.383578	3025.156094
909.689954	2982.006338
909.996289	2950.090793
910.302584	2929.729572
910.608839	2915.947058
910.915054	2904.453227
911.221229	2896.561300
911.527363	2906.454565
911.833458	2911.631830
912.139513	2923.435692
912.445527	2935.022784
912.751502	2973.980821
913.057436	3019.300794
913.363331	3076.429670
913.669186	3163.959224
913.975000	3283.421967
914.280775	3474.222078
914.586510	3746.560333
914.892205	4124.185606
915.197859	4631.413903
915.503475	5220.734870
915.809050	5718.395057
916.114585	6007.653944
916.420081	6072.397483
916.725536	6011.502865
917.030952	5769.880361
917.336328	5571.231173
917.641665	5353.594479
917.946961	5124.814315
918.252218	4921.865023
918.557435	4688.827604
918.862612	4491.804188
919.167750	4321.539217
919.472848	4125.271974
919.777906	3952.856951
920.082925	3791.484575
920.387904	3634.150164
920.692843	3520.872916
920.997743	3423.089655
921.302603	3327.897547
921.607423	3265.084770
921.912204	3194.185982
922.216946	3144.586070
922.521647	3094.713935
922.826310	3052.998387
923.130932	3012.568333
923.435516	2973.605255
923.740059	2945.765483
924.044564	2914.805236
924.349028	2887.419168
924.653454	2858.707276
924.957840	2829.211485
925.262186	2811.542241
925.566493	2788.456277
925.870761	2765.687905
926.174989	2751.063518
926.479178	2738.483319
926.783328	2720.113354
927.087438	2709.078268
927.391509	2695.104190
927.695541	2682.702951
927.999533	2670.750376
928.303486	2663.801145
928.607400	2660.841988
928.911275	2656.506595
929.215110	2649.514515
929.518906	2644.422950
929.822663	2642.814822
930.126381	2645.128711
930.430060	2646.078969
930.733699	2647.770276
931.037299	2650.167344
931.340861	2648.997797
931.644383	2651.808240
931.947866	2653.388642
932.251309	2649.728764
932.554714	2648.244144
932.858080	2649.640544
933.161407	2641.952784
933.464694	2639.953967
933.767943	2638.280304
934.071153	2630.842081
934.374323	2630.438789
934.677455	2626.783952
934.980548	2621.427726
935.283602	2619.764146
935.586617	2618.040071
935.889593	2621.026955
936.192530	2623.129116
936.495428	2629.601957
936.798287	2636.553708
937.101108	2652.682880
937.403890	2672.436642
937.706632	2699.500076
938.009336	2731.660117
938.312002	2760.949221
938.614628	2788.998201
938.917216	2804.464461
939.219765	2811.879998
939.522275	2824.616473
939.824747	2827.121927
940.127179	2819.943324
940.429573	2812.568116
940.731929	2813.437715
941.034246	2803.615026
941.336524	2803.912454
941.638763	2797.026238
941.940964	2790.946607
942.243126	2773.821807
942.545250	2765.725714
942.847335	2748.873137
943.149381	2737.480129
943.451389	2721.834908
943.753359	2707.686910
944.055290	2700.344469
944.357182	2688.580937
944.659036	2687.386183
944.960851	2683.557427
945.262628	2674.697599
945.564367	2679.514422
945.866067	2677.089627
946.167729	2674.596776
946.469352	2678.115501
946.770937	2670.770540
947.072484	2661.194868
947.373992	2664.801814
947.675462	2661.391473
947.976893	2656.919970
948.278286	2650.913435
948.579641	2649.524597
948.880958	2646.247847
949.182236	2643.702065
949.483476	2641.504122
949.784678	2641.151241
950.085841	2642.847589
950.386967	2645.854637
950.688054	2652.652633
950.989103	2659.725372
951.290114	2668.696105
951.591087	2680.144566
951.892021	2691.522450
952.192917	2705.257074
952.493776	2714.429453
952.794596	2718.175030
953.095378	2719.493292
953.396122	2717.678477
953.696828	2715.072200
953.997496	2710.320913
954.298126	2700.704912
954.598718	2692.046730
954.899272	2682.110616
955.199788	2671.221723
955.500266	2657.287974
955.800706	2642.842548
956.101108	2626.431072
956.401472	2614.155862
956.701798	2602.362083
957.002087	2588.274578
957.302337	2578.935841
957.602550	2565.473439
957.902724	2554.151008
958.202861	2545.185316
958.502960	2537.547968
958.803022	2527.868952
959.103045	2521.060874
959.403031	2514.048629
959.702979	2509.350273
960.002889	2507.119563
960.302762	2497.475836
960.602596	2492.863180
960.902393	2493.369816
961.202153	2490.700525
961.501875	2484.593167
961.801559	2482.357415
962.101205	2482.617035
962.400814	2482.140646
962.700385	2477.172588
962.999918	2476.849955
963.299414	2475.382979
963.598873	2472.786785
963.898293	2469.391567
964.197677	2469.376444
964.497022	2468.698409
964.796331	2466.616412
965.095601	2467.223871
965.394835	2466.074488
965.694030	2464.743624
965.993189	2463.856381
966.292309	2463.049796
966.591393	2465.953501
966.890439	2462.459981
967.189447	2461.920577
967.488419	2464.330249
967.787353	2464.892338
968.086249	2464.728500
968.385108	2465.721607
968.683930	2464.284879
968.982714	2465.716566
969.281462	2465.711525
969.580172	2469.585652
969.878844	2473.328709
970.177480	2474.097485
970.476078	2477.170068
970.774639	2481.530666
971.073162	2480.812302
971.371649	2483.239617
971.670098	2480.978660
971.968510	2486.667602
972.266885	2483.612663
972.565223	2492.396873
972.863524	2490.829074
973.161788	2497.185969
973.460014	2494.710763
973.758204	2492.437202
974.056356	2495.436689
974.354471	2495.424086
974.652550	2494.448623
974.950591	2497.231340
975.248595	2495.857625
975.546563	2495.396360
975.844493	2489.977119
976.142386	2493.957110
976.440243	2487.113744
976.738062	2488.341265
977.035845	2482.901860
977.333590	2480.797178
977.631299	2480.167034
977.928971	2478.785758
978.226606	2475.224182
978.524204	2472.814511
978.821765	2473.643781
979.119290	2471.960035
979.416777	2471.569346
979.714228	2472.713688
980.011642	2475.690489
980.309020	2480.439256
980.606360	2481.976808
980.903664	2488.840339
981.200931	2506.466733
981.498162	2525.819723
981.795356	2553.546069
982.092513	2594.142481
982.389633	2636.316774
982.686717	2681.702282
982.983764	2711.329143
983.280775	2733.099366
983.577749	2732.481825
983.874686	2724.516802
984.171587	2706.461909
984.468451	2690.920032
984.765279	2673.638957
985.062070	2652.924856
985.358824	2636.140334
985.655543	2614.743156
985.952224	2591.626945
986.248869	2563.923284
986.545478	2536.522093
986.842050	2513.904956
987.138586	2494.718324
987.435086	2478.047229
987.731549	2468.416104
988.027975	2460.803962
988.324366	2458.255659
988.620719	2453.060750
988.917037	2450.031016
989.213318	2447.873402
989.509563	2441.783688
989.805772	2443.409461
990.101944	2441.491302
990.398080	2440.039449
990.694180	2440.387289
990.990244	2440.334357
991.286271	2441.473658
991.582262	2441.214038
991.878217	2441.110694
992.174136	2442.025664
992.470019	2443.338884
992.765865	2442.628082
993.061676	2450.396500
993.357450	2449.544545
993.653188	2452.475976
993.948890	2458.749692
994.244556	2463.140537
994.540186	2477.119656
994.835780	2485.490492
995.131337	2501.435662
995.426859	2516.725482
995.722345	2538.964532
996.017795	2554.090514
996.313208	2570.451579
996.608586	2579.301324
996.903928	2583.596387
997.199234	2581.663105
997.494504	2579.162693
997.789738	2571.666497
998.084936	2563.058727
998.380099	2550.602035
998.675225	2539.100643
998.970316	2525.625639
999.265371	2512.611900
999.560390	2497.410301
999.855373	2485.782879
1000.150320	2476.474389
1000.445232	2465.320836
1000.740108	2458.812706
1001.034948	2451.455142
1001.329752	2446.887857
1001.624521	2445.098247
1001.919254	2435.580549
1002.213951	2438.101126
1002.508613	2431.726587
1002.803239	2431.053592
1003.097829	2425.629311
1003.392384	2428.802717
1003.686903	2428.036462
1003.981386	2428.149888
1004.275834	2428.769950
1004.570246	2427.615526
1004.864623	2425.815834
1005.158964	2422.793662
1005.453270	2424.232911
1005.747540	2422.501275
1006.041775	2421.593867
1006.335974	2420.734351
1006.630138	2420.295770
1006.924266	2418.990111
1007.218359	2420.091603
1007.512416	2418.186047
1007.806438	2421.566141
1008.100425	2420.351223
1008.394376	2420.807447
1008.688292	2420.605801
1008.982172	2418.249062
1009.276017	2417.147570
1009.569827	2418.841397
1009.863602	2420.489855
1010.157341	2418.294432
1010.451045	2416.532549
1010.744714	2417.472724
1011.038347	2415.965419
1011.331945	2415.821746
1011.625508	2416.514905
1011.919036	2416.451890
1012.212528	2416.625810
1012.505986	2417.223187
1012.799408	2416.023392
1013.092795	2414.281674
1013.386147	2415.572209
1013.679464	2414.745460
1013.972745	2416.877868
1014.265992	2414.092630
1014.559204	2414.059863
1014.852380	2411.284708
1015.145521	2415.582291
1015.438628	2414.939544
1015.731699	2413.492733
1016.024736	2414.531211
1016.317737	2415.113464
1016.610703	2415.864596
1016.903635	2415.035326
1017.196531	2412.481982
1017.489393	2414.556417
1017.782219	2408.960736
1018.075011	2417.797878
1018.367768	2417.654206
1018.660490	2415.390727
1018.953177	2415.390727
1019.245829	2415.390727
