Dividing Wavelength (nm)	Counts (n)	Blue Motor Position (mm): 42.800000	Red Motor Position (mm): 0.000000	
326.493990	1972.046452
326.888308	1972.046452
327.282561	1972.046452
327.676750	1947.095262
328.070874	1952.121292
328.464933	1955.256890
328.858929	1965.994547
329.252859	1977.110292
329.646726	1992.334576
330.040528	2010.583553
330.434265	2028.930832
330.827938	2047.257947
331.221547	2066.646225
331.615091	2086.233628
332.008571	2109.667432
332.401986	2129.428755
332.795338	2148.703607
333.188625	2169.773109
333.581847	2186.298012
333.975006	2203.538758
334.368100	2222.561552
334.761129	2238.413460
335.154095	2256.317118
335.546996	2295.476801
335.939833	2381.554503
336.332606	2399.274159
336.725315	2406.354459
337.117960	2416.701428
337.510540	2423.459094
337.903056	2435.073913
338.295508	2438.874943
338.687896	2447.016406
339.080220	2455.553600
339.472480	2460.430917
339.864676	2465.225054
340.256807	2467.236474
340.648875	2470.871146
341.040879	2471.082875
341.432818	2472.564974
341.824694	2471.687813
342.216506	2469.746969
342.608253	2470.450210
342.999937	2468.837041
343.391557	2469.590693
343.783113	2468.791670
344.174605	2466.591207
344.566033	2465.222533
344.957397	2464.136165
345.348697	2461.552573
345.739934	2456.826492
346.131106	2457.116358
346.522215	2459.679785
346.913260	2455.538477
347.304241	2454.870524
347.695159	2453.330451
348.086012	2451.049329
348.476802	2447.979267
348.867528	2445.834256
349.258191	2445.604883
349.648789	2447.041612
350.039324	2444.536158
350.429796	2445.519183
350.820203	2441.234203
351.210548	2443.898452
351.600828	2442.320571
351.991045	2440.725046
352.381198	2442.197063
352.771288	2444.019440
353.161314	2439.431990
353.551276	2440.147834
353.941175	2439.018616
354.331010	2441.725715
354.720782	2442.809563
355.110490	2444.876436
355.500135	2439.618513
355.889717	2443.863164
356.279235	2443.661518
356.668689	2445.602362
357.058080	2442.156734
357.447408	2440.225972
357.836672	2437.443255
358.225873	2442.953236
358.615010	2441.821497
359.004084	2445.161262
359.393095	2447.127312
359.782043	2445.501539
360.170927	2449.347940
360.559748	2445.524225
360.948505	2451.399689
361.337199	2451.785338
361.725830	2452.871706
362.114398	2455.155349
362.502903	2450.761983
362.891344	2455.112499
363.279722	2454.830195
363.668037	2452.778445
364.056289	2456.579475
364.444478	2455.470421
364.832603	2455.601491
365.220665	2456.629887
365.608665	2456.556790
365.996601	2460.090639
366.384474	2460.740948
366.772284	2462.023921
367.160031	2461.003087
367.547715	2460.561987
367.935336	2460.516616
368.322893	2461.413942
368.710388	2463.503500
369.097820	2466.192955
369.485189	2466.717235
369.872495	2465.146916
370.259738	2463.992492
370.646918	2466.818058
371.034035	2469.676393
371.421090	2466.170270
371.808081	2471.629840
372.195010	2469.237812
372.581875	2471.576908
372.968678	2473.492546
373.355418	2470.830817
373.742096	2476.103864
374.128710	2474.745273
374.515262	2477.301138
374.901751	2479.892291
375.288177	2477.704430
375.674540	2477.606128
376.060841	2479.282311
376.447079	2482.274236
376.833254	2480.880357
377.219367	2480.713999
377.605417	2480.973618
377.991404	2482.571664
378.377329	2484.633496
378.763191	2485.402272
379.148991	2489.296563
379.534727	2488.437047
379.920402	2491.660865
380.306013	2490.019969
380.691563	2495.522388
381.077049	2493.160608
381.462474	2497.450630
381.847835	2496.616319
382.233134	2500.069509
382.618371	2498.731083
383.003545	2503.878101
383.388657	2507.754748
383.773706	2512.289266
384.158693	2513.471417
384.543618	2519.019207
384.928480	2520.781090
385.313280	2533.353728
385.698017	2542.778165
386.082692	2550.203784
386.467305	2558.352809
386.851856	2575.281004
387.236344	2594.906216
387.620770	2608.978597
388.005133	2631.827627
388.389435	2654.835453
388.773674	2679.254802
389.157851	2711.427446
389.541965	2744.084041
389.926018	2773.965480
390.310008	2820.354178
390.693936	2865.480066
391.077802	2914.754825
391.461606	2972.251705
391.845348	3029.710776
392.229027	3090.718820
392.612645	3175.130421
392.996200	3247.150865
393.379694	3335.295440
393.763125	3437.582972
394.146494	3519.451311
394.529801	3613.552009
394.913047	3738.570104
395.296230	3807.535609
395.679351	3894.061974
396.062410	4042.917164
396.445408	4088.390893
396.828343	4214.787743
397.211217	4336.191331
397.594028	4383.958784
397.976778	4543.188669
398.359466	4692.358932
398.742092	4774.222229
399.124656	4925.313172
399.507158	5101.022589
399.889598	5205.775246
400.271977	5394.024533
400.654294	5509.358571
401.036549	5706.366864
401.418742	5826.167364
401.800874	6083.911478
402.182944	6240.288070
402.564952	6546.555811
402.946898	6558.445372
403.328783	6701.089861
403.710606	6924.259221
404.092367	7186.719335
404.474067	7531.657766
404.855705	7511.462904
405.237282	7587.362516
405.618797	7988.610636
406.000250	8268.868543
406.381642	8638.526272
406.762972	8715.570226
407.144240	8678.757200
407.525447	8968.999112
407.906593	9028.361219
408.287677	9329.310542
408.668700	9548.918327
409.049661	9623.368608
409.430560	9848.942598
409.811399	9914.301158
410.192176	10141.674841
410.572891	10287.722109
410.953545	10788.661566
411.334138	10427.178068
411.714669	11017.759323
412.095139	10502.986940
412.475547	11009.794300
412.855894	10941.877355
413.236180	11300.678960
413.616405	11091.483678
413.996568	11395.868547
414.376670	11433.657036
414.756711	11370.400638
415.136691	11674.450270
415.516609	11882.723021
415.896466	11991.927016
416.276262	12300.332206
416.655997	12768.751180
417.035670	12849.386956
417.415283	13503.592614
417.794834	13622.089977
418.174324	13419.445674
418.553753	13349.968492
418.933121	13854.701418
419.312428	13694.750648
419.691674	13630.390236
420.070859	14093.016925
420.449983	13776.291311
420.829045	14332.877545
421.208047	14103.033698
421.586988	14559.941197
421.965867	14816.104909
422.344686	14826.804758
422.723444	15390.191509
423.102141	14127.349703
423.480777	15295.659792
423.859352	14813.213807
424.237866	15909.314409
424.616319	15616.448576
424.994712	16270.757578
425.373044	16066.127061
425.751314	16748.580824
426.129524	15885.999072
426.507673	16948.026515
426.885762	16671.428485
427.263789	16858.195674
427.641756	17022.900252
428.019662	17083.540292
428.397508	17124.416488
428.775292	17420.745593
429.153016	17381.946353
429.530679	17462.259495
429.908282	17481.393194
430.285824	17225.267291
430.663305	17917.836130
431.040726	17521.813166
431.418086	17362.200153
431.795385	17987.953539
432.172624	18415.181245
432.549802	17973.324110
432.926920	18167.274943
433.303977	18048.202889
433.680974	18296.089026
434.057910	18591.276310
434.434786	18624.484911
434.811601	18533.262712
435.188355	19561.096008
435.565050	19209.785558
435.941683	19159.134565
436.318257	20027.125475
436.694770	19847.226859
437.071222	20430.135478
437.447614	19517.981540
437.823946	19536.240599
438.200218	19690.628456
438.576429	19463.844588
438.952580	19745.143494
439.328670	19710.956909
439.704700	20117.329362
440.080670	19701.534992
440.456580	20274.240316
440.832429	20439.333063
441.208218	19455.756057
441.583947	19889.678416
441.959616	19991.608026
442.335224	20226.621577
442.710773	20354.866010
443.086261	20886.571630
443.461689	20252.142418
443.837057	20388.843387
444.212365	21010.493274
444.587612	21014.236330
444.962800	20607.160637
445.337927	21016.701455
445.712995	19769.608213
446.088002	21586.918969
446.462949	21776.685644
446.837837	21952.047222
447.212664	21908.857136
447.587431	24694.205541
447.962139	27577.637157
448.336786	29953.752254
448.711374	28429.375387
449.085901	24788.911178
449.460369	24725.546395
449.834776	24629.905624
450.209124	27074.172081
450.583412	26642.566133
450.957640	27167.156163
451.331808	25842.454359
451.705917	24480.632017
452.079965	24502.684545
452.453954	24853.382495
452.827883	24750.953810
453.201752	24559.916765
453.575562	24705.749784
453.949311	25819.960730
454.323001	25869.936209
454.696632	25646.366077
455.070202	27183.199636
455.443713	27311.096229
455.817164	27885.341626
456.190556	28413.384847
456.563888	27873.512558
456.937160	28302.310584
457.310373	26658.246642
457.683526	27082.434532
458.056619	27057.311942
458.429653	27009.373089
458.802628	27580.782837
459.175542	27678.755141
459.548398	28991.355656
459.921194	30542.833767
460.293930	31210.388400
460.666607	33228.364805
461.039224	34973.715610
461.411782	35352.139906
461.784280	34150.613654
462.156719	33654.198632
462.529099	33083.676128
462.901419	31790.037913
463.273680	30755.101632
463.645882	30854.800531
464.018024	30832.082571
464.390106	31652.515236
464.762130	34336.538970
465.134094	38373.187460
465.505999	43661.473791
465.877845	48231.970390
466.249631	49376.987828
466.621358	47604.487889
466.993026	45473.854298
467.364634	43386.564548
467.736184	41416.075812
468.107674	40191.778668
468.479105	39403.329604
468.850477	38732.551153
469.221790	37313.788979
469.593043	35594.997493
469.964238	34732.052777
470.335373	34623.688134
470.706449	36281.068284
471.077467	38811.112494
471.448425	43385.712593
471.819324	46260.274298
472.190164	44445.257267
472.560945	40892.360421
472.931667	37813.942017
473.302330	36694.198404
473.672934	35894.066465
474.043479	36390.214306
474.413965	35622.522193
474.784393	35238.905508
475.154761	36120.638604
475.525070	36157.580180
475.895321	35706.883382
476.265513	36302.518394
476.635645	37243.326251
477.005719	37076.685869
477.375734	37539.627630
477.745691	38232.970286
478.115588	39540.864884
478.485427	41502.997907
478.855207	44824.493189
479.224928	47455.234447
479.594591	49091.809755
479.964194	48074.767049
480.333739	48198.250112
480.703226	48205.642964
481.072653	48830.284776
481.442022	49357.723059
481.811333	49611.033478
482.180584	48316.258483
482.549777	47804.165472
482.918912	47276.442364
483.287988	46988.337901
483.657005	46155.015006
484.025964	45513.964239
484.394864	45536.208330
484.763706	45099.052071
485.132489	44217.815529
485.501213	44065.033280
485.869879	44208.842275
486.238487	43819.909694
486.607036	44008.562274
486.975527	43485.076256
487.343959	43684.239642
487.712333	43774.733394
488.080648	43666.308257
488.448905	44105.866626
488.817104	43926.293164
489.185244	44874.340118
489.553326	46527.957047
489.921350	49254.011401
490.289315	52163.359588
490.657222	52809.312877
491.025070	53087.254374
491.392861	52167.629445
491.760593	50919.704413
492.128267	49215.363395
492.495883	47669.402827
492.863440	46288.623227
493.230939	44951.119412
493.598380	43854.827247
493.965763	43539.813104
494.333088	42728.051224
494.700354	42262.936726
495.067563	41974.378559
495.434713	41839.986439
495.801805	41911.981678
496.168839	41556.976062
496.535815	41229.490105
496.902733	41239.549728
497.269593	40845.374347
497.636395	40783.542074
498.003139	41183.272807
498.369825	40649.888483
498.736453	40944.954779
499.103023	40491.122384
499.469535	40365.224608
499.835989	40448.980858
500.202385	40110.835382
500.568723	40129.782558
500.935003	40323.448566
501.301226	40131.272219
501.667390	40740.493141
502.033497	40992.318940
502.399546	40436.677922
502.765537	39749.659394
503.131470	40134.576696
503.497345	40478.332977
503.863163	39143.047269
504.228923	39771.059092
504.594625	40156.357001
504.960269	39456.241555
505.325856	40139.585082
505.691385	39500.694449
506.056856	39644.947067
506.422270	40061.293442
506.787625	39657.865023
507.152924	39843.132468
507.518164	39957.682607
507.883347	39174.075571
508.248472	39412.267570
508.613540	39887.464375
508.978550	40184.209376
509.343503	39943.678282
509.708398	40140.505093
510.073236	40648.366055
510.438016	40650.127938
510.802738	40104.354978
511.167403	40733.511143
511.532010	40956.874588
511.896561	41247.718918
512.261053	42073.091913
512.625488	41641.168373
512.989866	41506.438495
513.354186	41362.604293
513.718449	41335.283760
514.082655	42014.564117
514.446803	41686.296782
514.810894	42208.111658
515.174927	42132.166675
515.538904	42042.824826
515.902822	42693.168960
516.266684	42150.455981
516.630488	42578.462545
516.994235	42422.491766
517.357925	43001.276721
517.721558	43158.094415
518.085133	43468.793329
518.448651	43605.620327
518.812112	43383.489444
519.175516	43479.034433
519.538863	43822.273996
519.902152	43777.848827
520.265385	44261.366057
520.628560	44301.486080
520.991678	44084.862658
521.354739	44323.243700
521.717743	44637.690713
522.080690	44529.305905
522.443580	45095.556031
522.806413	45135.923071
523.169189	45085.970277
523.531908	45264.412000
523.894569	45127.680784
524.257174	45289.847142
524.619722	45608.120390
524.982213	45596.916425
525.344647	45507.811510
525.707025	45575.231902
526.069345	45963.945193
526.431608	45880.993006
526.793815	46204.655248
527.155964	45737.373054
527.518057	45913.861329
527.880093	45689.378748
528.242072	46222.894142
528.603995	45928.531087
528.965860	45932.122909
529.327669	46027.798968
529.689421	45930.119050
530.051117	45892.814512
530.412755	46039.781791
530.774337	46106.982892
531.135862	45914.088181
531.497331	46119.981507
531.858743	46030.800975
532.220098	46377.196300
532.581396	46074.853098
532.942638	45748.274549
533.303824	46032.479679
533.664953	46012.431010
534.026025	45742.530154
534.387040	46211.733028
534.747999	46171.948242
535.108902	46320.952146
535.469748	45857.108019
535.830537	45967.766387
536.191270	46165.583785
536.551947	45823.029819
536.912567	46125.284801
537.273131	46240.530619
537.633638	45729.420633
537.994089	46064.664926
538.354483	45687.563933
538.714821	46257.179030
539.075103	46599.826257
539.435328	46366.098200
539.795497	46242.242091
540.155609	46231.587612
540.515665	46700.241000
540.875665	46154.863771
541.235609	46486.614544
541.595496	46464.851883
541.955328	47119.486039
542.315102	46500.455032
542.674821	46280.474202
543.034483	46306.864642
543.394090	46288.771941
543.753640	46234.483755
544.113134	47249.187366
544.472571	46273.083870
544.831953	47506.127416
545.191278	46722.069196
545.550548	46432.832994
545.909761	46895.288283
546.268918	47101.090869
546.628019	47409.264165
546.987064	46966.164386
547.346053	46266.686646
547.704986	47125.432080
548.063863	46695.943416
548.422684	46886.430976
548.781449	46739.138543
549.140158	47136.265520
549.498811	46972.677557
549.857408	46416.935716
550.215949	47238.658916
550.574434	47190.324333
550.932864	46946.382898
551.291237	47659.622988
551.649555	47286.996020
552.007817	47522.967390
552.366022	47152.064496
552.724173	47346.191769
553.082267	47745.917460
553.440305	48043.113644
553.798288	47359.404633
554.156215	47674.658230
554.514086	47875.656595
554.871902	47618.756875
555.229661	47643.418199
555.587365	47459.196794
555.945014	47553.370589
556.302606	47466.390520
556.660143	47710.291626
557.017625	47795.293041
557.375050	47600.432281
557.732421	47930.758928
558.089735	47927.835058
558.446994	47838.538580
558.804197	48310.698090
559.161345	48229.114577
559.518437	47486.850043
559.875474	47800.429977
560.232455	47961.643557
560.589381	48134.053539
560.946251	47829.656067
561.303065	48508.704531
561.659825	48309.422678
562.016528	48008.085186
562.373177	47706.041933
562.729770	48187.099080
563.086307	47704.247282
563.442789	48165.447324
563.799216	48208.551710
564.155587	47998.375924
564.511904	48022.868370
564.868164	48114.756002
565.224370	48365.301348
565.580520	48088.068133
565.936615	48309.846135
566.292654	48030.498156
566.648638	48273.708624
567.004567	48210.590857
567.360441	48253.700284
567.716260	48104.441801
568.072023	48396.869053
568.427732	48389.294720
568.783385	47950.545456
569.138982	48343.430302
569.494525	48307.897729
569.850013	48053.873987
570.205445	48024.340387
570.560823	47989.672372
570.916145	47864.896253
571.271412	47896.330367
571.626625	47638.548445
571.981782	47698.956591
572.336884	47383.403046
572.691931	47708.512098
573.046923	47321.532965
573.401860	47152.772778
573.756743	47134.564130
574.111570	47268.646220
574.466342	47117.935884
574.821059	47233.741270
575.175722	46768.548635
575.530330	46767.182482
575.884882	46494.569485
576.239380	46459.493136
576.593823	46425.472910
576.948211	46341.746906
577.302544	45869.567231
577.656823	45907.010401
578.011047	46114.221989
578.365216	45841.069588
578.719330	45643.524413
579.073389	45506.142888
579.427394	45564.658082
579.781344	45540.886521
580.135239	45185.011306
580.489080	45283.790195
580.842866	44770.676351
581.196597	45225.116206
581.550273	45178.813208
581.903895	45021.798909
582.257463	45454.468541
582.610975	44831.129868
582.964434	45119.153672
583.317837	44771.157781
583.671186	44601.318788
584.024481	44816.762579
584.377721	44355.817116
584.730906	44649.262681
585.084037	44663.594682
585.437113	44373.995517
585.790135	44419.696097
586.143103	44023.534501
586.496016	44143.433304
586.848874	44173.750803
587.201679	44194.157394
587.554428	43675.891491
587.907124	43861.748751
588.259765	43611.420174
588.612352	43866.051376
588.964884	43252.185031
589.317362	43537.496694
589.669786	43472.715347
590.022155	43250.055143
590.374470	43669.842106
590.726731	43187.499465
591.078937	42702.260681
591.431090	42819.162518
591.783188	42457.905872
592.135232	42122.318781
592.487222	42382.308729
592.839157	42468.562871
593.191038	42147.085970
593.542866	41901.397775
593.894639	41305.379635
594.246358	41595.921496
594.598022	41571.751684
594.949633	41182.567045
595.301190	41133.425878
595.652692	40956.985493
596.004141	41290.432614
596.355535	40316.075878
596.706876	40273.110124
597.058162	40097.569585
597.409395	40563.251213
597.760573	40630.321244
598.111698	40228.493392
598.462768	40238.144681
598.813785	40269.959403
599.164748	39721.307945
599.515657	40122.495571
599.866511	39590.850445
600.217312	40199.640348
600.568060	39159.925052
600.918753	39911.026728
601.269392	39858.996980
601.619978	39505.559163
601.970510	39741.033980
602.320988	39910.966235
602.671412	40220.362011
603.021783	39958.595056
603.372100	39607.647569
603.722363	39711.089526
604.072572	39797.971292
604.422728	39799.599584
604.772830	39621.649374
605.122878	39712.518693
605.472872	39656.090537
605.822813	39930.767887
606.172701	39761.987536
606.522534	39988.746197
606.872314	40266.594433
607.222041	40012.116987
607.571714	40421.705695
607.921333	39863.833967
608.270899	40143.381071
608.620411	40487.192804
608.969870	40282.799222
609.319276	40280.697061
609.668627	40323.962763
610.017926	40810.171970
610.367171	40962.538324
610.716362	41063.489950
611.065500	40995.164672
611.414585	41193.773530
611.763616	41479.175935
612.112594	41398.131825
612.461518	41631.012968
612.810389	41898.078175
613.159207	41784.816051
613.507971	41852.697708
613.856682	42321.666168
614.205340	42207.801627
614.553945	42921.255966
614.902496	42359.910882
615.250994	42833.449148
615.599439	42894.898293
615.947830	43109.898463
616.296169	43148.942200
616.644454	43275.588587
616.992686	43455.678767
617.340864	43984.074869
617.688990	43690.800703
618.037063	44288.416889
618.385082	44254.293318
618.733048	44579.172999
619.080961	44569.357872
619.428821	44565.783694
619.776628	44702.464498
620.124382	44497.982695
620.472083	44637.312626
620.819731	44765.413386
621.167326	44428.767653
621.514868	44415.857258
621.862357	43984.180734
622.209793	43983.669057
622.557176	43676.171275
622.904506	43421.434209
623.251783	43089.169239
623.599007	42853.795245
623.946179	42629.879794
624.293297	42586.228443
624.640363	42001.293280
624.987376	41976.760505
625.334336	41737.958526
625.681243	41378.103321
626.028097	41349.658610
626.374899	41203.956661
626.721647	41173.172855
627.068343	41055.003168
627.414987	40824.690493
627.761577	40589.941602
628.108115	40945.471498
628.454600	40389.240665
628.801032	40577.678995
629.147412	40529.568744
629.493739	40535.756760
629.840014	40178.419611
630.186236	40520.464420
630.532405	40130.763063
630.878521	40343.192245
631.224585	40217.198687
631.570597	39931.899626
631.916556	40083.776988
632.262462	40035.575996
632.608316	40054.999562
632.954117	39943.209455
633.299866	39949.518459
633.645562	39863.768432
633.991206	39358.271771
634.336797	38923.452087
634.682336	38940.312226
635.027823	38685.466776
635.373257	38510.306844
635.718639	38269.553939
636.063968	38139.575349
636.409245	37555.439209
636.754470	37596.146526
637.099642	37347.378187
637.444762	36874.674232
637.789829	37012.655654
638.134845	36654.499317
638.479808	36621.424307
638.824719	36525.009719
639.169577	36124.091795
639.514383	36172.927972
639.859137	35893.408595
640.203839	36139.094268
640.548489	35762.394047
640.893086	35821.017625
641.237632	35573.446560
641.582125	35684.530906
641.926566	35623.127131
642.270955	35592.887770
642.615292	35590.372234
642.959576	35584.418631
643.303809	35568.801137
643.647990	35718.253704
643.992118	35689.209096
644.336195	35683.222726
644.680219	35788.456813
645.024192	36080.483293
645.368112	36576.941165
645.711981	36588.803000
646.055797	37464.915209
646.399562	37391.110197
646.743274	38346.265177
647.086935	38790.161459
647.430544	38675.969242
647.774101	38776.641084
648.117606	39044.338956
648.461059	39349.200215
648.804460	38966.828695
649.147810	38334.317643
649.491108	38088.090045
649.834354	37722.845846
650.177548	36893.165184
650.520690	36444.288243
650.863781	36468.422767
651.206820	36305.086862
651.549807	35859.436259
651.892742	35380.020008
652.235626	35193.051173
652.578458	35046.025921
652.921238	34438.902119
653.263967	34772.656751
653.606644	34452.374603
653.949269	34402.802417
654.291843	33998.307794
654.634365	34412.259621
654.976836	34014.852861
655.319255	33997.312166
655.661622	33991.903008
656.003938	33759.452883
656.346203	33627.162924
656.688416	33850.299517
657.030577	33653.820546
657.372687	33499.745240
657.714746	33756.783592
658.056753	33879.606265
658.398708	33336.290868
658.740612	33386.294073
659.082465	33657.079652
659.424266	33481.062724
659.766016	33599.615539
660.107715	33472.797752
660.449362	33585.346553
660.790958	33596.353912
661.132503	33603.897999
661.473996	33630.999242
661.815438	33743.938732
662.156829	33941.400729
662.498168	33716.847572
662.839456	33741.019904
663.180693	33888.244282
663.521879	34055.726536
663.863013	33995.255375
664.204097	34011.155174
664.545129	34468.355061
664.886110	34431.612611
665.227040	34494.178371
665.567918	34609.187255
665.908746	34663.538455
666.249522	34836.182851
666.590248	34830.234290
666.930922	34937.147080
667.271545	34910.131537
667.612118	35007.035117
667.952639	34787.437414
668.293109	34843.784911
668.633528	34729.844752
668.973896	34654.459337
669.314213	34679.670148
669.654480	34415.889252
669.994695	34460.836180
670.334859	34337.819423
670.674973	34236.187241
671.015035	34396.400151
671.355047	34355.236610
671.695008	34295.798885
672.034918	34183.323181
672.374777	34270.318373
672.714585	34096.701035
673.054342	34333.174000
673.394049	34078.056327
673.733705	34379.653438
674.073310	34033.840367
674.412864	34101.157415
674.752368	33703.032290
675.091820	34002.227291
675.431223	33583.498970
675.770574	33306.832885
676.109875	33163.046575
676.449125	32888.107085
676.788324	32812.966167
677.127473	32267.152878
677.466571	32188.566331
677.805619	31839.726046
678.144616	31827.879335
678.483562	31755.891658
678.822458	31421.970668
679.161303	31361.552439
679.500098	31254.753074
679.838842	31158.146923
680.177535	31300.703192
680.516179	31560.146174
680.854771	31802.524851
681.193314	32678.168233
681.531805	33821.549817
681.870247	34600.597129
682.208638	35348.785018
682.546978	35562.688738
682.885268	35654.833468
683.223508	35122.041480
683.561697	34777.352586
683.899836	34593.108495
684.237925	34086.996813
684.575963	33917.714867
684.913951	33461.772749
685.251889	33613.209010
685.589776	33606.874801
685.927614	33590.183540
686.265401	33728.359047
686.603137	33813.791481
686.940824	34337.811861
687.278460	34711.510075
687.616046	34853.158937
687.953582	35456.960618
688.291068	35319.057334
688.628504	35600.850272
688.965889	35534.501126
689.303224	35159.124208
689.640510	34808.789221
689.977745	34083.226030
690.314930	33275.683596
690.652065	32737.381626
690.989150	32010.222910
691.326185	31099.440166
691.663170	30391.165612
692.000105	29636.298194
692.336990	28943.542832
692.673825	28492.021806
693.010610	27967.562845
693.347345	27389.080359
693.684030	26721.215694
694.020665	26444.232017
694.357251	25770.196980
694.693786	25710.776900
695.030272	25473.406609
695.366707	24923.971251
695.703093	24630.485357
696.039429	24620.443378
696.375716	24356.972514
696.711952	24318.679909
697.048139	24158.771988
697.384276	23980.030317
697.720363	24099.997176
698.056400	23896.684921
698.392388	23680.285830
698.728326	23644.304594
699.064214	23429.460700
699.400053	23383.220716
699.735842	23026.022199
700.071581	22738.250452
700.407270	22440.290533
700.742910	22259.928131
701.078501	21980.817087
701.414042	21694.721523
701.749533	21390.092158
702.084974	21041.463602
702.420366	21254.437229
702.755709	20795.099893
703.091002	20507.330667
703.426246	20521.060250
703.761440	20412.438508
704.096584	20151.538632
704.431679	20096.002760
704.766725	20010.688793
705.101721	19945.736046
705.436668	20035.569408
705.771565	19707.496157
706.106413	20061.637214
706.441212	20036.812052
706.775961	20164.620426
707.110661	20233.240612
707.445311	20590.035837
707.779913	20435.630336
708.114465	20670.031387
708.448967	20960.391766
708.783421	21659.839259
709.117825	21930.743305
709.452180	22150.487202
709.786485	22554.480230
710.120742	23355.882539
710.454949	23369.334858
710.789107	23839.208205
711.123216	24543.883375
711.457275	24671.096892
711.791286	25217.396652
712.125247	25287.062878
712.459159	24979.590302
712.793023	25653.116182
713.126837	24537.556727
713.460602	24802.698734
713.794318	24444.265134
714.127985	24043.246386
714.461602	23138.197954
714.795171	23102.728396
715.128691	22069.841343
715.462162	21530.531143
715.795584	21104.994744
716.128957	20846.249961
716.462281	20431.635222
716.795556	20196.455312
717.128782	19696.521565
717.461960	19140.852820
717.795088	19063.660152
718.128167	18677.444753
718.461198	18200.251651
718.794180	18053.143220
719.127113	17693.187191
719.459997	17474.824571
719.792833	17130.007127
720.125619	17088.122701
720.458357	16772.112931
720.791046	16604.469359
721.123686	16442.698733
721.456278	16202.026486
721.788821	16151.597304
722.121315	15892.580298
722.453761	15960.187213
722.786158	15890.964609
723.118506	15899.360650
723.450805	15760.202119
723.783056	15921.390493
724.115259	15815.947198
724.447412	15753.709113
724.779518	15997.905126
725.111574	16017.598393
725.443582	16202.699480
725.775542	16186.890422
726.107453	16657.517421
726.439315	16549.278807
726.771129	16939.643076
727.102895	17319.907393
727.434612	17522.748300
727.766281	17658.304927
728.097901	17918.027694
728.429473	17958.707285
728.760996	17945.703628
729.092471	18022.724897
729.423897	17901.265857
729.755276	17763.594466
730.086606	17878.936066
730.417887	18408.952899
730.749120	18928.658052
731.080305	19093.150902
731.411442	19444.574778
731.742530	19506.139869
732.073570	19614.081055
732.404562	19910.455531
732.735506	19725.046934
733.066401	19440.632596
733.397249	18918.623635
733.728048	18274.354092
734.058798	17430.134742
734.389501	16750.118376
734.720156	16278.619257
735.050762	15744.940026
735.381320	15387.701179
735.711831	15132.470080
736.042293	14783.039981
736.372707	14788.902843
736.703073	14577.673456
737.033391	14765.627836
737.363661	14727.967896
737.693883	14830.764584
738.024056	14994.481097
738.354182	15186.251630
738.684260	15476.536392
739.014290	15686.510532
739.344272	15874.636311
739.674207	16166.433419
740.004093	16274.538443
740.333931	16269.923267
740.663722	16306.701005
740.993464	16308.208310
741.323159	16136.325128
741.652806	15856.674680
741.982405	15646.967721
742.311956	15298.387056
742.641460	15177.875753
742.970915	14870.332601
743.300323	14539.794226
743.629683	14323.395135
743.958996	14046.945820
744.288260	13765.838478
744.617477	13478.727123
744.946647	13402.119228
745.275768	13124.225623
745.604842	12935.154627
745.933869	12766.777568
746.262847	12717.858211
746.591778	12644.907674
746.920662	12533.104964
747.249498	12526.488449
747.578286	12660.066423
747.907027	12794.995427
748.235720	13015.583716
748.564365	13036.300338
748.892963	12945.362964
749.221514	13001.254236
749.550017	12855.176721
749.878473	12821.335456
750.206881	12593.548398
750.535242	12506.245696
750.863555	12405.795665
751.191821	12306.374028
751.520039	12331.657936
751.848210	12231.470044
752.176334	12262.856268
752.504411	12174.048781
752.832440	12018.957683
753.160421	12068.517267
753.488356	11952.454782
753.816243	11859.392561
754.144082	11711.023842
754.471875	11655.044349
754.799620	11596.584608
755.127318	11579.865621
755.454969	11529.393589
755.782572	11484.723925
756.110129	11499.678508
756.437638	11418.997361
756.765100	11407.657285
757.092515	11408.116030
757.419882	11424.930799
757.747203	11427.592528
758.074477	11495.254895
758.401703	11457.584873
758.728882	11615.420879
759.056014	11657.111222
759.383099	11773.541711
759.710138	11877.591126
760.037129	11958.698251
760.364073	11973.862041
760.690970	11959.925772
761.017820	11954.579628
761.344623	12151.192190
761.671379	12482.721152
761.998088	13116.147174
762.324751	14676.540565
762.651366	17566.308910
762.977935	21241.423490
763.304456	23486.269463
763.630931	23977.476973
763.957359	22802.900729
764.283740	20881.417050
764.610074	19004.010699
764.936362	16848.546905
765.262602	15307.602286
765.588796	13823.678157
765.914943	12793.803194
766.241044	11925.161975
766.567097	11285.840323
766.893104	10734.597712
767.219064	10365.338234
767.544978	9971.407349
767.870845	9658.036623
768.196665	9469.807500
768.522438	9267.105224
768.848165	9109.498591
769.173846	8938.227909
769.499479	8809.963311
769.825066	8653.924476
770.150607	8465.972617
770.476101	8407.555726
770.801548	8289.844784
771.126949	8154.499885
771.452303	8062.939929
771.777611	7899.135196
772.102872	7876.807926
772.428087	7759.800224
772.753256	7629.985472
773.078378	7544.401803
773.403453	7403.854434
773.728482	7297.075233
774.053465	7230.879842
774.378401	7140.764176
774.703291	7050.444343
775.028135	6951.007584
775.352932	6909.854124
775.677683	6828.280693
776.002388	6735.359625
776.327046	6739.392548
776.651658	6647.729248
776.976224	6578.710810
777.300743	6561.152472
777.625216	6486.959290
777.949643	6443.786848
778.274024	6451.779598
778.598359	6384.860801
778.922647	6382.322580
779.246889	6338.293142
779.571086	6348.597261
779.895236	6360.915320
780.219339	6355.491039
780.543397	6352.277303
780.867409	6400.211114
781.191374	6396.707512
781.515294	6367.055446
781.839167	6419.675009
782.162995	6388.661831
782.486776	6339.871023
782.810511	6299.929962
783.134201	6226.356842
783.457844	6210.787238
783.781441	6165.011041
784.104993	6123.020750
784.428498	6099.508808
784.751958	6070.902781
785.075372	6049.573659
785.398739	6010.320714
785.722061	6033.721750
786.045337	6033.724271
786.368568	6140.921887
786.691752	6162.056924
787.014891	6412.844246
787.337983	6698.813780
787.661030	7133.409133
787.984031	7559.487456
788.306987	7826.794638
788.629897	7919.045233
788.952760	7829.839495
789.275579	7658.843557
789.598351	7358.065633
789.921078	7089.644356
790.243759	6808.184133
790.566395	6605.665860
790.888984	6411.236118
791.211529	6265.450990
791.534027	6103.390497
791.856480	5961.209793
792.178888	5903.843983
792.501249	5832.030226
792.823566	5725.432508
793.145836	5720.797167
793.468062	5704.025248
793.790241	5666.587119
794.112375	5706.686977
794.434464	5800.187778
794.756507	5832.788920
795.078505	5952.360048
795.400457	6171.408265
795.722364	6409.083545
796.044226	6601.466579
796.366042	6768.580829
796.687812	6714.080915
797.009538	6741.023361
797.331218	6651.983982
797.652852	6579.908084
797.974442	6460.888963
798.295986	6389.806173
798.617484	6264.505773
798.938938	6147.296426
799.260346	6081.864770
799.581709	5940.833450
799.903026	5889.955604
800.224299	5813.259490
800.545526	5701.514753
800.866708	5631.840966
801.187845	5580.295168
801.508936	5505.486965
801.829983	5474.985464
802.150984	5368.377663
802.471940	5343.179455
802.792851	5323.776054
803.113717	5297.216735
803.434538	5277.848622
803.755314	5244.960134
804.076045	5235.386983
804.396731	5194.601528
804.717372	5209.636769
805.037967	5212.253128
805.358518	5238.572992
805.679024	5301.249658
805.999485	5306.875586
806.319901	5323.849151
806.640272	5341.122665
806.960598	5391.614862
807.280879	5378.117172
807.601115	5418.388430
807.921306	5376.383015
808.241453	5378.152460
808.561554	5390.054624
808.881611	5355.484912
809.201623	5350.093398
809.521590	5303.508095
809.841513	5285.453203
810.161390	5302.220080
810.481223	5214.163726
810.801011	5204.005801
811.120755	5175.878683
811.440453	5122.228203
811.760107	5092.598821
812.079716	5063.738215
812.399281	5015.335577
812.718801	5009.001367
813.038276	4974.887879
813.357707	4940.875214
813.677093	4961.753153
813.996434	4899.283174
814.315731	4918.331174
814.634983	4919.641874
814.954191	4924.388120
815.273354	4984.834075
815.592473	5028.613976
815.911547	5103.485193
816.230577	5157.075179
816.549562	5248.476339
816.868502	5294.643226
817.187399	5358.577660
817.506250	5435.140184
817.825058	5466.206294
818.143821	5622.081292
818.462539	5794.100585
818.781213	6021.993506
819.099843	6388.704681
819.418429	7024.424428
819.736970	7649.275447
820.055466	8368.088533
820.373919	9299.096387
820.692327	10775.378126
821.010691	13508.278367
821.329011	19804.873605
821.647286	29472.831219
821.965517	39897.163555
822.283704	45404.992137
822.601847	46958.476626
822.919945	42356.026673
823.237999	37221.908909
823.556010	31994.436537
823.873976	27219.001910
824.191897	22962.967446
824.509775	19833.779581
824.827609	17027.623813
825.145398	15436.237408
825.463144	14657.961392
825.780845	14960.445747
826.098502	16226.213942
826.416116	18697.538792
826.733685	20991.125161
827.051210	21525.026203
827.368692	20068.699871
827.686129	17497.792068
828.003522	14987.715868
828.320872	12753.814241
828.638177	11073.060781
828.955439	9808.147061
829.272656	8732.821055
829.589830	7886.476859
829.906960	7141.873230
830.224046	6598.714109
830.541088	6177.313977
830.858086	5917.097177
831.175041	5713.263162
831.491952	5649.230426
831.808819	5680.089849
832.125642	5929.531183
832.442421	6486.724876
832.759157	7604.189888
833.075849	9395.952076
833.392497	11259.906107
833.709101	12398.690158
834.025662	12134.511012
834.342179	11078.311143
834.658653	9765.067881
834.975083	8644.830235
835.291469	7729.974238
835.607811	6977.332489
835.924110	6455.631039
836.240366	5956.256860
836.556578	5495.573536
836.872746	5139.766377
837.188871	4859.354715
837.504952	4636.192917
837.820990	4463.485506
838.136984	4350.800594
838.452935	4303.585147
838.768842	4329.380732
839.084706	4611.130820
839.400526	5360.205953
839.716303	6278.023627
840.032037	6853.017635
840.347727	6709.901798
840.663373	6096.368169
840.978977	5514.576166
841.294537	5062.258637
841.610054	4729.688676
841.925527	4487.385617
842.240957	4276.030201
842.556344	4090.384669
842.871687	3928.614042
843.186987	3774.334570
843.502244	3653.266219
843.817458	3567.264134
844.132629	3494.575737
844.447756	3443.667645
844.762840	3398.635018
845.077881	3358.222608
845.392879	3327.128771
845.707833	3298.195068
846.022745	3272.570883
846.337613	3259.942793
846.652438	3236.687950
846.967221	3227.432392
847.281960	3206.453630
847.596656	3195.867207
847.911309	3182.777851
848.225919	3173.539937
848.540485	3165.368226
848.855009	3154.446567
849.169490	3137.039462
849.483928	3133.742548
849.798323	3130.143164
850.112675	3117.227728
850.426984	3119.516412
850.741251	3110.759927
851.055474	3107.513424
851.369654	3109.562653
851.683792	3102.888166
851.997887	3107.654577
852.311938	3109.466871
852.625947	3111.596759
852.939914	3104.617281
853.253837	3110.223044
853.567718	3103.898917
853.881555	3100.748196
854.195350	3105.106273
854.509103	3104.647528
854.822812	3101.509410
855.136479	3095.817947
855.450103	3100.657455
855.763685	3089.486258
856.077224	3095.674274
856.390720	3100.896910
856.704173	3114.298817
857.017584	3119.345012
857.330953	3124.466825
857.644278	3130.475880
857.957561	3135.476705
858.270802	3133.951756
858.584000	3133.518216
858.897155	3126.079994
859.210268	3116.164044
859.523339	3101.340531
859.836367	3100.720469
860.149352	3092.173193
860.462295	3094.512288
860.775195	3083.716658
861.088054	3079.771955
861.400869	3081.932089
861.713642	3077.740370
862.026373	3086.262440
862.339062	3089.831577
862.651708	3098.479677
862.964312	3117.421812
863.276873	3127.670478
863.589392	3154.088645
863.901869	3183.546627
864.214303	3201.256201
864.526696	3221.922411
864.839045	3238.210379
865.151353	3250.533479
865.463619	3251.335023
865.775842	3254.987339
866.088023	3261.351796
866.400162	3253.369128
866.712258	3254.495826
867.024313	3253.394334
867.336325	3249.484919
867.648296	3253.253182
867.960224	3255.662853
868.272110	3256.981115
868.583954	3254.919283
868.895755	3261.765170
869.207515	3260.547732
869.519233	3279.996503
869.830909	3284.508336
870.142542	3295.664409
870.454134	3305.676141
870.765684	3315.415650
871.077191	3337.374916
871.388657	3345.279445
871.700081	3364.665203
872.011463	3384.650857
872.322803	3407.983838
872.634101	3421.647885
872.945357	3446.072275
873.256571	3469.748054
873.567744	3486.409068
873.878874	3492.211436
874.189963	3512.033253
874.501010	3511.216586
874.812015	3503.949763
875.122979	3527.532280
875.433900	3520.920807
875.744780	3527.827188
876.055618	3533.528733
876.366415	3533.942107
876.677169	3535.746841
876.987882	3557.723751
877.298554	3576.623037
877.609183	3613.796505
877.919771	3665.790966
878.230317	3735.212695
878.540822	3843.489118
878.851285	3998.184486
879.161707	4226.188313
879.472087	4608.615284
879.782425	5250.160085
880.092722	6460.445341
880.402977	8432.078419
880.713191	10845.339259
881.023363	13265.120832
881.333494	14629.262103
881.643583	15106.409836
881.953631	14696.301888
882.263637	13852.979864
882.573602	12814.928149
882.883526	11835.840290
883.193408	10857.864006
883.503248	9922.422457
883.813048	9076.413498
884.122806	8297.892986
884.432522	7510.474838
884.742197	6832.658935
885.051831	6255.366162
885.361424	5748.203399
885.670975	5341.994784
885.980485	5006.720245
886.289954	4730.815374
886.599382	4506.841950
886.908768	4321.355215
887.218113	4154.722395
887.527417	4020.726005
887.836680	3896.600195
888.145901	3793.304432
888.455082	3711.423490
888.764221	3639.907161
889.073319	3583.262236
889.382376	3546.905435
889.691392	3520.020961
890.000366	3515.423429
890.309300	3509.870598
890.618193	3512.418901
890.927044	3507.471009
891.235855	3510.772964
891.544625	3528.185110
891.853353	3555.387176
892.162041	3616.811115
892.470687	3713.898697
892.779293	3834.006708
893.087858	4014.142258
893.396381	4297.744971
893.704864	4720.153334
894.013306	5297.486437
894.321707	5883.150047
894.630068	6246.501292
894.938387	6285.761799
895.246665	6109.497854
895.554903	5791.622858
895.863100	5438.353919
896.171256	5168.619421
896.479371	4923.531124
896.787446	4691.706103
897.095480	4489.699506
897.403473	4336.506403
897.711425	4185.647353
898.019336	4059.091707
898.327207	3938.756844
898.635038	3834.619208
898.942827	3726.075604
899.250576	3636.736276
899.558284	3552.032288
899.865952	3495.644462
900.173579	3429.169287
900.481165	3384.613048
900.788711	3339.701409
901.096216	3305.971048
901.403681	3280.145217
901.711105	3268.979061
902.018489	3263.264913
902.325832	3293.305149
902.633135	3357.383256
902.940397	3532.812889
903.247619	3948.191363
903.554800	4711.424576
903.861941	5701.945772
904.169041	6424.312871
904.476101	6641.349668
904.783121	6366.591659
905.090100	5958.721984
905.397039	5533.727509
905.703938	5163.464841
906.010796	4833.564172
906.317614	4571.968617
906.624391	4326.938293
906.931129	4127.018734
907.237826	3940.375054
907.544483	3766.790483
907.851099	3585.669387
908.157675	3425.504368
908.464211	3276.366872
908.770707	3172.123372
909.077163	3092.992381
909.383578	3030.436702
909.689954	2984.380721
909.996289	2953.405351
910.302584	2932.310643
910.608839	2920.799168
910.915054	2906.625964
911.221229	2900.145561
911.527363	2907.858526
911.833458	2915.193405
912.139513	2926.369643
912.445527	2938.906993
912.751502	2977.106336
913.057436	3019.840197
913.363331	3080.565936
913.669186	3169.486849
913.975000	3289.254582
914.280775	3483.381855
914.586510	3759.193464
914.892205	4143.543636
915.197859	4653.342922
915.503475	5252.534468
915.809050	5761.411223
916.114585	6054.907199
916.420081	6123.217355
916.725536	6060.119752
917.030952	5811.129602
917.336328	5600.774855
917.641665	5386.218306
917.946961	5158.388399
918.252218	4946.985092
918.557435	4715.593610
918.862612	4512.286396
919.167750	4340.811548
919.472848	4138.875528
919.777906	3969.891010
920.082925	3806.653407
920.387904	3643.993017
920.692843	3532.775080
920.997743	3429.580141
921.302603	3336.480111
921.607423	3268.174997
921.912204	3199.277548
922.216946	3150.398520
922.521647	3096.231322
922.826310	3053.298335
923.130932	3014.247037
923.435516	2976.468630
923.740059	2948.497788
924.044564	2916.264650
924.349028	2890.491751
924.653454	2858.432533
924.957840	2833.125941
925.262186	2811.340595
925.566493	2789.126750
925.870761	2764.336876
926.174989	2752.238107
926.479178	2737.344018
926.783328	2719.331975
927.087438	2710.504915
927.391509	2695.809951
927.695541	2685.054650
927.999533	2673.573422
928.303486	2665.575631
928.607400	2655.702531
928.911275	2652.042654
929.215110	2646.141983
929.518906	2642.111581
929.822663	2644.422950
930.126381	2643.621406
930.430060	2646.061325
930.733699	2646.104174
931.037299	2653.360915
931.340861	2650.895791
931.644383	2654.974085
931.947866	2651.173055
932.251309	2649.171717
932.554714	2648.307159
932.858080	2648.521408
933.161407	2642.572846
933.464694	2640.044707
933.767943	2637.186373
934.071153	2633.765950
934.374323	2627.769498
934.677455	2624.591050
934.980548	2622.894702
935.283602	2620.348919
935.586617	2619.953189
935.889593	2622.877058
936.192530	2623.492079
936.495428	2627.280506
936.798287	2636.654532
937.101108	2650.762201
937.403890	2674.753052
937.706632	2704.049717
938.009336	2735.057855
938.312002	2767.348966
938.614628	2790.883592
938.917216	2807.942857
939.219765	2821.007007
939.522275	2832.039572
939.824747	2827.527740
940.127179	2824.356854
940.429573	2817.795792
940.731929	2817.364773
941.034246	2807.327836
941.336524	2806.160809
941.638763	2795.236629
941.940964	2792.718572
942.243126	2774.404060
942.545250	2765.761002
942.847335	2749.417581
943.149381	2736.633215
943.451389	2722.853221
943.753359	2712.838969
944.055290	2701.453523
944.357182	2692.651668
944.659036	2687.653364
944.960851	2683.199505
945.262628	2677.407219
945.564367	2678.879236
945.866067	2677.311437
946.167729	2675.889832
946.469352	2676.585511
946.770937	2672.252639
947.072484	2666.939263
947.373992	2664.390960
947.675462	2663.251659
947.976893	2657.262768
948.278286	2654.109527
948.579641	2651.334372
948.880958	2644.743063
949.182236	2646.857827
949.483476	2644.123001
949.784678	2644.748104
950.085841	2642.192239
950.386967	2646.126860
950.688054	2650.958806
950.989103	2659.616987
951.290114	2668.323060
951.591087	2680.134483
951.892021	2692.087059
952.192917	2703.159954
952.493776	2716.173692
952.794596	2716.450956
953.095378	2722.283571
953.396122	2719.079917
953.696828	2715.082282
953.997496	2712.110522
954.298126	2701.652649
954.598718	2693.375074
954.899272	2682.546676
955.199788	2672.093843
955.500266	2659.170845
955.800706	2645.176602
956.101108	2625.475773
956.401472	2614.614607
956.701798	2601.994078
957.002087	2586.991604
957.302337	2575.727146
957.602550	2565.148285
957.902724	2552.981460
958.202861	2540.920499
958.502960	2534.011598
958.803022	2526.769981
959.103045	2520.103055
959.403031	2513.090810
959.702979	2506.706188
960.002889	2504.755262
960.302762	2498.100939
960.602596	2494.090701
960.902393	2493.193375
961.202153	2489.961996
961.501875	2483.950420
961.801559	2483.199288
962.101205	2479.486478
962.400814	2477.147383
962.700385	2474.296610
962.999918	2473.374079
963.299414	2470.482977
963.598873	2470.714870
963.898293	2470.382154
964.197677	2464.635239
964.497022	2466.492904
964.796331	2465.535085
965.095601	2461.809672
965.394835	2464.662965
965.694030	2462.661627
965.993189	2462.593572
966.292309	2459.785649
966.591393	2462.656586
966.890439	2460.186421
967.189447	2462.016359
967.488419	2462.117182
967.787353	2461.809672
968.086249	2460.201544
968.385108	2459.400001
968.683930	2462.749847
968.982714	2467.208748
969.281462	2465.678758
969.580172	2467.183542
969.878844	2469.414253
970.177480	2473.893318
970.476078	2475.798874
970.774639	2479.587301
971.073162	2482.266674
971.371649	2481.833135
971.670098	2479.695686
971.968510	2481.805409
972.266885	2483.549648
972.565223	2489.934269
972.863524	2488.714310
973.161788	2493.112717
973.460014	2491.713797
973.758204	2492.081801
974.056356	2494.120948
974.354471	2493.329487
974.652550	2495.945845
974.950591	2495.295537
975.248595	2494.410814
975.546563	2488.585761
975.844493	2491.774291
976.142386	2488.522746
976.440243	2484.116778
976.738062	2483.678197
977.035845	2480.096458
977.333590	2478.553865
977.631299	2475.695530
977.928971	2475.947588
978.226606	2473.858030
978.524204	2472.748976
978.821765	2471.624799
979.119290	2469.570528
979.416777	2469.759572
979.714228	2470.714870
980.011642	2470.951805
980.309020	2474.273925
980.606360	2479.158803
980.903664	2487.701038
981.200931	2501.730569
981.498162	2522.472397
981.795356	2554.516491
982.092513	2594.550815
982.389633	2636.954480
982.686717	2681.495595
982.983764	2714.104299
983.280775	2736.499625
983.577749	2735.529202
983.874686	2725.562841
984.171587	2706.870243
984.468451	2694.501772
984.765279	2672.121569
985.062070	2655.359733
985.358824	2633.445837
985.655543	2611.612600
985.952224	2591.601740
986.248869	2559.552604
986.545478	2532.433717
986.842050	2515.765142
987.138586	2492.487614
987.435086	2478.727784
987.731549	2467.173460
988.027975	2459.810855
988.324366	2455.399845
988.620719	2452.927159
988.917037	2446.010696
989.213318	2442.688576
989.509563	2442.930551
989.805772	2439.815118
990.101944	2440.455344
990.398080	2439.857968
990.694180	2440.258739
990.990244	2438.327978
991.286271	2438.149017
991.582262	2437.861671
991.878217	2440.162958
992.174136	2442.287804
992.470019	2437.556681
992.765865	2441.924841
993.061676	2444.180757
993.357450	2446.837445
993.653188	2448.939606
993.948890	2456.203909
994.244556	2463.344703
994.540186	2469.449541
994.835780	2486.108034
995.131337	2501.057575
995.426859	2514.096520
995.722345	2537.275745
996.017795	2555.048333
996.313208	2572.152968
996.608586	2581.978177
996.903928	2586.104361
997.199234	2581.514391
997.494504	2581.322827
997.789738	2570.081054
998.084936	2561.584189
998.380099	2550.844011
998.675225	2537.842875
998.970316	2522.752181
999.265371	2510.623165
999.560390	2494.420896
999.855373	2485.082159
1000.150320	2475.703092
1000.445232	2464.786473
1000.740108	2457.806996
1001.034948	2449.771397
1001.329752	2445.483895
1001.624521	2442.111363
1001.919254	2431.966041
1002.213951	2432.603747
1002.508613	2429.634508
1002.803239	2429.359765
1003.097829	2424.414393
1003.392384	2426.546801
1003.686903	2426.095618
1003.981386	2424.210226
1004.275834	2427.071081
1004.570246	2423.436409
1004.864623	2420.530184
1005.158964	2422.405493
1005.453270	2421.356933
1005.747540	2419.085893
1006.041775	2420.820050
1006.335974	2417.563465
1006.630138	2418.085224
1006.924266	2420.079001
1007.218359	2416.514905
1007.512416	2418.463311
1007.806438	2417.404668
1008.100425	2414.291756
1008.394376	2414.657240
1008.688292	2417.505492
1008.982172	2414.848803
1009.276017	2416.461973
1009.569827	2413.762435
1009.863602	2415.012641
1010.157341	2413.732188
1010.451045	2416.056160
1010.744714	2418.049936
1011.038347	2417.291242
1011.331945	2411.914852
1011.625508	2413.283525
1011.919036	2412.718916
1012.212528	2412.219842
1012.505986	2412.456776
1012.799408	2411.146076
1013.092795	2413.283525
1013.386147	2414.400141
1013.679464	2408.849830
1013.972745	2413.714544
1014.265992	2410.828483
1014.559204	2411.682959
1014.852380	2409.333781
1015.145521	2410.427712
1015.438628	2409.507701
1015.731699	2412.696231
1016.024736	2412.476941
1016.317737	2414.684966
1016.610703	2412.018196
1016.903635	2408.819583
1017.196531	2407.158523
1017.489393	2409.384193
1017.782219	2409.346384
1018.075011	2413.545665
1018.367768	2414.425347
1018.660490	2413.621283
1018.953177	2413.621283
1019.245829	2413.621283
