Dividing Wavelength (nm)	Counts (n)	Blue Motor Position (mm): 39.400000	Red Motor Position (mm): 0.000000	
326.493990	1971.875053
326.888308	1971.875053
327.282561	1971.875053
327.676750	1946.639037
328.070874	1948.242124
328.464933	1954.914091
328.858929	1964.537654
329.252859	1975.053501
329.646726	1989.133443
330.040528	2005.933089
330.434265	2025.757426
330.827938	2044.409695
331.221547	2061.433672
331.615091	2082.251117
332.008571	2107.068717
332.401986	2126.343569
332.795338	2145.653709
333.188625	2166.148520
333.581847	2184.558813
333.975006	2201.436597
334.368100	2220.809751
334.761129	2238.839438
335.154095	2252.700090
335.546996	2292.028652
335.939833	2376.087372
336.332606	2389.033055
336.725315	2400.410939
337.117960	2412.408885
337.510540	2417.785276
337.903056	2428.401946
338.295508	2432.417225
338.687896	2442.728905
339.080220	2449.839452
339.472480	2454.396655
339.864676	2456.894547
340.256807	2459.904116
340.648875	2462.898561
341.040879	2464.267235
341.432818	2466.293778
341.824694	2465.973665
342.216506	2466.525672
342.608253	2464.305043
342.999937	2463.102728
343.391557	2463.533747
343.783113	2461.121555
344.174605	2461.623149
344.566033	2459.067284
344.957397	2456.902109
345.348697	2458.628704
345.739934	2455.661985
346.131106	2453.128805
346.522215	2454.777263
346.913260	2451.871037
347.304241	2448.317024
347.695159	2446.408947
348.086012	2445.413319
348.476802	2443.704368
348.867528	2441.771086
349.258191	2440.364604
349.648789	2437.284459
350.039324	2438.075920
350.429796	2437.584407
350.820203	2435.910744
351.210548	2437.632298
351.600828	2436.916454
351.991045	2436.881166
352.381198	2432.505445
352.771288	2435.267997
353.161314	2433.788418
353.551276	2436.929057
353.941175	2431.913109
354.331010	2436.503080
354.720782	2436.855961
355.110490	2437.685230
355.500135	2437.160950
355.889717	2433.493511
356.279235	2438.259922
356.668689	2438.002823
357.058080	2437.100457
357.447408	2437.755807
357.836672	2435.751948
358.225873	2437.450817
358.615010	2433.934612
359.004084	2438.358224
359.393095	2441.947526
359.782043	2438.980807
360.170927	2440.379727
360.559748	2443.464913
360.948505	2443.200253
361.337199	2444.662187
361.725830	2447.664194
362.114398	2444.785696
362.502903	2445.814091
362.891344	2447.018927
363.279722	2443.253185
363.668037	2450.550255
364.056289	2449.428598
364.444478	2449.441201
364.832603	2447.364246
365.220665	2451.775255
365.608665	2450.628393
365.996601	2451.407251
366.384474	2451.036726
366.772284	2453.965637
367.160031	2454.205092
367.547715	2453.816923
367.935336	2453.201902
368.322893	2455.092335
368.710388	2454.966306
369.097820	2457.134002
369.485189	2456.201388
369.872495	2456.682819
370.259738	2457.209619
370.646918	2458.961420
371.034035	2456.027469
371.421090	2459.321863
371.808081	2459.795731
372.195010	2457.549897
372.581875	2462.099538
372.968678	2459.052161
373.355418	2462.346555
373.742096	2463.211113
374.128710	2465.010805
374.515262	2466.026597
374.901751	2463.967286
375.288177	2468.184211
375.674540	2465.351083
376.060841	2467.082719
376.447079	2466.059365
376.833254	2470.422483
377.219367	2465.608182
377.605417	2468.920220
377.991404	2468.204376
378.377329	2470.364510
378.763191	2467.644808
379.148991	2474.462968
379.534727	2475.846765
379.920402	2475.680407
380.306013	2475.612351
380.691563	2477.137300
381.077049	2477.409523
381.462474	2479.786427
381.847835	2478.596714
382.233134	2482.332209
382.618371	2484.260451
383.003545	2483.574854
383.388657	2483.348002
383.773706	2485.987046
384.158693	2487.058291
384.543618	2487.169197
384.928480	2487.121306
385.313280	2489.367140
385.698017	2491.875114
386.082692	2492.953921
386.467305	2493.168170
386.851856	2496.860815
387.236344	2496.187821
387.620770	2496.442399
388.005133	2497.652276
388.389435	2497.100270
388.773674	2497.937101
389.157851	2505.766013
389.541965	2503.159737
389.926018	2505.700478
390.310008	2507.860613
390.693936	2509.312465
391.077802	2511.732219
391.461606	2516.889319
391.845348	2516.838908
392.229027	2520.987777
392.612645	2527.090094
392.996200	2534.182997
393.379694	2536.764068
393.763125	2545.495347
394.146494	2555.353323
394.529801	2565.523851
394.913047	2579.412230
395.296230	2587.508323
395.679351	2601.600868
396.062410	2625.521143
396.445408	2636.422638
396.828343	2662.505568
397.211217	2681.377128
397.594028	2704.274049
397.976778	2734.896538
398.359466	2776.279370
398.742092	2800.912968
399.124656	2848.093127
399.507158	2901.529358
399.889598	2948.137345
400.271977	3008.414422
400.654294	3067.375757
401.036549	3136.048876
401.418742	3198.907023
401.800874	3295.949234
402.182944	3370.006305
402.564952	3487.195488
402.946898	3535.794732
403.328783	3621.418730
403.710606	3731.726738
404.092367	3860.976881
404.474067	4014.575797
404.855705	4075.873708
405.237282	4158.939320
405.618797	4352.118856
406.000250	4515.006099
406.381642	4716.639650
406.762972	4821.604034
407.144240	4880.749372
407.525447	5072.330862
407.906593	5168.455584
408.287677	5368.327251
408.668700	5550.907761
409.049661	5666.703065
409.430560	5856.653742
409.811399	5983.307691
410.192176	6175.415982
410.572891	6343.256158
410.953545	6681.762077
411.334138	6598.756959
411.714669	6995.977197
412.095139	6831.837227
412.475547	7204.254988
412.855894	7269.255626
413.236180	7574.341216
413.616405	7553.206178
413.996568	7838.734611
414.376670	7973.136814
414.756711	8036.070579
415.136691	8337.929830
415.516609	8577.545954
415.896466	8761.124613
416.276262	9073.043487
416.655997	9487.650664
417.035670	9654.742229
417.415283	10212.132527
417.794834	10417.725905
418.174324	10387.458817
418.553753	10459.073448
418.933121	10935.699421
419.312428	10944.463467
419.691674	11010.989054
420.070859	11473.305711
420.449983	11348.655621
420.829045	11883.839637
421.208047	11814.919502
421.586988	12283.146912
421.965867	12607.237652
422.344686	12734.070562
422.723444	13313.657061
423.102141	12330.856392
423.480777	13443.335702
423.859352	13128.354328
424.237866	14164.170291
424.616319	14018.433054
424.994712	14671.678372
425.373044	14586.021606
425.751314	15271.857984
426.129524	14587.266771
426.507673	15620.574760
426.885762	15450.274501
427.263789	15699.362954
427.641756	15916.578711
428.019662	16045.458330
428.397508	16144.070861
428.775292	16467.677650
429.153016	16501.783576
429.530679	16632.057074
429.908282	16706.124227
430.285824	16492.969119
430.663305	17185.371599
431.040726	16868.560286
431.418086	16747.640649
431.795385	17379.125827
432.172624	17822.071851
432.549802	17423.777847
432.926920	17645.089542
433.303977	17549.758802
433.680974	17822.810380
434.057910	18129.241957
434.434786	18173.866251
434.811601	18114.259648
435.188355	19144.432040
435.565050	18823.872628
435.941683	18780.856463
436.318257	19656.532612
436.694770	19473.813470
437.071222	20070.854964
437.447614	19182.659109
437.823946	19193.379123
438.200218	19370.114415
438.576429	19142.503798
438.952580	19432.556667
439.328670	19400.129445
439.704700	19807.810077
440.080670	19401.266225
440.456580	19974.359718
440.832429	20147.079731
441.208218	19192.491880
441.583947	19613.551734
441.959616	19719.557117
442.335224	19945.496592
442.710773	20081.514484
443.086261	20596.410376
443.461689	19987.184413
443.837057	20111.547158
444.212365	20736.418342
444.587612	20738.954042
444.962800	20337.511838
445.337927	20745.827656
445.712995	19517.810140
446.088002	21313.227165
446.462949	21512.166219
446.837837	21674.811486
447.212664	21640.559367
447.587431	24388.971238
447.962139	27248.399399
448.336786	29585.523692
448.711374	28069.091683
449.085901	24479.419620
449.460369	24413.793879
449.834776	24333.127856
450.209124	26749.040343
450.583412	26329.389491
450.957640	26845.780085
451.331808	25526.658838
451.705917	24170.671632
452.079965	24204.472569
452.453954	24548.609457
452.827883	24455.033038
453.201752	24256.766978
453.575562	24411.225411
453.949311	25494.017367
454.323001	25569.775827
454.696632	25322.968496
455.070202	26849.112288
455.443713	26998.937901
455.817164	27571.310508
456.190556	28088.076669
456.563888	27545.202373
456.937160	27967.315828
457.310373	26347.570412
457.683526	26752.828770
458.056619	26730.067960
458.429653	26684.175816
458.802628	27255.706551
459.175542	27369.981947
459.548398	28654.520879
459.921194	30199.163185
460.293930	30887.477290
460.666607	32886.688000
461.039224	34612.895024
461.411782	34978.204758
461.784280	33769.381436
462.156719	33249.215017
462.529099	32677.439787
462.901419	31409.619841
463.273680	30378.514836
463.645882	30471.254423
464.018024	30454.530395
464.390106	31289.015277
464.762130	33963.791013
465.134094	38001.546036
465.505999	43279.316521
465.877845	47818.782298
466.249631	48929.265311
466.621358	47127.319992
466.993026	44964.760774
467.364634	42870.320147
467.736184	40927.867788
468.107674	39701.791117
468.479105	38943.034449
468.850477	38251.763707
469.221790	36856.974741
469.593043	35144.789687
469.964238	34286.598779
470.335373	34188.074469
470.706449	35843.201223
471.077467	38358.510140
471.448425	42907.362546
471.819324	45777.558612
472.190164	43975.620854
472.560945	40430.278178
472.931667	37368.394757
473.302330	36282.540301
473.672934	35459.030012
474.043479	35951.376823
474.413965	35176.153225
474.784393	34804.453829
475.154761	35695.571033
475.525070	35722.359724
475.895321	35284.964011
476.265513	35867.935644
476.635645	36805.272667
477.005719	36643.933059
477.375734	37103.020857
477.745691	37779.311810
478.115588	39085.689021
478.485427	41045.011601
478.855207	44360.661665
479.224928	46989.431832
479.594591	48606.616341
479.964194	47565.658401
480.333739	47667.824946
480.703226	47674.824588
481.072653	48322.413732
481.442022	48812.426488
481.811333	49092.530640
482.180584	47786.226526
482.549777	47289.768654
482.918912	46764.861031
483.287988	46458.046325
483.657005	45645.795453
484.025964	44997.059447
484.394864	45006.511610
484.763706	44559.527622
485.132489	43704.469792
485.501213	43545.277715
485.869879	43683.138149
486.238487	43314.644927
486.607036	43488.597502
486.975527	42959.475474
487.343959	43170.873740
487.712333	43250.715534
488.080648	43154.114424
488.448905	43599.568422
488.817104	43411.180502
489.185244	44349.876116
489.553326	46014.540733
489.921350	48736.572246
490.289315	51670.425482
490.657222	52316.446827
491.025070	52582.559256
491.392861	51677.838499
491.760593	50371.801566
492.128267	48662.127007
492.495883	47121.444527
492.863440	45742.205000
493.230939	44394.107200
493.598380	43332.992206
493.965763	43014.789534
494.333088	42216.182545
494.700354	41742.641758
495.067563	41465.980715
495.434713	41346.200379
495.801805	41406.555593
496.168839	41033.409385
496.535815	40710.321835
496.902733	40752.899421
497.269593	40357.526766
497.636395	40268.815061
498.003139	40692.392972
498.369825	40133.843208
498.736453	40432.922263
499.103023	39992.890026
499.469535	39861.318431
499.835989	39948.885794
500.202385	39612.945822
500.568723	39643.354062
500.935003	39832.936735
501.301226	39642.597889
501.667390	40234.446995
502.033497	40499.142860
502.399546	39914.782388
502.765537	39256.616904
503.131470	39623.701124
503.497345	39963.676539
503.863163	38655.398814
504.228923	39265.436402
504.594625	39645.829269
504.960269	38959.413158
505.325856	39625.006783
505.691385	38997.627625
506.056856	39130.129312
506.422270	39565.599305
506.787625	39149.688989
507.152924	39342.094708
507.518164	39434.637690
507.883347	38667.293416
508.248472	38907.083461
508.613540	39367.297957
508.978550	39657.998614
509.343503	39418.369887
509.708398	39616.459506
510.073236	40115.563984
510.438016	40123.287032
510.802738	39587.437584
511.167403	40194.803361
511.532010	40416.215879
511.896561	40720.751983
512.261053	41527.921372
512.625488	41089.101532
512.989866	40964.615279
513.354186	40806.370940
513.718449	40798.980608
514.082655	41463.124901
514.446803	41128.901442
514.810894	41638.499082
515.174927	41564.691548
515.538904	41475.420275
515.902822	42134.682211
516.266684	41580.863570
516.630488	42000.307734
516.994235	41859.974614
517.357925	42417.954727
517.721558	42572.703027
518.085133	42877.856672
518.448651	43012.407589
518.812112	42781.661375
519.175516	42868.538099
519.538863	43222.820309
519.902152	43171.415664
520.265385	43638.173578
520.628560	43652.553469
520.991678	43473.279956
521.354739	43706.748393
521.717743	44023.083318
522.080690	43925.610088
522.443580	44453.900326
522.806413	44512.854099
523.169189	44456.562055
523.531908	44643.863605
523.894569	44493.301984
524.257174	44654.651675
524.619722	44965.209437
524.982213	44952.563702
525.344647	44877.422784
525.707025	44917.394093
526.069345	45306.062013
526.431608	45221.015227
526.793815	45548.057562
527.155964	45087.568323
527.518057	45265.896620
527.880093	45052.466769
528.242072	45577.724753
528.603995	45283.586028
528.965860	45285.804136
529.327669	45384.570422
529.689421	45291.122553
530.051117	45251.930103
530.412755	45390.592081
530.774337	45464.318956
531.135862	45285.237006
531.497331	45492.524211
531.858743	45383.131173
532.220098	45724.271095
532.581396	45440.983454
532.942638	45102.979130
533.303824	45407.006077
533.664953	45387.025464
534.026025	45108.821827
534.387040	45576.681234
534.747999	45535.986519
535.108902	45697.676488
535.469748	45221.363067
535.830537	45351.565988
536.191270	45557.683645
536.551947	45196.626125
536.912567	45513.626481
537.273131	45618.885774
537.633638	45129.523326
537.994089	45471.694164
538.354483	45090.608139
538.714821	45632.779194
539.075103	45990.300345
539.435328	45768.792045
539.795497	45658.945303
540.155609	45639.839330
540.515665	46099.673219
540.875665	45561.585498
541.235609	45908.623570
541.595496	45874.386574
541.955328	46527.057201
542.315102	45908.462253
542.674821	45715.910341
543.034483	45728.974491
543.394090	45713.977059
543.753640	45666.617939
544.113134	46674.147988
544.472571	45689.434201
544.831953	46921.540092
545.191278	46149.361352
545.550548	45878.225413
545.909761	46326.792323
546.268918	46537.855352
546.628019	46844.849019
546.987064	46396.266985
547.346053	45702.619339
547.704986	46554.992755
548.063863	46138.676626
548.422684	46332.146028
548.781449	46172.442275
549.140158	46584.334791
549.498811	46413.411949
549.857408	45865.219236
550.215949	46701.632358
550.574434	46617.417363
550.932864	46406.097235
551.291237	47093.740866
551.649555	46727.861482
552.007817	46978.227867
552.366022	46627.413971
552.724173	46784.113197
553.082267	47187.990279
553.440305	47481.302253
553.798288	46813.447671
554.156215	47123.065258
554.514086	47323.844334
554.871902	47063.544355
555.229661	47087.807428
555.587365	46903.893533
555.945014	47000.292998
556.302606	46939.189172
556.660143	47151.008374
557.017625	47254.591483
557.375050	47037.239614
557.732421	47383.619815
558.089735	47365.915283
558.446994	47291.482647
558.804197	47765.252806
559.161345	47686.756999
559.518437	46965.383007
559.875474	47255.655166
560.232455	47402.009945
560.589381	47585.132379
560.946251	47280.069474
561.303065	47970.568919
561.659825	47777.429713
562.016528	47451.211606
562.373177	47174.348916
562.729770	47633.908063
563.086307	47159.066658
563.442789	47620.148233
563.799216	47665.979883
564.155587	47463.506980
564.511904	47488.795929
564.868164	47566.560768
565.224370	47817.849684
565.580520	47538.345430
565.936615	47760.567053
566.292654	47482.736462
566.648638	47709.618632
567.004567	47671.300821
567.360441	47700.352991
567.716260	47562.931137
568.072023	47857.228657
568.427732	47836.764093
568.783385	47393.908810
569.138982	47797.858989
569.494525	47764.325233
569.850013	47512.426337
570.205445	47473.155749
570.560823	47450.611709
570.916145	47317.298395
571.271412	47334.634923
571.626625	47096.566433
571.981782	47151.540216
572.336884	46836.437853
572.691931	47144.419586
573.046923	46744.945952
573.401860	46615.176570
573.756743	46601.149559
574.111570	46708.833647
574.466342	46552.429328
574.821059	46693.054835
575.175722	46195.313990
575.530330	46209.479632
575.884882	45938.068950
576.239380	45907.965700
576.593823	45871.724845
576.948211	45784.873326
577.302544	45326.549262
577.656823	45361.129057
578.011047	45571.352734
578.365216	45298.323842
578.719330	45097.380929
579.073389	44947.935923
579.427394	45042.210541
579.781344	45007.608061
580.135239	44660.988405
580.489080	44738.866670
580.842866	44234.607613
581.196597	44682.166292
581.550273	44636.463192
581.903895	44493.886758
582.257463	44911.700109
582.610975	44309.453624
582.964434	44578.063945
583.317837	44230.161315
583.671186	44062.147219
584.024481	44295.461901
584.377721	43831.549719
584.730906	44107.656235
585.084037	44114.134118
585.437113	43857.894789
585.790135	43871.616809
586.143103	43477.738857
586.496016	43596.397536
586.848874	43620.935352
587.201679	43641.709947
587.554428	43121.934218
587.907124	43324.880990
588.259765	43087.203189
588.612352	43315.121316
588.964884	42713.142012
589.317362	42990.604599
589.669786	42939.588122
590.022155	42725.749937
590.374470	43131.638439
590.726731	42642.349088
591.078937	42170.239989
591.431090	42267.294804
591.783188	41924.453492
592.135232	41603.536159
592.487222	41833.911849
592.839157	41930.787702
593.191038	41611.206275
593.542866	41370.786086
593.894639	40791.922993
594.246358	41066.970867
594.598022	41038.798379
594.949633	40648.499645
595.301190	40600.747315
595.652692	40437.744126
596.004141	40760.577098
596.355535	39785.955702
596.706876	39742.823589
597.058162	39568.429913
597.409395	40043.273838
597.760573	40119.513728
598.111698	39688.351401
598.462768	39701.060150
598.813785	39745.959187
599.164748	39206.286024
599.515657	39601.041137
599.866511	39062.386287
600.217312	39665.729223
600.568060	38651.406220
600.918753	39390.867872
601.269392	39346.966983
601.619978	39003.051906
601.970510	39218.893949
602.320988	39391.674456
602.671412	39709.005009
603.021783	39429.301629
603.372100	39085.530224
603.722363	39194.872851
604.072572	39246.068289
604.422728	39283.899628
604.772830	39099.305177
605.122878	39186.559989
605.472872	39126.789548
605.822813	39405.577959
606.172701	39240.588555
606.522534	39467.052309
606.872314	39729.807330
607.222041	39490.526442
607.571714	39877.399712
607.921333	39341.968679
608.270899	39615.713416
608.620411	39943.703488
608.969870	39745.424825
609.319276	39751.277604
609.668627	39793.562803
610.017926	40271.028128
610.367171	40423.722157
610.716362	40517.704388
611.065500	40473.800979
611.414585	40667.225011
611.763616	40942.429161
612.112594	40877.814172
612.461518	41094.273756
612.810389	41389.660166
613.159207	41238.410427
613.507971	41327.059118
613.856682	41794.278297
614.205340	41674.805472
614.553945	42375.629200
614.902496	41821.218223
615.250994	42284.288533
615.599439	42360.248639
615.947830	42571.001638
616.296169	42617.171045
616.644454	42739.212339
616.992686	42924.172273
617.340864	43447.401193
617.688990	43155.112572
618.037063	43758.475673
618.385082	43706.012385
618.733048	44010.944219
619.080961	44035.552612
619.428821	44047.341350
619.776628	44142.067152
620.124382	43967.555008
620.472083	44091.101086
620.819731	44211.637595
621.167326	43893.291250
621.514868	43859.394532
621.862357	43418.165021
622.209793	43439.542034
622.557176	43104.249850
622.904506	42863.996020
623.251783	42520.615305
623.599007	42312.216526
623.946179	42071.019999
624.293297	42022.161136
624.640363	41455.301030
624.987376	41432.701538
625.334336	41199.893491
625.681243	40851.088495
626.028097	40811.830509
626.374899	40662.077993
626.721647	40628.836625
627.068343	40524.305779
627.414987	40303.931739
627.761577	40078.254404
628.108115	40400.525288
628.454600	39865.749605
628.801032	40054.581146
629.147412	40020.636537
629.493739	40024.634172
629.840014	39674.405049
630.186236	40006.440647
630.532405	39627.411413
630.878521	39843.818065
631.224585	39721.018078
631.570597	39433.374881
631.916556	39599.125499
632.262462	39550.483405
632.608316	39556.540352
632.954117	39460.100558
633.299866	39440.803021
633.645562	39350.296666
633.991206	38859.754588
634.336797	38444.739077
634.682336	38432.554608
635.027823	38182.362142
635.373257	38010.801595
635.718639	37757.138295
636.063968	37633.771178
636.409245	37054.628301
636.754470	37096.447192
637.099642	36866.313478
637.444762	36399.008599
637.789829	36534.376183
638.134845	36175.022572
638.479808	36133.125542
638.824719	36044.675977
639.169577	35655.730794
639.514383	35721.858129
639.859137	35418.685658
640.203839	35677.732910
640.548489	35307.535777
640.893086	35359.983942
641.237632	35118.043845
641.582125	35225.601903
641.926566	35176.332186
642.270955	35140.350951
642.615292	35148.978886
642.959576	35117.630470
643.303809	35111.482783
643.647990	35265.429539
643.992118	35239.346609
644.336195	35235.641361
644.680219	35330.974622
645.024192	35641.474411
645.368112	36138.164176
645.711981	36167.453279
646.055797	37029.167953
646.399562	36950.309184
646.743274	37924.028214
647.086935	38344.528500
647.430544	38240.620237
647.774101	38354.184830
648.117606	38586.987835
648.461059	38898.694981
648.804460	38494.754885
649.147810	37883.812409
649.491108	37624.644169
649.834354	37269.467154
650.177548	36442.927131
650.520690	36001.367425
650.863781	36009.181213
651.206820	35850.916709
651.549807	35418.867139
651.892742	34952.981345
652.235626	34753.911220
652.578458	34625.714678
652.921238	34024.925086
653.263967	34355.700396
653.606644	34035.889596
653.949269	33986.103160
654.291843	33575.652414
654.634365	33990.451156
654.976836	33605.478401
655.319255	33591.108592
655.661622	33592.056329
656.003938	33360.629559
656.346203	33226.207191
656.688416	33448.474185
657.030577	33243.914244
657.372687	33078.433328
657.714746	33342.844368
658.056753	33480.006602
658.398708	32932.968313
658.740612	32982.159893
659.082465	33256.350771
659.424266	33093.488734
659.766016	33195.171328
660.107715	33084.258381
660.449362	33209.397464
660.790958	33196.834908
661.132503	33225.438415
661.473996	33248.491612
661.815438	33364.922101
662.156829	33548.266346
662.498168	33333.583768
662.839456	33340.648945
663.180693	33491.129908
663.521879	33660.999149
663.863013	33604.868421
664.204097	33621.365597
664.545129	34081.690999
664.886110	34044.547777
665.227040	34098.699852
665.567918	34230.548710
665.908746	34286.422339
666.249522	34469.847242
666.590248	34452.722443
666.930922	34570.579578
667.271545	34531.992066
667.612118	34618.301661
667.952639	34402.404166
668.293109	34463.913804
668.633528	34339.929146
668.973896	34268.024648
669.314213	34291.844100
669.654480	34044.235226
669.994695	34068.357147
670.334859	33950.245433
670.674973	33857.760425
671.015035	34020.098181
671.355047	33976.703929
671.695008	33916.623457
672.034918	33804.896365
672.374777	33889.907863
672.714585	33741.176180
673.054342	33971.274606
673.394049	33723.222111
673.733705	34010.368754
674.073310	33659.476720
674.412864	33747.260853
674.752368	33338.297247
675.091820	33628.753408
675.431223	33214.249574
675.770574	32961.022334
676.109875	32811.121104
676.449125	32519.623945
676.788324	32445.980249
677.127473	31909.001582
677.466571	31838.407784
677.805619	31494.039003
678.144616	31485.864773
678.483562	31399.905538
678.822458	31084.039441
679.161303	31023.389319
679.500098	30916.862176
679.838842	30806.367646
680.177535	30966.880505
680.516179	31229.731307
680.854771	31488.040030
681.193314	32355.057998
681.531805	33489.063035
681.870247	34282.540651
682.208638	35013.444944
682.546978	35233.599694
682.885268	35320.189073
683.223508	34778.814520
683.561697	34437.621666
683.899836	34268.342241
684.237925	33756.309724
684.575963	33594.687811
684.913951	33135.287461
685.251889	33291.759835
685.589776	33282.582415
685.927614	33271.018008
686.265401	33412.901283
686.603137	33523.017727
686.940824	34030.954306
687.278460	34420.580046
687.616046	34567.809464
687.953582	35176.259090
688.291068	35046.109100
688.628504	35313.897713
688.965889	35227.605762
689.303224	34840.455229
689.640510	34485.530272
689.977745	33754.431894
690.314930	32950.813998
690.652065	32420.966043
690.989150	31670.272701
691.326185	30788.242177
691.663170	30068.045294
692.000105	29315.779112
692.336990	28636.657551
692.673825	28171.346448
693.010610	27653.423343
693.347345	27085.043329
693.684030	26435.258763
694.020665	26159.996639
694.357251	25494.529044
694.693786	25437.861433
695.030272	25211.896753
695.366707	24666.269987
695.703093	24376.567479
696.039429	24366.016344
696.375716	24110.933959
696.711952	24078.199227
697.048139	23916.494135
697.384276	23744.668926
697.720363	23862.578994
698.056400	23651.218537
698.392388	23437.317338
698.728326	23409.714500
699.064214	23194.457231
699.400053	23152.025839
699.735842	22793.320017
700.071581	22499.178772
700.407270	22210.633208
700.742910	22021.905011
701.078501	21745.828741
701.414042	21477.578863
701.749533	21169.216523
702.084974	20817.248203
702.420366	21024.490037
702.755709	20586.159190
703.091002	20294.757812
703.426246	20308.908331
703.761440	20205.073165
704.096584	19939.333781
704.431679	19908.426467
704.766725	19798.708274
705.101721	19746.315562
705.436668	19842.389872
705.771565	19518.220994
706.106413	19855.988384
706.441212	19847.433546
706.775961	19980.761983
707.110661	20048.731861
707.445311	20398.834954
707.779913	20243.985831
708.114465	20495.191569
708.448967	20776.233375
708.783421	21474.201290
709.117825	21751.668918
709.452180	21981.129638
709.786485	22379.995813
710.120742	23192.410522
710.454949	23196.380431
710.789107	23667.183871
711.123216	24378.289033
711.457275	24498.936447
711.791286	25040.477358
712.125247	25099.665545
712.459159	24792.336642
712.793023	25448.200840
713.126837	24343.860472
713.460602	24590.685447
713.794318	24218.552511
714.127985	23816.265914
714.461602	22925.408330
714.795171	22877.653479
715.128691	21860.252851
715.462162	21315.823359
715.795584	20892.721837
716.128957	20632.179883
716.462281	20209.153979
716.795556	19993.155660
717.128782	19496.617130
717.461960	18942.337223
717.795088	18878.072594
718.128167	18473.535121
718.461198	18010.058998
718.794180	17868.100106
719.127113	17504.829519
719.459997	17303.516081
719.792833	16955.865509
720.125619	16924.993483
720.458357	16614.634846
720.791046	16441.803928
721.123686	16277.527847
721.456278	16053.763631
721.788821	16001.325549
722.121315	15747.241313
722.453761	15819.256716
722.786158	15738.769653
723.118506	15756.915287
723.450805	15619.921931
723.783056	15779.587876
724.115259	15681.524831
724.447412	15604.223778
724.779518	15862.061153
725.111574	15887.135852
725.443582	16077.121817
725.775542	16053.627520
726.107453	16531.206271
726.439315	16417.568581
726.771129	16814.738407
727.102895	17183.869336
727.434612	17393.233496
727.766281	17519.181684
728.097901	17784.807642
728.429473	17814.358885
728.760996	17795.673849
729.092471	17886.117190
729.423897	17760.048014
729.755276	17617.665665
730.086606	17733.521463
730.417887	18262.855220
730.749120	18781.254714
731.080305	18953.967165
731.411442	19292.279000
731.742530	19346.194140
732.073570	19452.562486
732.404562	19747.432178
732.735506	19562.099198
733.066401	19263.708260
733.397249	18746.753057
733.728048	18098.803471
734.058798	17261.437570
734.389501	16582.623519
734.720156	16122.219980
735.050762	15596.339413
735.381320	15236.698457
735.711831	14999.476880
736.042293	14661.071784
736.372707	14662.017001
736.703073	14457.325990
737.033391	14640.019926
737.363661	14610.912303
737.693883	14719.773500
738.024056	14890.323297
738.354182	15081.204066
738.684260	15363.344844
739.014290	15593.183651
739.344272	15774.944973
739.674207	16073.635859
740.004093	16171.938359
740.333931	16154.551420
740.663722	16190.431832
740.993464	16180.344483
741.323159	16011.485994
741.652806	15728.326903
741.982405	15506.127965
742.311956	15180.940775
742.641460	15053.129881
742.970915	14737.498197
743.300323	14412.762190
743.629683	14200.678327
743.958996	13922.119289
744.288260	13656.944514
744.617477	13352.547042
744.946647	13276.070218
745.275768	13008.652130
745.604842	12818.184734
745.933869	12650.959579
746.262847	12600.537958
746.591778	12531.474151
746.920662	12422.378540
747.249498	12423.727049
747.578286	12548.891337
747.907027	12696.410622
748.235720	12916.915732
748.564365	12942.827263
748.892963	12841.726923
749.221514	12896.635171
749.550017	12752.072522
749.878473	12719.597409
750.206881	12492.594252
750.535242	12401.195612
750.863555	12316.504227
751.191821	12211.209647
751.520039	12236.299469
751.848210	12143.290181
752.176334	12173.484172
752.504411	12076.315932
752.832440	11924.829258
753.160421	11981.443937
753.488356	11864.922707
753.816243	11773.761001
754.144082	11625.238527
754.471875	11570.292470
754.799620	11516.319357
755.127318	11491.234575
755.454969	11448.720004
755.782572	11404.743498
756.110129	11420.214800
756.437638	11331.702220
756.765100	11330.661222
757.092515	11331.296407
757.419882	11346.954231
757.747203	11353.573266
758.074477	11423.453741
758.401703	11381.385312
758.728882	11542.402287
759.056014	11580.417628
759.383099	11700.631503
759.710138	11803.687811
760.037129	11883.267466
760.364073	11907.787638
760.690970	11887.945656
761.017820	11895.852706
761.344623	12074.564131
761.671379	12400.356260
761.998088	13030.485367
762.324751	14598.430407
762.651366	17482.771950
762.977935	21160.994401
763.304456	23392.935020
763.630931	23861.583366
763.957359	22658.925376
764.283740	20730.351313
764.610074	18846.043623
764.936362	16706.782097
765.262602	15178.490774
765.588796	13705.677348
765.914943	12671.930779
766.241044	11820.948722
766.567097	11190.519666
766.893104	10637.326128
767.219064	10282.887642
767.544978	9897.630062
767.870845	9582.885622
768.196665	9397.509792
768.522438	9201.512251
768.848165	9031.461529
769.173846	8860.760498
769.499479	8743.233558
769.825066	8587.182120
770.150607	8400.614057
770.476101	8338.033173
770.801548	8230.901093
771.126949	8087.122344
771.452303	8006.388265
771.777611	7840.602359
772.102872	7815.555386
772.428087	7702.704116
772.753256	7568.906852
773.078378	7484.880899
773.403453	7341.833118
773.728482	7242.323262
774.053465	7176.022006
774.378401	7088.134530
774.703291	6995.639439
775.028135	6898.715695
775.352932	6859.296392
775.677683	6778.350585
776.002388	6687.894641
776.327046	6693.379416
776.651658	6604.337516
776.976224	6529.153747
777.300743	6509.374780
777.625216	6442.304749
777.949643	6399.172637
778.274024	6405.952989
778.598359	6338.673749
778.922647	6340.967474
779.246889	6300.136649
779.571086	6308.227701
779.895236	6318.594834
780.219339	6313.586447
780.543397	6316.827909
780.867409	6358.782912
781.191374	6360.133941
781.515294	6325.566749
781.839167	6376.641200
782.162995	6350.394432
782.486776	6296.965763
782.810511	6257.690133
783.134201	6185.662127
783.457844	6173.581002
783.781441	6119.822138
784.104993	6079.485345
784.428498	6052.069030
784.751958	6033.615886
785.075372	6009.756105
785.398739	5974.122709
785.722061	5997.677500
786.045337	5991.315564
786.368568	6102.500733
786.691752	6127.096523
787.014891	6378.214040
787.337983	6653.027500
787.661030	7101.856551
787.984031	7524.975717
788.306987	7788.055892
788.629897	7869.888942
788.952760	7784.355685
789.275579	7606.627285
789.598351	7308.501009
789.921078	7045.083076
790.243759	6762.670076
790.566395	6556.340690
790.888984	6360.249888
791.211529	6221.650925
791.534027	6063.116718
791.856480	5926.564464
792.178888	5857.261201
792.501249	5796.560668
792.823566	5690.010840
793.145836	5687.994378
793.468062	5668.137273
793.790241	5627.094719
794.112375	5672.538201
794.434464	5764.617396
794.756507	5800.853210
795.078505	5920.562970
795.400457	6135.429550
795.722364	6377.077259
796.044226	6574.463638
796.366042	6734.399285
796.687812	6674.996849
797.009538	6709.435491
797.331218	6611.092662
797.652852	6541.996087
797.974442	6419.871614
798.295986	6348.201530
798.617484	6221.900462
798.938938	6113.140088
799.260346	6040.935642
799.581709	5901.698972
799.903026	5851.093349
800.224299	5775.786073
800.545526	5662.833980
800.866708	5599.000369
801.187845	5547.452050
801.508936	5470.682839
801.829983	5443.780722
802.150984	5335.668136
802.471940	5309.610412
802.792851	5291.991579
803.113717	5272.293271
803.434538	5244.458540
803.755314	5213.180701
804.076045	5205.056881
804.396731	5163.316127
804.717372	5183.566442
805.037967	5182.669117
805.358518	5212.401842
805.679024	5274.420637
805.999485	5281.936998
806.319901	5301.466428
806.640272	5319.765816
806.960598	5365.211818
807.280879	5359.003637
807.601115	5397.513012
807.921306	5356.462896
808.241453	5354.108677
808.561554	5362.686200
808.881611	5326.838555
809.201623	5324.718750
809.521590	5271.733702
809.841513	5256.552268
810.161390	5274.410555
810.481223	5182.089384
810.801011	5172.675029
811.120755	5145.921626
811.440453	5087.890383
811.760107	5063.453390
812.079716	5035.583371
812.399281	4984.934898
812.718801	4980.057582
813.038276	4944.088949
813.357707	4912.208693
813.677093	4935.183751
813.996434	4872.154205
814.315731	4894.363008
814.634983	4890.335126
814.954191	4891.781937
815.273354	4951.885094
815.592473	4992.605014
815.911547	5070.919339
816.230577	5122.356752
816.549562	5207.083425
816.868502	5264.918062
817.187399	5320.582483
817.506250	5398.659874
817.825058	5432.783444
818.143821	5585.311116
818.462539	5753.569708
818.781213	5983.511858
819.099843	6348.524164
819.418429	6985.526885
819.736970	7603.577387
820.055466	8319.252355
820.373919	9241.254188
820.692327	10701.656292
821.010691	13421.555397
821.329011	19686.860193
821.647286	29327.953498
821.965517	39724.894726
822.283704	45195.771649
822.601847	46713.761375
822.919945	42075.693149
823.237999	36921.183917
823.556010	31699.584490
823.873976	26953.144059
824.191897	22715.794632
824.509775	19626.726790
824.827609	16844.662696
825.145398	15273.307316
825.463144	14518.097099
825.780845	14813.927131
826.098502	16083.692961
826.416116	18563.499553
826.733685	20867.236284
827.051210	21403.640259
827.368692	19960.325146
827.686129	17384.255201
828.003522	14876.762593
828.320872	12640.978094
828.638177	10980.585855
828.955439	9726.825688
829.272656	8655.386411
829.589830	7809.022051
829.906960	7075.579536
830.224046	6535.031733
830.541088	6125.443024
830.858086	5866.783941
831.175041	5663.527138
831.491952	5608.001349
831.808819	5640.058047
832.125642	5890.694133
832.442421	6444.807682
832.759157	7563.991727
833.075849	9347.660342
833.392497	11206.129599
833.709101	12338.720592
834.025662	12072.482134
834.342179	11009.610298
834.658653	9693.531387
834.975083	8583.123991
835.291469	7676.926176
835.607811	6925.191835
835.924110	6407.029275
836.240366	5909.159880
836.556578	5456.698678
836.872746	5103.414617
837.188871	4827.439170
837.504952	4598.843008
837.820990	4433.238583
838.136984	4319.850430
838.452935	4270.510137
838.768842	4301.213285
839.084706	4585.133590
839.400526	5330.692517
839.716303	6245.911477
840.032037	6817.031358
840.347727	6665.637947
840.663373	6062.824332
840.978977	5482.741279
841.294537	5030.496847
841.610054	4698.047874
841.925527	4457.632727
842.240957	4251.061366
842.556344	4065.327614
842.871687	3904.086308
843.186987	3753.985952
843.502244	3633.996408
843.817458	3546.751679
844.132629	3477.513952
844.447756	3429.272630
844.762840	3382.820918
845.077881	3343.212572
845.392879	3308.768889
845.707833	3284.813326
846.022745	3261.316507
846.337613	3245.089033
846.652438	3219.888305
846.967221	3214.151472
847.281960	3191.864531
847.596656	3184.590146
847.911309	3171.004236
848.225919	3159.848163
848.540485	3147.489774
848.855009	3141.268990
849.169490	3130.801034
849.483928	3123.236783
849.798323	3120.043212
850.112675	3106.260697
850.426984	3105.663321
850.741251	3100.115531
851.055474	3095.389449
851.369654	3096.853904
851.683792	3096.037238
851.997887	3100.012187
852.311938	3097.652927
852.625947	3099.082094
852.939914	3089.992894
853.253837	3098.918257
853.567718	3094.441712
853.881555	3090.741505
854.195350	3097.894903
854.509103	3089.985332
854.822812	3088.362081
855.136479	3084.838314
855.450103	3091.837956
855.763685	3082.844538
856.077224	3084.288828
856.390720	3092.838625
856.704173	3102.197527
857.017584	3108.037704
857.330953	3114.233282
857.644278	3124.008080
857.957561	3123.924901
858.270802	3119.115640
858.584000	3121.179992
858.897155	3116.249744
859.210268	3106.033846
859.523339	3092.510950
859.836367	3089.377873
860.149352	3086.199426
860.462295	3079.981162
860.775195	3073.251222
861.088054	3067.083370
861.400869	3068.953638
861.713642	3066.433062
862.026373	3075.376068
862.339062	3078.494022
862.651708	3088.193202
862.964312	3106.469905
863.276873	3111.286728
863.589392	3142.186480
863.901869	3170.976510
864.214303	3192.487113
864.526696	3211.146944
864.839045	3230.711662
865.151353	3245.159609
865.463619	3240.579721
865.775842	3242.598703
866.088023	3245.716657
866.400162	3241.159454
866.712258	3241.177098
867.024313	3241.731625
867.336325	3241.161974
867.648296	3244.194228
867.960224	3236.632498
868.272110	3240.113414
868.583954	3242.064341
868.895755	3247.032398
869.207515	3244.514342
869.519233	3267.940584
869.830909	3270.488887
870.142542	3286.126546
870.454134	3289.733492
870.765684	3303.730255
871.077191	3320.444201
871.388657	3334.564473
871.700081	3347.303469
872.011463	3370.351624
872.322803	3389.870972
872.634101	3409.458375
872.945357	3430.205244
873.256571	3457.102320
873.567744	3473.521358
873.878874	3476.109991
874.189963	3494.152280
874.501010	3494.061539
874.812015	3494.747136
875.122979	3510.336905
875.433900	3504.622757
875.744780	3509.217768
876.055618	3519.899973
876.366415	3516.204808
876.677169	3522.551620
876.987882	3540.631719
877.298554	3557.880027
877.609183	3599.711521
877.919771	3648.341012
878.230317	3716.182340
878.540822	3820.829132
878.851285	3976.381495
879.161707	4202.724262
879.472087	4580.415070
879.782425	5220.568512
880.092722	6415.208547
880.402977	8370.871250
880.713191	10778.934660
881.023363	13188.875900
881.333494	14545.092478
881.643583	15007.182284
881.953631	14598.483339
882.263637	13747.725613
882.573602	12699.576467
882.883526	11733.013355
883.193408	10760.042936
883.503248	9831.777470
883.813048	8991.142381
884.122806	8219.903815
884.432522	7441.705937
884.742197	6774.605008
885.051831	6197.539086
885.361424	5696.697931
885.670975	5298.350995
885.980485	4973.718331
886.289954	4702.080797
886.599382	4477.774657
886.908768	4297.107265
887.218113	4130.623159
887.527417	4000.992408
887.836680	3870.895351
888.145901	3771.365330
888.455082	3692.125953
888.764221	3623.662043
889.073319	3566.381932
889.382376	3533.649721
889.691392	3506.447654
890.000366	3499.989936
890.309300	3491.989625
890.618193	3495.694873
890.927044	3488.959892
891.235855	3497.789473
891.544625	3510.994775
891.853353	3543.532903
892.162041	3603.746965
892.470687	3692.425902
892.779293	3817.474244
893.087858	3989.339781
893.396381	4272.728245
893.704864	4693.034447
894.013306	5272.162201
894.321707	5854.039904
894.630068	6215.961982
894.938387	6261.576863
895.246665	6082.938535
895.554903	5754.890490
895.863100	5407.842336
896.171256	5135.758660
896.479371	4890.904776
896.787446	4660.214015
897.095480	4463.780414
897.403473	4315.973783
897.711425	4164.618180
898.019336	4044.444634
898.327207	3916.784975
898.635038	3813.675734
898.942827	3703.259342
899.250576	3618.197432
899.558284	3532.225595
899.865952	3476.697285
900.173579	3413.582039
900.481165	3365.895244
900.788711	3321.051660
901.096216	3290.353554
901.403681	3261.192999
901.711105	3250.871237
902.018489	3248.161617
902.325832	3279.036163
902.633135	3340.056810
902.940397	3515.501567
903.247619	3926.058177
903.554800	4686.478426
903.861941	5671.749260
904.169041	6388.530761
904.476101	6605.101251
904.783121	6326.136400
905.090100	5911.488893
905.397039	5490.550026
905.703938	5127.866733
906.010796	4802.097290
906.317614	4541.709091
906.624391	4298.080208
906.931129	4100.429168
907.237826	3913.288934
907.544483	3738.837285
907.851099	3565.363619
908.157675	3405.054927
908.464211	3262.123092
908.770707	3160.100221
909.077163	3078.322623
909.383578	3016.870957
909.689954	2971.651808
909.996289	2942.506377
910.302584	2922.150197
910.608839	2911.019330
910.915054	2899.424676
911.221229	2892.261196
911.527363	2895.709345
911.833458	2904.070099
912.139513	2915.760535
912.445527	2930.531116
912.751502	2964.213585
913.057436	3008.747138
913.363331	3066.153277
913.669186	3156.992349
913.975000	3273.523662
914.280775	3463.794452
914.586510	3738.093715
914.892205	4118.254688
915.197859	4627.368377
915.503475	5220.331577
915.809050	5722.793463
916.114585	6025.393764
916.420081	6086.003557
916.725536	6024.095667
917.030952	5782.064830
917.336328	5574.213016
917.641665	5353.518862
917.946961	5123.788440
918.252218	4918.482408
918.557435	4685.245864
918.862612	4486.231192
919.167750	4309.619409
919.472848	4119.623361
919.777906	3950.795119
920.082925	3786.400572
920.387904	3628.279740
920.692843	3514.193387
920.997743	3414.761669
921.302603	3319.637616
921.607423	3255.567072
921.912204	3186.442770
922.216946	3134.798669
922.521647	3085.307142
922.826310	3044.113353
923.130932	3005.455265
923.435516	2962.749130
923.740059	2937.387085
924.044564	2905.400964
924.349028	2881.142931
924.653454	2849.817201
924.957840	2823.169662
925.262186	2804.804739
925.566493	2782.230452
925.870761	2757.664909
926.174989	2744.787282
926.479178	2730.137688
926.783328	2709.889894
927.087438	2700.155426
927.391509	2690.289888
927.695541	2676.126766
927.999533	2665.981444
928.303486	2657.066163
928.607400	2652.549290
928.911275	2646.827580
929.215110	2638.928092
929.518906	2636.939357
929.822663	2636.969604
930.126381	2636.858698
930.430060	2642.189718
930.733699	2640.972280
931.037299	2645.632827
931.340861	2644.392703
931.644383	2649.973260
931.947866	2649.297745
932.251309	2645.058135
932.554714	2643.202990
932.858080	2643.422281
933.161407	2638.330715
933.464694	2634.985910
933.767943	2631.172277
934.071153	2624.522995
934.374323	2623.045937
934.677455	2619.504526
934.980548	2617.021758
935.283602	2615.668208
935.586617	2610.750563
935.889593	2616.706686
936.192530	2617.001593
936.495428	2623.459311
936.798287	2632.165384
937.101108	2645.035450
937.403890	2667.430776
937.706632	2694.751309
938.009336	2730.868656
938.312002	2759.227667
938.614628	2787.072480
938.917216	2802.004378
939.219765	2811.824545
939.522275	2825.075218
939.824747	2821.788386
940.127179	2814.577015
940.429573	2808.971252
940.731929	2808.477219
941.034246	2799.960190
941.336524	2799.214099
941.638763	2791.201185
941.940964	2781.988476
942.243126	2768.543719
942.545250	2760.200609
942.847335	2743.126221
943.149381	2727.178531
943.451389	2715.112529
943.753359	2704.639532
944.055290	2693.869107
944.357182	2684.868127
944.659036	2683.081038
944.960851	2675.695747
945.262628	2671.093174
945.564367	2673.601148
945.866067	2672.625685
946.167729	2669.318688
946.469352	2668.154181
946.770937	2665.837771
947.072484	2659.276709
947.373992	2658.202944
947.675462	2657.043478
947.976893	2649.743887
948.278286	2646.318423
948.579641	2643.364307
948.880958	2640.067393
949.182236	2640.649646
949.483476	2637.934985
949.784678	2636.652011
950.085841	2637.027577
950.386967	2640.372382
950.688054	2643.956643
950.989103	2651.714979
951.290114	2664.000271
951.591087	2674.478309
951.892021	2688.167562
952.192917	2701.163657
952.493776	2707.951570
952.794596	2712.145810
953.095378	2715.974567
953.396122	2713.504401
953.696828	2709.746221
953.997496	2706.746735
954.298126	2695.961186
954.598718	2686.390555
954.899272	2676.618279
955.199788	2665.376506
955.500266	2652.698004
955.800706	2637.851806
956.101108	2619.595267
956.401472	2609.439862
956.701798	2594.820516
957.002087	2579.374421
957.302337	2570.025601
957.602550	2560.177707
957.902724	2546.231355
958.202861	2538.606610
958.502960	2529.419107
958.803022	2522.623632
959.103045	2513.181550
959.403031	2509.125942
959.702979	2502.070847
960.002889	2500.475322
960.302762	2493.571462
960.602596	2490.261944
960.902393	2486.297077
961.202153	2480.212404
961.501875	2479.806591
961.801559	2477.056642
962.101205	2477.719554
962.400814	2475.478761
962.700385	2472.658235
962.999918	2470.709829
963.299414	2468.244705
963.598873	2466.220682
963.898293	2461.996195
964.197677	2463.001905
964.497022	2459.858746
964.796331	2458.608539
965.095601	2461.784466
965.394835	2459.241204
965.694030	2458.905967
965.993189	2459.183231
966.292309	2460.002418
966.591393	2454.615946
966.890439	2459.722634
967.189447	2456.118209
967.488419	2457.998560
967.787353	2459.548715
968.086249	2456.342541
968.385108	2460.748509
968.683930	2459.359671
968.982714	2459.843622
969.281462	2461.981071
969.580172	2462.560804
969.878844	2465.971145
970.177480	2468.910137
970.476078	2471.811321
970.774639	2474.899028
971.073162	2478.654688
971.371649	2476.804584
971.670098	2478.279122
971.968510	2484.444453
972.266885	2478.185860
972.565223	2483.277426
972.863524	2484.305821
973.161788	2490.561893
973.460014	2487.421254
973.758204	2489.727582
974.056356	2484.764566
974.354471	2490.075422
974.652550	2487.176758
974.950591	2489.783035
975.248595	2489.047026
975.546563	2489.142808
975.844493	2484.711634
976.142386	2487.103662
976.440243	2483.431181
976.738062	2479.917497
977.035845	2475.312403
977.333590	2473.149748
977.631299	2471.410550
977.928971	2472.023050
978.226606	2470.087247
978.524204	2469.421814
978.821765	2466.082050
979.119290	2466.079529
979.416777	2466.548357
979.714228	2466.626495
980.011642	2465.754375
980.309020	2472.547330
980.606360	2477.585963
980.903664	2483.526963
981.200931	2497.846360
981.498162	2519.359484
981.795356	2549.377035
982.092513	2585.602767
982.389633	2631.774695
982.686717	2677.828156
982.983764	2711.586242
983.280775	2731.282030
983.577749	2728.121227
983.874686	2719.478169
984.171587	2700.931764
984.468451	2686.503981
984.765279	2667.660148
985.062070	2648.503764
985.358824	2629.054992
985.655543	2604.794439
985.952224	2583.601428
986.248869	2555.502037
986.545478	2527.143026
986.842050	2507.414470
987.138586	2489.740185
987.435086	2474.145376
987.731549	2462.601133
988.027975	2459.248766
988.324366	2451.036726
988.620719	2448.432970
988.917037	2444.397527
989.213318	2440.389809
989.509563	2440.271342
989.805772	2437.589448
990.101944	2436.245981
990.398080	2435.817483
990.694180	2436.936619
990.990244	2434.148861
991.286271	2434.635332
991.582262	2432.896134
991.878217	2435.215065
992.174136	2434.365631
992.470019	2437.223965
992.765865	2437.561722
993.061676	2441.392999
993.357450	2444.601693
993.653188	2446.799637
993.948890	2448.841304
994.244556	2457.635597
994.540186	2469.356279
994.835780	2479.345326
995.131337	2494.834271
995.426859	2511.381858
995.722345	2530.815507
996.017795	2553.626728
996.313208	2566.998388
996.608586	2576.513566
996.903928	2577.383165
997.199234	2578.875347
997.494504	2574.688668
997.789738	2567.502504
998.084936	2557.163097
998.380099	2544.933258
998.675225	2532.965559
998.970316	2521.622963
999.265371	2506.358349
999.560390	2490.960144
999.855373	2479.559575
1000.150320	2470.596403
1000.445232	2463.185907
1000.740108	2453.557303
1001.034948	2448.430450
1001.329752	2445.287290
1001.624521	2440.568770
1001.919254	2431.446803
1002.213951	2429.579055
1002.508613	2425.684764
1002.803239	2428.311205
1003.097829	2421.916501
1003.392384	2424.394228
1003.686903	2421.714855
1003.981386	2423.882551
1004.275834	2421.598908
1004.570246	2422.556728
1004.864623	2418.002045
1005.158964	2418.100348
1005.453270	2416.240162
1005.747540	2416.915677
1006.041775	2416.736716
1006.335974	2414.531211
1006.630138	2412.499626
1006.924266	2413.853176
1007.218359	2415.282343
1007.512416	2412.262692
1007.806438	2411.856879
1008.100425	2412.643299
1008.394376	2411.960222
1008.688292	2413.553227
1008.982172	2413.465007
1009.276017	2412.892836
1009.569827	2410.790675
1009.863602	2413.643968
1010.157341	2408.600293
1010.451045	2411.632547
1010.744714	2409.331261
1011.038347	2412.862589
1011.331945	2411.826632
1011.625508	2410.679769
1011.919036	2408.769172
1012.212528	2410.505849
1012.505986	2410.263874
1012.799408	2410.094995
1013.092795	2408.638102
1013.386147	2409.197670
1013.679464	2408.708678
1013.972745	2408.749007
1014.265992	2410.054666
1014.559204	2408.348236
1014.852380	2406.001578
1015.145521	2408.862433
1015.438628	2410.508370
1015.731699	2405.336146
1016.024736	2405.996537
1016.317737	2407.425704
1016.610703	2410.813360
1016.903635	2406.732546
1017.196531	2408.060890
1017.489393	2409.638771
1017.782219	2409.311096
1018.075011	2412.502146
1018.367768	2410.372259
1018.660490	2407.493760
1018.953177	2407.493760
1019.245829	2407.493760
