Dividing Wavelength (nm)	Counts (n)	Blue Motor Position (mm): 34.400000	Red Motor Position (mm): 0.000000	
326.493990	1972.187605
326.888308	1972.187605
327.282561	1972.187605
327.676750	1947.324634
328.070874	1947.188523
328.464933	1952.330500
328.858929	1961.674278
329.252859	1975.948306
329.646726	1988.006746
330.040528	2004.335043
330.434265	2023.564524
330.827938	2044.961702
331.221547	2063.167829
331.615091	2084.960737
332.008571	2104.805239
332.401986	2126.731738
332.795338	2146.188071
333.188625	2166.506442
333.581847	2183.041426
333.975006	2200.375434
334.368100	2218.521067
334.761129	2238.864643
335.154095	2253.541963
335.546996	2292.681481
335.939833	2371.726773
336.332606	2386.204967
336.725315	2397.328273
337.117960	2406.377144
337.510540	2412.532393
337.903056	2423.015473
338.295508	2429.780701
338.687896	2438.993410
339.080220	2446.393824
339.472480	2449.012703
339.864676	2453.123764
340.256807	2456.413117
340.648875	2459.130299
341.040879	2458.353961
341.432818	2461.703808
341.824694	2459.435289
342.216506	2462.638942
342.608253	2463.833695
342.999937	2458.711883
343.391557	2459.470577
343.783113	2457.207099
344.174605	2457.224743
344.566033	2455.246090
344.957397	2454.825153
345.348697	2450.522529
345.739934	2451.414813
346.131106	2448.566561
346.522215	2448.415326
346.913260	2448.546396
347.304241	2445.735953
347.695159	2440.536003
348.086012	2441.748400
348.476802	2439.540375
348.867528	2437.365117
349.258191	2437.402926
349.648789	2434.048038
350.039324	2433.271700
350.429796	2436.377051
350.820203	2433.117945
351.210548	2433.180959
351.600828	2431.955959
351.991045	2432.797832
352.381198	2429.213571
352.771288	2432.392019
353.161314	2429.145516
353.551276	2432.202976
353.941175	2428.709456
354.331010	2429.135433
354.720782	2431.411514
355.110490	2434.403439
355.500135	2433.329673
355.889717	2429.591658
356.279235	2431.252718
356.668689	2429.168201
357.058080	2429.236257
357.447408	2431.640887
357.836672	2430.012594
358.225873	2430.609971
358.615010	2430.481422
359.004084	2434.814293
359.393095	2435.580549
359.782043	2438.501897
360.170927	2436.969387
360.559748	2437.728080
360.948505	2436.586259
361.337199	2438.176743
361.725830	2439.855447
362.114398	2441.748400
362.502903	2442.370983
362.891344	2440.916610
363.279722	2441.229162
363.668037	2443.091868
364.056289	2440.972063
364.444478	2444.566405
364.832603	2442.232351
365.220665	2444.392486
365.608665	2444.357197
365.996601	2446.920624
366.384474	2448.148145
366.772284	2448.828701
367.160031	2448.599328
367.547715	2448.949689
367.935336	2444.904163
368.322893	2447.994390
368.710388	2450.572940
369.097820	2453.554783
369.485189	2448.967333
369.872495	2449.650409
370.259738	2450.615790
370.646918	2452.818774
371.034035	2451.094700
371.421090	2451.440019
371.808081	2451.331634
372.195010	2451.155193
372.581875	2455.228446
372.968678	2453.469083
373.355418	2455.876234
373.742096	2455.316666
374.128710	2455.987139
374.515262	2457.007973
374.901751	2456.045113
375.288177	2457.945628
375.674540	2456.650051
376.060841	2461.786987
376.447079	2459.016873
376.833254	2454.739454
377.219367	2453.348095
377.605417	2458.298508
377.991404	2455.788014
378.377329	2458.001080
378.763191	2457.113837
379.148991	2461.202213
379.534727	2461.875207
379.920402	2463.811010
380.306013	2463.596761
380.691563	2464.720938
381.077049	2462.318829
381.462474	2465.164560
381.847835	2467.400312
382.233134	2466.795373
382.618371	2467.889304
383.003545	2467.133131
383.388657	2467.571711
383.773706	2468.378296
384.158693	2466.545836
384.543618	2469.459623
384.928480	2470.989613
385.313280	2468.058182
385.698017	2472.630509
386.082692	2471.715539
386.467305	2473.779892
386.851856	2473.336270
387.236344	2476.229893
387.620770	2477.419605
388.005133	2476.676035
388.389435	2476.575212
388.773674	2475.004892
389.157851	2481.253403
389.541965	2476.446662
389.926018	2478.034626
390.310008	2476.197125
390.693936	2481.906232
391.077802	2481.414719
391.461606	2485.198105
391.845348	2482.662405
392.229027	2485.344299
392.612645	2485.417396
392.996200	2486.723054
393.379694	2488.736995
393.763125	2488.580720
394.146494	2487.511995
394.529801	2490.818992
394.913047	2491.902840
395.296230	2492.951400
395.679351	2491.718838
396.062410	2493.601709
396.445408	2493.674806
396.828343	2495.338386
397.211217	2492.981647
397.594028	2496.601195
397.976778	2493.800834
398.359466	2498.274858
398.742092	2496.278562
399.124656	2501.702843
399.507158	2500.031701
399.889598	2503.384068
400.271977	2503.684017
400.654294	2505.672752
401.036549	2506.065962
401.418742	2506.318019
401.800874	2510.706344
402.182944	2508.188288
402.564952	2515.750018
402.946898	2511.064266
403.328783	2514.048629
403.710606	2513.085768
404.092367	2518.890657
404.474067	2518.822602
404.855705	2518.925945
405.237282	2521.136491
405.618797	2523.959537
406.000250	2526.094466
406.381642	2532.589993
406.762972	2536.592669
407.144240	2535.039993
407.525447	2542.241282
407.906593	2542.432846
408.287677	2547.468958
408.668700	2554.861810
409.049661	2560.775084
409.430560	2564.802966
409.811399	2576.768144
410.192176	2583.608990
410.572891	2594.354210
410.953545	2608.766868
411.334138	2616.595780
411.714669	2637.146044
412.095139	2645.862199
412.475547	2669.202741
412.855894	2686.516584
413.236180	2713.232179
413.616405	2730.195662
413.996568	2762.854777
414.376670	2791.594395
414.756711	2817.773107
415.136691	2863.652648
415.516609	2909.801891
415.896466	2951.724126
416.276262	3015.993797
416.655997	3088.107503
417.035670	3146.650422
417.415283	3247.483581
417.794834	3314.944302
418.174324	3373.714074
418.553753	3439.808642
418.933121	3554.159655
419.312428	3627.420223
419.691674	3701.983930
420.070859	3844.179756
420.449983	3909.563522
420.829045	4065.688056
421.208047	4141.648163
421.586988	4306.047751
421.965867	4456.904280
422.344686	4577.972631
422.723444	4796.201660
423.102141	4701.750602
423.480777	5034.882651
423.859352	5078.405453
424.237866	5432.077683
424.616319	5523.483884
424.994712	5806.456453
425.373044	5924.968938
425.751314	6247.743937
426.129524	6193.012130
426.507673	6635.937989
426.885762	6730.434418
427.263789	6958.014788
427.641756	7184.400404
428.019662	7380.082873
428.397508	7583.138029
428.775292	7864.568004
429.153016	8045.263123
429.530679	8267.507431
429.908282	8466.413718
430.285824	8551.110144
430.663305	9012.219445
431.040726	9044.891163
431.418086	9162.259307
431.795385	9623.759297
432.172624	10009.105097
432.549802	10018.718578
432.926920	10301.686105
433.303977	10440.554770
433.680974	10755.359704
434.057910	11096.827301
434.434786	11316.160343
434.811601	11475.743109
435.188355	12230.353428
435.565050	12242.742064
435.941683	12410.746078
436.318257	13142.146925
436.694770	13233.623702
437.071222	13792.123055
437.447614	13431.720884
437.823946	13625.772539
438.200218	13904.583635
438.576429	13958.791162
438.952580	14317.580164
439.328670	14467.652793
439.704700	14930.092959
440.080670	14809.269104
440.456580	15400.732562
440.832429	15687.972467
441.208218	15138.864784
441.583947	15606.572956
441.959616	15844.137331
442.335224	16181.221644
442.710773	16429.445539
443.086261	17001.021644
443.461689	16647.339332
443.837057	16886.915127
444.212365	17558.348928
444.587612	17698.684569
444.962800	17482.587948
445.337927	17973.976940
445.712995	17038.369033
446.088002	18709.206543
446.462949	19004.018261
446.837837	19274.224107
447.212664	19359.507827
447.587431	21888.500957
447.962139	24575.556944
448.336786	26792.890820
448.711374	25564.570835
449.085901	22434.674688
449.460369	22477.627839
449.834776	22506.291840
450.209124	24838.133004
450.583412	24539.603435
450.957640	25109.059735
451.331808	23975.571417
451.705917	22802.184886
452.079965	22887.377865
452.453954	23303.457059
452.827883	23271.697790
453.201752	23152.260253
453.575562	23357.813301
453.949311	24456.134530
454.323001	24578.553910
454.696632	24410.302880
455.070202	25922.205412
455.443713	26102.431704
455.817164	26690.237804
456.190556	27244.351352
456.563888	26764.625070
456.937160	27213.812042
457.310373	25682.884195
457.683526	26115.042150
458.056619	26127.929860
458.429653	26102.930778
458.802628	26667.010688
459.175542	26821.393503
459.548398	28097.879192
459.921194	29638.274326
460.293930	30319.016618
460.666607	32321.078101
461.039224	34030.067063
461.411782	34421.411836
461.784280	33251.407919
462.156719	32760.460029
462.529099	32230.213823
462.901419	30970.043829
463.273680	29976.084566
463.645882	30080.834702
464.018024	30072.562168
464.390106	30895.555739
464.762130	33530.808830
465.134094	37536.764255
465.505999	42765.378448
465.877845	47296.710323
466.249631	48418.540974
466.621358	46651.903896
466.993026	44499.200134
467.364634	42435.346708
467.736184	40513.633656
468.107674	39308.298813
468.479105	38559.624452
468.850477	37876.923672
469.221790	36497.711871
469.593043	34819.758772
469.964238	33965.162207
470.335373	33868.339286
470.706449	35510.774935
471.077467	37999.824482
471.448425	42513.895447
471.819324	45380.993724
472.190164	43576.132097
472.560945	40102.151994
472.931667	37046.033133
473.302330	35958.966280
473.672934	35148.918392
474.043479	35658.105177
474.413965	34900.742388
474.784393	34530.888054
475.154761	35393.500053
475.525070	35437.975633
475.895321	34990.346377
476.265513	35572.786169
476.635645	36522.748761
477.005719	36356.398246
477.375734	36821.149781
477.745691	37489.926894
478.115588	38783.847414
478.485427	40715.970448
478.855207	44023.973082
479.224928	46635.507543
479.594591	48246.551928
479.964194	47208.502734
480.333739	47323.861978
480.703226	47334.917228
481.072653	47981.417483
481.442022	48483.072784
481.811333	48742.384697
482.180584	47450.856205
482.549777	46934.478213
482.918912	46411.145950
483.287988	46112.835672
483.657005	45317.772613
484.025964	44671.441237
484.394864	44674.097926
484.763706	44246.900466
485.132489	43378.589443
485.501213	43220.592119
485.869879	43364.310374
486.238487	42967.768172
486.607036	43186.788662
486.975527	42641.048470
487.343959	42846.851056
487.712333	42925.228395
488.080648	42848.635624
488.448905	43255.746606
488.817104	43086.013476
489.185244	44018.604253
489.553326	45659.088976
489.921350	48365.563488
490.289315	51302.159112
490.657222	51946.360600
491.025070	52254.354935
491.392861	51303.653814
491.760593	50021.869872
492.128267	48315.560283
492.495883	46782.792415
492.863440	45399.008287
493.230939	44060.004729
493.598380	43009.022454
493.965763	42687.709390
494.333088	41898.075655
494.700354	41425.568305
495.067563	41153.376244
495.434713	41010.260407
495.801805	41077.090983
496.168839	40714.604296
496.535815	40394.581767
496.902733	40421.642681
497.269593	40028.225994
497.636395	39977.990896
498.003139	40335.199495
498.369825	39827.555303
498.736453	40109.355803
499.103023	39655.399899
499.469535	39529.605467
499.835989	39619.688365
500.202385	39280.070872
500.568723	39320.379938
500.935003	39509.758444
501.301226	39308.518103
501.667390	39911.341801
502.033497	40155.230303
502.399546	39600.042989
502.765537	38926.779249
503.131470	39294.617121
503.497345	39634.431220
503.863163	38333.793363
504.228923	38919.169627
504.594625	39323.054270
504.960269	38634.276379
505.325856	39296.741968
505.691385	38664.672016
506.056856	38806.860281
506.422270	39234.380374
506.787625	38832.373561
507.152924	39014.608752
507.518164	39111.179615
507.883347	38332.091973
508.248472	38592.336500
508.613540	39025.812716
508.978550	39336.504069
509.343503	39091.244372
509.708398	39280.390985
510.073236	39803.330038
510.438016	39802.273917
510.802738	39278.190522
511.167403	39883.479343
511.532010	40101.005132
511.896561	40397.266182
512.261053	41214.076778
512.625488	40759.175657
512.989866	40650.034677
513.354186	40478.700981
513.718449	40483.774902
514.082655	41138.870324
514.446803	40806.378501
514.810894	41315.615698
515.174927	41253.826276
515.538904	41149.643270
515.902822	41796.133442
516.266684	41274.084152
516.630488	41677.557942
516.994235	41537.522249
517.357925	42078.606936
517.721558	42250.137237
518.085133	42547.867783
518.448651	42674.869572
518.812112	42452.683236
519.175516	42558.963362
519.538863	42913.938731
519.902152	42864.663973
520.265385	43311.335409
520.628560	43330.065816
520.991678	43150.900688
521.354739	43370.732804
521.717743	43675.475596
522.080690	43574.201335
522.443580	44133.272859
522.806413	44179.381772
523.169189	44112.755362
523.531908	44297.866532
523.894569	44156.661292
524.257174	44309.229293
524.619722	44609.503101
524.982213	44603.030259
525.344647	44520.809040
525.707025	44568.019446
526.069345	44958.938241
526.431608	44864.978695
526.793815	45197.168049
527.155964	44730.863838
527.518057	44913.507363
527.880093	44685.823649
528.242072	45224.201236
528.603995	44915.385193
528.965860	44921.958857
529.327669	44998.375188
529.689421	44911.261529
530.051117	44868.426845
530.412755	45020.775555
530.774337	45084.488178
531.135862	44903.737607
531.497331	45080.276294
531.858743	44992.993756
532.220098	45332.485221
532.581396	45044.078289
532.942638	44726.412500
533.303824	45013.775913
533.664953	44989.399413
534.026025	44710.323657
534.387040	45165.174366
534.747999	45124.736750
535.108902	45281.289783
535.469748	44804.779757
535.830537	44949.685203
536.191270	45135.814686
536.551947	44784.121108
536.912567	45084.190750
537.273131	45203.207351
537.633638	44701.892327
537.994089	45055.372994
538.354483	44660.103683
538.714821	45212.316716
539.075103	45548.415484
539.435328	45344.301685
539.795497	45220.438015
540.155609	45218.880298
540.515665	45664.871179
540.875665	45131.222195
541.235609	45461.062370
541.595496	45431.435509
541.955328	46093.228104
542.315102	45480.969887
542.674821	45280.639474
543.034483	45306.074616
543.394090	45277.534123
543.753640	45238.918885
544.113134	46231.264978
544.472571	45277.098063
544.831953	46490.329874
545.191278	45718.176340
545.550548	45470.474204
545.909761	45908.560556
546.268918	46108.807790
546.628019	46419.360511
546.987064	45997.864596
547.346053	45293.005424
547.704986	46139.009342
548.063863	45735.802734
548.422684	45926.280212
548.781449	45795.900850
549.140158	46186.708740
549.498811	46017.043666
549.857408	45475.974103
550.215949	46300.346430
550.574434	46241.425424
550.932864	46006.152253
551.291237	46724.388127
551.649555	46343.407966
552.007817	46576.412618
552.366022	46240.843171
552.724173	46415.995540
553.082267	46817.936819
553.440305	47104.302084
553.798288	46445.148533
554.156215	46749.818228
554.514086	46961.725650
554.871902	46696.944085
555.229661	46742.019562
555.587365	46562.781338
555.945014	46657.348342
556.302606	46592.566995
556.660143	46808.784604
557.017625	46899.427071
557.375050	46691.693724
557.732421	47038.961168
558.089735	47021.075154
558.446994	46961.594580
558.804197	47418.923016
559.161345	47344.218157
559.518437	46622.380379
559.875474	46920.922551
560.232455	47082.020184
560.589381	47254.062162
560.946251	46962.771689
561.303065	47623.165364
561.659825	47436.869523
562.016528	47128.605486
562.373177	46828.172882
562.729770	47326.705188
563.086307	46847.125100
563.442789	47292.624468
563.799216	47331.249789
564.155587	47132.461969
564.511904	47148.545770
564.868164	47250.263652
565.224370	47494.426898
565.580520	47219.023622
565.936615	47436.829194
566.292654	47158.912903
566.648638	47392.124242
567.004567	47354.199642
567.360441	47395.043070
567.716260	47248.597551
568.072023	47549.259528
568.427732	47517.512862
568.783385	47071.302691
569.138982	47480.190679
569.494525	47432.337526
569.850013	47200.661219
570.205445	47163.197884
570.560823	47128.229920
570.916145	46992.040629
571.271412	47024.301493
571.626625	46772.226156
571.981782	46846.396653
572.336884	46527.810853
572.691931	46836.357195
573.046923	46448.208513
573.401860	46296.512632
573.756743	46276.166536
574.111570	46388.732980
574.466342	46246.196876
574.821059	46365.528549
575.175722	45892.549851
575.530330	45901.394556
575.884882	45625.449356
576.239380	45592.381907
576.593823	45550.472275
576.948211	45477.085678
577.302544	45003.681002
577.656823	45052.779320
578.011047	45262.266989
578.365216	44988.244989
578.719330	44785.930882
579.073389	44646.815201
579.427394	44707.878697
579.781344	44695.283375
580.135239	44345.555847
580.489080	44429.052478
580.842866	43912.414868
581.196597	44367.189959
581.550273	44311.064272
581.903895	44172.919013
582.257463	44589.555255
582.610975	43994.086601
582.964434	44272.524651
583.317837	43901.006736
583.671186	43741.484464
584.024481	43975.772089
584.377721	43510.529042
584.730906	43786.103717
585.084037	43802.358917
585.437113	43534.834965
585.790135	43560.484356
586.143103	43165.872915
586.496016	43289.602995
586.848874	43318.067870
587.201679	43325.785877
587.554428	42824.669979
587.907124	43009.723175
588.259765	42774.941517
588.612352	43000.162626
588.964884	42400.567788
589.317362	42692.987478
589.669786	42641.267761
590.022155	42413.253852
590.374470	42824.596882
590.726731	42347.963348
591.078937	41871.367622
591.431090	41967.328506
591.783188	41624.978707
592.135232	41309.105048
592.487222	41541.668598
592.839157	41640.941521
593.191038	41320.193066
593.542866	41086.848137
593.894639	40492.685142
594.246358	40768.158993
594.598022	40750.335994
594.949633	40350.774140
595.301190	40306.442233
595.652692	40150.690744
596.004141	40465.304114
596.355535	39502.481538
596.706876	39453.393303
597.058162	39286.473137
597.409395	39741.104556
597.760573	39827.794758
598.111698	39409.865460
598.462768	39411.846633
598.813785	39468.915016
599.164748	38922.012838
599.515657	39309.881735
599.866511	38790.224473
600.217312	39386.282942
600.568060	38373.144610
600.918753	39104.086712
601.269392	39078.013864
601.619978	38731.459743
601.970510	38940.808780
602.320988	39117.876788
602.671412	39414.737735
603.021783	39179.693937
603.372100	38802.698808
603.722363	38933.173952
604.072572	38997.022686
604.422728	39013.731591
604.772830	38823.279319
605.122878	38920.470245
605.472872	38877.383503
605.822813	39144.720932
606.172701	38987.910801
606.522534	39208.894821
606.872314	39463.609201
607.222041	39216.106191
607.571714	39607.584555
607.921333	39071.442720
608.270899	39351.927479
608.620411	39690.506495
608.969870	39488.262964
609.319276	39489.334209
609.668627	39537.774657
610.017926	40008.575576
610.367171	40177.648314
610.716362	40272.406883
611.065500	40210.309950
611.414585	40400.651316
611.763616	40681.133555
612.112594	40620.932095
612.461518	40842.795797
612.810389	41117.488270
613.159207	40983.920378
613.507971	41068.281567
613.856682	41541.466952
614.205340	41425.066710
614.553945	42115.861063
614.902496	41570.622466
615.250994	42044.478324
615.599439	42096.084616
615.947830	42317.711383
616.296169	42368.261553
616.644454	42492.997344
616.992686	42669.626772
617.340864	43182.937221
617.688990	42899.941967
618.037063	43487.619518
618.385082	43474.104185
618.733048	43778.466369
619.080961	43795.334069
619.428821	43787.638748
619.776628	43907.739197
620.124382	43719.164755
620.472083	43853.690466
620.819731	43964.527795
621.167326	43647.731605
621.514868	43623.269406
621.862357	43174.427753
622.209793	43214.421747
622.557176	42892.952408
622.904506	42623.560708
623.251783	42288.873463
623.599007	42065.862899
623.946179	41836.863444
624.293297	41806.629124
624.640363	41224.259908
624.987376	41214.936294
625.334336	40969.197688
625.681243	40624.118105
626.028097	40586.611920
626.374899	40438.938880
626.721647	40428.181057
627.068343	40305.880145
627.414987	40075.542264
627.761577	39866.490655
628.108115	40192.103823
628.454600	39660.688070
628.801032	39843.223209
629.147412	39802.404987
629.493739	39809.235750
629.840014	39471.586827
630.186236	39800.872476
630.532405	39424.898181
630.878521	39628.764963
631.224585	39517.451245
631.570597	39231.136392
631.916556	39401.398842
632.262462	39336.584727
632.608316	39335.271507
632.954117	39249.395451
633.299866	39243.182229
633.645562	39151.264350
633.991206	38659.610698
634.336797	38234.084381
634.682336	38251.327648
635.027823	37986.319231
635.373257	37817.032244
635.718639	37570.814728
636.063968	37436.130221
636.409245	36867.200721
636.754470	36928.037366
637.099642	36684.501744
637.444762	36213.453808
637.789829	36347.787955
638.134845	36011.119537
638.479808	35964.851827
638.824719	35870.907404
639.169577	35484.944063
639.514383	35534.906939
639.859137	35254.628867
640.203839	35491.527810
640.548489	35126.122294
640.893086	35197.280701
641.237632	34950.077640
641.582125	35074.432823
641.926566	35011.005025
642.270955	34976.518492
642.615292	34995.327037
642.959576	34966.136236
643.303809	34952.268021
643.647990	35101.410558
643.992118	35069.656330
644.336195	35069.593315
644.680219	35158.325185
645.024192	35453.179753
645.368112	35973.000852
645.711981	35991.161609
646.055797	36857.874587
646.399562	36784.525798
646.743274	37724.799293
647.086935	38169.877725
647.430544	38049.038747
647.774101	38173.099022
648.117606	38417.199253
648.461059	38711.206907
648.804460	38320.189809
649.147810	37697.362813
649.491108	37449.113713
649.834354	37108.109902
650.177548	36276.208612
650.520690	35835.165624
650.863781	35848.378488
651.206820	35684.248601
651.549807	35267.342657
651.892742	34793.784227
652.235626	34602.096872
652.578458	34458.441632
652.921238	33872.659555
653.263967	34192.309038
653.606644	33887.924169
653.949269	33831.339737
654.291843	33435.982206
654.634365	33852.389075
654.976836	33448.660708
655.319255	33440.650314
655.661622	33439.014460
656.003938	33202.372616
656.346203	33064.993612
656.688416	33293.690597
657.030577	33099.873355
657.372687	32941.298820
657.714746	33213.357290
658.056753	33329.641586
658.398708	32790.263330
658.740612	32831.832685
659.082465	33110.885756
659.424266	32950.327527
659.766016	33044.982752
660.107715	32939.224385
660.449362	33067.786411
660.790958	33034.900444
661.132503	33080.424584
661.473996	33102.956021
661.815438	33216.266036
662.156829	33402.488780
662.498168	33186.132539
662.839456	33195.972871
663.180693	33351.820142
663.521879	33514.777961
663.863013	33477.516272
664.204097	33463.534632
664.545129	33932.019141
664.886110	33895.674943
665.227040	33963.203719
665.567918	34074.401491
665.908746	34133.251921
666.249522	34298.750481
666.590248	34298.392559
666.930922	34408.705608
667.271545	34375.592789
667.612118	34464.488496
667.952639	34256.016620
668.293109	34302.954803
668.633528	34202.456881
668.973896	34124.898729
669.314213	34139.742406
669.654480	33894.686877
669.994695	33926.080662
670.334859	33807.416942
670.674973	33699.432906
671.015035	33865.652351
671.355047	33824.912266
671.695008	33769.739358
672.034918	33669.347300
672.374777	33755.147738
672.714585	33587.398303
673.054342	33803.174811
673.394049	33569.212340
673.733705	33845.371789
674.073310	33515.347611
674.412864	33581.847992
674.752368	33201.553428
675.091820	33469.415138
675.431223	33062.828436
675.770574	32787.074800
676.109875	32660.201561
676.449125	32399.740265
676.788324	32304.711995
677.127473	31775.731119
677.466571	31693.391432
677.805619	31359.407428
678.144616	31344.145335
678.483562	31273.518770
678.822458	30948.316456
679.161303	30889.163556
679.500098	30792.892641
679.838842	30681.410045
680.177535	30833.957881
680.516179	31094.668713
680.854771	31346.980984
681.193314	32196.042362
681.531805	33332.177286
681.870247	34115.673417
682.208638	34851.449986
682.546978	35077.147484
682.885268	35160.331564
683.223508	34619.942557
683.561697	34291.402999
683.899836	34097.235397
684.237925	33596.260651
684.575963	33449.260605
684.913951	32996.375946
685.251889	33145.392454
685.589776	33139.897596
685.927614	33125.305977
686.265401	33276.772485
686.603137	33378.818042
686.940824	33876.727766
687.278460	34274.615957
687.616046	34408.425824
687.953582	35020.031211
688.291068	34893.074793
688.628504	35163.605793
688.965889	35088.817756
689.303224	34698.181265
689.640510	34348.032801
689.977745	33615.351501
690.314930	32812.961125
690.652065	32288.396300
690.989150	31538.043235
691.326185	30655.309471
691.663170	29957.510435
692.000105	29199.207470
692.336990	28512.718263
692.673825	28064.660509
693.010610	27543.208596
693.347345	26963.072612
693.684030	26317.446998
694.020665	26044.758383
694.357251	25369.654622
694.693786	25326.441851
695.030272	25092.986016
695.366707	24555.783018
695.703093	24274.365646
696.039429	24248.973354
696.375716	23993.538089
696.711952	23956.215906
697.048139	23800.834942
697.384276	23624.694506
697.720363	23749.112703
698.056400	23553.795718
698.392388	23339.155990
698.728326	23306.703562
699.064214	23087.615016
699.400053	23041.523747
699.735842	22682.268438
700.071581	22398.953072
700.407270	22112.451696
700.742910	21926.498654
701.078501	21648.927682
701.414042	21360.929083
701.749533	21071.866801
702.084974	20712.220803
702.420366	20928.856828
702.755709	20489.157307
703.091002	20200.137875
703.426246	20222.334076
703.761440	20112.464648
704.096584	19841.999183
704.431679	19801.516197
704.766725	19708.161589
705.101721	19648.272681
705.436668	19737.561598
705.771565	19428.609444
706.106413	19773.963770
706.441212	19744.309183
706.775961	19880.800944
707.110661	19947.616397
707.445311	20308.111829
707.779913	20146.142076
708.114465	20396.422762
708.448967	20668.813948
708.783421	21369.337728
709.117825	21643.770582
709.452180	21856.381245
709.786485	22269.337445
710.120742	23071.871493
710.454949	23083.869439
710.789107	23546.922105
711.123216	24257.475260
711.457275	24379.791297
711.791286	24920.376909
712.125247	24975.234745
712.459159	24669.365256
712.793023	25334.613561
713.126837	24225.042997
713.460602	24474.217149
713.794318	24106.734678
714.127985	23705.844480
714.461602	22812.602430
714.795171	22763.723402
715.128691	21763.508068
715.462162	21203.337573
715.795584	20792.100407
716.128957	20534.716735
716.462281	20125.531319
716.795556	19890.807634
717.128782	19401.362007
717.461960	18847.883644
717.795088	18777.176420
718.128167	18380.561121
718.461198	17917.299247
718.794180	17776.018390
719.127113	17414.043379
719.459997	17211.522585
719.792833	16878.393057
720.125619	16838.542735
720.458357	16532.940427
720.791046	16363.923142
721.123686	16187.341605
721.456278	15962.380115
721.788821	15919.626089
722.121315	15661.849208
722.453761	15736.697739
722.786158	15665.947666
723.118506	15667.429765
723.450805	15540.959818
723.783056	15695.125864
724.115259	15598.020638
724.447412	15537.035279
724.779518	15774.458502
725.111574	15798.230063
725.443582	15993.456307
725.775542	15969.420086
726.107453	16441.657734
726.439315	16327.941906
726.771129	16718.260805
727.102895	17096.717868
727.434612	17304.725958
727.766281	17421.675686
728.097901	17686.590841
728.429473	17726.158858
728.760996	17696.801698
729.092471	17781.097352
729.423897	17650.463412
729.755276	17524.275770
730.086606	17638.480589
730.417887	18162.541299
730.749120	18677.515329
731.080305	18846.777111
731.411442	19188.484162
731.742530	19253.086549
732.073570	19344.833028
732.404562	19642.770262
732.735506	19455.133475
733.066401	19155.910747
733.397249	18631.847517
733.728048	18003.427360
734.058798	17162.575502
734.389501	16501.770973
734.720156	16037.019438
735.050762	15507.131155
735.381320	15160.259441
735.711831	14918.662143
736.042293	14573.426283
736.372707	14586.195526
736.703073	14373.088309
737.033391	14555.830136
737.363661	14529.913564
737.693883	14634.991375
738.024056	14807.028312
738.354182	14993.911446
738.684260	15278.988696
739.014290	15501.117058
739.344272	15689.668815
739.674207	15977.450644
740.004093	16067.939356
740.333931	16067.407514
740.663722	16098.955055
740.993464	16094.291987
741.323159	15924.357212
741.652806	15648.288504
741.982405	15435.045175
742.311956	15091.092290
742.641460	14966.585872
742.970915	14661.422144
743.300323	14332.068440
743.629683	14125.315597
743.958996	13842.942927
744.288260	13575.633223
744.617477	13278.058953
744.946647	13201.289742
745.275768	12921.508224
745.604842	12746.638158
745.933869	12570.485120
746.262847	12524.562729
746.591778	12456.486987
746.920662	12357.667769
747.249498	12351.925895
747.578286	12465.563585
747.907027	12622.209879
748.235720	12835.395234
748.564365	12860.842978
748.892963	12769.174637
749.221514	12825.935508
749.550017	12678.131398
749.878473	12646.225936
750.206881	12418.416193
750.535242	12327.740959
750.863555	12250.969227
751.191821	12141.046868
751.520039	12163.719457
751.848210	12068.915518
752.176334	12098.118922
752.504411	12015.050789
752.832440	11863.012109
753.160421	11916.864235
753.488356	11794.374279
753.816243	11710.799510
754.144082	11562.087992
754.471875	11496.207673
754.799620	11448.120107
755.127318	11424.467013
755.454969	11391.165151
755.782572	11340.546925
756.110129	11353.152330
756.437638	11271.397418
756.765100	11258.146745
757.092515	11261.942733
757.419882	11277.416555
757.747203	11288.242433
758.074477	11353.888338
758.401703	11315.212606
758.728882	11478.624129
759.056014	11520.405212
759.383099	11620.956066
759.710138	11738.815723
760.037129	11813.986888
760.364073	11830.806698
760.690970	11818.229019
761.017820	11815.093422
761.344623	12001.111998
761.671379	12323.874394
761.998088	12951.374540
762.324751	14493.707997
762.651366	17354.620778
762.977935	21002.641677
763.304456	23213.543039
763.630931	23693.014743
763.957359	22512.449609
764.283740	20600.090418
764.610074	18736.930368
764.936362	16602.949452
765.262602	15093.910295
765.588796	13628.540133
765.914943	12593.308944
766.241044	11758.388002
766.567097	11126.998607
766.893104	10580.411501
767.219064	10218.202077
767.544978	9839.543367
767.870845	9528.632724
768.196665	9343.609775
768.522438	9147.007296
768.848165	8983.807502
769.173846	8813.867685
769.499479	8696.728914
769.825066	8538.038432
770.150607	8355.107562
770.476101	8292.783777
770.801548	8189.878703
771.126949	8040.925210
771.452303	7961.642983
771.777611	7793.114690
772.102872	7768.778519
772.428087	7652.632855
772.753256	7529.580811
773.078378	7438.265350
773.403453	7303.026316
773.728482	7198.631581
774.053465	7137.366438
774.378401	7050.958541
774.703291	6959.544778
775.028135	6856.541402
775.352932	6821.828016
775.677683	6741.381283
776.002388	6655.379199
776.327046	6652.052037
776.651658	6566.690179
776.976224	6489.542881
777.300743	6475.457897
777.625216	6413.091262
777.949643	6370.145673
778.274024	6377.304111
778.598359	6300.769314
778.922647	6308.968750
779.246889	6263.946205
779.571086	6272.795951
779.895236	6284.158712
780.219339	6283.037055
780.543397	6284.425893
780.867409	6327.028684
781.191374	6323.419218
781.515294	6292.186749
781.839167	6340.743143
782.162995	6310.619728
782.486776	6268.821001
782.810511	6223.916923
783.134201	6150.792466
783.457844	6139.303677
783.781441	6088.761068
784.104993	6047.804214
784.428498	6013.519326
784.751958	6001.896946
785.075372	5975.211598
785.398739	5937.493685
785.722061	5959.873888
786.045337	5961.111491
786.368568	6073.146094
786.691752	6095.491008
787.014891	6339.928997
787.337983	6620.461647
787.661030	7061.199645
787.984031	7478.455949
788.306987	7739.020588
788.629897	7827.543250
788.952760	7744.354129
789.275579	7558.065850
789.598351	7265.663804
789.921078	7005.068918
790.243759	6727.840744
790.566395	6520.430031
790.888984	6325.768396
791.211529	6191.441810
791.534027	6023.077354
791.856480	5891.888887
792.178888	5831.647098
792.501249	5760.768475
792.823566	5657.419780
793.145836	5650.573893
793.468062	5631.407427
793.790241	5596.406695
794.112375	5639.090145
794.434464	5737.707717
794.756507	5766.278457
795.078505	5882.076281
795.400457	6101.568119
795.722364	6339.787844
796.044226	6534.477206
796.366042	6693.041659
796.687812	6638.098123
797.009538	6661.421022
797.331218	6571.640592
797.652852	6503.310272
797.974442	6383.613115
798.295986	6307.894985
798.617484	6184.308578
798.938938	6077.209264
799.260346	6005.917266
799.581709	5868.122367
799.903026	5821.161498
800.224299	5745.019911
800.545526	5629.769052
800.866708	5565.761521
801.187845	5517.699160
801.508936	5441.131595
801.829983	5414.894910
802.150984	5308.483714
802.471940	5281.601761
802.792851	5264.091313
803.113717	5242.336214
803.434538	5218.310075
803.755314	5184.534344
804.076045	5173.295091
804.396731	5137.525584
804.717372	5154.617616
805.037967	5156.515611
805.358518	5188.297565
805.679024	5243.664558
805.999485	5252.632771
806.319901	5269.147591
806.640272	5288.447648
806.960598	5340.490000
807.280879	5329.464996
807.601115	5362.711406
807.921306	5327.325027
808.241453	5322.253626
808.561554	5331.315100
808.881611	5297.854441
809.201623	5293.990397
809.521590	5245.953242
809.841513	5231.243155
810.161390	5245.207151
810.481223	5155.426722
810.801011	5141.187983
811.120755	5117.817193
811.440453	5065.704265
811.760107	5039.376839
812.079716	5010.990102
812.399281	4957.916834
812.718801	4952.152275
813.038276	4923.838634
813.357707	4885.069641
813.677093	4909.793980
813.996434	4842.245039
814.315731	4865.313359
814.634983	4862.886043
814.954191	4868.935428
815.273354	4930.477834
815.592473	4970.088700
815.911547	5040.251480
816.230577	5097.995376
816.549562	5184.751113
816.868502	5236.203650
817.187399	5287.625940
817.506250	5371.069639
817.825058	5397.825563
818.143821	5549.569335
818.462539	5712.822061
818.781213	5944.165652
819.099843	6307.703421
819.418429	6934.296159
819.736970	7547.068573
820.055466	8259.809589
820.373919	9165.904061
820.692327	10607.905954
821.010691	13285.232515
821.329011	19488.722683
821.647286	29037.882985
821.965517	39383.653981
822.283704	44870.612185
822.601847	46368.903602
822.919945	41778.040741
823.237999	36633.631461
823.556010	31443.808947
823.873976	26746.963388
824.191897	22521.150641
824.509775	19470.077975
824.827609	16710.419290
825.145398	15151.016485
825.463144	14397.169901
825.780845	14691.333831
826.098502	15949.323526
826.416116	18391.583604
826.733685	20673.023312
827.051210	21209.707071
827.368692	19781.457445
827.686129	17233.401193
828.003522	14750.554786
828.320872	12537.246272
828.638177	10896.955633
828.955439	9654.338937
829.272656	8596.777956
829.589830	7751.200016
829.906960	7029.601693
830.224046	6495.982955
830.541088	6085.567497
830.858086	5826.389175
831.175041	5626.686386
831.491952	5570.054064
831.808819	5602.415751
832.125642	5844.706208
832.442421	6391.285752
832.759157	7496.404977
833.075849	9262.485007
833.392497	11104.537746
833.709101	12225.914693
834.025662	11976.425468
834.342179	10922.136197
834.658653	9620.212846
834.975083	8516.764763
835.291469	7620.553473
835.607811	6877.074021
835.924110	6358.601431
836.240366	5871.134457
836.556578	5426.393782
836.872746	5073.810441
837.188871	4799.687618
837.504952	4582.524793
837.820990	4413.111777
838.136984	4297.482831
838.452935	4248.356787
838.768842	4279.420377
839.084706	4558.796082
839.400526	5297.539369
839.716303	6199.789961
840.032037	6765.477999
840.347727	6620.023066
840.663373	6021.582652
840.978977	5447.143171
841.294537	5004.476931
841.610054	4671.591899
841.925527	4433.793110
842.240957	4228.998756
842.556344	4047.668452
842.871687	3890.374370
843.186987	3736.712439
843.502244	3622.868061
843.817458	3535.056202
844.132629	3462.652630
844.447756	3417.115888
844.762840	3370.641490
845.077881	3334.405677
845.392879	3299.651962
845.707833	3275.822428
846.022745	3245.469640
846.337613	3232.370202
846.652438	3212.311451
846.967221	3202.203937
847.281960	3184.413706
847.596656	3172.274607
847.911309	3162.701456
848.225919	3148.717295
848.540485	3142.146151
848.855009	3130.186014
849.169490	3119.967595
849.483928	3112.524331
849.798323	3106.714401
850.112675	3095.770056
850.426984	3096.571600
850.741251	3090.386104
851.055474	3087.487441
851.369654	3087.870568
851.683792	3084.230855
851.997887	3086.537183
852.311938	3088.725044
852.625947	3087.288315
852.939914	3082.342943
853.253837	3090.013059
853.567718	3087.905856
853.881555	3075.287848
854.195350	3087.802513
854.509103	3083.699013
854.822812	3078.612489
855.136479	3075.018147
855.450103	3077.631985
855.763685	3069.014132
856.077224	3073.168043
856.390720	3084.198088
856.704173	3091.840477
857.017584	3099.724842
857.330953	3106.598455
857.644278	3113.300669
857.957561	3115.468365
858.270802	3113.582973
858.584000	3114.540793
858.897155	3106.991665
859.210268	3095.255859
859.523339	3082.587439
859.836367	3078.133580
860.149352	3075.489494
860.462295	3074.143506
860.775195	3065.881055
861.088054	3057.966444
861.400869	3060.199675
861.713642	3055.536608
862.026373	3067.027918
862.339062	3070.019843
862.651708	3079.106522
862.964312	3095.535643
863.276873	3104.430759
863.589392	3134.634832
863.901869	3158.570230
864.214303	3181.041174
864.526696	3199.902651
864.839045	3214.259857
865.151353	3231.417424
865.463619	3227.356775
865.775842	3231.906416
866.088023	3238.308681
866.400162	3227.797876
866.712258	3230.126889
867.024313	3227.820561
867.336325	3225.864593
867.648296	3226.335941
867.960224	3226.131774
868.272110	3232.256776
868.583954	3230.991447
868.895755	3232.662589
869.207515	3235.830954
869.519233	3252.928027
869.830909	3256.358533
870.142542	3270.665327
870.454134	3276.392078
870.765684	3289.403296
871.077191	3307.168322
871.388657	3318.127791
871.700081	3335.343331
872.011463	3359.646734
872.322803	3377.573077
872.634101	3392.941034
872.945357	3415.336360
873.256571	3441.946091
873.567744	3460.242959
873.878874	3463.144143
874.189963	3479.548058
874.501010	3483.749859
874.812015	3481.672904
875.122979	3495.657065
875.433900	3491.062053
875.744780	3492.871827
876.055618	3503.435565
876.366415	3502.359279
876.677169	3507.919671
876.987882	3523.393493
877.298554	3545.400650
877.609183	3580.141762
877.919771	3632.685708
878.230317	3697.887992
878.540822	3801.261893
878.851285	3953.625727
879.161707	4174.559335
879.472087	4548.907858
879.782425	5171.669319
880.092722	6355.259146
880.402977	8289.837222
880.713191	10666.605149
881.023363	13060.021487
881.333494	14411.060800
881.643583	14871.335791
881.953631	14470.866529
882.263637	13626.891676
882.573602	12595.058224
882.883526	11623.887497
883.193408	10673.362816
883.503248	9738.213654
883.813048	8916.389631
884.122806	8145.839183
884.432522	7379.757718
884.742197	6713.939762
885.051831	6150.905892
885.361424	5656.078833
885.670975	5263.362867
885.980485	4938.233649
886.289954	4670.530736
886.599382	4448.687199
886.908768	4273.353348
887.218113	4104.073922
887.527417	3975.411073
887.836680	3851.197042
888.145901	3749.960591
888.455082	3676.831093
888.764221	3608.258797
889.073319	3545.314951
889.382376	3515.257071
889.691392	3488.617093
890.000366	3481.251968
890.309300	3474.980772
890.618193	3480.387410
890.927044	3472.155205
891.235855	3479.054024
891.544625	3496.362826
891.853353	3526.380377
892.162041	3582.201073
892.470687	3673.226668
892.779293	3793.586736
893.087858	3970.727841
893.396381	4247.030963
893.704864	4661.537318
894.013306	5229.801385
894.321707	5799.965967
894.630068	6167.897101
894.938387	6208.420416
895.246665	6023.969638
895.554903	5708.224529
895.863100	5370.346233
896.171256	5100.498309
896.479371	4858.018809
896.787446	4634.988081
897.095480	4434.574489
897.403473	4286.611583
897.711425	4138.457112
898.019336	4019.150645
898.327207	3898.228487
898.635038	3790.839308
898.942827	3687.659491
899.250576	3599.343517
899.558284	3514.904190
899.865952	3461.336889
900.173579	3395.731313
900.481165	3352.271526
900.788711	3308.484063
901.096216	3274.302520
901.403681	3250.049529
901.711105	3237.091243
902.018489	3232.715521
902.325832	3268.860594
902.633135	3326.473421
902.940397	3498.190244
903.247619	3900.118920
903.554800	4652.874095
903.861941	5623.207990
904.169041	6332.518501
904.476101	6544.372991
904.783121	6269.045332
905.090100	5863.948292
905.397039	5453.701712
905.703938	5087.698820
906.010796	4767.288122
906.317614	4511.729349
906.624391	4271.041979
906.931129	4076.554263
907.237826	3891.604411
907.544483	3724.676684
907.851099	3550.658574
908.157675	3393.394738
908.464211	3249.220259
908.770707	3148.122439
909.077163	3070.377764
909.383578	3006.304699
909.689954	2963.661579
909.996289	2933.699481
910.302584	2913.507139
910.608839	2900.397618
910.915054	2886.925135
911.221229	2885.856410
911.527363	2888.359343
911.833458	2895.598440
912.139513	2909.267529
912.445527	2923.806216
912.751502	2956.120013
913.057436	2997.467556
913.363331	3055.544169
913.669186	3143.698827
913.975000	3262.329779
914.280775	3449.555713
914.586510	3719.753997
914.892205	4092.834670
915.197859	4595.717492
915.503475	5185.214900
915.809050	5678.673285
916.114585	5969.424354
916.420081	6038.828439
916.725536	5971.279498
917.030952	5732.976594
917.336328	5528.519997
917.641665	5305.907684
917.946961	5083.222275
918.252218	4883.683323
918.557435	4654.550278
918.862612	4460.160865
919.167750	4281.066313
919.472848	4090.530862
919.777906	3920.333947
920.082925	3763.511213
920.387904	3609.408181
920.692843	3499.780728
920.997743	3398.231725
921.302603	3305.144299
921.607423	3235.881366
921.912204	3169.817045
922.216946	3125.472535
922.521647	3075.418918
922.826310	3035.064482
923.130932	2992.464211
923.435516	2956.850980
923.740059	2929.638831
924.044564	2895.424520
924.349028	2870.538864
924.653454	2841.078361
924.957840	2814.755976
925.262186	2795.521454
925.566493	2775.371962
925.870761	2747.799371
926.174989	2737.175139
926.479178	2725.777090
926.783328	2708.894266
927.087438	2698.806917
927.391509	2685.291584
927.695541	2671.098215
927.999533	2662.329128
928.303486	2652.151038
928.607400	2650.794968
928.911275	2643.228196
929.215110	2637.877011
929.518906	2634.368368
929.822663	2633.788636
930.126381	2630.075826
930.430060	2636.266363
930.733699	2635.300982
931.037299	2642.318268
931.340861	2642.353556
931.644383	2644.533855
931.947866	2642.865233
932.251309	2638.958339
932.554714	2640.813483
932.858080	2635.943729
933.161407	2632.122534
933.464694	2628.283696
933.767943	2627.020887
934.071153	2622.740947
934.374323	2617.364556
934.677455	2612.542693
934.980548	2612.729215
935.283602	2609.989348
935.586617	2607.516662
935.889593	2612.545213
936.192530	2612.898094
936.495428	2618.302211
936.798287	2624.613736
937.101108	2639.575880
937.403890	2661.870383
937.706632	2690.370546
938.009336	2721.701317
938.312002	2752.548138
938.614628	2776.922117
938.917216	2794.213274
939.219765	2803.773823
939.522275	2814.899649
939.824747	2815.267653
940.127179	2809.094761
940.429573	2805.220634
940.731929	2803.577218
941.034246	2792.884930
941.336524	2793.323511
941.638763	2782.207767
941.940964	2777.186777
942.243126	2761.912081
942.545250	2752.659043
942.847335	2738.435428
943.149381	2724.962944
943.451389	2710.346118
943.753359	2695.560414
944.055290	2687.900381
944.357182	2680.724298
944.659036	2675.380675
944.960851	2671.325067
945.262628	2666.301557
945.564367	2669.114521
945.866067	2664.872390
946.167729	2665.442041
946.469352	2663.334838
946.770937	2662.054385
947.072484	2655.463077
947.373992	2656.103303
947.675462	2649.869916
947.976893	2643.913793
948.278286	2642.940850
948.579641	2637.350211
948.880958	2634.688482
949.182236	2638.456744
949.483476	2634.955663
949.784678	2631.076495
950.085841	2632.316619
950.386967	2635.858029
950.688054	2641.604945
950.989103	2650.265647
951.290114	2659.551452
951.591087	2669.250632
951.892021	2683.123888
952.192917	2694.814323
952.493776	2703.752289
952.794596	2707.742362
953.095378	2711.336705
953.396122	2709.040460
953.696828	2705.236909
953.997496	2700.941846
954.298126	2690.574713
954.598718	2686.375432
954.899272	2670.450427
955.199788	2661.772081
955.500266	2647.432518
955.800706	2635.275776
956.101108	2616.515122
956.401472	2605.139758
956.701798	2589.207192
957.002087	2578.419122
957.302337	2566.887483
957.602550	2555.953220
957.902724	2545.757487
958.202861	2532.983203
958.502960	2527.034641
958.803022	2515.752539
959.103045	2512.536283
959.403031	2504.397340
959.702979	2498.700836
960.002889	2497.644714
960.302762	2489.523415
960.602596	2487.441419
960.902393	2484.099134
961.202153	2483.315234
961.501875	2476.741570
961.801559	2478.606797
962.101205	2473.855509
962.400814	2473.989100
962.700385	2470.556074
962.999918	2467.939715
963.299414	2465.887966
963.598873	2463.455609
963.898293	2463.324539
964.197677	2463.775722
964.497022	2461.056020
964.796331	2461.396298
965.095601	2459.526029
965.394835	2460.375464
965.694030	2454.502520
965.993189	2454.489917
966.292309	2455.815740
966.591393	2455.309104
966.890439	2453.683332
967.189447	2457.474280
967.488419	2452.909515
967.787353	2455.886316
968.086249	2457.176852
968.385108	2457.585185
968.683930	2458.593416
968.982714	2457.693570
969.281462	2460.773715
969.580172	2464.179014
969.878844	2463.092646
970.177480	2463.886628
970.476078	2471.176136
970.774639	2474.097485
971.073162	2475.937506
971.371649	2474.367186
971.670098	2471.889459
971.968510	2478.604276
972.266885	2477.175109
972.565223	2483.816829
972.863524	2481.802888
973.161788	2487.612818
973.460014	2485.550986
973.758204	2488.111892
974.056356	2488.016110
974.354471	2485.450163
974.652550	2487.925370
974.950591	2486.193733
975.248595	2486.171048
975.546563	2487.302787
975.844493	2481.515543
976.142386	2481.129894
976.440243	2478.866416
976.738062	2479.030254
977.035845	2474.349542
977.333590	2472.469192
977.631299	2470.793008
977.928971	2467.029787
978.226606	2468.829479
978.524204	2467.216310
978.821765	2464.781432
979.119290	2466.132462
979.416777	2467.244036
979.714228	2464.683130
980.011642	2466.807976
980.309020	2470.682103
980.606360	2474.480612
980.903664	2480.146869
981.200931	2493.939466
981.498162	2517.353105
981.795356	2545.817980
982.092513	2581.395924
982.389633	2627.419138
982.686717	2671.009995
982.983764	2703.447299
983.280775	2723.286760
983.577749	2723.075032
983.874686	2712.145810
984.171587	2697.965045
984.468451	2678.728002
984.765279	2661.406597
985.062070	2642.630819
985.358824	2625.684981
985.655543	2602.904007
985.952224	2581.199319
986.248869	2549.223280
986.545478	2524.992974
986.842050	2506.562515
987.138586	2487.126347
987.435086	2471.743266
987.731549	2460.816565
988.027975	2456.889506
988.324366	2448.831222
988.620719	2444.715119
988.917037	2444.180757
989.213318	2440.200766
989.509563	2437.352514
989.805772	2437.019798
990.101944	2433.707760
990.398080	2432.737338
990.694180	2432.109714
990.990244	2429.589137
991.286271	2434.892431
991.582262	2431.230033
991.878217	2434.695826
992.174136	2434.988213
992.470019	2435.386464
992.765865	2439.850406
993.061676	2437.786053
993.357450	2443.585901
993.653188	2444.556323
993.948890	2451.341716
994.244556	2454.978909
994.540186	2465.230095
994.835780	2477.853144
995.131337	2490.577017
995.426859	2507.243071
995.722345	2528.007584
996.017795	2546.601880
996.313208	2558.342727
996.608586	2572.435273
996.903928	2573.995510
997.199234	2572.258832
997.494504	2572.072310
997.789738	2561.201061
998.084936	2554.113199
998.380099	2542.173226
998.675225	2530.699560
998.970316	2515.245903
999.265371	2503.005981
999.560390	2488.338744
999.855373	2477.603607
1000.150320	2468.297637
1000.445232	2461.045937
1000.740108	2449.849535
1001.034948	2445.267126
1001.329752	2440.901487
1001.624521	2436.639191
1001.919254	2427.613005
1002.213951	2432.770105
1002.508613	2426.088056
1002.803239	2424.893303
1003.097829	2418.312076
1003.392384	2424.638724
1003.686903	2419.237128
1003.981386	2421.210740
1004.275834	2417.550862
1004.570246	2418.601942
1004.864623	2419.562282
1005.158964	2416.141859
1005.453270	2413.951478
1005.747540	2415.849473
1006.041775	2415.801582
1006.335974	2415.665470
1006.630138	2415.090779
1006.924266	2412.756725
1007.218359	2415.058011
1007.512416	2412.214801
1007.806438	2412.333268
1008.100425	2411.796385
1008.394376	2414.032137
1008.688292	2412.262692
1008.982172	2414.213618
1009.276017	2412.638258
1009.569827	2409.318658
1009.863602	2413.449883
1010.157341	2409.772362
1010.451045	2411.864440
1010.744714	2411.834193
1011.038347	2408.426373
1011.331945	2409.197670
1011.625508	2409.875705
1011.919036	2410.873854
1012.212528	2408.559964
1012.505986	2406.977042
1012.799408	2407.065262
1013.092795	2407.284552
1013.386147	2409.369069
1013.679464	2404.607699
1013.972745	2409.603483
1014.265992	2409.989131
1014.559204	2409.414440
1014.852380	2408.418812
1015.145521	2408.678431
1015.438628	2406.936713
1015.731699	2406.719943
1016.024736	2408.890160
1016.317737	2408.716240
1016.610703	2409.860582
1016.903635	2404.917730
1017.196531	2403.977555
1017.489393	2407.982752
1017.782219	2404.322874
1018.075011	2411.201529
1018.367768	2409.270767
1018.660490	2409.507701
1018.953177	2409.507701
1019.245829	2409.507701
