Dividing Wavelength (nm)	Counts (n)	Blue Motor Position (mm): 47.200000	Red Motor Position (mm): 0.000000	
326.493990	1974.927472
326.888308	1974.927472
327.282561	1974.927472
327.676750	1949.298246
328.070874	1953.247990
328.464933	1955.236725
328.858929	1965.424897
329.252859	1979.527525
329.646726	1996.667448
330.040528	2009.093892
330.434265	2029.014012
330.827938	2046.746270
331.221547	2065.489280
331.615091	2089.457446
332.008571	2108.190374
332.401986	2129.194341
332.795338	2147.700417
333.188625	2169.790753
333.581847	2190.010821
333.975006	2208.035467
334.368100	2227.448950
334.761129	2241.377658
335.154095	2258.091604
335.546996	2295.824641
335.939833	2384.128012
336.332606	2399.206103
336.725315	2409.149779
337.117960	2419.521953
337.510540	2426.987902
337.903056	2437.201280
338.295508	2443.278391
338.687896	2449.393310
339.080220	2458.522840
339.472480	2461.615588
339.864676	2464.398305
340.256807	2471.082875
340.648875	2473.106898
341.040879	2474.278966
341.432818	2473.903400
341.824694	2473.893318
342.216506	2472.640591
342.608253	2474.215952
342.999937	2473.575725
343.391557	2471.171095
343.783113	2474.478092
344.174605	2471.710498
344.566033	2468.496763
344.957397	2467.233954
345.348697	2461.519806
345.739934	2462.906123
346.131106	2464.221864
346.522215	2460.569548
346.913260	2457.338169
347.304241	2458.976544
347.695159	2454.545369
348.086012	2453.844649
348.476802	2452.332303
348.867528	2453.133846
349.258191	2449.705862
349.648789	2448.039760
350.039324	2449.287446
350.429796	2450.187292
350.820203	2446.119081
351.210548	2445.120932
351.600828	2445.811570
351.991045	2446.872733
352.381198	2445.514142
352.771288	2446.976077
353.161314	2442.381065
353.551276	2444.304265
353.941175	2442.905345
354.331010	2446.703855
354.720782	2448.228804
355.110490	2449.726026
355.500135	2446.529935
355.889717	2449.176541
356.279235	2445.932558
356.668689	2448.538835
357.058080	2445.740994
357.447408	2447.444904
357.836672	2447.354163
358.225873	2446.736622
358.615010	2446.446756
359.004084	2450.704010
359.393095	2452.793568
359.782043	2452.478496
360.170927	2453.403548
360.559748	2455.367078
360.948505	2455.546038
361.337199	2455.984619
361.725830	2457.653241
362.114398	2460.582151
362.502903	2460.594754
362.891344	2459.662141
363.279722	2458.472428
363.668037	2462.064250
364.056289	2460.715742
364.444478	2466.177832
364.832603	2462.429734
365.220665	2465.439303
365.608665	2464.496607
365.996601	2465.759416
366.384474	2465.456947
366.772284	2469.759572
367.160031	2468.748820
367.547715	2470.057000
367.935336	2473.893318
368.322893	2470.661938
368.710388	2471.897021
369.097820	2477.457414
369.485189	2473.192597
369.872495	2476.406333
370.259738	2476.731488
370.646918	2477.480099
371.034035	2477.901035
371.421090	2477.280973
371.808081	2477.593525
372.195010	2480.653505
372.581875	2481.583598
372.968678	2487.086018
373.355418	2483.758856
373.742096	2487.012921
374.128710	2489.722541
374.515262	2488.875627
374.901751	2491.935608
375.288177	2498.511793
375.674540	2498.753768
376.060841	2502.219561
376.447079	2504.379696
376.833254	2511.258350
377.219367	2516.160872
377.605417	2525.592871
377.991404	2532.191742
378.377329	2547.211859
378.763191	2560.270968
379.148991	2581.602611
379.534727	2600.552308
379.920402	2625.427882
380.306013	2644.521252
380.691563	2675.511745
381.077049	2704.289172
381.462474	2735.294789
381.847835	2772.337187
382.233134	2817.011893
382.618371	2853.731657
383.003545	2903.543298
383.388657	2955.096658
383.773706	3013.866430
384.158693	3069.470357
384.543618	3135.078453
384.928480	3192.295550
385.313280	3268.721962
385.698017	3343.845237
386.082692	3432.173814
386.467305	3495.951972
386.851856	3591.743977
387.236344	3713.747462
387.620770	3774.410187
388.005133	3876.365003
388.389435	3996.727592
388.773674	4081.988627
389.157851	4201.174107
389.541965	4324.178261
389.926018	4373.097618
390.310008	4529.698542
390.693936	4653.799146
391.077802	4774.844812
391.461606	4909.448661
391.845348	5028.064490
392.229027	5149.732738
392.612645	5353.511300
392.996200	5486.128934
393.379694	5663.592673
393.763125	5878.797010
394.146494	5998.390824
394.529801	6153.938146
394.913047	6390.655607
395.296230	6435.899963
395.679351	6529.952770
396.062410	6786.471884
396.445408	6747.067705
396.828343	6926.474808
397.211217	7084.971206
397.594028	7024.396701
397.976778	7246.726709
398.359466	7432.896521
398.742092	7450.086856
399.124656	7620.999615
399.507158	7829.675658
399.889598	7898.172336
400.271977	8126.002243
400.654294	8188.399124
401.036549	8404.825941
401.418742	8468.649470
401.800874	8785.939693
402.182944	8895.809120
402.564952	9268.615050
402.946898	9127.233370
403.328783	9203.589207
403.710606	9418.949819
404.092367	9691.038537
404.474067	10064.174662
404.855705	9882.252023
405.237282	9851.029636
405.618797	10283.537951
406.000250	10544.253825
406.381642	10910.506255
406.762972	10877.025432
407.144240	10693.466938
407.525447	10951.773140
407.906593	10903.486448
408.287677	11167.494196
408.668700	11324.931951
409.049661	11302.841615
409.430560	11469.620628
409.811399	11451.747217
410.192176	11612.300405
410.572891	11692.890811
410.953545	12172.969974
411.334138	11657.847230
411.714669	12244.768608
412.095139	11579.396794
412.475547	12070.626989
412.855894	11924.093250
413.236180	12249.560225
413.616405	11939.700662
413.996568	12203.985673
414.376670	12187.319619
414.756711	12065.394272
415.136691	12344.502796
415.516609	12521.928726
415.896466	12584.171852
416.276262	12878.413920
416.655997	13315.781907
417.035670	13358.944266
417.415283	13997.585362
417.794834	14092.212861
418.174324	13841.092823
418.553753	13749.013627
418.933121	14234.532196
419.312428	14043.898442
419.691674	13952.164566
420.070859	14402.906734
420.449983	14063.647162
420.829045	14611.532365
421.208047	14366.625550
421.586988	14812.681966
421.965867	15057.188009
422.344686	15056.890581
422.723444	15620.839421
423.102141	14316.077900
423.480777	15502.389950
423.859352	14999.739020
424.237866	16109.039883
424.616319	15816.617672
424.994712	16466.377032
425.373044	16250.817294
425.751314	16923.198832
426.129524	16056.783282
426.507673	17130.962426
426.885762	16846.787542
427.263789	17030.184719
427.641756	17199.817026
428.019662	17258.180984
428.397508	17302.338972
428.775292	17582.982527
429.153016	17555.455306
429.530679	17628.355432
429.908282	17668.462852
430.285824	17376.098614
430.663305	18084.342921
431.040726	17694.177778
431.418086	17510.785642
431.795385	18162.730342
432.172624	18574.060770
432.549802	18136.806209
432.926920	18320.372264
433.303977	18203.359522
433.680974	18466.432135
434.057910	18749.097193
434.434786	18761.022043
434.811601	18685.041772
435.188355	19714.442867
435.565050	19364.362458
435.941683	19315.410334
436.318257	20196.198213
436.694770	20007.278452
437.071222	20601.267528
437.447614	19676.840900
437.823946	19695.687254
438.200218	19851.476552
438.576429	19624.634711
438.952580	19893.885258
439.328670	19853.661892
439.704700	20279.888929
440.080670	19848.809781
440.456580	20436.555388
440.832429	20605.212231
441.208218	19609.649881
441.583947	20040.603000
441.959616	20157.703963
442.335224	20384.540762
442.710773	20516.377018
443.086261	21050.981301
443.461689	20418.780279
443.837057	20545.575381
444.212365	21189.287877
444.587612	21177.294972
444.962800	20771.124166
445.337927	21177.967966
445.712995	19929.059909
446.088002	21770.432093
446.462949	21944.510697
446.837837	22117.386985
447.212664	22071.951066
447.587431	24857.886766
447.962139	27756.734229
448.336786	30160.409315
448.711374	28640.619898
449.085901	24981.253882
449.460369	24926.920326
449.834776	24807.553365
450.209124	27281.222352
450.583412	26826.142270
450.957640	27364.139250
451.331808	26043.820728
451.705917	24669.087992
452.079965	24700.277611
452.453954	25055.792383
452.827883	24943.934221
453.201752	24744.465845
453.575562	24903.640278
453.949311	26015.615473
454.323001	26058.107358
454.696632	25839.144841
455.070202	27362.936935
455.443713	27518.562395
455.817164	28087.703623
456.190556	28643.538726
456.563888	28067.821312
456.937160	28521.832669
457.310373	26857.863731
457.683526	27294.384804
458.056619	27269.652903
458.429653	27207.644191
458.802628	27778.776674
459.175542	27889.185505
459.548398	29196.351657
459.921194	30749.828585
460.293930	31409.120767
460.666607	33417.161058
461.039224	35180.894431
461.411782	35590.654539
461.784280	34399.316459
462.156719	33918.881894
462.529099	33362.010835
462.901419	32066.409091
463.273680	31011.487154
463.645882	31089.609916
464.018024	31070.161144
464.390106	31889.086504
464.762130	34535.654465
465.134094	38554.230418
465.505999	43829.089636
465.877845	48411.619469
466.249631	49629.915119
466.621358	47930.564843
466.993026	45820.839438
467.364634	43721.932349
467.736184	41777.521502
468.107674	40524.451973
468.479105	39756.202812
468.850477	39059.175072
469.221790	37642.933475
469.593043	35899.450417
469.964238	35026.912386
470.335373	34935.932162
470.706449	36614.268389
471.077467	39111.840006
471.448425	43674.464844
471.819324	46537.315949
472.190164	44751.517446
472.560945	41210.242980
472.931667	38109.920762
473.302330	37008.902515
473.672934	36188.573193
474.043479	36687.090377
474.413965	35909.008445
474.784393	35515.430441
475.154761	36405.705772
475.525070	36429.028670
475.895321	35974.084700
476.265513	36580.079283
476.635645	37523.425362
477.005719	37356.205247
477.375734	37829.030190
477.745691	38506.029425
478.115588	39839.754895
478.485427	41769.687549
478.855207	45085.607314
479.224928	47716.512410
479.594591	49371.059431
479.964194	48381.627125
480.333739	48525.857057
480.703226	48533.990958
481.072653	49180.496254
481.442022	49683.941165
481.811333	49942.348191
482.180584	48646.847270
482.549777	48134.444228
482.918912	47610.464177
483.287988	47301.184347
483.657005	46498.816657
484.025964	45865.188989
484.394864	45875.699795
484.763706	45434.152691
485.132489	44576.874232
485.501213	44403.914765
485.869879	44538.057348
486.238487	44143.085465
486.607036	44336.693499
486.975527	43792.090087
487.343959	44013.084189
487.712333	44093.109986
488.080648	43996.929812
488.448905	44441.650322
488.817104	44253.758956
489.185244	45205.627105
489.553326	46852.236830
489.921350	49551.683973
490.289315	52456.137200
490.657222	53087.017439
491.025070	53388.629674
491.392861	52478.575376
491.760593	51245.874629
492.128267	49573.837324
492.495883	48041.583654
492.863440	46657.318096
493.230939	45288.135670
493.598380	44212.824787
493.965763	43893.029110
494.333088	43075.709358
494.700354	42600.988941
495.067563	42312.166114
495.434713	42182.348841
495.801805	42236.642068
496.168839	41857.585107
496.535815	41552.847357
496.902733	41579.666296
497.269593	41189.165916
497.636395	41102.415220
498.003139	41488.776812
498.369825	40963.024795
498.736453	41259.058993
499.103023	40810.865128
499.469535	40679.031393
499.835989	40761.633220
500.202385	40430.663826
500.568723	40445.308378
500.935003	40658.455924
501.301226	40447.208893
501.667390	41052.497714
502.033497	41323.288334
502.399546	40746.018246
502.765537	40067.068084
503.131470	40448.769130
503.497345	40798.771400
503.863163	39465.986105
504.228923	40079.018139
504.594625	40480.266259
504.960269	39779.132500
505.325856	40467.779321
505.691385	39832.394811
506.056856	39977.436369
506.422270	40406.975444
506.787625	39987.047328
507.152924	40167.734885
507.518164	40278.108428
507.883347	39502.365592
508.248472	39745.805432
508.613540	40202.486079
508.978550	40517.074244
509.343503	40272.573241
509.708398	40462.218928
510.073236	40986.955153
510.438016	41000.722544
510.802738	40451.624943
511.167403	41054.909907
511.532010	41294.296659
511.896561	41605.010697
512.261053	42446.659058
512.625488	41985.829540
512.989866	41871.349978
513.354186	41710.726213
513.718449	41691.564787
514.082655	42369.723488
514.446803	42056.483832
514.810894	42577.524891
515.174927	42500.511183
515.538904	42404.290680
515.902822	43073.478647
516.266684	42506.852955
516.630488	42943.563072
516.994235	42810.234635
517.357925	43375.295049
517.721558	43531.444789
518.085133	43850.199467
518.448651	43997.996016
518.812112	43771.600317
519.175516	43853.345147
519.538863	44198.777612
519.902152	44167.691337
520.265385	44626.746368
520.628560	44677.384758
520.991678	44457.109020
521.354739	44705.204365
521.717743	45010.181570
522.080690	44915.722950
522.443580	45461.195961
522.806413	45517.946750
523.169189	45453.346884
523.531908	45640.270348
523.894569	45507.690523
524.257174	45664.535942
524.619722	45961.384287
524.982213	45954.694675
525.344647	45872.768364
525.707025	45922.474141
526.069345	46322.582960
526.431608	46245.869201
526.793815	46570.491782
527.155964	46092.202229
527.518057	46263.881244
527.880093	46051.663790
528.242072	46569.990187
528.603995	46279.037473
528.965860	46281.179963
529.327669	46372.613891
529.689421	46275.186031
530.051117	46232.351347
530.412755	46381.710653
530.774337	46446.973431
531.135862	46259.704648
531.497331	46458.862992
531.858743	46380.785601
532.220098	46706.250055
532.581396	46405.346103
532.942638	46089.616117
533.303824	46377.387864
533.664953	46338.807913
534.026025	46052.014150
534.387040	46535.793520
534.747999	46473.759602
535.108902	46639.767318
535.469748	46178.632812
535.830537	46286.833617
536.191270	46478.528533
536.551947	46131.470297
536.912567	46444.767926
537.273131	46558.171202
537.633638	46054.000365
537.994089	46407.889365
538.354483	45998.499782
538.714821	46568.460197
539.075103	46899.416988
539.435328	46674.306784
539.795497	46548.887918
540.155609	46553.210707
540.515665	47018.236985
540.875665	46461.686038
541.235609	46778.940973
541.595496	46756.490195
541.955328	47423.419725
542.315102	46794.553427
542.674821	46579.313802
543.034483	46623.297869
543.394090	46597.819877
543.753640	46543.193934
544.113134	47547.706852
544.472571	46564.848211
544.831953	47822.104418
545.191278	47036.680046
545.550548	46769.191382
545.909761	47195.224334
546.268918	47399.834687
546.628019	47720.016012
546.987064	47263.015251
547.346053	46549.792805
547.704986	47427.571115
548.063863	46980.216602
548.422684	47173.567538
548.781449	47033.708286
549.140158	47438.848176
549.498811	47282.650545
549.857408	46719.772951
550.215949	47550.804642
550.574434	47475.434350
550.932864	47237.234790
551.291237	47953.681054
551.649555	47572.718537
552.007817	47815.366916
552.366022	47454.793346
552.724173	47647.902306
553.082267	48016.511475
553.440305	48337.627934
553.798288	47647.894744
554.156215	47973.056729
554.514086	48163.640071
554.871902	47910.382584
555.229661	47930.915203
555.587365	47747.422244
555.945014	47834.263681
556.302606	47756.259387
556.660143	47991.141868
557.017625	48080.163604
557.375050	47863.585552
557.732421	48217.615705
558.089735	48192.203248
558.446994	48146.719438
558.804197	48590.661089
559.161345	48536.720743
559.518437	47781.765105
559.875474	48082.321218
560.232455	48230.710102
560.589381	48410.200385
560.946251	48106.861555
561.303065	48790.628539
561.659825	48604.025188
562.016528	48274.396741
562.373177	47994.751334
562.729770	48478.114809
563.086307	47983.776742
563.442789	48458.787025
563.799216	48498.715484
564.155587	48293.195204
564.511904	48313.274120
564.868164	48410.596115
565.224370	48659.747582
565.580520	48384.258607
565.936615	48597.716184
566.292654	48312.041558
566.648638	48540.604952
567.004567	48513.337351
567.360441	48535.120177
567.716260	48399.210669
568.072023	48678.331796
568.427732	48679.357671
568.783385	48230.936954
569.138982	48616.179410
569.494525	48582.625490
569.850013	48349.235191
570.205445	48320.971962
570.560823	48265.904918
570.916145	48151.581631
571.271412	48181.843677
571.626625	47935.341336
571.981782	47980.308429
572.336884	47670.295111
572.691931	48014.918470
573.046923	47608.157849
573.401860	47437.146787
573.756743	47433.242413
574.111570	47553.136175
574.466342	47403.920542
574.821059	47534.617497
575.175722	47042.089204
575.530330	47060.950681
575.884882	46781.869884
576.239380	46747.385871
576.593823	46720.995430
576.948211	46636.092317
577.302544	46151.443348
577.656823	46194.686366
578.011047	46411.859274
578.365216	46127.858310
578.719330	45921.231496
579.073389	45793.375232
579.427394	45874.817593
579.781344	45825.111816
580.135239	45489.474313
580.489080	45571.650162
580.842866	45057.018931
581.196597	45512.091450
581.550273	45447.078209
581.903895	45311.284648
582.257463	45739.185348
582.610975	45120.713909
582.964434	45392.858079
583.317837	45034.023707
583.671186	44867.002719
584.024481	45104.032731
584.377721	44637.990661
584.730906	44917.827632
585.084037	44953.887005
585.437113	44640.564170
585.790135	44702.958531
586.143103	44296.853260
586.496016	44436.513386
586.848874	44442.676197
587.201679	44471.526720
587.554428	43946.117502
587.907124	44131.173218
588.259765	43877.555289
588.612352	44130.898475
588.964884	43511.970812
589.317362	43814.911390
589.669786	43763.123617
590.022155	43515.855021
590.374470	43960.449502
590.726731	43475.745080
591.078937	42982.037158
591.431090	43080.006942
591.783188	42744.243410
592.135232	42414.347782
592.487222	42657.356603
592.839157	42749.029986
593.191038	42429.322529
593.542866	42183.432689
593.894639	41592.306989
594.246358	41867.513660
594.598022	41830.483864
594.949633	41442.597322
595.301190	41402.328586
595.652692	41222.230844
596.004141	41579.822571
596.355535	40583.070509
596.706876	40543.588192
597.058162	40359.303772
597.409395	40830.535711
597.760573	40918.740779
598.111698	40479.804993
598.462768	40506.883551
598.813785	40553.385675
599.164748	39993.515129
599.515657	40387.314944
599.866511	39851.420125
600.217312	40467.393673
600.568060	39429.982184
600.918753	40184.572339
601.269392	40133.639041
601.619978	39780.738107
601.970510	39987.397689
602.320988	40181.764416
602.671412	40483.094346
603.021783	40232.695194
603.372100	39883.544878
603.722363	39979.687244
604.072572	40057.280684
604.422728	40057.948637
604.772830	39876.948528
605.122878	39968.924380
605.472872	39914.212738
605.822813	40188.907731
606.172701	40009.621615
606.522534	40264.615780
606.872314	40529.717458
607.222041	40263.204257
607.571714	40658.231593
607.921333	40108.403025
608.270899	40385.835365
608.620411	40750.769533
608.969870	40536.170135
609.319276	40521.765038
609.668627	40578.404922
610.017926	41060.830742
610.367171	41231.579664
610.716362	41308.333752
611.065500	41252.059351
611.414585	41434.042484
611.763616	41732.251940
612.112594	41645.783549
612.461518	41871.662529
612.810389	42163.807477
613.159207	42037.206460
613.507971	42097.695265
613.856682	42574.832915
614.205340	42467.393323
614.553945	43158.243129
614.902496	42600.812501
615.250994	43085.287550
615.599439	43146.318279
615.947830	43348.246738
616.296169	43391.235177
616.644454	43513.742777
616.992686	43684.683263
617.340864	44193.131519
617.688990	43933.481849
618.037063	44513.333009
618.385082	44479.098533
618.733048	44797.253314
619.080961	44806.324870
619.428821	44813.889122
619.776628	44928.593016
620.124382	44760.528508
620.472083	44884.752621
620.819731	45039.410180
621.167326	44698.250094
621.514868	44686.637796
621.862357	44240.742697
622.209793	44257.499492
622.557176	43945.469713
622.904506	43697.644070
623.251783	43359.828789
623.599007	43142.575223
623.946179	42907.796085
624.293297	42866.216648
624.640363	42266.072324
624.987376	42246.673964
625.334336	42002.462827
625.681243	41639.114102
626.028097	41609.923301
626.374899	41441.344596
626.721647	41451.295833
627.068343	41304.736888
627.414987	41087.977355
627.761577	40835.934786
628.108115	41189.412932
628.454600	40616.901693
628.801032	40809.637607
629.147412	40775.647627
629.493739	40772.910281
629.840014	40403.781873
630.186236	40755.150296
630.532405	40358.686231
630.878521	40569.111554
631.224585	40448.373399
631.570597	40149.296865
631.916556	40315.027318
632.262462	40259.257033
632.608316	40277.427872
632.954117	40185.676352
633.299866	40176.100680
633.645562	40099.023958
633.991206	39599.001991
634.336797	39171.081126
634.682336	39188.578971
635.027823	38926.391080
635.373257	38746.986497
635.718639	38507.824076
636.063968	38359.697332
636.409245	37774.714278
636.754470	37827.333842
637.099642	37575.349246
637.444762	37097.445341
637.789829	37242.673422
638.134845	36880.151446
638.479808	36842.849428
638.824719	36744.332679
639.169577	36349.718717
639.514383	36401.314927
639.859137	36105.578157
640.203839	36360.048042
640.548489	35986.206155
640.893086	36046.400052
641.237632	35798.067772
641.582125	35904.201705
641.926566	35837.280388
642.270955	35808.603784
642.615292	35814.948076
642.959576	35776.234535
643.303809	35771.279081
643.647990	35921.999499
643.992118	35887.167646
644.336195	35884.420217
644.680219	35971.092775
645.024192	36259.708915
645.368112	36773.571371
645.711981	36766.649867
646.055797	37645.010431
646.399562	37562.058244
646.743274	38519.822022
647.086935	38971.194335
647.430544	38852.490285
647.774101	38976.295982
648.117606	39222.400072
648.461059	39540.804390
648.804460	39170.009881
649.147810	38542.020743
649.491108	38306.243457
649.834354	37948.187943
650.177548	37110.030582
650.520690	36660.367220
650.863781	36668.294435
651.206820	36513.367174
651.549807	36057.692237
651.892742	35579.856387
652.235626	35385.535030
652.578458	35254.921254
652.921238	34638.244466
653.263967	34972.437678
653.606644	34647.061444
653.949269	34587.548102
654.291843	34181.155485
654.634365	34600.526553
654.976836	34181.954508
655.319255	34173.833209
655.661622	34178.382850
656.003938	33957.620641
656.346203	33808.697395
656.688416	34029.709141
657.030577	33831.458204
657.372687	33677.087991
657.714746	33936.936787
658.056753	34060.298863
658.398708	33516.025647
658.740612	33556.745567
659.082465	33830.971733
659.424266	33647.123373
659.766016	33774.813279
660.107715	33640.353103
660.449362	33771.284472
660.790958	33755.682100
661.132503	33778.712612
661.473996	33797.904284
661.815438	33921.836011
662.156829	34118.141062
662.498168	33881.663056
662.839456	33916.623457
663.180693	34051.751586
663.521879	34218.780137
663.863013	34165.502702
664.204097	34162.664533
664.545129	34636.132223
664.886110	34583.651290
665.227040	34644.150178
665.567918	34778.514572
665.908746	34825.180533
666.249522	35000.431205
666.590248	34998.558417
666.930922	35096.470227
667.271545	35076.552628
667.612118	35162.519425
667.952639	34941.464829
668.293109	35000.015310
668.633528	34899.192233
668.973896	34819.574770
669.314213	34853.506776
669.654480	34579.817493
669.994695	34621.429697
670.334859	34504.379146
670.674973	34406.532871
671.015035	34566.097993
671.355047	34518.461609
671.695008	34447.376299
672.034918	34343.631873
672.374777	34433.818116
672.714585	34259.489975
673.054342	34474.883355
673.394049	34228.575099
673.733705	34523.931261
674.073310	34184.863254
674.412864	34264.662198
674.752368	33855.567523
675.091820	34167.909853
675.431223	33755.782923
675.770574	33474.892352
676.109875	33343.308154
676.449125	33046.346384
676.788324	32971.588593
677.127473	32428.646241
677.466571	32346.873685
677.805619	32007.982118
678.144616	31993.546773
678.483562	31911.628023
678.822458	31577.008834
679.161303	31513.220594
679.500098	31403.469633
679.838842	31289.274896
680.177535	31444.265171
680.516179	31703.776209
680.854771	31937.360593
681.193314	32789.527322
681.531805	33903.390429
681.870247	34686.190880
682.208638	35422.990803
682.546978	35665.941651
682.885268	35761.789109
683.223508	35251.072333
683.561697	34919.624030
683.899836	34726.562961
684.237925	34215.707553
684.575963	34058.529418
684.913951	33586.594239
685.251889	33753.625310
685.589776	33718.203642
685.927614	33701.426682
686.265401	33840.181921
686.603137	33917.190587
686.940824	34431.489103
687.278460	34791.387158
687.616046	34924.864309
687.953582	35523.967635
688.291068	35415.275317
688.628504	35701.643102
688.965889	35656.860012
689.303224	35272.590498
689.640510	34951.428669
689.977745	34219.339705
690.314930	33434.159829
690.652065	32922.510440
690.989150	32175.794567
691.326185	31282.260130
691.663170	30575.508005
692.000105	29814.225719
692.336990	29129.326996
692.673825	28657.185129
693.010610	28133.860428
693.347345	27546.986941
693.684030	26874.703705
694.020665	26592.915808
694.357251	25899.883183
694.693786	25854.177562
695.030272	25595.130310
695.366707	25061.985441
695.703093	24749.731330
696.039429	24749.562452
696.375716	24484.276772
696.711952	24437.174751
697.048139	24281.549290
697.384276	24088.347069
697.720363	24209.014648
698.056400	24009.654658
698.392388	23786.248363
698.728326	23759.515124
699.064214	23546.546539
699.400053	23496.319003
699.735842	23142.891268
700.071581	22854.295293
700.407270	22556.993245
700.742910	22383.275083
701.078501	22089.660639
701.414042	21811.872898
701.749533	21502.852687
702.084974	21153.064666
702.420366	21353.742918
702.755709	20914.459293
703.091002	20626.037237
703.426246	20636.235492
703.761440	20518.723675
704.096584	20247.496995
704.431679	20197.264418
704.766725	20114.599577
705.101721	20036.053359
705.436668	20124.860845
705.771565	19798.312543
706.106413	20141.804163
706.441212	20127.530136
706.775961	20249.596636
707.110661	20319.802265
707.445311	20668.186325
707.779913	20501.140130
708.114465	20735.515975
708.448967	21018.654902
708.783421	21703.530940
709.117825	21991.222028
709.452180	22192.394313
709.786485	22599.507816
710.120742	23401.187388
710.454949	23398.142532
710.789107	23870.478482
711.123216	24577.354116
711.457275	24691.934502
711.791286	25254.802014
712.125247	25327.281203
712.459159	25045.427771
712.793023	25730.510496
713.126837	24628.466375
713.460602	24906.695217
713.794318	24548.642224
714.127985	24160.425487
714.461602	23263.589094
714.795171	23231.489547
715.128691	22211.349052
715.462162	21665.331597
715.795584	21229.425544
716.128957	20965.931994
716.462281	20553.197605
716.795556	20318.705814
717.128782	19805.375200
717.461960	19255.629811
717.795088	19182.250776
718.128167	18775.495195
718.461198	18301.621693
718.794180	18164.673707
719.127113	17784.406870
719.459997	17583.302640
719.792833	17224.203608
720.125619	17194.790995
720.458357	16863.602311
720.791046	16689.712750
721.123686	16520.889549
721.456278	16279.670338
721.788821	16234.221815
722.121315	15969.331866
722.453761	16035.854932
722.786158	15966.962523
723.118506	15967.093593
723.450805	15828.456822
723.783056	15983.527755
724.115259	15879.594286
724.447412	15814.041642
724.779518	16050.605348
725.111574	16082.059627
725.443582	16262.346413
725.775542	16241.085346
726.107453	16726.906383
726.439315	16599.957527
726.771129	16999.935276
727.102895	17364.065380
727.434612	17571.186227
727.766281	17705.031382
728.097901	17971.816805
728.429473	18013.948248
728.760996	17997.599787
729.092471	18089.351307
729.423897	17978.322414
729.755276	17835.309921
730.086606	17944.564327
730.417887	18469.441704
730.749120	18980.337441
731.080305	19153.702722
731.411442	19495.896245
731.742530	19575.760724
732.073570	19682.721406
732.404562	19987.749023
732.735506	19809.430808
733.066401	19537.984838
733.397249	19020.613739
733.728048	18377.697745
734.058798	17534.776493
734.389501	16838.515009
734.720156	16381.234464
735.050762	15841.074830
735.381320	15462.942921
735.711831	15219.205653
736.042293	14860.177197
736.372707	14856.169479
736.703073	14635.341735
737.033391	14835.299102
737.363661	14779.105360
737.693883	14875.270411
738.024056	15036.037848
738.354182	15227.987343
738.684260	15504.789539
739.014290	15720.765173
739.344272	15907.401291
739.674207	16195.934252
740.004093	16314.083774
740.333931	16310.572611
740.663722	16355.610279
740.993464	16361.740322
741.323159	16198.215374
741.652806	15923.522901
741.982405	15715.101436
742.311956	15382.662546
742.641460	15266.753816
742.970915	14954.156907
743.300323	14623.636176
743.629683	14410.833948
743.958996	14129.202327
744.288260	13849.622455
744.617477	13552.829564
744.946647	13472.443325
745.275768	13196.924102
745.604842	13016.418027
745.933869	12841.109382
746.262847	12787.393367
746.591778	12711.639948
746.920662	12597.987134
747.249498	12590.044797
747.578286	12713.230432
747.907027	12852.222605
748.235720	13072.142942
748.564365	13101.721912
748.892963	12993.745438
749.221514	13058.428483
749.550017	12911.267120
749.878473	12873.022406
750.206881	12646.054536
750.535242	12553.183880
750.863555	12468.071559
751.191821	12359.512831
751.520039	12380.110986
751.848210	12290.091102
752.176334	12321.373982
752.504411	12218.542005
752.832440	12060.882439
753.160421	12124.660597
753.488356	11992.690751
753.816243	11894.879763
754.144082	11765.249013
754.471875	11707.321114
754.799620	11646.877679
755.127318	11626.277004
755.454969	11588.304513
755.782572	11534.366687
756.110129	11547.133409
756.437638	11464.337499
756.765100	11450.839809
757.092515	11448.210847
757.419882	11467.503343
757.747203	11462.651233
758.074477	11533.953313
758.401703	11488.449337
758.728882	11647.001188
759.056014	11691.890142
759.383099	11805.235445
759.710138	11911.530695
760.037129	11985.295378
760.364073	12010.874193
760.690970	11995.191163
761.017820	11990.906182
761.344623	12189.346162
761.671379	12506.593536
761.998088	13145.159014
762.324751	14692.818451
762.651366	17544.727731
762.977935	21221.974719
763.304456	23476.958451
763.630931	24017.760833
763.957359	22875.868911
764.283740	20984.211218
764.610074	19103.119784
764.936362	16945.712625
765.262602	15410.225054
765.588796	13925.249845
765.914943	12883.233263
766.241044	12004.361022
766.567097	11359.655418
766.893104	10802.965840
767.219064	10430.681670
767.544978	10041.943173
767.870845	9716.569460
768.196665	9517.995890
768.522438	9323.987084
768.848165	9152.035847
769.173846	8984.772883
769.499479	8862.902988
769.825066	8702.261580
770.150607	8513.046912
770.476101	8454.035165
770.801548	8343.407043
771.126949	8200.795322
771.452303	8109.368956
771.777611	7941.375024
772.102872	7924.265348
772.428087	7806.869478
772.753256	7671.804363
773.078378	7588.106086
773.403453	7438.645957
773.728482	7332.927920
774.053465	7268.784278
774.378401	7177.234404
774.703291	7084.827533
775.028135	6988.332287
775.352932	6947.113292
775.677683	6861.942998
776.002388	6772.275995
776.327046	6770.899760
776.651658	6689.112080
776.976224	6604.801302
777.300743	6595.512976
777.625216	6527.432193
777.949643	6475.972095
778.274024	6482.079453
778.598359	6413.197127
778.922647	6414.369195
779.246889	6377.283947
779.571086	6379.065995
779.895236	6388.739969
780.219339	6380.467435
780.543397	6383.449278
780.867409	6423.740700
781.191374	6419.642242
781.515294	6391.741976
781.839167	6447.197189
782.162995	6416.887251
782.486776	6369.394541
782.810511	6331.366597
783.134201	6256.376913
783.457844	6247.466673
783.781441	6198.794333
784.104993	6146.968751
784.428498	6125.753055
784.751958	6105.694304
785.075372	6080.677578
785.398739	6038.402462
785.722061	6064.308951
786.045337	6066.721143
786.368568	6174.284243
786.691752	6188.825451
787.014891	6444.837929
787.337983	6712.142591
787.661030	7149.140053
787.984031	7586.502999
788.306987	7846.934048
788.629897	7941.732946
788.952760	7861.936522
789.275579	7688.442692
789.598351	7389.141826
789.921078	7120.987730
790.243759	6841.682601
790.566395	6637.886395
790.888984	6443.880110
791.211529	6299.743439
791.534027	6134.600280
791.856480	5992.651470
792.178888	5930.494043
792.501249	5862.345205
792.823566	5754.716570
793.145836	5746.373461
793.468062	5730.327468
793.790241	5687.460016
794.112375	5725.203135
794.434464	5822.711653
794.756507	5851.887331
795.078505	5970.717410
795.400457	6185.316808
795.722364	6419.533857
796.044226	6620.149095
796.366042	6777.924608
796.687812	6732.748307
797.009538	6758.145640
797.331218	6675.493402
797.652852	6608.617456
797.974442	6487.017263
798.295986	6420.584938
798.617484	6286.402025
798.938938	6181.145253
799.260346	6109.863338
799.581709	5971.365198
799.903026	5915.705818
800.224299	5844.469273
800.545526	5722.894287
800.866708	5655.602444
801.187845	5612.177945
801.508936	5530.150810
801.829983	5501.259958
802.150984	5391.645108
802.471940	5366.247775
802.792851	5342.773643
803.113717	5317.837575
803.434538	5294.875119
803.755314	5263.062918
804.076045	5254.606382
804.396731	5212.553077
804.717372	5227.563113
805.037967	5227.086723
805.358518	5255.581846
805.679024	5314.535619
805.999485	5325.202701
806.319901	5336.535215
806.640272	5358.696127
806.960598	5401.508126
807.280879	5393.512856
807.601115	5431.160193
807.921306	5393.414553
808.241453	5391.398092
808.561554	5401.757663
808.881611	5374.401842
809.201623	5368.629721
809.521590	5324.229758
809.841513	5307.147808
810.161390	5325.726981
810.481223	5236.105348
810.801011	5224.354418
811.120755	5198.780645
811.440453	5146.145957
811.760107	5118.177636
812.079716	5092.543368
812.399281	5038.706366
812.718801	5031.351323
813.038276	4998.324203
813.357707	4963.008400
813.677093	4986.512780
813.996434	4924.463737
814.315731	4946.740596
814.634983	4942.586686
814.954191	4949.835865
815.273354	5008.454402
815.592473	5052.942584
815.911547	5125.832628
816.230577	5182.051576
816.549562	5269.780255
816.868502	5323.347556
817.187399	5381.318305
817.506250	5466.118074
817.825058	5493.857023
818.143821	5650.881404
818.462539	5825.370862
818.781213	6054.067847
819.099843	6412.887096
819.418429	7047.071811
819.736970	7676.278387
820.055466	8395.477122
820.373919	9326.754677
820.692327	10809.274844
821.010691	13547.488461
821.329011	19827.851184
821.647286	29466.801999
821.965517	39876.404084
822.283704	45434.719821
822.601847	47047.425265
822.919945	42545.347206
823.237999	37449.174207
823.556010	32236.316140
823.873976	27469.935425
824.191897	23194.212735
824.509775	20041.646519
824.827609	17202.128395
825.145398	15591.630976
825.463144	14799.829544
825.780845	15071.474639
826.098502	16324.748335
826.416116	18769.438249
826.733685	21032.855832
827.051210	21548.331457
827.368692	20115.834659
827.686129	17557.708702
828.003522	15061.125151
828.320872	12837.252899
828.638177	11152.549695
828.955439	9884.273525
829.272656	8800.937125
829.589830	7951.807692
829.906960	7195.158226
830.224046	6652.881307
830.541088	6222.833075
830.858086	5965.214990
831.175041	5754.260346
831.491952	5689.206776
831.808819	5718.115273
832.125642	5970.296473
832.442421	6515.847622
832.759157	7641.275136
833.075849	9407.168643
833.392497	11271.261306
833.709101	12400.991445
834.025662	12158.784167
834.342179	11110.824065
834.658653	9807.078336
834.975083	8690.145167
835.291469	7779.717823
835.607811	7020.875455
835.924110	6491.534137
836.240366	5992.666593
836.556578	5529.931520
836.872746	5170.769473
837.188871	4894.108430
837.504952	4664.609901
837.820990	4490.637161
838.136984	4374.274727
838.452935	4325.546934
838.768842	4355.932489
839.084706	4636.477742
839.400526	5372.844125
839.716303	6293.583149
840.032037	6867.009358
840.347727	6730.900724
840.663373	6132.961905
840.978977	5548.719901
841.294537	5094.890026
841.610054	4757.576339
841.925527	4514.270090
842.240957	4301.740085
842.556344	4114.219244
842.871687	3950.406950
843.186987	3795.482210
843.502244	3673.627439
843.817458	3582.443049
844.132629	3510.644415
844.447756	3456.595684
844.762840	3407.981317
845.077881	3370.086963
845.392879	3336.976665
845.707833	3311.211328
846.022745	3282.373407
846.337613	3271.056017
846.652438	3248.950557
846.967221	3237.265162
847.281960	3215.283211
847.596656	3207.111501
847.911309	3195.574820
848.225919	3180.000175
848.540485	3171.921726
848.855009	3163.092145
849.169490	3150.958088
849.483928	3140.885863
849.798323	3136.857981
850.112675	3128.711476
850.426984	3130.541415
850.741251	3117.555403
851.055474	3118.858541
851.369654	3119.642440
851.683792	3115.995166
851.997887	3116.153962
852.311938	3118.167903
852.625947	3116.703448
852.939914	3108.751027
853.253837	3116.463993
853.567718	3112.703292
853.881555	3107.286572
854.195350	3115.869137
854.509103	3107.324381
854.822812	3107.412601
855.136479	3105.002930
855.450103	3107.667179
855.763685	3098.018411
856.077224	3102.043772
856.390720	3108.246912
856.704173	3122.223511
857.017584	3126.599233
857.330953	3133.051910
857.644278	3138.975265
857.957561	3142.415853
858.270802	3139.544916
858.584000	3141.755462
858.897155	3136.487456
859.210268	3128.497227
859.523339	3112.471399
859.836367	3108.786316
860.149352	3105.038218
860.462295	3100.448247
860.775195	3092.488265
861.088054	3090.262596
861.400869	3089.778645
861.713642	3083.073910
862.026373	3092.674788
862.339062	3096.009511
862.651708	3107.097529
862.964312	3120.650671
863.276873	3128.046044
863.589392	3166.401663
863.901869	3187.183820
864.214303	3206.398177
864.526696	3227.205540
864.839045	3243.864033
865.151353	3262.014707
865.463619	3259.431116
865.775842	3259.826847
866.088023	3263.388422
866.400162	3261.288781
866.712258	3259.912546
867.024313	3259.970519
867.336325	3262.952362
867.648296	3260.330962
867.960224	3257.447422
868.272110	3262.954882
868.583954	3262.758277
868.895755	3270.622477
869.207515	3268.467384
869.519233	3288.468162
869.830909	3291.870941
870.142542	3305.272848
870.454134	3308.181594
870.765684	3325.341682
871.077191	3342.317768
871.388657	3354.285467
871.700081	3371.062427
872.011463	3394.302146
872.322803	3411.245464
872.634101	3427.356992
872.945357	3451.055456
873.256571	3478.524703
873.567744	3494.477435
873.878874	3502.205523
874.189963	3517.323944
874.501010	3523.085983
874.812015	3517.548275
875.122979	3534.194165
875.433900	3532.359185
875.744780	3535.832540
876.055618	3544.951987
876.366415	3545.206566
876.677169	3553.262330
876.987882	3565.461922
877.298554	3585.669387
877.609183	3627.460552
877.919771	3676.117769
878.230317	3746.517483
878.540822	3855.265254
878.851285	4011.200745
879.161707	4239.529726
879.472087	4627.738902
879.782425	5265.283546
880.092722	6475.881354
880.402977	8444.464534
880.713191	10855.048521
881.023363	13271.263477
881.333494	14641.159227
881.643583	15126.186282
881.953631	14741.410132
882.263637	13911.963884
882.573602	12881.176472
882.883526	11900.203222
883.193408	10927.081569
883.503248	9992.108847
883.813048	9143.879260
884.122806	8355.578909
884.432522	7563.447282
884.742197	6887.922584
885.051831	6299.158665
885.361424	5787.199245
885.670975	5377.920567
885.980485	5038.298033
886.289954	4758.730764
886.599382	4533.645765
886.908768	4348.595090
887.218113	4174.335004
887.527417	4040.220147
887.836680	3912.563008
888.145901	3810.151968
888.455082	3727.025862
888.764221	3657.674708
889.073319	3598.564659
889.382376	3561.592836
889.691392	3533.085111
890.000366	3529.180738
890.309300	3516.066176
890.618193	3522.967516
890.927044	3521.785365
891.235855	3524.870551
891.544625	3541.168602
891.853353	3572.789239
892.162041	3631.861480
892.470687	3725.382445
892.779293	3850.072865
893.087858	4024.254813
893.396381	4314.695851
893.704864	4733.283019
894.013306	5307.029341
894.321707	5885.403443
894.630068	6246.914667
894.938387	6295.216483
895.246665	6113.671930
895.554903	5800.908663
895.863100	5454.518379
896.171256	5181.980999
896.479371	4936.844811
896.787446	4705.924677
897.095480	4503.676105
897.403473	4351.105584
897.711425	4204.367678
898.019336	4075.362031
898.327207	3947.104994
898.635038	3845.046835
898.942827	3739.117069
899.250576	3647.305055
899.558284	3564.418403
899.865952	3506.666945
900.173579	3444.875001
900.481165	3397.021848
900.788711	3350.373531
901.096216	3318.460507
901.403681	3290.945889
901.711105	3275.509876
902.018489	3273.024587
902.325832	3304.441058
902.633135	3367.405070
902.940397	3541.319836
903.247619	3954.346612
903.554800	4718.260381
903.861941	5705.257810
904.169041	6426.052069
904.476101	6659.371793
904.783121	6385.627056
905.090100	5980.444316
905.397039	5559.412188
905.703938	5189.575498
906.010796	4860.496536
906.317614	4596.214046
906.624391	4345.749358
906.931129	4145.781909
907.237826	3954.644040
907.544483	3780.414201
907.851099	3605.728138
908.157675	3436.105914
908.464211	3292.344809
908.770707	3183.468489
909.077163	3102.482353
909.383578	3040.778630
909.689954	2995.322545
909.996289	2962.459263
910.302584	2941.107456
910.608839	2927.763522
910.915054	2913.613003
911.221229	2908.962539
911.527363	2915.944537
911.833458	2917.587953
912.139513	2932.620674
912.445527	2947.676080
912.751502	2982.230669
913.057436	3030.903009
913.363331	3088.934252
913.669186	3178.376924
913.975000	3300.521561
914.280775	3496.594719
914.586510	3773.661576
914.892205	4157.807581
915.197859	4661.922966
915.503475	5256.922793
915.809050	5762.568167
916.114585	6048.928391
916.420081	6119.401201
916.725536	6055.091202
917.030952	5822.308361
917.336328	5615.177432
917.641665	5396.356067
917.946961	5170.804761
918.252218	4960.538234
918.557435	4729.734047
918.862612	4529.295249
919.167750	4347.775902
919.472848	4149.262825
919.777906	3983.484481
920.082925	3818.522804
920.387904	3662.176458
920.692843	3544.987276
920.997743	3443.806277
921.302603	3348.465455
921.607423	3276.954167
921.912204	3211.658622
922.216946	3157.967813
922.521647	3106.878239
922.826310	3066.990109
923.130932	3021.206350
923.435516	2982.583550
923.740059	2956.203192
924.044564	2925.676484
924.349028	2899.482649
924.653454	2865.094418
924.957840	2839.465192
925.262186	2819.930721
925.566493	2797.071609
925.870761	2770.542537
926.174989	2759.872934
926.479178	2744.822570
926.783328	2726.918912
927.087438	2713.264947
927.391509	2702.212217
927.695541	2690.637727
927.999533	2678.173475
928.303486	2669.159892
928.607400	2663.990188
928.911275	2660.315187
929.215110	2652.077942
929.518906	2647.777837
929.822663	2649.786737
930.126381	2647.714823
930.430060	2651.281439
930.733699	2651.253713
931.037299	2654.956441
931.340861	2651.868734
931.644383	2658.384425
931.947866	2654.301091
932.251309	2653.555000
932.554714	2650.220277
932.858080	2648.770945
933.161407	2644.717857
933.464694	2639.691827
933.767943	2639.515386
934.071153	2634.403656
934.374323	2632.672020
934.677455	2630.332925
934.980548	2626.715897
935.283602	2623.406379
935.586617	2623.171966
935.889593	2625.606843
936.192530	2627.126751
936.495428	2629.543984
936.798287	2637.584624
937.101108	2652.866882
937.403890	2674.780778
937.706632	2702.181970
938.009336	2735.146075
938.312002	2766.043307
938.614628	2788.736061
938.917216	2807.879842
939.219765	2821.909374
939.522275	2828.122596
939.824747	2830.335662
940.127179	2827.252997
940.429573	2820.374342
940.731929	2818.499033
941.034246	2808.585604
941.336524	2807.970583
941.638763	2799.287196
941.940964	2794.916515
942.243126	2777.718619
942.545250	2769.216713
942.847335	2753.221132
943.149381	2743.234606
943.451389	2725.550238
943.753359	2716.108157
944.055290	2703.159954
944.357182	2697.778522
944.659036	2689.826102
944.960851	2689.609332
945.262628	2680.908301
945.564367	2682.871830
945.866067	2679.196829
946.167729	2678.728002
946.469352	2675.242044
946.770937	2674.427897
947.072484	2669.618637
947.373992	2668.524706
947.675462	2666.457833
947.976893	2658.344096
948.278286	2654.490134
948.579641	2653.146666
948.880958	2651.057108
949.182236	2649.212046
949.483476	2646.015954
949.784678	2643.951602
950.085841	2647.135090
950.386967	2651.530977
950.688054	2654.195226
950.989103	2662.127482
951.290114	2672.338339
951.591087	2683.738908
951.892021	2693.077646
952.192917	2708.024667
952.493776	2719.120247
952.794596	2719.906667
953.095378	2724.539487
953.396122	2721.093858
953.696828	2719.142932
953.997496	2714.487426
954.298126	2705.204142
954.598718	2697.367668
954.899272	2684.358970
955.199788	2671.365396
955.500266	2661.247801
955.800706	2644.821201
956.101108	2630.194293
956.401472	2620.797582
956.701798	2604.451641
957.002087	2591.067377
957.302337	2579.462641
957.602550	2570.852350
957.902724	2556.346430
958.202861	2547.448794
958.502960	2538.712474
958.803022	2530.558408
959.103045	2523.412572
959.403031	2517.794206
959.702979	2515.505522
960.002889	2503.268121
960.302762	2499.124293
960.602596	2495.895434
960.902393	2490.909733
961.202153	2489.904022
961.501875	2488.129536
961.801559	2483.960502
962.101205	2480.671149
962.400814	2478.805922
962.700385	2477.555716
962.999918	2476.360963
963.299414	2473.805098
963.598873	2470.712350
963.898293	2470.243522
964.197677	2468.234623
964.497022	2470.525827
964.796331	2467.778398
965.095601	2465.000723
965.394835	2466.175311
965.694030	2464.060547
965.993189	2465.847636
966.292309	2460.219188
966.591393	2463.455609
966.890439	2462.586010
967.189447	2463.253963
967.488419	2460.619960
967.787353	2465.451906
968.086249	2460.438478
968.385108	2464.783953
968.683930	2465.519961
968.982714	2467.606999
969.281462	2468.489201
969.580172	2470.815693
969.878844	2470.029273
970.177480	2475.657722
970.476078	2476.877681
970.774639	2481.598722
971.073162	2482.531335
971.371649	2481.911273
971.670098	2482.821201
971.968510	2485.445122
972.266885	2486.662561
972.565223	2492.704383
972.863524	2492.656493
973.161788	2492.694301
973.460014	2493.294198
973.758204	2496.772595
974.056356	2493.634476
974.354471	2496.039107
974.652550	2494.617501
974.950591	2497.816113
975.248595	2495.484580
975.546563	2492.159939
975.844493	2495.325783
976.142386	2490.135916
976.440243	2489.470483
976.738062	2489.412510
977.035845	2486.143322
977.333590	2480.121663
977.631299	2477.336426
977.928971	2476.948257
978.226606	2475.723257
978.524204	2476.693679
978.821765	2472.345684
979.119290	2473.444655
979.416777	2470.339304
979.714228	2472.869964
980.011642	2472.489357
980.309020	2478.445480
980.606360	2480.976139
980.903664	2490.750936
981.200931	2503.893224
981.498162	2526.931297
981.795356	2557.458005
982.092513	2597.865373
982.389633	2641.715850
982.686717	2682.433250
982.983764	2715.788044
983.280775	2736.539954
983.577749	2736.953328
983.874686	2730.588872
984.171587	2710.399051
984.468451	2695.439427
984.765279	2678.629699
985.062070	2660.289981
985.358824	2638.524800
985.655543	2612.598145
985.952224	2592.370516
986.248869	2561.415310
986.545478	2537.522762
986.842050	2515.999555
987.138586	2495.300578
987.435086	2483.461428
987.731549	2470.235961
988.027975	2463.566514
988.324366	2457.963272
988.620719	2453.010338
988.917037	2449.710903
989.213318	2449.431119
989.509563	2443.296035
989.805772	2443.316199
990.101944	2440.251178
990.398080	2439.409305
990.694180	2440.203287
990.990244	2442.610438
991.286271	2440.331836
991.582262	2442.010540
991.878217	2439.802515
992.174136	2441.912238
992.470019	2442.681014
992.765865	2444.969698
993.061676	2447.351643
993.357450	2450.819957
993.653188	2454.260544
993.948890	2458.479990
994.244556	2464.448716
994.540186	2474.989769
994.835780	2485.435040
995.131337	2502.217041
995.426859	2515.976870
995.722345	2537.220293
996.017795	2554.786193
996.313208	2572.770509
996.608586	2580.344843
996.903928	2586.787438
997.199234	2587.238621
997.494504	2583.062025
997.789738	2576.236303
998.084936	2562.552091
998.380099	2551.469114
998.675225	2542.422763
998.970316	2526.777542
999.265371	2514.088958
999.560390	2498.048007
999.855373	2489.611636
1000.150320	2475.730818
1000.445232	2466.629015
1000.740108	2461.179528
1001.034948	2455.359516
1001.329752	2448.871551
1001.624521	2441.808894
1001.919254	2435.953594
1002.213951	2434.320260
1002.508613	2430.809097
1002.803239	2432.513007
1003.097829	2427.489497
1003.392384	2429.987388
1003.686903	2426.589651
1003.981386	2426.115782
1004.275834	2426.599733
1004.570246	2425.359609
1004.864623	2421.558579
1005.158964	2423.002870
1005.453270	2424.928591
1005.747540	2421.538415
1006.041775	2422.196285
1006.335974	2421.293919
1006.630138	2418.236459
1006.924266	2420.815009
1007.218359	2420.086562
1007.512416	2421.629155
1007.806438	2420.265523
1008.100425	2420.058836
1008.394376	2419.156469
1008.688292	2417.734864
1008.982172	2420.923394
1009.276017	2419.791655
1009.569827	2416.734195
1009.863602	2419.027920
1010.157341	2416.472055
1010.451045	2414.664801
1010.744714	2417.586150
1011.038347	2414.823598
1011.331945	2413.694379
1011.625508	2414.422826
1011.919036	2415.375604
1012.212528	2414.037178
1012.505986	2413.396951
1012.799408	2413.522980
1013.092795	2414.011972
1013.386147	2413.361663
1013.679464	2410.248751
1013.972745	2415.105902
1014.265992	2413.734708
1014.559204	2413.142373
1014.852380	2415.158834
1015.145521	2412.570202
1015.438628	2410.334450
1015.731699	2414.591705
1016.024736	2412.618093
1016.317737	2416.139339
1016.610703	2414.226221
1016.903635	2413.046591
1017.196531	2408.905283
1017.489393	2413.870820
1017.782219	2410.384862
1018.075011	2417.477765
1018.367768	2413.500295
1018.660490	2414.400141
1018.953177	2414.400141
1019.245829	2414.400141
