Dividing Wavelength (nm)	Counts (n)	Blue Motor Position (mm): 23.000000	Red Motor Position (mm): 0.000000	
326.493990	1972.769858
326.888308	1972.769858
327.282561	1972.769858
327.676750	1947.296908
328.070874	1951.569286
328.464933	1955.433330
328.858929	1966.687706
329.252859	1976.298666
329.646726	1993.932622
330.040528	2007.261433
330.434265	2024.963444
330.827938	2044.071938
331.221547	2066.661348
331.615091	2086.662126
332.008571	2108.419746
332.401986	2128.120576
332.795338	2148.880047
333.188625	2169.843685
333.581847	2187.676767
333.975006	2206.893646
334.368100	2223.968034
334.761129	2239.325909
335.154095	2254.454412
335.546996	2290.256686
335.939833	2358.556759
336.332606	2373.849099
336.725315	2382.577857
337.117960	2390.588251
337.510540	2400.242060
337.903056	2410.384862
338.295508	2418.296953
338.687896	2426.138468
339.080220	2428.023859
339.472480	2433.284303
339.864676	2439.368976
340.256807	2441.370314
340.648875	2446.560182
341.040879	2443.434666
341.432818	2446.960953
341.824694	2445.778803
342.216506	2446.678649
342.608253	2448.553958
342.999937	2447.245779
343.391557	2443.943823
343.783113	2443.580860
344.174605	2442.940633
344.566033	2441.801332
344.957397	2440.528441
345.348697	2436.608944
345.739934	2435.638522
346.131106	2433.816145
346.522215	2433.400250
346.913260	2426.365319
347.304241	2430.078129
347.695159	2424.976482
348.086012	2426.166194
348.476802	2423.552356
348.867528	2421.848446
349.258191	2423.330545
349.648789	2420.401634
350.039324	2420.454567
350.429796	2420.383990
350.820203	2418.047416
351.210548	2419.068249
351.600828	2415.090779
351.991045	2415.652868
352.381198	2414.024575
352.771288	2415.761252
353.161314	2413.664132
353.551276	2414.987435
353.941175	2411.476272
354.331010	2415.557086
354.720782	2418.319638
355.110490	2417.906263
355.500135	2415.012641
355.889717	2414.165727
356.279235	2412.973494
356.668689	2417.427354
357.058080	2414.216139
357.447408	2416.479617
357.836672	2410.460479
358.225873	2417.515574
358.615010	2415.743608
359.004084	2417.775193
359.393095	2418.816192
359.782043	2420.620925
360.170927	2419.128743
360.559748	2419.249731
360.948505	2421.545976
361.337199	2423.549835
361.725830	2423.038158
362.114398	2423.317942
362.502903	2423.983374
362.891344	2424.464804
363.279722	2423.494382
363.668037	2425.568817
364.056289	2425.273910
364.444478	2425.465473
364.832603	2426.597212
365.220665	2426.282140
365.608665	2427.658375
365.996601	2427.549991
366.384474	2426.866914
366.772284	2427.812131
367.160031	2426.882038
367.547715	2429.720207
367.935336	2429.231215
368.322893	2427.807089
368.710388	2428.971596
369.097820	2432.084508
369.485189	2429.193407
369.872495	2434.277410
370.259738	2431.517379
370.646918	2431.930753
371.034035	2430.935125
371.421090	2433.727925
371.808081	2431.540064
372.195010	2431.245156
372.581875	2433.644746
372.968678	2434.277410
373.355418	2435.270518
373.742096	2433.410332
374.128710	2434.544592
374.515262	2434.131217
374.901751	2436.888728
375.288177	2437.415529
375.674540	2435.731783
376.060841	2436.243460
376.447079	2435.005857
376.833254	2435.283121
377.219367	2432.505445
377.605417	2434.746238
377.991404	2432.124838
378.377329	2433.755651
378.763191	2434.809252
379.148991	2437.902000
379.534727	2439.353852
379.920402	2439.467278
380.306013	2438.489294
380.691563	2442.018102
381.077049	2439.694130
381.462474	2440.639347
381.847835	2441.766044
382.233134	2442.204625
382.618371	2443.079265
383.003545	2439.242947
383.388657	2441.602207
383.773706	2442.038267
384.158693	2444.921807
384.543618	2444.374842
384.928480	2444.349636
385.313280	2444.894080
385.698017	2445.456169
386.082692	2444.936930
386.467305	2445.229317
386.851856	2444.435335
387.236344	2446.580346
387.620770	2447.812908
388.005133	2445.370469
388.389435	2444.616817
388.773674	2445.264605
389.157851	2447.180244
389.541965	2447.495316
389.926018	2448.017075
390.310008	2449.103444
390.693936	2447.938937
391.077802	2448.800975
391.461606	2449.221911
391.845348	2445.562033
392.229027	2451.293825
392.612645	2450.588064
392.996200	2451.664350
393.379694	2449.942796
393.763125	2453.078394
394.146494	2449.131170
394.529801	2450.517487
394.913047	2451.132508
395.296230	2452.705348
395.679351	2455.046964
396.062410	2447.754935
396.445408	2452.014710
396.828343	2452.866665
397.211217	2449.060594
397.594028	2453.650565
397.976778	2448.463217
398.359466	2451.387087
398.742092	2448.097734
399.124656	2453.907663
399.507158	2452.115533
399.889598	2454.615946
400.271977	2455.709876
400.654294	2453.370781
401.036549	2456.670216
401.418742	2454.802468
401.800874	2457.174331
402.182944	2453.942952
402.564952	2455.205761
402.946898	2457.789352
403.328783	2457.733899
403.710606	2460.365382
404.092367	2461.386215
404.474067	2456.589557
404.855705	2459.447892
405.237282	2459.853704
405.618797	2458.454784
406.000250	2459.490741
406.381642	2458.084259
406.762972	2457.675926
407.144240	2463.160701
407.525447	2460.632563
407.906593	2462.470063
408.287677	2460.309929
408.668700	2463.720269
409.049661	2462.144909
409.430560	2462.913685
409.811399	2463.132975
410.192176	2462.893520
410.572891	2462.971658
410.953545	2462.563325
411.334138	2465.673717
411.714669	2463.349745
412.095139	2466.276134
412.475547	2464.768829
412.855894	2465.693881
413.236180	2464.604992
413.616405	2465.517441
413.996568	2464.635239
414.376670	2466.654221
414.756711	2466.767647
415.136691	2466.165229
415.516609	2467.004581
415.896466	2469.411732
416.276262	2470.014150
416.655997	2469.320991
417.035670	2466.220682
417.415283	2468.978193
417.794834	2464.441154
418.174324	2471.534058
418.553753	2472.002885
418.933121	2472.305354
419.312428	2472.796867
419.691674	2469.875518
420.070859	2475.871971
420.449983	2473.122021
420.829045	2470.702267
421.208047	2474.198308
421.586988	2471.977679
421.965867	2475.647639
422.344686	2472.721250
422.723444	2475.652681
423.102141	2472.267546
423.480777	2475.511528
423.859352	2475.501446
424.237866	2479.902373
424.616319	2477.815336
424.994712	2475.435911
425.373044	2476.330716
425.751314	2478.042188
426.129524	2477.853144
426.507673	2477.041518
426.885762	2479.431025
427.263789	2480.323310
427.641756	2478.606797
428.019662	2482.233907
428.397508	2483.456387
428.775292	2479.776344
429.153016	2480.903042
429.530679	2480.025882
429.908282	2485.026706
430.285824	2481.165182
430.663305	2484.462097
431.040726	2484.759525
431.418086	2482.145687
431.795385	2483.143835
432.172624	2484.966212
432.549802	2484.867910
432.926920	2487.607777
433.303977	2484.870430
433.680974	2486.965030
434.057910	2485.243476
434.434786	2487.781697
434.811601	2490.385453
435.188355	2490.710607
435.565050	2490.062819
435.941683	2487.494351
436.318257	2488.454691
436.694770	2485.608959
437.071222	2489.447798
437.447614	2488.938642
437.823946	2487.872437
438.200218	2490.766060
438.576429	2491.262613
438.952580	2492.754795
439.328670	2495.068685
439.704700	2494.183962
440.080670	2492.001142
440.456580	2491.938128
440.832429	2492.139774
441.208218	2493.432830
441.583947	2496.117245
441.959616	2493.919302
442.335224	2495.043479
442.710773	2496.356699
443.086261	2496.765033
443.461689	2498.952894
443.837057	2498.942811
444.212365	2500.283758
444.587612	2498.201762
444.962800	2499.981289
445.337927	2501.720487
445.712995	2500.704695
446.088002	2502.685868
446.462949	2504.972031
446.837837	2505.090498
447.212664	2505.834069
447.587431	2515.039216
447.962139	2518.820081
448.336786	2524.209074
448.711374	2523.803262
449.085901	2518.326048
449.460369	2517.905112
449.834776	2517.411078
450.209124	2524.292253
450.583412	2524.889630
450.957640	2524.385515
451.331808	2526.986750
451.705917	2521.905267
452.079965	2527.120341
452.453954	2526.404497
452.827883	2530.896165
453.201752	2528.667975
453.575562	2532.771474
453.949311	2534.558563
454.323001	2536.322967
454.696632	2540.363452
455.070202	2542.450490
455.443713	2544.857641
455.817164	2545.016437
456.190556	2547.136242
456.563888	2549.976932
456.937160	2548.774617
457.310373	2550.259237
457.683526	2553.357026
458.056619	2557.402552
458.429653	2554.324927
458.802628	2559.986143
459.175542	2562.562173
459.548398	2569.856723
459.921194	2575.989286
460.293930	2583.906418
460.666607	2591.841194
461.039224	2601.358893
461.411782	2608.595469
461.784280	2605.243102
462.156719	2606.914244
462.529099	2606.117742
462.901419	2606.180757
463.273680	2607.816611
463.645882	2611.826849
464.018024	2617.412447
464.390106	2624.185237
464.762130	2644.067548
465.134094	2677.399657
465.505999	2718.399362
465.877845	2752.447315
466.249631	2765.655138
466.621358	2762.045672
466.993026	2761.720517
467.364634	2760.477873
467.736184	2757.198602
468.107674	2763.764705
468.479105	2772.937085
468.850477	2777.832045
469.221790	2780.965122
469.593043	2782.059052
469.964238	2790.104734
470.335373	2803.849440
470.706449	2841.413598
471.077467	2892.261196
471.448425	2970.404122
471.819324	3031.429810
472.190164	3030.298071
472.560945	3008.938702
472.931667	2997.215499
473.302330	3011.078672
473.672934	3025.539222
474.043479	3068.918350
474.413965	3085.498705
474.784393	3109.096347
475.154761	3164.964934
475.525070	3201.495655
475.895321	3233.418762
476.265513	3287.838018
476.635645	3357.446270
477.005719	3405.294382
477.375734	3467.204792
477.745691	3544.246226
478.115588	3644.545023
478.485427	3775.957821
478.855207	3979.834686
479.224928	4167.715969
479.594591	4313.669976
479.964194	4343.246425
480.333739	4424.061163
480.703226	4527.757697
481.072653	4673.295809
481.442022	4817.092202
481.811333	4945.603816
482.180584	4980.183611
482.549777	5065.878185
482.918912	5159.298328
483.287988	5263.541827
483.657005	5328.807126
484.025964	5409.674795
484.394864	5528.028485
484.763706	5624.866529
485.132489	5698.885791
485.501213	5818.749306
485.869879	5971.135825
486.238487	6085.587662
486.607036	6250.735862
486.975527	6358.853488
487.343959	6530.991248
487.712333	6704.555654
488.080648	6847.197623
488.448905	7070.210707
488.817104	7230.537044
489.185244	7530.949484
489.553326	7965.832182
489.921350	8565.404335
490.289315	9228.943690
490.657222	9578.938398
491.025070	9862.125216
491.392861	9937.339231
491.760593	9949.808525
492.128267	9889.087827
492.495883	9854.727322
492.863440	9851.924441
493.230939	9846.558133
493.598380	9883.189677
493.965763	10053.933558
494.333088	10150.307817
494.700354	10293.204363
495.067563	10475.656324
495.434713	10685.121308
495.801805	10951.100146
496.168839	11116.714653
496.535815	11285.941146
496.902733	11540.287523
497.269593	11703.411699
497.636395	11940.628235
498.003139	12288.659414
498.369825	12426.295517
498.736453	12768.610028
499.103023	12923.723811
499.469535	13165.943691
499.835989	13468.362511
500.202385	13638.940033
500.568723	13918.653496
500.935003	14266.031845
501.301226	14486.201719
501.667390	14966.898423
502.033497	15345.216855
502.399546	15442.823676
502.765537	15490.843187
503.131470	15913.052424
503.497345	16340.383474
503.863163	16147.728218
504.228923	16663.665108
504.594625	17131.640461
504.960269	17151.696692
505.325856	17736.788131
505.691385	17777.228267
506.056856	18142.338875
506.422270	18645.637593
506.787625	18774.308004
507.152924	19155.457043
507.518164	19509.507360
507.883347	19454.583989
508.248472	19876.405057
508.613540	20411.536141
508.978550	20863.155470
509.343503	21044.780682
509.708398	21450.969132
510.073236	22031.657123
510.438016	22346.202438
510.802738	22354.696782
511.167403	22993.196725
511.532010	23444.972330
511.896561	23923.760958
512.261053	24713.369488
512.625488	24762.820686
512.989866	24992.062116
513.354186	25201.259919
513.718449	25479.219059
514.082655	26206.599586
514.446803	26300.717928
514.810894	26923.028206
515.174927	27162.036872
515.538904	27401.436227
515.902822	28115.651780
516.266684	28032.497947
516.630488	28610.751061
516.994235	28791.373083
517.357925	29446.360120
517.721558	29853.473622
518.085133	30328.511631
518.448651	30697.942509
518.812112	30812.515333
519.175516	31139.388789
519.538863	31644.220018
519.902152	31873.819370
520.265385	32472.945381
520.628560	32752.235386
520.991678	32826.547035
521.354739	33256.348250
521.717743	33739.404215
522.080690	33886.114394
522.443580	34561.119853
522.806413	34834.491544
523.169189	35028.671749
523.531908	35384.909927
523.894569	35496.072410
524.257174	35843.203743
524.619722	36307.582233
524.982213	36497.273290
525.344647	36651.618298
525.707025	36876.274798
526.069345	37422.945083
526.431608	37538.231230
526.793815	37983.458376
527.155964	37790.251114
527.518057	38117.553069
527.880093	38109.696430
528.242072	38741.327802
528.603995	38666.985906
528.965860	38818.447373
529.327669	39083.549051
529.689421	39155.680401
530.051117	39270.651476
530.412755	39559.214684
530.774337	39772.820975
531.135862	39742.979865
531.497331	40071.869783
531.858743	40129.560748
532.220098	40576.380898
532.581396	40431.772880
532.942638	40264.948496
533.303824	40662.380462
533.664953	40759.281522
534.026025	40633.928190
534.387040	41173.649244
534.747999	41231.430950
535.108902	41508.722138
535.469748	41186.773888
535.830537	41385.924671
536.191270	41683.206554
536.551947	41466.310910
536.912567	41825.848523
537.273131	42048.967472
537.633638	41657.726042
537.994089	42062.734863
538.354483	41794.535396
538.714821	42398.702561
539.075103	42820.037158
539.435328	42694.046121
539.795497	42660.106553
540.155609	42728.585586
540.515665	43247.942900
540.875665	42794.801142
541.235609	43165.946012
541.595496	43208.526118
541.955328	43931.546046
542.315102	43393.491093
542.674821	43259.890434
543.034483	43359.637225
543.394090	43377.765214
543.753640	43419.304322
544.113134	44431.827633
544.472571	43554.359354
544.831953	44791.264423
545.191278	44086.800982
545.550548	43893.147578
545.909761	44370.171801
546.268918	44624.732427
546.628019	44958.388756
546.987064	44585.789513
547.346053	43928.007156
547.704986	44829.932594
548.063863	44434.242346
548.422684	44678.677814
548.781449	44576.513790
549.140158	44987.297252
549.498811	44874.390530
549.857408	44362.743661
550.215949	45209.690275
550.574434	45170.276013
550.932864	44977.063710
551.291237	45716.290948
551.649555	45367.680036
552.007817	45615.997193
552.366022	45317.535679
552.724173	45493.666033
553.082267	45905.543425
553.440305	46225.956643
553.798288	45597.513802
554.156215	45907.832109
554.514086	46139.599157
554.871902	45898.644606
555.229661	45948.083202
555.587365	45803.084494
555.945014	45901.596202
556.302606	45846.902203
556.660143	46081.293172
557.017625	46181.924685
557.375050	45998.547673
557.732421	46359.902622
558.089735	46349.439707
558.446994	46279.370189
558.804197	46747.476612
559.161345	46705.035137
559.518437	45996.674884
559.875474	46291.925182
560.232455	46471.594426
560.589381	46648.586817
560.946251	46346.904006
561.303065	47042.752116
561.659825	46859.838890
562.016528	46552.570480
562.373177	46290.710264
562.729770	46773.980478
563.086307	46289.288659
563.442789	46761.599404
563.799216	46809.616394
564.155587	46623.933054
564.511904	46629.934548
564.868164	46757.654701
565.224370	47000.963471
565.580520	46730.296359
565.936615	46948.419524
566.292654	46687.456634
566.648638	46921.865247
567.004567	46897.725681
567.360441	46913.161694
567.716260	46800.940569
568.072023	47095.971577
568.427732	47094.413860
568.783385	46645.403328
569.138982	47033.486475
569.494525	47005.702156
569.850013	46770.295394
570.205445	46762.209384
570.560823	46696.911318
570.916145	46591.344515
571.271412	46627.900442
571.626625	46378.217133
571.981782	46441.960003
572.336884	46147.191135
572.691931	46470.392111
573.046923	46074.273365
573.401860	45913.778150
573.756743	45901.366829
574.111570	46025.298556
574.466342	45887.480971
574.821059	45997.015162
575.175722	45531.547783
575.530330	45555.735239
575.884882	45294.381659
576.239380	45251.063024
576.593823	45226.331124
576.948211	45149.945040
577.302544	44695.805134
577.656823	44735.025311
578.011047	44948.140090
578.365216	44689.995204
578.719330	44477.843286
579.073389	44333.406666
579.427394	44433.579434
579.781344	44408.537503
580.135239	44058.338627
580.489080	44148.033357
580.842866	43633.621416
581.196597	44093.084780
581.550273	44032.739648
581.903895	43904.240637
582.257463	44315.102237
582.610975	43708.888363
582.964434	44001.368548
583.317837	43646.136080
583.671186	43485.973581
584.024481	43711.048498
584.377721	43265.944860
584.730906	43537.534503
585.084037	43569.870984
585.437113	43293.167091
585.790135	43332.672093
586.143103	42934.894807
586.496016	43057.843509
586.848874	43073.105602
587.201679	43103.591980
587.554428	42594.387550
587.907124	42771.405147
588.259765	42546.552042
588.612352	42801.175681
588.964884	42206.705176
589.317362	42477.435302
589.669786	42421.188628
590.022155	42205.422202
590.374470	42615.850263
590.726731	42164.931654
591.078937	41675.002077
591.431090	41776.893878
591.783188	41437.624224
592.135232	41124.702161
592.487222	41373.757846
592.839157	41475.059833
593.191038	41133.239355
593.542866	40902.031875
593.894639	40320.754069
594.246358	40589.361869
594.598022	40556.211242
594.949633	40180.914982
595.301190	40146.894755
595.652692	39989.499850
596.004141	40304.410648
596.355535	39343.851550
596.706876	39302.594747
597.058162	39135.523347
597.409395	39594.538049
597.760573	39675.516624
598.111698	39253.856872
598.462768	39258.817367
598.813785	39302.035179
599.164748	38766.294116
599.515657	39163.589971
599.866511	38641.581011
600.217312	39251.558106
600.568060	38236.425997
600.918753	38965.938932
601.269392	38933.728479
601.619978	38582.125643
601.970510	38805.715939
602.320988	38977.306734
602.671412	39276.342939
603.021783	39018.581181
603.372100	38691.092703
603.722363	38802.343407
604.072572	38861.592088
604.422728	38887.382631
604.772830	38701.139723
605.122878	38803.066813
605.472872	38728.147705
605.822813	39025.132160
606.172701	38855.141932
606.522534	39077.182074
606.872314	39334.926187
607.222041	39109.619378
607.571714	39489.296401
607.921333	38945.512176
608.270899	39224.643385
608.620411	39562.985467
608.969870	39366.410714
609.319276	39368.696877
609.668627	39421.016492
610.017926	39898.345706
610.367171	40053.817411
610.716362	40139.454012
611.065500	40096.906674
611.414585	40284.263677
611.763616	40576.567421
612.112594	40502.885916
612.461518	40733.180947
612.810389	41017.229802
613.159207	40870.338141
613.507971	40962.855917
613.856682	41436.333689
614.205340	41309.906592
614.553945	41995.130469
614.902496	41466.494912
615.250994	41926.076744
615.599439	41995.160716
615.947830	42219.976013
616.296169	42262.898918
616.644454	42395.375399
616.992686	42561.456213
617.340864	43090.124537
617.688990	42812.646827
618.037063	43408.788475
618.385082	43371.236920
618.733048	43678.850648
619.080961	43690.273903
619.428821	43701.480388
619.776628	43790.139160
620.124382	43619.478459
620.472083	43749.275567
620.819731	43879.415474
621.167326	43555.125609
621.514868	43534.565263
621.862357	43092.519085
622.209793	43125.556287
622.557176	42803.504694
622.904506	42543.340827
623.251783	42194.326622
623.599007	41980.979950
623.946179	41770.231993
624.293297	41739.178486
624.640363	41142.809986
624.987376	41132.949489
625.334336	40889.383620
625.681243	40540.863449
626.028097	40504.826761
626.374899	40358.698834
626.721647	40332.343682
627.068343	40228.626982
627.414987	40001.344041
627.761577	39779.127459
628.108115	40116.957863
628.454600	39557.190661
628.801032	39760.253379
629.147412	39722.631247
629.493739	39731.851518
629.840014	39378.038135
630.186236	39727.692566
630.532405	39358.405362
630.878521	39568.366899
631.224585	39443.651273
631.570597	39161.581071
631.916556	39328.160959
632.262462	39280.214545
632.608316	39282.354515
632.954117	39180.157723
633.299866	39163.980661
633.645562	39076.110828
633.991206	38593.352292
634.336797	38188.870272
634.682336	38189.447484
635.027823	37923.423275
635.373257	37753.080166
635.718639	37512.080245
636.063968	37381.615183
636.409245	36796.667417
636.754470	36850.479214
637.099642	36630.455534
637.444762	36154.641187
637.789829	36304.771790
638.134845	35953.703315
638.479808	35903.969812
638.824719	35817.148540
639.169577	35423.862923
639.514383	35490.328015
639.859137	35204.396290
640.203839	35434.600580
640.548489	35071.539201
640.893086	35132.814426
641.237632	34896.364146
641.582125	35009.618708
641.926566	34935.745640
642.270955	34908.634314
642.615292	34937.046257
642.959576	34910.935601
643.303809	34902.607615
643.647990	35048.672527
643.992118	35016.610788
644.336195	35022.408115
644.680219	35113.252228
645.024192	35425.055155
645.368112	35919.347852
645.711981	35931.718843
646.055797	36799.722357
646.399562	36746.409634
646.743274	37664.955756
647.086935	38112.126267
647.430544	37991.400714
647.774101	38123.352916
648.117606	38354.348668
648.461059	38651.900253
648.804460	38258.276878
649.147810	37678.450925
649.491108	37422.476256
649.834354	37050.943217
650.177548	36240.764259
650.520690	35791.448738
650.863781	35813.019835
651.206820	35658.168192
651.549807	35234.844859
651.892742	34762.720637
652.235626	34549.570570
652.578458	34433.167807
652.921238	33825.348326
653.263967	34156.872247
653.606644	33845.515462
653.949269	33800.966785
654.291843	33411.711571
654.634365	33800.699604
654.976836	33407.335849
655.319255	33409.314502
655.661622	33398.914602
656.003938	33179.289173
656.346203	33043.470406
656.688416	33273.541105
657.030577	33070.677513
657.372687	32907.036618
657.714746	33171.235929
658.056753	33297.000115
658.398708	32749.036774
658.740612	32809.472647
659.082465	33067.635177
659.424266	32898.363313
659.766016	33018.204143
660.107715	32920.325099
660.449362	33039.626526
660.790958	33005.818028
661.132503	33042.384037
661.473996	33078.168667
661.815438	33184.128680
662.156829	33378.250912
662.498168	33160.843591
662.839456	33186.689586
663.180693	33325.298632
663.521879	33487.522963
663.863013	33449.449648
664.204097	33429.610187
664.545129	33901.663833
664.886110	33880.879156
665.227040	33936.004173
665.567918	34044.419228
665.908746	34112.247953
666.249522	34276.705515
666.590248	34277.529744
666.930922	34402.288219
667.271545	34365.598701
667.612118	34446.131134
667.952639	34230.523505
668.293109	34284.398316
668.633528	34192.072104
668.973896	34089.822380
669.314213	34150.701875
669.654480	33887.301586
669.994695	33899.173503
670.334859	33798.965447
670.674973	33696.503995
671.015035	33856.714385
671.355047	33812.279135
671.695008	33764.105868
672.034918	33652.524969
672.374777	33741.186263
672.714585	33587.423508
673.054342	33803.799914
673.394049	33575.264245
673.733705	33858.814026
674.073310	33525.651730
674.412864	33587.864609
674.752368	33181.658515
675.091820	33484.170595
675.431223	33072.295723
675.770574	32784.430715
676.109875	32654.013545
676.449125	32381.854251
676.788324	32307.262818
677.127473	31774.979987
677.466571	31695.002081
677.805619	31355.432478
678.144616	31345.773628
678.483562	31275.890633
678.822458	30946.247062
679.161303	30885.118030
679.500098	30792.746448
679.838842	30684.593533
680.177535	30837.020382
680.516179	31109.812340
680.854771	31362.336339
681.193314	32221.618656
681.531805	33330.216278
681.870247	34110.697798
682.208638	34848.692474
682.546978	35080.918267
682.885268	35163.903222
683.223508	34634.491327
683.561697	34299.869617
683.899836	34106.697643
684.237925	33599.403811
684.575963	33456.608087
684.913951	32993.726820
685.251889	33153.975018
685.589776	33137.180414
685.927614	33138.191166
686.265401	33292.173210
686.603137	33387.314907
686.940824	33899.576796
687.278460	34265.793937
687.616046	34419.168523
687.953582	35030.365577
688.291068	34889.130090
688.628504	35179.172877
688.965889	35105.478769
689.303224	34704.714600
689.640510	34368.411665
689.977745	33642.170439
690.314930	32832.951821
690.652065	32309.841369
690.989150	31560.650290
691.326185	30664.431438
691.663170	29967.660798
692.000105	29206.708707
692.336990	28533.606284
692.673825	28077.691892
693.010610	27564.777173
693.347345	26986.667732
693.684030	26341.586563
694.020665	26060.126341
694.357251	25395.724949
694.693786	25346.727454
695.030272	25107.290290
695.366707	24565.298196
695.703093	24289.073213
696.039429	24276.866058
696.375716	24009.271530
696.711952	23977.280368
697.048139	23827.782430
697.384276	23653.141737
697.720363	23778.963896
698.056400	23568.447832
698.392388	23354.186191
698.728326	23316.513648
699.064214	23111.084108
699.400053	23046.431310
699.735842	22687.536444
700.071581	22430.654368
700.407270	22129.639510
700.742910	21937.039707
701.078501	21667.395949
701.414042	21385.429091
701.749533	21090.710634
702.084974	20752.315621
702.420366	20944.000454
702.755709	20510.965339
703.091002	20216.317458
703.426246	20234.984851
703.761440	20129.284458
704.096584	19864.785198
704.431679	19820.463373
704.766725	19736.785261
705.101721	19671.547689
705.436668	19761.194528
705.771565	19432.690258
706.106413	19778.694893
706.441212	19768.335322
706.775961	19892.849301
707.110661	19966.409818
707.445311	20323.179838
707.779913	20165.500107
708.114465	20404.528937
708.448967	20699.438958
708.783421	21391.521325
709.117825	21665.729848
709.452180	21884.959546
709.786485	22283.679527
710.120742	23091.516869
710.454949	23103.540021
710.789107	23588.574639
711.123216	24275.202478
711.457275	24406.920266
711.791286	24939.911380
712.125247	25008.685321
712.459159	24702.571336
712.793023	25367.504570
713.126837	24249.812706
713.460602	24498.608772
713.794318	24114.528302
714.127985	23731.506474
714.461602	22850.776568
714.795171	22804.118168
715.128691	21779.745624
715.462162	21238.454251
715.795584	20815.012451
716.128957	20562.813606
716.462281	20150.595936
716.795556	19910.216076
717.128782	19424.458053
717.461960	18878.720382
717.795088	18800.093506
718.128167	18399.962001
718.461198	17947.457950
718.794180	17799.794992
719.127113	17430.671625
719.459997	17238.664157
719.792833	16889.249181
720.125619	16860.640633
720.458357	16542.508537
720.791046	16373.549225
721.123686	16219.778909
721.456278	15977.528782
721.788821	15936.841629
722.121315	15683.122877
722.453761	15757.747077
722.786158	15686.069431
723.118506	15686.167734
723.450805	15545.948039
723.783056	15710.183791
724.115259	15619.616941
724.447412	15548.236723
724.779518	15785.967456
725.111574	15812.874615
725.443582	16014.659401
725.775542	15997.370763
726.107453	16463.604397
726.439315	16350.823704
726.771129	16744.421872
727.102895	17115.440713
727.434612	17321.613823
727.766281	17443.508923
728.097901	17708.857618
728.429473	17740.838698
728.760996	17725.500987
729.092471	17805.463769
729.423897	17679.709666
729.755276	17542.396197
730.086606	17657.563877
730.417887	18179.081325
730.749120	18688.247946
731.080305	18869.676552
731.411442	19203.552171
731.742530	19269.956770
732.073570	19368.864209
732.404562	19657.208127
732.735506	19478.836980
733.066401	19188.766467
733.397249	18670.611469
733.728048	18037.687042
734.058798	17193.906273
734.389501	16515.682037
734.720156	16054.663477
735.050762	15539.613830
735.381320	15179.511608
735.711831	14946.519559
736.042293	14585.918263
736.372707	14606.166057
736.703073	14388.940217
737.033391	14576.062807
737.363661	14541.336819
737.693883	14654.084745
738.024056	14822.103882
738.354182	15007.255381
738.684260	15288.471107
739.014290	15514.518966
739.344272	15710.849223
739.674207	15982.406098
740.004093	16097.372132
740.333931	16085.346460
740.663722	16121.874661
740.993464	16108.104749
741.323159	15932.208809
741.652806	15660.790565
741.982405	15442.848882
742.311956	15106.162819
742.641460	14986.994983
742.970915	14686.547255
743.300323	14351.121481
743.629683	14138.067196
743.958996	13861.794321
744.288260	13587.134616
744.617477	13289.484728
744.946647	13217.063512
745.275768	12949.809261
745.604842	12759.437648
745.933869	12594.266763
746.262847	12545.584340
746.591778	12468.053915
746.920662	12372.120757
747.249498	12362.930733
747.578286	12489.897234
747.907027	12632.279583
748.235720	12852.875435
748.564365	12879.989281
748.892963	12781.598560
749.221514	12835.886746
749.550017	12699.077392
749.878473	12658.412925
750.206881	12435.530911
750.535242	12346.241994
750.863555	12256.070875
751.191821	12155.527582
751.520039	12178.732013
751.848210	12085.480749
752.176334	12117.923095
752.504411	12025.952284
752.832440	11871.428316
753.160421	11934.344436
753.488356	11814.488483
753.816243	11709.133409
754.144082	11577.133316
754.471875	11520.924451
754.799620	11465.645678
755.127318	11438.983015
755.454969	11399.344423
755.782572	11345.900630
756.110129	11359.090809
756.437638	11279.485949
756.765100	11268.844073
757.092515	11272.080494
757.419882	11293.563371
757.747203	11295.864658
758.074477	11369.311749
758.401703	11322.600417
758.728882	11485.051600
759.056014	11535.563961
759.383099	11640.384673
759.710138	11747.942732
760.037129	11828.255874
760.364073	11845.431085
760.690970	11833.677635
761.017820	11827.570277
761.344623	12011.138853
761.671379	12334.969974
761.998088	12968.398516
762.324751	14514.825391
762.651366	17367.427829
762.977935	21029.831140
763.304456	23248.107711
763.630931	23734.256423
763.957359	22537.368033
764.283740	20624.449274
764.610074	18753.503162
764.936362	16624.006351
765.262602	15110.881339
765.588796	13640.132266
765.914943	12614.259979
766.241044	11772.536001
766.567097	11137.491768
766.893104	10592.417009
767.219064	10233.917874
767.544978	9849.746663
767.870845	9534.097335
768.196665	9351.965488
768.522438	9153.167586
768.848165	8994.971137
769.173846	8824.287750
769.499479	8700.197228
769.825066	8547.382210
770.150607	8366.135086
770.476101	8302.707288
770.801548	8190.909619
771.126949	8050.334523
771.452303	7960.112993
771.777611	7798.728014
772.102872	7781.915766
772.428087	7657.958834
772.753256	7540.162193
773.078378	7446.467307
773.403453	7305.224259
773.728482	7204.469237
774.053465	7137.374000
774.378401	7047.293622
774.703291	6960.404294
775.028135	6867.629420
775.352932	6833.997362
775.677683	6742.666778
776.002388	6661.254663
776.327046	6658.693757
776.651658	6569.830818
776.976224	6495.990517
777.300743	6480.758671
777.625216	6408.027423
777.949643	6369.888574
778.274024	6374.622217
778.598359	6310.649975
778.922647	6308.812475
779.246889	6270.164469
779.571086	6275.649244
779.895236	6286.323887
780.219339	6285.542508
780.543397	6280.748371
780.867409	6332.130332
781.191374	6327.852913
781.515294	6299.193953
781.839167	6347.762950
782.162995	6320.328991
782.486776	6265.498881
782.810511	6223.606892
783.134201	6154.825389
783.457844	6134.249920
783.781441	6088.771150
784.104993	6050.150871
784.428498	6018.983937
784.751958	6002.075907
785.075372	5980.348534
785.398739	5939.558038
785.722061	5959.987314
786.045337	5960.768693
786.368568	6073.264561
786.691752	6090.611172
787.014891	6342.361353
787.337983	6615.241532
787.661030	7061.459264
787.984031	7477.974519
788.306987	7741.069817
788.629897	7830.872932
788.952760	7740.943788
789.275579	7566.577839
789.598351	7267.418125
789.921078	7003.954823
790.243759	6725.501649
790.566395	6517.947262
790.888984	6328.669580
791.211529	6188.903589
791.534027	6024.395616
791.856480	5890.505090
792.178888	5830.248178
792.501249	5761.733856
792.823566	5665.021840
793.145836	5656.144368
793.468062	5635.047140
793.790241	5596.126911
794.112375	5638.865814
794.434464	5735.227469
794.756507	5768.801554
795.078505	5890.127004
795.400457	6101.850424
795.722364	6345.423854
796.044226	6534.265478
796.366042	6686.467994
796.687812	6635.040663
797.009538	6664.665004
797.331218	6575.151756
797.652852	6510.229256
797.974442	6384.699484
798.295986	6313.105017
798.617484	6185.770512
798.938938	6074.391259
799.260346	6006.426423
799.581709	5871.973809
799.903026	5818.895500
800.224299	5744.024283
800.545526	5629.131346
800.866708	5562.583074
801.187845	5517.399212
801.508936	5440.929949
801.829983	5415.091515
802.150984	5305.264937
802.471940	5279.086225
802.792851	5262.359677
803.113717	5241.877469
803.434538	5216.399477
803.755314	5185.101474
804.076045	5171.276109
804.396731	5137.008866
804.717372	5150.080578
805.037967	5155.850178
805.358518	5185.887894
805.679024	5243.304115
805.999485	5254.319037
806.319901	5272.028610
806.640272	5290.267505
806.960598	5336.792313
807.280879	5324.164223
807.601115	5365.834401
807.921306	5324.643133
808.241453	5316.340352
808.561554	5335.093445
808.881611	5295.694307
809.201623	5293.491322
809.521590	5244.829064
809.841513	5226.517073
810.161390	5244.624898
810.481223	5155.749355
810.801011	5143.527078
811.120755	5114.815186
811.440453	5060.489192
811.760107	5036.163104
812.079716	5014.244167
812.399281	4956.860713
812.718801	4950.965083
813.038276	4920.786216
813.357707	4885.561153
813.677093	4904.604112
813.996434	4843.389381
814.315731	4864.910067
814.634983	4862.328996
814.954191	4869.386611
815.273354	4923.619344
815.592473	4966.544769
815.911547	5042.431779
816.230577	5091.693934
816.549562	5178.764743
816.868502	5232.533690
817.187399	5286.917658
817.506250	5367.566037
817.825058	5392.882712
818.143821	5547.154622
818.462539	5714.704932
818.781213	5943.008708
819.099843	6300.650847
819.418429	6925.418687
819.736970	7540.384003
820.055466	8256.351358
820.373919	9161.150253
820.692327	10599.225087
821.010691	13280.143470
821.329011	19471.701227
821.647286	28993.591408
821.965517	39304.777567
822.283704	44751.729174
822.601847	46257.854544
822.919945	41665.875068
823.237999	36561.111942
823.556010	31375.428215
823.873976	26695.929267
824.191897	22499.592147
824.509775	19440.438511
824.827609	16689.410281
825.145398	15142.433921
825.463144	14391.430547
825.780845	14672.797508
826.098502	15931.266113
826.416116	18375.600625
826.733685	20651.883233
827.051210	21183.276301
827.368692	19768.300034
827.686129	17204.752315
828.003522	14728.104007
828.320872	12525.089529
828.638177	10882.356452
828.955439	9642.895517
829.272656	8590.042975
829.589830	7746.534428
829.906960	7021.145157
830.224046	6486.571121
830.541088	6080.939718
830.858086	5826.074103
831.175041	5621.362927
831.491952	5563.112395
831.808819	5598.972643
832.125642	5834.321431
832.442421	6383.592951
832.759157	7481.586505
833.075849	9247.061597
833.392497	11098.301838
833.709101	12206.029861
834.025662	11955.731532
834.342179	10909.152705
834.658653	9606.523592
834.975083	8503.710695
835.291469	7596.282838
835.607811	6867.823504
835.924110	6352.191603
836.240366	5866.231934
836.556578	5411.555146
836.872746	5064.779214
837.188871	4792.972801
837.504952	4573.281837
837.820990	4404.037700
838.136984	4292.602994
838.452935	4243.905448
838.768842	4271.931743
839.084706	4552.908014
839.400526	5291.938647
839.716303	6188.172622
840.032037	6750.024342
840.347727	6608.715758
840.663373	6013.773905
840.978977	5434.411737
841.294537	4996.428729
841.610054	4666.555786
841.925527	4428.759518
842.240957	4226.644537
842.556344	4038.244015
842.871687	3887.334554
843.186987	3736.092377
843.502244	3615.243316
843.817458	3530.670399
844.132629	3461.747743
844.447756	3412.730084
844.762840	3368.304916
845.077881	3329.566169
845.392879	3295.258596
845.707833	3271.182046
846.022745	3245.797315
846.337613	3233.564956
846.652438	3208.097046
846.967221	3199.655634
847.281960	3180.305165
847.596656	3173.345852
847.911309	3157.952689
848.225919	3146.370638
848.540485	3134.952425
848.855009	3128.018318
849.169490	3113.174640
849.483928	3108.105760
849.798323	3104.508897
850.112675	3091.923656
850.426984	3096.294336
850.741251	3085.995259
851.055474	3086.728747
851.369654	3085.760845
851.683792	3080.901173
851.997887	3084.926534
852.311938	3082.037953
852.625947	3088.533480
852.939914	3078.688107
853.253837	3086.945517
853.567718	3084.157758
853.881555	3076.359093
854.195350	3084.727409
854.509103	3080.797829
854.822812	3079.139290
855.136479	3071.925399
855.450103	3078.037798
855.763685	3068.373906
856.077224	3072.094277
856.390720	3081.080134
856.704173	3091.480034
857.017584	3093.491455
857.330953	3100.244080
857.644278	3110.303703
857.957561	3107.526027
858.270802	3109.305554
858.584000	3112.168930
858.897155	3103.175511
859.210268	3094.025817
859.523339	3080.659198
859.836367	3075.348342
860.149352	3072.671489
860.462295	3066.836354
860.775195	3061.724624
861.088054	3053.104251
861.400869	3054.714899
861.713642	3052.849672
862.026373	3062.453071
862.339062	3066.606981
862.651708	3077.616861
862.964312	3093.688060
863.276873	3097.630242
863.589392	3132.938484
863.901869	3153.249292
864.214303	3178.404650
864.526696	3195.874769
864.839045	3214.305227
865.151353	3228.261662
865.463619	3228.788462
865.775842	3227.997001
866.088023	3234.439596
866.400162	3227.444995
866.712258	3225.627659
867.024313	3224.352247
867.336325	3225.703276
867.648296	3222.963409
867.960224	3221.214129
868.272110	3229.602609
868.583954	3226.593040
868.895755	3232.027404
869.207515	3230.925912
869.519233	3251.115733
869.830909	3254.084972
870.142542	3269.843619
870.454134	3272.686830
870.765684	3286.958337
871.077191	3305.272848
871.388657	3311.980104
871.700081	3336.066737
872.011463	3353.385621
872.322803	3373.872870
872.634101	3392.021024
872.945357	3409.717994
873.256571	3438.054320
873.567744	3455.423616
873.878874	3459.764049
874.189963	3477.798777
874.501010	3475.923468
874.812015	3473.544043
875.122979	3490.537773
875.433900	3485.811691
875.744780	3485.902432
876.055618	3499.213599
876.366415	3495.709997
876.677169	3500.544463
876.987882	3519.506763
877.298554	3534.957900
877.609183	3574.283941
877.919771	3620.823873
878.230317	3688.014892
878.540822	3787.673463
878.851285	3941.456382
879.161707	4158.515863
879.472087	4529.731309
879.782425	5154.713398
880.092722	6325.188663
880.402977	8256.280782
880.713191	10610.517272
881.023363	12985.407369
881.333494	14332.628008
881.643583	14784.885043
881.953631	14377.637950
882.263637	13538.056462
882.573602	12507.901715
882.883526	11561.220914
883.193408	10607.104411
883.503248	9697.927273
883.813048	8871.178043
884.122806	8108.824511
884.432522	7347.605239
884.742197	6691.899838
885.051831	6125.957222
885.361424	5632.211491
885.670975	5240.289505
885.980485	4921.315537
886.289954	4651.588600
886.599382	4433.833439
886.908768	4261.186523
887.218113	4095.793827
887.527417	3961.978919
887.836680	3837.737162
888.145901	3739.560691
888.455082	3667.026048
888.764221	3596.470059
889.073319	3537.307078
889.382376	3506.278776
889.691392	3481.234323
890.000366	3474.302737
890.309300	3467.729072
890.618193	3471.386429
890.927044	3465.717652
891.235855	3476.742655
891.544625	3489.085921
891.853353	3515.594828
892.162041	3578.175712
892.470687	3666.642921
892.779293	3784.910911
893.087858	3957.378866
893.396381	4235.973192
893.704864	4647.510307
894.013306	5212.369075
894.321707	5781.913595
894.630068	6139.432226
894.938387	6174.495972
895.246665	5997.455690
895.554903	5681.297206
895.863100	5345.556359
896.171256	5076.109207
896.479371	4836.019214
896.787446	4612.862457
897.095480	4416.685955
897.403473	4269.602729
897.711425	4128.629383
898.019336	4006.018439
898.327207	3880.171074
898.635038	3780.305817
898.942827	3678.010723
899.250576	3588.381528
899.558284	3507.828931
899.865952	3452.270374
900.173579	3391.554717
900.481165	3345.735670
900.788711	3302.999288
901.096216	3269.702467
901.403681	3244.247161
901.711105	3232.234091
902.018489	3225.917525
902.325832	3257.568410
902.633135	3319.748522
902.940397	3484.874037
903.247619	3887.654667
903.554800	4636.850787
903.861941	5599.501964
904.169041	6297.255629
904.476101	6507.675912
904.783121	6234.238686
905.090100	5831.720195
905.397039	5420.495632
905.703938	5064.000355
906.010796	4744.076129
906.317614	4491.327799
906.624391	4258.018158
906.931129	4058.431315
907.237826	3880.045045
907.544483	3710.780743
907.851099	3540.631719
908.157675	3379.665156
908.464211	3237.628126
908.770707	3141.432828
909.077163	3064.761919
909.383578	3003.499297
909.689954	2958.817030
909.996289	2926.835950
910.302584	2905.650501
910.608839	2895.769839
910.915054	2883.192160
911.221229	2881.047149
911.527363	2881.810884
911.833458	2888.767677
912.139513	2902.968607
912.445527	2916.564599
912.751502	2950.002572
913.057436	2994.553769
913.363331	3049.643499
913.669186	3132.676344
913.975000	3253.719489
914.280775	3435.682457
914.586510	3704.217161
914.892205	4072.551587
915.197859	4568.701949
915.503475	5152.281042
915.809050	5645.666330
916.114585	5933.939672
916.420081	5997.153220
916.725536	5933.513694
917.030952	5696.776068
917.336328	5495.213094
917.641665	5283.635867
917.946961	5054.979211
918.252218	4857.318089
918.557435	4631.655878
918.862612	4434.650106
919.167750	4261.045371
919.472848	4075.838420
919.777906	3907.773912
920.082925	3747.737442
920.387904	3597.737909
920.692843	3486.068790
920.997743	3388.328379
921.302603	3295.477887
921.607423	3227.354254
921.912204	3165.678257
922.216946	3116.615227
922.521647	3068.315932
922.826310	3025.012421
923.130932	2987.786020
923.435516	2950.055504
923.740059	2925.263110
924.044564	2889.183572
924.349028	2864.517206
924.653454	2835.762464
924.957840	2810.102991
925.262186	2794.228398
925.566493	2771.359203
925.870761	2745.472878
926.174989	2734.462998
926.479178	2720.756101
926.783328	2704.964687
927.087438	2693.596885
927.391509	2681.956861
927.695541	2670.546209
927.999533	2659.649755
928.303486	2651.558703
928.607400	2644.390182
928.911275	2637.483801
929.215110	2633.176135
929.518906	2633.143368
929.822663	2629.100363
930.126381	2629.107924
930.430060	2632.490538
930.733699	2634.938019
931.037299	2638.928092
931.340861	2637.768627
931.644383	2642.572846
931.947866	2642.003196
932.251309	2636.011784
932.554714	2636.354583
932.858080	2634.570014
933.161407	2629.304529
933.464694	2625.677419
933.767943	2622.970319
934.071153	2620.459825
934.374323	2614.596963
934.677455	2613.283742
934.980548	2612.658639
935.283602	2609.817949
935.586617	2607.330140
935.889593	2609.863319
936.192530	2611.358022
936.495428	2613.692076
936.798287	2623.234980
937.101108	2637.675365
937.403890	2661.527585
937.706632	2689.082532
938.009336	2720.383056
938.312002	2750.083014
938.614628	2772.932043
938.917216	2789.217491
939.219765	2798.735189
939.522275	2811.448979
939.824747	2809.291366
940.127179	2803.683082
940.429573	2799.317443
940.731929	2797.056485
941.034246	2787.843777
941.336524	2787.553910
941.638763	2779.563681
941.940964	2771.838113
942.243126	2755.988725
942.545250	2749.105030
942.847335	2733.240519
943.149381	2721.103941
943.451389	2705.428473
943.753359	2693.828778
944.055290	2686.052798
944.357182	2675.305058
944.659036	2669.938750
944.960851	2669.081754
945.262628	2661.416679
945.564367	2663.904489
945.866067	2663.155877
946.167729	2661.661175
946.469352	2662.888696
946.770937	2658.016421
947.072484	2653.570123
947.373992	2651.162972
947.675462	2648.163486
947.976893	2642.736684
948.278286	2637.466157
948.579641	2632.551032
948.880958	2632.114972
949.182236	2631.704118
949.483476	2631.293264
949.784678	2627.343520
950.085841	2628.548356
950.386967	2632.006588
950.688054	2637.758544
950.989103	2646.411685
951.290114	2654.606080
951.591087	2666.747699
951.892021	2677.230779
952.192917	2691.048582
952.493776	2699.333718
952.794596	2704.692464
953.095378	2707.041642
953.396122	2704.581559
953.696828	2700.001671
953.997496	2694.723583
954.298126	2687.809640
954.598718	2680.008455
954.899272	2669.638801
955.199788	2656.027686
955.500266	2645.421098
955.800706	2631.381485
956.101108	2612.520007
956.401472	2601.676486
956.701798	2591.137953
957.002087	2572.417629
957.302337	2563.951011
957.602550	2554.808878
957.902724	2542.082485
958.202861	2534.608975
958.502960	2525.348375
958.803022	2521.368384
959.103045	2513.962929
959.403031	2504.271311
959.702979	2500.107318
960.002889	2493.974754
960.302762	2491.129023
960.602596	2485.674494
960.902393	2483.942858
961.202153	2481.553351
961.501875	2477.717033
961.801559	2476.368524
962.101205	2474.369707
962.400814	2473.008595
962.700385	2467.874180
962.999918	2468.040538
963.299414	2467.080198
963.598873	2465.633387
963.898293	2464.068109
964.197677	2462.545681
964.497022	2460.347738
964.796331	2461.970989
965.095601	2458.631225
965.394835	2460.773715
965.694030	2459.717593
965.993189	2459.089970
966.292309	2455.961934
966.591393	2456.771039
966.890439	2454.885647
967.189447	2458.727007
967.488419	2456.040072
967.787353	2454.701645
968.086249	2456.571913
968.385108	2456.345061
968.683930	2457.668364
968.982714	2459.553756
969.281462	2460.183900
969.580172	2461.623149
969.878844	2462.628860
970.177480	2466.734879
970.476078	2468.310240
970.774639	2473.101857
971.073162	2477.825418
971.371649	2473.336270
971.670098	2474.089923
971.968510	2477.361632
972.266885	2474.556230
972.565223	2480.560244
972.863524	2484.681387
973.161788	2485.271202
973.460014	2484.537714
973.758204	2483.118629
974.056356	2486.816316
974.354471	2489.793117
974.652550	2489.213384
974.950591	2488.290853
975.248595	2485.498054
975.546563	2484.308342
975.844493	2483.310193
976.142386	2482.891777
976.440243	2480.237610
976.738062	2479.413381
977.035845	2474.498256
977.333590	2473.001034
977.631299	2470.861064
977.928971	2466.520630
978.226606	2469.605817
978.524204	2467.901907
978.821765	2463.022070
979.119290	2463.533747
979.416777	2464.655403
979.714228	2463.851339
980.011642	2464.564663
980.309020	2470.528348
980.606360	2471.251753
980.903664	2482.125522
981.200931	2496.278562
981.498162	2513.713392
981.795356	2544.708927
982.092513	2579.321489
982.389633	2625.468211
982.686717	2667.405570
982.983764	2699.106866
983.280775	2716.919783
983.577749	2715.382231
983.874686	2708.705223
984.171587	2692.069415
984.468451	2677.666839
984.765279	2659.110351
985.062070	2636.946918
985.358824	2620.371605
985.655543	2602.034408
985.952224	2578.489698
986.248869	2549.404761
986.545478	2522.207736
986.842050	2502.277535
987.138586	2487.239773
987.435086	2473.328709
987.731549	2460.158694
988.027975	2457.895216
988.324366	2452.024793
988.620719	2445.574636
988.917037	2441.831579
989.213318	2442.096240
989.509563	2440.430139
989.805772	2435.522575
990.101944	2435.477205
990.398080	2435.699016
990.694180	2431.966041
990.990244	2433.543922
991.286271	2433.364962
991.582262	2433.332194
991.878217	2433.070054
992.174136	2434.146340
992.470019	2437.453337
992.765865	2439.910900
993.061676	2439.747062
993.357450	2441.955088
993.653188	2445.062959
993.948890	2450.741819
994.244556	2457.678447
994.540186	2463.924436
994.835780	2478.987404
995.131337	2490.516523
995.426859	2506.207114
995.722345	2529.366175
996.017795	2543.743546
996.313208	2560.142419
996.608586	2569.581980
996.903928	2573.123390
997.199234	2569.740776
997.494504	2569.493759
997.789738	2560.785166
998.084936	2547.814277
998.380099	2539.012423
998.675225	2526.565814
998.970316	2517.761439
999.265371	2501.738131
999.560390	2487.693477
999.855373	2480.620738
1000.150320	2470.649335
1000.445232	2458.575772
1000.740108	2452.985132
1001.034948	2446.948351
1001.329752	2441.960129
1001.624521	2438.320416
1001.919254	2432.969231
1002.213951	2430.151226
1002.508613	2427.479414
1002.803239	2426.947573
1003.097829	2421.162849
1003.392384	2423.746440
1003.686903	2421.205698
1003.981386	2424.510175
1004.275834	2420.935997
1004.570246	2421.732499
1004.864623	2416.968609
1005.158964	2419.884916
1005.453270	2417.160173
1005.747540	2418.312076
1006.041775	2414.596746
1006.335974	2415.365522
1006.630138	2416.895512
1006.924266	2415.559606
1007.218359	2415.877199
1007.512416	2415.219328
1007.806438	2412.655902
1008.100425	2415.685635
1008.394376	2414.687487
1008.688292	2413.288566
1008.982172	2416.111612
1009.276017	2416.580440
1009.569827	2413.573392
1009.863602	2414.972312
1010.157341	2412.071128
1010.451045	2413.139852
1010.744714	2412.305541
1011.038347	2412.577764
1011.331945	2411.899728
1011.625508	2410.495767
1011.919036	2412.676066
1012.212528	2410.173133
1012.505986	2410.750345
1012.799408	2411.662794
1013.092795	2408.703637
1013.386147	2411.546848
1013.679464	2408.675911
1013.972745	2410.047104
1014.265992	2407.352608
1014.559204	2407.614748
1014.852380	2408.917886
1015.145521	2407.592062
1015.438628	2408.701116
1015.731699	2408.585170
1016.024736	2409.452248
1016.317737	2410.926786
1016.610703	2413.076838
1016.903635	2408.804460
1017.196531	2407.498801
1017.489393	2409.190108
1017.782219	2406.404871
1018.075011	2414.243865
1018.367768	2413.031467
1018.660490	2411.927455
1018.953177	2411.927455
1019.245829	2411.927455
