Dividing Wavelength (nm)	Counts (n)	Blue Motor Position (mm): 15.200000	Red Motor Position (mm): 0.000000	
326.493990	1974.821608
326.888308	1974.821608
327.282561	1974.821608
327.676750	1947.735488
328.070874	1952.186827
328.464933	1957.033896
328.858929	1969.535958
329.252859	1982.562299
329.646726	1995.628970
330.040528	2011.044819
330.434265	2031.085926
330.827938	2047.618390
331.221547	2067.074723
331.615091	2086.664647
332.008571	2111.522577
332.401986	2128.841461
332.795338	2150.092445
333.188625	2172.641526
333.581847	2187.422189
333.975006	2209.136959
334.368100	2223.519371
334.761129	2241.317165
335.154095	2257.900040
335.546996	2286.221243
335.939833	2343.713082
336.332606	2356.588188
336.725315	2369.395240
337.117960	2377.317413
337.510540	2384.211191
337.903056	2394.096894
338.295508	2401.031001
338.687896	2409.767320
339.080220	2415.128588
339.472480	2418.574216
339.864676	2422.851635
340.256807	2427.834816
340.648875	2428.951431
341.040879	2429.218612
341.432818	2431.403953
341.824694	2431.988727
342.216506	2430.171391
342.608253	2432.520568
342.999937	2430.297419
343.391557	2431.282965
343.783113	2428.868252
344.174605	2428.969075
344.566033	2423.630493
344.957397	2422.236614
345.348697	2421.861048
345.739934	2419.118661
346.131106	2419.615214
346.522215	2418.070101
346.913260	2414.435429
347.304241	2412.905439
347.695159	2408.512073
348.086012	2410.024419
348.476802	2407.334964
348.867528	2405.741959
349.258191	2405.071486
349.648789	2405.144582
350.039324	2404.111146
350.429796	2405.585683
350.820203	2404.469068
351.210548	2397.938253
351.600828	2400.247101
351.991045	2399.042266
352.381198	2399.102759
352.771288	2398.573438
353.161314	2398.298695
353.551276	2398.487739
353.941175	2393.917933
354.331010	2397.976062
354.720782	2400.834396
355.110490	2405.114335
355.500135	2396.221740
355.889717	2402.235837
356.279235	2401.807338
356.668689	2401.056207
357.058080	2401.247770
357.447408	2401.220044
357.836672	2398.593603
358.225873	2400.655435
358.615010	2397.303067
359.004084	2403.481002
359.393095	2403.526372
359.782043	2405.812535
360.170927	2402.472771
360.559748	2407.944943
360.948505	2407.544172
361.337199	2408.295303
361.725830	2405.026115
362.114398	2407.508883
362.502903	2405.938564
362.891344	2406.445200
363.279722	2408.711199
363.668037	2410.533576
364.056289	2407.755900
364.444478	2411.209090
364.832603	2413.190264
365.220665	2409.011147
365.608665	2408.340674
365.996601	2409.295972
366.384474	2412.986097
366.772284	2412.179513
367.160031	2412.580284
367.547715	2414.216139
367.935336	2413.021385
368.322893	2411.677918
368.710388	2412.156827
369.097820	2413.349060
369.485189	2412.144224
369.872495	2416.310738
370.259738	2414.939544
370.646918	2414.737898
371.034035	2415.446180
371.421090	2415.572209
371.808081	2415.446180
372.195010	2415.748649
372.581875	2416.366191
372.968678	2413.752353
373.355418	2417.162693
373.742096	2415.620100
374.128710	2419.617735
374.515262	2417.276119
374.901751	2418.405338
375.288177	2417.906263
375.674540	2416.741757
376.060841	2421.311563
376.447079	2417.283681
376.833254	2418.332241
377.219367	2414.609349
377.605417	2415.841911
377.991404	2416.177148
378.377329	2418.221335
378.763191	2412.935686
379.148991	2419.963054
379.534727	2419.937848
379.920402	2418.062539
380.306013	2422.589495
380.691563	2421.614032
381.077049	2420.366346
381.462474	2420.111768
381.847835	2423.259969
382.233134	2420.862900
382.618371	2424.444640
383.003545	2422.060174
383.388657	2421.737540
383.773706	2423.234763
384.158693	2424.442119
384.543618	2425.049578
384.928480	2423.431368
385.313280	2425.074784
385.698017	2422.861718
386.082692	2427.053437
386.467305	2426.405649
386.851856	2428.114600
387.236344	2426.551842
387.620770	2427.441606
388.005133	2426.839188
388.389435	2427.204672
388.773674	2426.892120
389.157851	2428.749785
389.541965	2427.865063
389.926018	2428.926226
390.310008	2426.849270
390.693936	2429.042172
391.077802	2427.711307
391.461606	2429.916812
391.845348	2426.874476
392.229027	2429.044693
392.612645	2428.790114
392.996200	2431.257759
393.379694	2429.720207
393.763125	2431.829930
394.146494	2428.333890
394.529801	2432.238264
394.913047	2429.810948
395.296230	2431.983685
395.679351	2432.313881
396.062410	2427.267686
396.445408	2430.153747
396.828343	2430.776329
397.211217	2429.014446
397.594028	2433.243974
397.976778	2427.693663
398.359466	2432.641556
398.742092	2427.411359
399.124656	2432.409663
399.507158	2435.613316
399.889598	2434.960487
400.271977	2433.889242
400.654294	2435.414191
401.036549	2432.369334
401.418742	2433.483429
401.800874	2433.727925
402.182944	2434.620209
402.564952	2436.026691
402.946898	2435.157092
403.328783	2436.866043
403.710606	2433.682554
404.092367	2434.554674
404.474067	2436.200611
404.855705	2439.303441
405.237282	2436.883687
405.618797	2437.299582
406.000250	2436.848399
406.381642	2437.440734
406.762972	2437.602051
407.144240	2437.720518
407.525447	2436.825714
407.906593	2439.532813
408.287677	2438.529624
408.668700	2437.788574
409.049661	2438.958122
409.430560	2438.426280
409.811399	2440.097422
410.192176	2437.289500
410.572891	2439.336208
410.953545	2437.208841
411.334138	2439.658842
411.714669	2441.766044
412.095139	2441.526590
412.475547	2438.479212
412.855894	2442.247475
413.236180	2440.089861
413.616405	2441.768565
413.996568	2442.287804
414.376670	2441.002310
414.756711	2438.882504
415.136691	2439.197577
415.516609	2443.003648
415.896466	2442.428956
416.276262	2442.408792
416.655997	2439.885694
417.035670	2437.700354
417.415283	2443.699327
417.794834	2438.892587
418.174324	2442.776796
418.553753	2439.752103
418.933121	2441.266970
419.312428	2440.755293
419.691674	2442.272680
420.070859	2443.986673
420.449983	2443.656477
420.829045	2443.532969
421.208047	2444.568926
421.586988	2444.470623
421.965867	2442.829728
422.344686	2444.657146
422.723444	2442.796960
423.102141	2445.103288
423.480777	2447.666715
423.859352	2447.792744
424.237866	2446.202260
424.616319	2445.393155
424.994712	2445.264605
425.373044	2444.334512
425.751314	2445.393155
426.129524	2446.900460
426.507673	2444.294183
426.885762	2445.035233
427.263789	2449.032868
427.641756	2448.150666
428.019662	2447.218052
428.397508	2448.455656
428.775292	2445.884667
429.153016	2446.718978
429.530679	2448.077569
429.908282	2449.453804
430.285824	2445.083124
430.663305	2447.089503
431.040726	2448.185954
431.418086	2446.734102
431.795385	2447.858279
432.172624	2450.197374
432.549802	2449.819288
432.926920	2449.763835
433.303977	2450.265430
433.680974	2447.371807
434.057910	2448.503547
434.434786	2451.354319
434.811601	2450.066304
435.188355	2447.752415
435.565050	2448.795933
435.941683	2451.175358
436.318257	2448.377518
436.694770	2443.832918
437.071222	2447.361725
437.447614	2445.614965
437.823946	2448.458176
438.200218	2450.656119
438.576429	2452.453291
438.952580	2452.218877
439.328670	2451.984463
439.704700	2453.154011
440.080670	2450.225101
440.456580	2451.669391
440.832429	2451.674432
441.208218	2453.519495
441.583947	2452.397838
441.959616	2449.489092
442.335224	2452.239042
442.710773	2450.983794
443.086261	2455.916563
443.461689	2453.857252
443.837057	2454.111830
444.212365	2454.416820
444.587612	2456.418158
444.962800	2455.291460
445.337927	2455.014197
445.712995	2451.039247
446.088002	2456.511419
446.462949	2454.651234
446.837837	2454.918415
447.212664	2458.232973
447.587431	2457.459156
447.962139	2462.517954
448.336786	2464.017697
448.711374	2463.634570
449.085901	2462.656586
449.460369	2460.766153
449.834776	2459.878910
450.209124	2462.545681
450.583412	2463.712708
450.957640	2464.219344
451.331808	2463.490897
451.705917	2461.484518
452.079965	2461.416462
452.453954	2462.071812
452.827883	2462.699436
453.201752	2462.543160
453.575562	2462.787656
453.949311	2463.127934
454.323001	2466.253449
454.696632	2462.543160
455.070202	2466.669344
455.443713	2468.423666
455.817164	2467.241515
456.190556	2465.913171
456.563888	2467.909468
456.937160	2463.919395
457.310373	2467.788481
457.683526	2467.332256
458.056619	2469.792339
458.429653	2468.647997
458.802628	2471.468523
459.175542	2470.140179
459.548398	2472.330560
459.921194	2472.534727
460.293930	2474.949440
460.666607	2478.405151
461.039224	2475.589666
461.411782	2479.070583
461.784280	2478.160655
462.156719	2477.399440
462.529099	2476.522280
462.901419	2473.827783
463.273680	2475.677886
463.645882	2477.240644
464.018024	2477.969091
464.390106	2478.851293
464.762130	2483.468990
465.134094	2484.527632
465.505999	2489.830926
465.877845	2495.892913
466.249631	2496.581031
466.621358	2497.485918
466.993026	2496.891062
467.364634	2495.517347
467.736184	2492.732110
468.107674	2489.107520
468.479105	2490.531646
468.850477	2486.977633
469.221790	2485.525780
469.593043	2483.652992
469.964238	2485.437560
470.335373	2482.380100
470.706449	2490.624908
471.077467	2491.209681
471.448425	2497.354848
471.819324	2500.974396
472.190164	2499.275528
472.560945	2495.378716
472.931667	2490.755978
473.302330	2490.168683
473.672934	2491.610453
474.043479	2491.108858
474.413965	2489.115082
474.784393	2485.971923
475.154761	2491.171873
475.525070	2486.176089
475.895321	2491.549959
476.265513	2487.174238
476.635645	2497.407780
477.005719	2497.037255
477.375734	2498.242091
477.745691	2500.666886
478.115588	2501.221413
478.485427	2504.596465
478.855207	2512.566530
479.224928	2515.218177
479.594591	2522.338806
479.964194	2518.661285
480.333739	2522.789990
480.703226	2520.077849
481.072653	2524.060360
481.442022	2527.561442
481.811333	2530.470187
482.180584	2529.333407
482.549777	2526.223015
482.918912	2529.446833
483.287988	2530.157636
483.657005	2531.460774
484.025964	2535.002185
484.394864	2533.119314
484.763706	2535.256763
485.132489	2533.872966
485.501213	2536.766589
485.869879	2538.258770
486.238487	2538.962011
486.607036	2542.553833
486.975527	2543.083154
487.343959	2543.254554
487.712333	2547.887374
488.080648	2546.488454
488.448905	2552.300904
488.817104	2553.377191
489.185244	2559.388767
489.553326	2563.525033
489.921350	2577.584811
490.289315	2584.256778
490.657222	2592.990577
491.025070	2596.854622
491.392861	2596.978130
491.760593	2595.523757
492.128267	2595.070053
492.495883	2591.518561
492.863440	2591.304312
493.230939	2588.960175
493.598380	2587.531008
493.965763	2588.614856
494.333088	2590.888416
494.700354	2592.100814
495.067563	2594.777667
495.434713	2592.864549
495.801805	2599.939808
496.168839	2601.162288
496.535815	2605.779985
496.902733	2608.429111
497.269593	2610.637137
497.636395	2611.410954
498.003139	2614.418002
498.369825	2618.808847
498.736453	2621.727675
499.103023	2624.694394
499.469535	2623.494599
499.835989	2627.477111
500.202385	2629.092801
500.568723	2633.105559
500.935003	2640.016981
501.301226	2639.749800
501.667390	2645.768938
502.033497	2653.620535
502.399546	2649.138949
502.765537	2648.584422
503.131470	2656.861997
503.497345	2659.995074
503.863163	2655.276554
504.228923	2662.014056
504.594625	2668.791887
504.960269	2666.049500
505.325856	2674.934533
505.691385	2676.711540
506.056856	2677.190450
506.422270	2683.769155
506.787625	2684.240503
507.152924	2687.900381
507.518164	2693.667461
507.883347	2689.382480
508.248472	2694.826926
508.613540	2698.300281
508.978550	2705.690613
509.343503	2710.769575
509.708398	2713.063300
510.073236	2718.913559
510.438016	2719.417675
510.802738	2719.483210
511.167403	2729.683985
511.532010	2730.906464
511.896561	2734.818400
512.261053	2746.813825
512.625488	2746.995307
512.989866	2746.002200
513.354186	2749.848600
513.718449	2748.870616
514.082655	2760.762698
514.446803	2760.800507
514.810894	2769.869542
515.174927	2771.447424
515.538904	2773.403391
515.902822	2783.412602
516.266684	2782.792540
516.630488	2789.683798
516.994235	2792.718572
517.357925	2803.221816
517.721558	2802.374902
518.085133	2810.866726
518.448651	2818.113385
518.812112	2816.873261
519.175516	2821.622028
519.538863	2834.736590
519.902152	2835.502845
520.265385	2844.662622
520.628560	2849.358456
520.991678	2855.478417
521.354739	2859.110568
521.717743	2869.192876
522.080690	2874.370141
522.443580	2886.219373
522.806413	2892.369581
523.169189	2898.565159
523.531908	2910.071593
523.894569	2911.283990
524.257174	2924.411155
524.619722	2933.651590
524.982213	2942.128290
525.344647	2949.717747
525.707025	2956.876186
526.069345	2974.391675
526.431608	2984.010196
526.793815	2996.209788
527.155964	3004.459637
527.518057	3012.888446
527.880093	3023.994108
528.242072	3037.796787
528.603995	3050.308931
528.965860	3059.488872
529.327669	3075.779361
529.689421	3085.294539
530.051117	3101.330449
530.412755	3117.870475
530.774337	3131.128709
531.135862	3144.553302
531.497331	3159.954027
531.858743	3173.124042
532.220098	3201.142775
532.581396	3210.602500
532.942638	3227.197978
533.303824	3250.107502
533.664953	3271.461830
534.026025	3287.361629
534.387040	3314.228458
534.747999	3335.250070
535.108902	3364.156046
535.469748	3376.486708
535.830537	3401.475708
536.191270	3428.524019
536.551947	3447.740897
536.912567	3482.388748
537.273131	3512.295393
537.633638	3530.123433
537.994089	3567.095256
538.354483	3586.370108
538.714821	3633.744351
539.075103	3674.940660
539.435328	3702.208261
539.795497	3732.150194
540.155609	3766.505658
540.515665	3813.940395
540.875665	3834.682223
541.235609	3883.099985
541.595496	3920.744801
541.955328	3983.174450
542.315102	4003.928881
542.674821	4034.201009
543.034483	4080.004933
543.394090	4117.135552
543.753640	4160.005524
544.113134	4250.537086
544.472571	4260.689969
544.831953	4355.972818
545.191278	4376.197928
545.550548	4415.229061
545.909761	4484.701202
546.268918	4549.006161
546.628019	4620.474599
546.987064	4655.974404
547.346053	4673.434441
547.704986	4774.121406
548.063863	4811.753620
548.422684	4878.712746
548.781449	4934.130150
549.140158	5015.138972
549.498811	5073.364299
549.857408	5102.761787
550.215949	5217.838727
550.574434	5279.353407
550.932864	5336.837684
551.291237	5445.255259
551.649555	5499.614021
552.007817	5586.329429
552.366022	5640.242049
552.724173	5732.676646
553.082267	5833.366132
553.440305	5939.363953
553.798288	5966.167768
554.156215	6071.548048
554.514086	6171.360374
554.871902	6240.862762
555.229661	6324.528272
555.587365	6398.572739
555.945014	6499.415981
556.302606	6582.221974
556.660143	6698.617175
557.017625	6798.177443
557.375050	6875.234000
557.732421	7004.940368
558.089735	7105.425688
558.446994	7189.232350
558.804197	7349.004159
559.161345	7442.825073
559.518437	7463.546736
559.875474	7602.962367
560.232455	7725.805203
560.589381	7857.454936
560.946251	7932.658869
561.303065	8130.483828
561.659825	8224.153508
562.016528	8292.564486
562.373177	8376.056076
562.729770	8556.892347
563.086307	8608.803629
563.442789	8795.117113
563.799216	8923.661495
564.155587	9026.735447
564.511904	9148.691041
564.868164	9293.324266
565.224370	9467.891862
565.580520	9561.770749
565.936615	9724.214370
566.292654	9818.080655
566.648638	9996.068673
567.004567	10128.560279
567.360441	10282.350759
567.716260	10397.253779
568.072023	10602.166600
568.427732	10753.640671
568.783385	10814.898252
569.138982	11041.745133
569.494525	11190.953205
569.850013	11291.919955
570.205445	11444.273706
570.560823	11587.341653
570.916145	11727.833569
571.271412	11892.102088
571.626625	12000.527225
571.981782	12175.288905
572.336884	12272.792382
572.691931	12514.855987
573.046923	12583.657655
573.401860	12723.920199
573.756743	12890.610992
574.111570	13094.462650
574.466342	13225.530130
574.821059	13433.439917
575.175722	13475.775527
575.530330	13653.824040
575.884882	13751.934976
576.239380	13923.613991
576.593823	14082.831273
576.948211	14243.795316
577.302544	14289.924394
577.656823	14472.086488
578.011047	14717.157141
578.365216	14815.913345
578.719330	14934.443475
579.073389	15075.623509
579.427394	15288.294666
579.781344	15462.980729
580.135239	15541.194231
580.489080	15754.442601
580.842866	15773.528409
581.196597	16120.193436
581.550273	16278.074812
581.903895	16431.227587
582.257463	16780.806400
582.610975	16755.124242
582.964434	17050.447637
583.317837	17123.093185
583.671186	17251.599758
584.024481	17531.078807
584.377721	17554.784833
584.730906	17853.856326
585.084037	18060.916679
585.437113	18144.002456
585.790135	18354.551288
586.143103	18387.054127
586.496016	18636.563516
586.848874	18828.825562
587.201679	19039.374393
587.554428	19011.947996
587.907124	19296.382499
588.259765	19386.798114
588.612352	19689.418579
588.964884	19619.593557
589.317362	19934.721125
589.669786	20110.952302
590.022155	20188.802841
590.374470	20573.563867
590.726731	20550.682070
591.078937	20521.435816
591.431090	20749.149776
591.783188	20765.286509
592.135232	20804.698250
592.487222	21094.400759
592.839157	21336.262717
593.191038	21360.036799
593.542866	21431.908529
593.894639	21301.461112
594.246358	21617.183536
594.598022	21796.933438
594.949633	21773.464347
595.301190	21922.223755
595.652692	22019.613807
596.004141	22362.031661
596.355535	22019.054238
596.706876	22162.502792
597.058162	22247.952870
597.409395	22672.294516
597.760573	22892.507239
598.111698	22828.650943
598.462768	22995.495492
598.813785	23205.048695
599.164748	23055.926323
599.515657	23460.993117
599.866511	23321.622857
600.217312	23840.899512
600.568060	23414.773298
600.918753	24000.661239
601.269392	24154.091277
601.619978	24107.077476
601.970510	24396.076744
602.320988	24675.540669
602.671412	25007.304045
603.021783	25017.340982
603.372100	24955.428051
603.722363	25195.457551
604.072572	25383.505192
604.422728	25564.495218
604.772830	25598.175167
605.122878	25811.456304
605.472872	25926.427379
605.822813	26261.843071
606.172701	26305.010471
606.522534	26603.756810
606.872314	26917.689624
607.222041	26922.289677
607.571714	27341.411208
607.921333	27097.734434
608.270899	27454.237272
608.620411	27845.151027
608.969870	27846.481891
609.319276	27984.551533
609.668627	28172.016921
610.017926	28650.024170
610.367171	28917.422094
610.716362	29118.624626
611.065500	29227.347191
611.414585	29495.032460
611.763616	29861.400837
612.112594	29935.878843
612.461518	30225.931712
612.810389	30587.858832
613.159207	30613.422523
613.507971	30803.804219
613.856682	31303.034725
614.205340	31326.244198
614.553945	31985.740547
614.902496	31699.022401
615.250994	32177.208611
615.599439	32363.844729
615.947830	32667.438137
616.296169	32824.533094
616.644454	33046.064079
616.992686	33301.272493
617.340864	33840.184442
617.688990	33724.389138
618.037063	34313.132893
618.385082	34404.463477
618.733048	34758.912045
619.080961	34875.135847
619.428821	34995.687479
619.776628	35194.394641
620.124382	35162.358108
620.472083	35388.151389
620.819731	35618.471626
621.167326	35464.834900
621.514868	35564.440539
621.862357	35322.888611
622.209793	35442.147188
622.557176	35290.632788
622.904506	35189.333322
623.251783	35006.263820
623.599007	34926.353970
623.946179	34851.951580
624.293297	34902.075773
624.640363	34501.072149
624.987376	34585.561888
625.334336	34490.367259
625.681243	34268.891727
626.028097	34336.430585
626.374899	34301.233249
626.721647	34371.469125
627.068343	34370.513826
627.414987	34251.063686
627.761577	34124.056856
628.108115	34485.999099
628.454600	34093.903194
628.801032	34325.944985
629.147412	34373.888879
629.493739	34450.574911
629.840014	34211.944332
630.186236	34592.364925
630.532405	34315.648428
630.878521	34577.485959
631.224585	34533.562386
631.570597	34332.690049
631.916556	34535.636821
632.262462	34570.040175
632.608316	34632.903363
632.954117	34605.285402
633.299866	34665.333106
633.645562	34649.844161
633.991206	34293.472393
634.336797	33975.441120
634.682336	34026.255951
635.027823	33881.695823
635.373257	33781.480205
635.718639	33633.703821
636.063968	33576.758947
636.409245	33118.636530
636.754470	33228.856318
637.099642	33055.722930
637.444762	32684.598225
637.789829	32864.186810
638.134845	32609.227934
638.479808	32612.088789
638.824719	32554.750705
639.169577	32258.502258
639.514383	32380.130177
639.859137	32139.775523
640.203839	32398.036355
640.548489	32121.697945
640.893086	32199.397250
641.237632	32046.103323
641.582125	32199.324153
641.926566	32164.280572
642.270955	32164.888031
642.615292	32228.812382
642.959576	32256.460591
643.303809	32285.245579
643.647990	32456.251600
643.992118	32461.292754
644.336195	32496.313649
644.680219	32610.152986
645.024192	32927.324742
645.368112	33441.121662
645.711981	33489.357943
646.055797	34326.907846
646.399562	34274.956235
646.743274	35176.750602
647.086935	35618.670751
647.430544	35562.126649
647.774101	35688.722625
648.117606	35954.716587
648.461059	36265.637312
648.804460	35937.372497
649.147810	35420.606337
649.491108	35228.994600
649.834354	34927.538641
650.177548	34166.024462
650.520690	33765.504789
650.863781	33838.856098
651.206820	33725.876278
651.549807	33340.472505
651.892742	32911.742535
652.235626	32760.265944
652.578458	32648.627072
652.921238	32137.370893
653.263967	32459.810654
653.606644	32178.998221
653.949269	32166.793587
654.291843	31819.044712
654.634365	32213.797306
654.976836	31849.251306
655.319255	31880.153579
655.661622	31898.377351
656.003938	31705.039018
656.346203	31608.805912
656.688416	31854.143746
657.030577	31670.232372
657.372687	31543.659081
657.714746	31820.000011
658.056753	31957.187451
658.398708	31454.344958
658.740612	31528.943953
659.082465	31812.370225
659.424266	31649.568682
659.766016	31807.046766
660.107715	31686.709383
660.449362	31842.261747
660.790958	31835.655314
661.132503	31877.514535
661.473996	31928.493204
661.815438	32043.923024
662.156829	32246.607655
662.498168	32041.982180
662.839456	32097.535695
663.180693	32254.179468
663.521879	32421.616352
663.863013	32409.610844
664.204097	32411.082861
664.545129	32876.462020
664.886110	32856.970398
665.227040	32932.507048
665.567918	33062.011769
665.908746	33128.043323
666.249522	33316.728670
666.590248	33316.234637
666.930922	33437.948256
667.271545	33409.548916
667.612118	33515.748383
667.952639	33320.983404
668.293109	33387.627458
668.633528	33299.409786
668.973896	33248.045470
669.314213	33303.009170
669.654480	33053.953485
669.994695	33090.862293
670.334859	33000.371061
670.674973	32928.902623
671.015035	33092.432612
671.355047	33052.685635
671.695008	33012.432021
672.034918	32925.492282
672.374777	33010.833976
672.714585	32858.560882
673.054342	33114.175109
673.394049	32873.586042
673.733705	33172.576876
674.073310	32833.949969
674.412864	32921.824843
674.752368	32545.086813
675.091820	32852.846735
675.431223	32433.155553
675.770574	32181.730526
676.109875	32053.342420
676.449125	31789.579168
676.788324	31746.139546
677.127473	31215.921066
677.466571	31156.921922
677.805619	30827.469916
678.144616	30830.860092
678.483562	30766.774423
678.822458	30453.809510
679.161303	30393.224923
679.500098	30295.008123
679.838842	30209.366481
680.177535	30357.405005
680.516179	30642.509981
680.854771	30895.036501
681.193314	31738.083782
681.531805	32835.880731
681.870247	33609.458392
682.208638	34342.001060
682.546978	34565.062036
682.885268	34669.184548
683.223508	34128.656909
683.561697	33819.591328
683.899836	33624.312152
684.237925	33140.152175
684.575963	33000.935670
684.913951	32554.221384
685.251889	32713.645353
685.589776	32694.279761
685.927614	32703.742007
686.265401	32843.167719
686.603137	32940.963583
686.940824	33448.393527
687.278460	33831.770756
687.616046	33970.583968
687.953582	34553.903442
688.291068	34432.570430
688.628504	34716.952001
688.965889	34663.462838
689.303224	34285.766989
689.640510	33950.053869
689.977745	33227.938828
690.314930	32440.671914
690.652065	31930.222319
690.989150	31187.773784
691.326185	30322.951239
691.663170	29609.524626
692.000105	28876.059426
692.336990	28213.397233
692.673825	27782.766748
693.010610	27256.684535
693.347345	26705.310854
693.684030	26058.228346
694.020665	25789.600381
694.357251	25134.449507
694.693786	25096.469454
695.030272	24851.113975
695.366707	24329.818338
695.703093	24035.979563
696.039429	24035.712382
696.375716	23769.242031
696.711952	23746.879472
697.048139	23596.524538
697.384276	23426.680503
697.720363	23540.819788
698.056400	23341.139684
698.392388	23130.956337
698.728326	23086.813473
699.064214	22891.403226
699.400053	22840.089321
699.735842	22483.316781
700.071581	22204.760264
700.407270	21924.285587
700.742910	21743.383782
701.078501	21474.191207
701.414042	21200.822037
701.749533	20921.587484
702.084974	20563.816796
702.420366	20773.309506
702.755709	20325.798717
703.091002	20043.473937
703.426246	20072.195911
703.761440	19964.244643
704.096584	19710.750222
704.431679	19668.689354
704.766725	19573.222503
705.101721	19516.002887
705.436668	19603.408933
705.771565	19288.261200
706.106413	19625.655545
706.441212	19610.985787
706.775961	19745.466128
707.110661	19820.884310
707.445311	20166.402474
707.779913	20019.926707
708.114465	20266.565159
708.448967	20545.086389
708.783421	21224.480172
709.117825	21511.271414
709.452180	21728.081359
709.786485	22108.789297
710.120742	22908.278489
710.454949	22922.202156
710.789107	23387.359503
711.123216	24100.740746
711.457275	24211.086563
711.791286	24745.040537
712.125247	24811.646782
712.459159	24510.702500
712.793023	25169.359497
713.126837	24070.939965
713.460602	24315.095649
713.794318	23935.363173
714.127985	23552.681623
714.461602	22677.333149
714.795171	22630.165593
715.128691	21625.829115
715.462162	21085.833318
715.795584	20691.070642
716.128957	20417.605690
716.462281	20033.479850
716.795556	19784.162024
717.128782	19290.943094
717.461960	18757.485673
717.795088	18677.129681
718.128167	18280.718548
718.461198	17825.966142
718.794180	17682.878031
719.127113	17319.083164
719.459997	17137.163045
719.792833	16783.997451
720.125619	16758.413595
720.458357	16441.602282
720.791046	16281.112108
721.123686	16129.748943
721.456278	15885.857920
721.788821	15841.652042
722.121315	15580.444655
722.453761	15663.169990
722.786158	15592.230873
723.118506	15598.343272
723.450805	15469.486338
723.783056	15626.455266
724.115259	15515.819583
724.447412	15455.935717
724.779518	15697.338931
725.111574	15715.393823
725.443582	15918.605255
725.775542	15896.900567
726.107453	16356.205135
726.439315	16244.039462
726.771129	16642.154505
727.102895	17013.629570
727.434612	17216.687247
727.766281	17340.992019
728.097901	17589.291531
728.429473	17632.738715
728.760996	17614.585520
729.092471	17700.033078
729.423897	17568.063232
729.755276	17443.813913
730.086606	17554.094195
730.417887	18071.273729
730.749120	18592.448379
731.080305	18773.514022
731.411442	19094.882538
731.742530	19160.593979
732.073570	19261.306150
732.404562	19550.769204
732.735506	19364.944712
733.066401	19088.442464
733.397249	18565.374862
733.728048	17931.699303
734.058798	17110.079446
734.389501	16425.347081
734.720156	15986.333157
735.050762	15446.717967
735.381320	15101.540081
735.711831	14867.784298
736.042293	14516.108364
736.372707	14523.844015
736.703073	14321.885309
737.033391	14512.249361
737.363661	14466.778153
737.693883	14580.622531
738.024056	14748.442542
738.354182	14930.778556
738.684260	15220.269336
739.014290	15438.586586
739.344272	15621.406551
739.674207	15903.902730
740.004093	16008.695716
740.333931	16001.587689
740.663722	16036.858122
740.993464	16027.184147
741.323159	15853.765934
741.652806	15588.339102
741.982405	15373.205341
742.311956	15040.400967
742.641460	14922.884109
742.970915	14614.055463
743.300323	14282.932314
743.629683	14073.540427
743.958996	13796.581955
744.288260	13527.505327
744.617477	13230.382240
744.946647	13152.622442
745.275768	12883.666802
745.604842	12705.948485
745.933869	12540.923793
746.262847	12492.654745
746.591778	12413.241449
746.920662	12314.739823
747.249498	12310.694297
747.578286	12434.189964
747.907027	12577.199937
748.235720	12795.802011
748.564365	12826.666476
748.892963	12727.131414
749.221514	12779.914815
749.550017	12635.999955
749.878473	12598.834048
750.206881	12377.416489
750.535242	12287.378961
750.863555	12208.222763
751.191821	12106.033533
751.520039	12132.403809
751.848210	12039.933924
752.176334	12072.088924
752.504411	11981.363278
752.832440	11813.255921
753.160421	11881.424924
753.488356	11758.572005
753.816243	11673.389108
754.144082	11526.333609
754.471875	11476.590023
754.799620	11416.103739
755.127318	11391.820501
755.454969	11350.730056
755.782572	11303.176851
756.110129	11315.436937
756.437638	11235.232180
756.765100	11224.149203
757.092515	11228.217414
757.419882	11240.807696
757.747203	11246.859601
758.074477	11321.365334
758.401703	11275.667275
758.728882	11438.211719
759.056014	11486.642084
759.383099	11587.145048
759.710138	11696.573374
760.037129	11783.729883
760.364073	11797.855196
760.690970	11781.602516
761.017820	11777.309973
761.344623	11966.491874
761.671379	12289.677727
761.998088	12911.781317
762.324751	14454.308859
762.651366	17299.710010
762.977935	20943.997934
763.304456	23147.521568
763.630931	23610.924594
763.957359	22436.907919
764.283740	20539.704957
764.610074	18677.369136
764.936362	16562.811785
765.262602	15060.474842
765.588796	13590.804576
765.914943	12571.735326
766.241044	11726.038918
766.567097	11091.576939
766.893104	10547.684330
767.219064	10187.650164
767.544978	9812.842896
767.870845	9503.789918
768.196665	9317.703286
768.522438	9130.240418
768.848165	8960.078791
769.173846	8791.439592
769.499479	8672.516252
769.825066	8523.837501
770.150607	8335.270621
770.476101	8273.007330
770.801548	8163.067326
771.126949	8022.605657
771.452303	7937.163140
771.777611	7761.698219
772.102872	7750.952999
772.428087	7630.461861
772.753256	7508.274374
773.078378	7424.465191
773.403453	7283.539735
773.728482	7180.664909
774.053465	7120.304653
774.378401	7027.650766
774.703291	6937.262878
775.028135	6842.204360
775.352932	6797.678369
775.677683	6727.077009
776.002388	6638.234234
776.327046	6633.334233
776.651658	6547.725358
776.976224	6472.075283
777.300743	6455.636080
777.625216	6382.309977
777.949643	6346.389235
778.274024	6352.244536
778.598359	6282.510254
778.922647	6291.715401
779.246889	6252.386840
779.571086	6260.228354
779.895236	6265.700527
780.219339	6263.772286
780.543397	6264.435197
780.867409	6309.190561
781.191374	6308.598226
781.515294	6272.022134
781.839167	6325.811245
782.162995	6301.749818
782.486776	6247.824595
782.810511	6201.612338
783.134201	6133.914683
783.457844	6123.633250
783.781441	6076.634573
784.104993	6029.615731
784.428498	6003.245455
784.751958	5980.048585
785.075372	5962.833045
785.398739	5922.324853
785.722061	5945.607422
786.045337	5941.511485
786.368568	6051.867384
786.691752	6075.467545
787.014891	6324.034239
787.337983	6597.637823
787.661030	7031.398864
787.984031	7456.370654
788.306987	7713.716517
788.629897	7802.823952
788.952760	7720.441416
789.275579	7542.390383
789.598351	7242.882830
789.921078	6977.763508
790.243759	6706.499019
790.566395	6500.313306
790.888984	6308.003369
791.211529	6168.413819
791.534027	6007.260734
791.856480	5871.580599
792.178888	5812.513399
792.501249	5749.350262
792.823566	5644.998377
793.145836	5641.134333
793.468062	5620.251353
793.790241	5581.928502
794.112375	5620.720180
794.434464	5716.769285
794.756507	5751.752372
795.078505	5874.927925
795.400457	6080.617084
795.722364	6315.877652
796.044226	6511.532394
796.366042	6665.078379
796.687812	6612.884792
797.009538	6638.236755
797.331218	6552.887500
797.652852	6480.546942
797.974442	6362.684765
798.295986	6290.823117
798.617484	6164.007851
798.938938	6055.035749
799.260346	5988.608465
799.581709	5848.812227
799.903026	5801.664836
800.224299	5729.770420
800.545526	5609.851453
800.866708	5550.774171
801.187845	5496.397765
801.508936	5423.883287
801.829983	5393.563268
802.150984	5288.344304
802.471940	5263.350264
802.792851	5252.010188
803.113717	5226.403647
803.434538	5199.733423
803.755314	5167.714534
804.076045	5157.584335
804.396731	5118.515393
804.717372	5132.214729
805.037967	5133.228001
805.358518	5164.223535
805.679024	5221.475919
805.999485	5232.286674
806.319901	5252.501701
806.640272	5269.903764
806.960598	5314.568387
807.280879	5309.776770
807.601115	5346.904868
807.921306	5305.958096
808.241453	5304.042457
808.561554	5313.345907
808.881611	5278.322491
809.201623	5276.898365
809.521590	5226.020519
809.841513	5208.255493
810.161390	5228.039502
810.481223	5143.900123
810.801011	5127.375221
811.120755	5099.981591
811.440453	5046.603333
811.760107	5019.310527
812.079716	4993.416640
812.399281	4941.792704
812.718801	4935.221560
813.038276	4903.197630
813.357707	4869.152197
813.677093	4890.627513
813.996434	4830.605015
814.315731	4850.746945
814.634983	4850.605792
814.954191	4850.149568
815.273354	4920.012399
815.592473	4948.694043
815.911547	5026.680693
816.230577	5079.948046
816.549562	5168.521119
816.868502	5215.083736
817.187399	5276.686636
817.506250	5351.956104
817.825058	5376.808993
818.143821	5533.556110
818.462539	5696.158527
818.781213	5923.343166
819.099843	6284.710718
819.418429	6905.780872
819.736970	7522.573607
820.055466	8229.585351
820.373919	9131.846026
820.692327	10570.442619
821.010691	13244.482348
821.329011	19416.276261
821.647286	28912.060827
821.965517	39157.091924
822.283704	44585.386221
822.601847	46051.764613
822.919945	41517.198838
823.237999	36437.349095
823.556010	31274.428698
823.873976	26599.481911
824.191897	22418.583325
824.509775	19377.416526
824.827609	16634.733927
825.145398	15088.543986
825.463144	14340.194780
825.780845	14632.591786
826.098502	15882.187960
826.416116	18313.022262
826.733685	20575.524876
827.051210	21098.194227
827.368692	19684.241314
827.686129	17139.592881
828.003522	14676.137272
828.320872	12482.887510
828.638177	10850.655156
828.955439	9612.305796
829.272656	8562.304026
829.589830	7723.145995
829.906960	6998.104563
830.224046	6466.015816
830.541088	6062.748714
830.858086	5806.053160
831.175041	5604.681749
831.491952	5548.762750
831.808819	5581.918419
832.125642	5823.656870
832.442421	6365.228027
832.759157	7465.144782
833.075849	9217.669149
833.392497	11043.428879
833.709101	12156.079588
834.025662	11911.056826
834.342179	10868.052178
834.658653	9563.424247
834.975083	8469.133420
835.291469	7569.156389
835.607811	6847.850453
835.924110	6330.350804
836.240366	5850.503534
836.556578	5400.141973
836.872746	5047.500659
837.188871	4779.462509
837.504952	4555.395823
837.820990	4395.492944
838.136984	4281.767034
838.452935	4235.154005
838.768842	4261.741050
839.084706	4538.906209
839.400526	5274.428199
839.716303	6169.124622
840.032037	6729.143882
840.347727	6585.032417
840.663373	5995.172047
840.978977	5416.311474
841.294537	4982.999095
841.610054	4652.284280
841.925527	4415.314761
842.240957	4209.484449
842.556344	4030.836039
842.871687	3874.169581
843.186987	3725.253896
843.502244	3607.293417
843.817458	3522.559182
844.132629	3448.408850
844.447756	3403.802200
844.762840	3355.714634
845.077881	3318.543686
845.392879	3284.959519
845.707833	3261.409769
846.022745	3231.571179
846.337613	3219.779920
846.652438	3194.864017
846.967221	3189.177596
847.281960	3170.129596
847.596656	3160.291784
847.911309	3150.806853
848.225919	3137.422590
848.540485	3124.739047
848.855009	3118.760238
849.169490	3106.943774
849.483928	3100.551591
849.798323	3093.183944
850.112675	3084.114909
850.426984	3085.231524
850.741251	3076.616192
851.055474	3073.359607
851.369654	3075.169381
851.683792	3073.866243
851.997887	3077.019485
852.311938	3073.810790
852.625947	3076.515369
852.939914	3069.218299
853.253837	3075.696182
853.567718	3072.379103
853.881555	3067.474060
854.195350	3074.756007
854.509103	3068.232753
854.822812	3066.753175
855.136479	3062.843760
855.450103	3067.529512
855.763685	3062.324521
856.077224	3064.477094
856.390720	3070.592013
856.704173	3080.873447
857.017584	3088.253696
857.330953	3092.188317
857.644278	3098.996395
857.957561	3102.777260
858.270802	3099.457660
858.584000	3099.490428
858.897155	3092.979778
859.210268	3083.182295
859.523339	3069.964390
859.836367	3070.463464
860.149352	3063.292423
860.462295	3059.796382
860.775195	3048.778941
861.088054	3045.358518
861.400869	3045.282901
861.713642	3044.226779
862.026373	3053.532749
862.339062	3055.158521
862.651708	3065.013977
862.964312	3081.138107
863.276873	3088.596494
863.589392	3119.009776
863.901869	3142.965339
864.214303	3167.377126
864.526696	3185.333716
864.839045	3203.517158
865.151353	3214.179198
865.463619	3217.269426
865.775842	3214.605176
866.088023	3219.903429
866.400162	3214.627861
866.712258	3213.798591
867.024313	3212.361862
867.336325	3211.986297
867.648296	3213.128118
867.960224	3208.903631
868.272110	3215.434446
868.583954	3213.463355
868.895755	3224.662278
869.207515	3218.575085
869.519233	3237.184504
869.830909	3244.542068
870.142542	3255.672936
870.454134	3260.310797
870.765684	3274.262191
871.077191	3291.623924
871.388657	3306.520534
871.700081	3323.237000
872.011463	3340.787777
872.322803	3360.715458
872.634101	3377.147099
872.945357	3396.661406
873.256571	3426.487393
873.567744	3441.610854
873.878874	3445.573201
874.189963	3462.445943
874.501010	3462.758495
874.812015	3460.863021
875.122979	3478.068479
875.433900	3472.581183
875.744780	3476.183087
876.055618	3483.084427
876.366415	3480.379848
876.677169	3485.592401
876.987882	3504.917664
877.298554	3523.562372
877.609183	3563.246335
877.919771	3610.834827
878.230317	3676.763037
878.540822	3780.981331
878.851285	3927.575564
879.161707	4144.934995
879.472087	4520.216131
879.782425	5139.811748
880.092722	6305.782741
880.402977	8220.178558
880.713191	10572.542260
881.023363	12926.471240
881.333494	14261.071350
881.643583	14712.294948
881.953631	14314.058918
882.263637	13469.300165
882.573602	12443.201026
882.883526	11502.551965
883.193408	10562.966588
883.503248	9652.546806
883.813048	8831.083225
884.122806	8071.966115
884.432522	7308.911863
884.742197	6657.380537
885.051831	6093.272901
885.361424	5603.219815
885.670975	5219.973655
885.980485	4894.557092
886.289954	4633.269047
886.599382	4416.660749
886.908768	4240.515272
887.218113	4079.929316
887.527417	3947.218420
887.836680	3827.662416
888.145901	3726.615008
888.455082	3655.791837
888.764221	3584.704006
889.073319	3522.347454
889.382376	3489.521980
889.691392	3468.187817
890.000366	3460.875624
890.309300	3455.683235
890.618193	3454.299438
890.927044	3453.739870
891.235855	3458.934779
891.544625	3474.340546
891.853353	3505.966224
892.162041	3560.549318
892.470687	3649.888646
892.779293	3768.877521
893.087858	3945.471661
893.396381	4217.026015
893.704864	4623.693376
894.013306	5188.196742
894.321707	5753.635243
894.630068	6100.484271
894.938387	6145.872300
895.246665	5963.657274
895.554903	5653.880890
895.863100	5315.437986
896.171256	5054.202873
896.479371	4814.629598
896.787446	4592.279425
897.095480	4397.123757
897.403473	4251.104215
897.711425	4108.835292
898.019336	3986.347857
898.327207	3864.732541
898.635038	3764.612705
898.942827	3662.347858
899.250576	3575.776123
899.558284	3491.740088
899.865952	3439.901903
900.173579	3377.439486
900.481165	3332.820234
900.788711	3289.867082
901.096216	3258.339706
901.403681	3230.038668
901.711105	3218.693552
902.018489	3214.403530
902.325832	3246.848396
902.633135	3305.545071
902.940397	3472.654280
903.247619	3870.068602
903.554800	4619.879743
903.861941	5566.714299
904.169041	6266.628099
904.476101	6471.296425
904.783121	6204.815991
905.090100	5808.072143
905.397039	5397.303804
905.703938	5033.531622
906.010796	4720.251636
906.317614	4469.779387
906.624391	4236.888162
906.931129	4041.571176
907.237826	3865.140874
907.544483	3695.488403
907.851099	3525.815768
908.157675	3365.073536
908.464211	3228.977506
908.770707	3128.194758
909.077163	3049.976215
909.383578	2988.771566
909.689954	2947.056018
909.996289	2914.802716
910.302584	2899.545663
910.608839	2886.040412
910.915054	2871.748741
911.221229	2870.496014
911.527363	2872.361241
911.833458	2876.454658
912.139513	2888.616442
912.445527	2904.720408
912.751502	2940.515121
913.057436	2980.161275
913.363331	3039.281407
913.669186	3124.996146
913.975000	3237.718866
914.280775	3422.767021
914.586510	3686.051363
914.892205	4056.777817
915.197859	4549.800142
915.503475	5125.915807
915.809050	5615.638697
916.114585	5902.707203
916.420081	5966.649198
916.725536	5901.386421
917.030952	5667.141646
917.336328	5464.683866
917.641665	5253.953553
917.946961	5023.270353
918.252218	4831.005786
918.557435	4607.173514
918.862612	4409.212444
919.167750	4242.856888
919.472848	4054.133732
919.777906	3890.235738
920.082925	3732.891244
920.387904	3580.393820
920.692843	3469.145637
920.997743	3371.977396
921.302603	3278.721091
921.607423	3216.097357
921.912204	3150.950526
922.216946	3102.709205
922.521647	3055.897050
922.826310	3013.523631
923.130932	2979.483240
923.435516	2939.033022
923.740059	2910.719381
924.044564	2881.062273
924.349028	2857.721731
924.653454	2827.477328
924.957840	2800.290385
925.262186	2782.600977
925.566493	2760.727410
925.870761	2735.398132
926.174989	2727.969992
926.479178	2713.764021
926.783328	2692.881041
927.087438	2682.460976
927.391509	2672.010664
927.695541	2658.545742
927.999533	2649.111223
928.303486	2641.415901
928.607400	2633.763430
928.911275	2628.573562
929.215110	2621.765484
929.518906	2620.048971
929.822663	2619.801954
930.126381	2620.104423
930.430060	2623.300515
930.733699	2627.638428
931.037299	2626.090794
931.340861	2629.034827
931.644383	2631.278141
931.947866	2629.241515
932.251309	2629.859056
932.554714	2627.461987
932.858080	2624.827985
933.161407	2622.377984
933.464694	2618.113168
933.767943	2613.629061
934.071153	2612.031016
934.374323	2605.878287
934.677455	2607.226796
934.980548	2601.517689
935.283602	2601.048862
935.586617	2595.795980
935.889593	2599.939808
936.192530	2599.508789
936.495428	2605.822835
936.798287	2616.633589
937.101108	2630.015332
937.403890	2651.699855
937.706632	2678.750687
938.009336	2707.964173
938.312002	2738.435428
938.614628	2759.996443
938.917216	2779.447735
939.219765	2787.914353
939.522275	2798.599078
939.824747	2801.555715
940.127179	2790.387039
940.429573	2785.678601
940.731929	2786.525515
941.034246	2775.563526
941.336524	2774.323402
941.638763	2768.281579
941.940964	2763.686567
942.243126	2744.542786
942.545250	2736.524830
942.847335	2722.719631
943.149381	2709.559698
943.451389	2696.752647
943.753359	2685.223528
944.055290	2673.714574
944.357182	2665.641166
944.659036	2659.064981
944.960851	2656.841832
945.262628	2653.418889
945.564367	2654.913591
945.866067	2651.581388
946.167729	2649.537200
946.469352	2652.466111
946.770937	2650.681542
947.072484	2642.154430
947.373992	2643.684421
947.675462	2636.495735
947.976893	2632.493059
948.278286	2628.492903
948.579641	2628.074488
948.880958	2624.543159
949.182236	2624.417131
949.483476	2620.520319
949.784678	2619.617952
950.085841	2620.182561
950.386967	2625.690022
950.688054	2631.036166
950.989103	2638.305509
951.290114	2645.668115
951.591087	2658.321411
951.892021	2668.970848
952.192917	2682.899556
952.493776	2690.657892
952.794596	2696.235929
953.095378	2698.607792
953.396122	2694.821885
953.696828	2692.286185
953.997496	2685.619259
954.298126	2678.314627
954.598718	2669.832886
954.899272	2659.957265
955.199788	2651.488127
955.500266	2634.002885
955.800706	2620.444701
956.101108	2604.307968
956.401472	2592.680547
956.701798	2578.424163
957.002087	2564.704663
957.302337	2560.991853
957.602550	2546.896787
957.902724	2534.152750
958.202861	2525.706297
958.502960	2520.249248
958.803022	2511.202897
959.103045	2504.719974
959.403031	2495.787049
959.702979	2492.154898
960.002889	2487.375884
960.302762	2482.322127
960.602596	2477.331385
960.902393	2477.855665
961.202153	2473.472382
961.501875	2467.854016
961.801559	2469.366362
962.101205	2466.084571
962.400814	2463.657255
962.700385	2461.292954
962.999918	2458.943776
963.299414	2460.660289
963.598873	2456.231635
963.898293	2455.586368
964.197677	2456.231635
964.497022	2453.033023
964.796331	2455.629217
965.095601	2452.213836
965.394835	2450.981274
965.694030	2450.293156
965.993189	2451.918928
966.292309	2450.124278
966.591393	2450.900615
966.890439	2447.041612
967.189447	2448.647219
967.488419	2450.472117
967.787353	2452.473455
968.086249	2450.005810
968.385108	2449.199226
968.683930	2452.523867
968.982714	2452.710389
969.281462	2452.967488
969.580172	2456.163580
969.878844	2457.030658
970.177480	2459.513427
970.476078	2462.472584
970.774639	2464.037862
971.073162	2465.761937
971.371649	2465.948459
971.670098	2467.251598
971.968510	2471.944912
972.266885	2467.874180
972.565223	2476.156796
972.863524	2474.873822
973.161788	2478.843731
973.460014	2479.494040
973.758204	2476.421457
974.056356	2481.860862
974.354471	2480.109061
974.652550	2479.131077
974.950591	2481.157621
975.248595	2482.647282
975.546563	2480.759369
975.844493	2478.294245
976.142386	2474.838534
976.440243	2475.806436
976.738062	2471.614716
977.035845	2468.358131
977.333590	2467.715384
977.631299	2465.600620
977.928971	2462.782615
978.226606	2460.564507
978.524204	2458.447222
978.821765	2460.481328
979.119290	2459.016873
979.416777	2459.952007
979.714228	2458.353961
980.011642	2460.637604
980.309020	2463.480815
980.606360	2468.025415
980.903664	2474.762917
981.200931	2491.224805
981.498162	2507.159892
981.795356	2538.762886
982.092513	2573.660273
982.389633	2614.906994
982.686717	2659.405259
982.983764	2690.925073
983.280775	2708.223793
983.577749	2709.501725
983.874686	2699.245498
984.171587	2684.454752
984.468451	2669.296003
984.765279	2651.825884
985.062070	2632.293933
985.358824	2611.839452
985.655543	2591.662233
985.952224	2576.390058
986.248869	2543.922507
986.545478	2520.347551
986.842050	2497.261587
987.138586	2477.845582
987.435086	2468.794191
987.731549	2455.936728
988.027975	2451.734926
988.324366	2444.342074
988.620719	2443.419543
988.917037	2436.926537
989.213318	2436.951743
989.509563	2431.577872
989.805772	2431.499735
990.101944	2427.822213
990.398080	2431.850095
990.694180	2431.671134
990.990244	2430.302461
991.286271	2430.831782
991.582262	2429.130392
991.878217	2430.015115
992.174136	2430.887234
992.470019	2433.533840
992.765865	2433.735486
993.061676	2437.234047
993.357450	2438.882504
993.653188	2440.157916
993.948890	2445.168823
994.244556	2452.382714
994.540186	2462.873356
994.835780	2472.018009
995.131337	2484.028558
995.426859	2499.683861
995.722345	2521.912829
996.017795	2540.595345
996.313208	2552.555482
996.608586	2564.918912
996.903928	2564.944118
997.199234	2566.980744
997.494504	2562.075702
997.789738	2555.547407
998.084936	2547.511808
998.380099	2533.573018
998.675225	2521.186903
998.970316	2508.647033
999.265371	2495.623212
999.560390	2481.946561
999.855373	2473.280818
1000.150320	2462.815382
1000.445232	2457.290278
1000.740108	2448.564040
1001.034948	2443.270829
1001.329752	2434.690785
1001.624521	2432.969231
1001.919254	2425.883889
1002.213951	2427.585279
1002.508613	2420.353743
1002.803239	2420.625966
1003.097829	2417.414751
1003.392384	2420.615883
1003.686903	2416.741757
1003.981386	2418.463311
1004.275834	2419.582447
1004.570246	2415.655388
1004.864623	2415.428536
1005.158964	2415.005079
1005.453270	2412.718916
1005.747540	2414.163207
1006.041775	2416.214956
1006.335974	2414.533731
1006.630138	2411.365366
1006.924266	2412.650860
1007.218359	2412.252609
1007.512416	2410.316806
1007.806438	2413.734708
1008.100425	2411.357804
1008.394376	2411.314955
1008.688292	2411.584656
1008.982172	2408.565005
1009.276017	2410.755387
1009.569827	2411.211611
1009.863602	2408.375962
1010.157341	2410.178174
1010.451045	2412.408885
1010.744714	2410.820922
1011.038347	2409.558113
1011.331945	2409.021230
1011.625508	2407.811353
1011.919036	2408.499470
1012.212528	2411.330078
1012.505986	2407.271949
1012.799408	2407.392937
1013.092795	2407.176167
1013.386147	2408.567526
1013.679464	2406.281362
1013.972745	2406.843451
1014.265992	2409.656415
1014.559204	2407.304717
1014.852380	2405.220200
1015.145521	2407.082906
1015.438628	2405.996537
1015.731699	2408.925448
1016.024736	2406.838410
1016.317737	2407.203894
1016.610703	2407.289593
1016.903635	2404.723646
1017.196531	2404.524520
1017.489393	2406.445200
1017.782219	2404.887483
1018.075011	2409.197670
1018.367768	2407.579460
1018.660490	2409.520304
1018.953177	2409.520304
1019.245829	2409.520304
