Dividing Wavelength (nm)	Counts (n)	Blue Motor Position (mm): 47.000000	Red Motor Position (mm): 0.000000	
326.493990	1974.809005
326.888308	1974.809005
327.282561	1974.809005
327.676750	1950.069542
328.070874	1953.522733
328.464933	1958.647066
328.858929	1967.055710
329.252859	1979.797227
329.646726	1993.541932
330.040528	2007.687410
330.434265	2028.066275
330.827938	2047.232742
331.221547	2066.873077
331.615091	2087.647672
332.008571	2110.189191
332.401986	2128.670061
332.795338	2150.377270
333.188625	2172.812925
333.581847	2189.567200
333.975006	2206.616382
334.368100	2223.317725
334.761129	2239.986300
335.154095	2257.768970
335.546996	2300.689354
335.939833	2385.176572
336.332606	2396.703170
336.725315	2411.617424
337.117960	2419.259813
337.510540	2428.205341
337.903056	2439.459717
338.295508	2442.081117
338.687896	2449.073197
339.080220	2459.180710
339.472480	2462.797738
339.864676	2467.516258
340.256807	2470.951805
340.648875	2467.375106
341.040879	2473.767289
341.432818	2472.214614
341.824694	2475.163689
342.216506	2472.801908
342.608253	2477.873309
342.999937	2475.612351
343.391557	2473.041363
343.783113	2470.170426
344.174605	2468.612709
344.566033	2469.570528
344.957397	2464.055506
345.348697	2468.544654
345.739934	2463.284210
346.131106	2461.474435
346.522215	2462.563325
346.913260	2458.938735
347.304241	2461.698767
347.695159	2458.434620
348.086012	2454.207612
348.476802	2451.273661
348.867528	2452.082766
349.258191	2452.707869
349.648789	2449.511777
350.039324	2447.835594
350.429796	2448.357353
350.820203	2446.419029
351.210548	2447.180244
351.600828	2446.658484
351.991045	2447.195367
352.381198	2445.544389
352.771288	2446.217383
353.161314	2442.411312
353.551276	2445.322578
353.941175	2442.602876
354.331010	2448.453135
354.720782	2450.756942
355.110490	2449.589915
355.500135	2446.058587
355.889717	2445.304934
356.279235	2447.495316
356.668689	2448.395162
357.058080	2447.949020
357.447408	2448.120419
357.836672	2446.771910
358.225873	2447.391972
358.615010	2449.423557
359.004084	2451.054370
359.393095	2451.823146
359.782043	2450.015893
360.170927	2453.706017
360.559748	2454.532767
360.948505	2456.415637
361.337199	2456.304732
361.725830	2455.732561
362.114398	2459.024435
362.502903	2460.350258
362.891344	2463.533747
363.279722	2459.170628
363.668037	2462.437296
364.056289	2460.909826
364.444478	2463.034673
364.832603	2465.847636
365.220665	2464.320167
365.608665	2463.715228
365.996601	2467.543985
366.384474	2469.555405
366.772284	2468.811835
367.160031	2469.820066
367.547715	2472.723770
367.935336	2468.527010
368.322893	2470.722432
368.710388	2472.917855
369.097820	2474.014306
369.485189	2473.041363
369.872495	2477.916159
370.259738	2472.847278
370.646918	2478.460603
371.034035	2476.907928
371.421090	2479.559575
371.808081	2478.069914
372.195010	2480.872795
372.581875	2482.463279
372.968678	2481.596201
373.355418	2486.249186
373.742096	2486.102992
374.128710	2488.802530
374.515262	2491.164311
374.901751	2493.014414
375.288177	2493.939466
375.674540	2496.669251
376.060841	2499.744355
376.447079	2501.176043
376.833254	2509.289780
377.219367	2509.947650
377.605417	2521.658251
377.991404	2525.502130
378.377329	2541.767413
378.763191	2549.697148
379.148991	2566.234653
379.534727	2586.873137
379.920402	2606.430294
380.306013	2627.078860
380.691563	2655.490803
381.077049	2679.277487
381.462474	2709.683207
381.847835	2746.191243
382.233134	2786.245731
382.618371	2819.620690
383.003545	2867.317567
383.388657	2917.527459
383.773706	2977.179433
384.158693	3023.094262
384.543618	3082.413519
384.928480	3143.933240
385.313280	3216.561144
385.698017	3289.569654
386.082692	3375.178529
386.467305	3435.183383
386.851856	3531.419010
387.236344	3643.534272
387.620770	3707.143551
388.005133	3808.538799
388.389435	3927.855348
388.773674	4011.929192
389.157851	4128.354640
389.541965	4247.497270
389.926018	4298.803613
390.310008	4450.154175
390.693936	4571.484666
391.077802	4692.179971
391.461606	4820.666380
391.845348	4941.707004
392.229027	5070.334565
392.612645	5271.690853
392.996200	5401.828239
393.379694	5577.746864
393.763125	5789.767713
394.146494	5909.553090
394.529801	6062.584877
394.913047	6303.521784
395.296230	6353.668662
395.679351	6444.399348
396.062410	6706.554472
396.445408	6666.353791
396.828343	6844.445153
397.211217	7002.134966
397.594028	6953.853315
397.976778	7170.973291
398.359466	7359.376333
398.742092	7385.040848
399.124656	7563.638846
399.507158	7774.356556
399.889598	7830.089033
400.271977	8065.952018
400.654294	8136.802915
401.036549	8356.607305
401.418742	8415.092251
401.800874	8734.237619
402.182944	8845.241306
402.564952	9226.269358
402.946898	9091.756250
403.328783	9172.384464
403.710606	9383.124860
404.092367	9668.865021
404.474067	10036.087873
404.855705	9857.807468
405.237282	9830.794445
405.618797	10269.800807
406.000250	10526.713130
406.381642	10907.612632
406.762972	10868.021931
407.144240	10688.463592
407.525447	10955.813625
407.906593	10903.665409
408.287677	11168.036120
408.668700	11327.883546
409.049661	11301.291460
409.430560	11471.044754
409.811399	11445.309663
410.192176	11615.930036
410.572891	11699.247706
410.953545	12179.563803
411.334138	11665.335864
411.714669	12261.923654
412.095139	11585.710839
412.475547	12082.009915
412.855894	11926.293714
413.236180	12256.055751
413.616405	11944.945983
413.996568	12229.314951
414.376670	12201.381917
414.756711	12080.663927
415.136691	12357.347656
415.516609	12534.637475
415.896466	12601.233638
416.276262	12890.081671
416.655997	13338.189836
417.035670	13369.646636
417.415283	14016.519936
417.794834	14112.639616
418.174324	13859.838354
418.553753	13762.859157
418.933121	14253.136574
419.312428	14057.398652
419.691674	13971.777175
420.070859	14425.677626
420.449983	14083.017796
420.829045	14626.118944
421.208047	14382.452252
421.586988	14831.137630
421.965867	15077.355145
422.344686	15076.077213
422.723444	15639.874818
423.102141	14327.533922
423.480777	15520.601118
423.859352	15030.089287
424.237866	16131.601567
424.616319	15831.209292
424.994712	16483.602655
425.373044	16271.337310
425.751314	16954.879963
426.129524	16076.675675
426.507673	17152.657032
426.885762	16870.397787
427.263789	17060.419040
427.641756	17232.773569
428.019662	17285.640149
428.397508	17326.473496
428.775292	17618.817569
429.153016	17593.142972
429.530679	17660.591090
429.908282	17697.749435
430.285824	17406.133809
430.663305	18106.304707
431.040726	17702.455352
431.418086	17537.060136
431.795385	18179.565276
432.172624	18600.161344
432.549802	18149.832550
432.926920	18349.051389
433.303977	18241.326972
433.680974	18490.982555
434.057910	18769.483619
434.434786	18803.750863
434.811601	18718.207523
435.188355	19739.991434
435.565050	19400.076513
435.941683	19345.253965
436.318257	20224.511854
436.694770	20035.231651
437.071222	20622.793255
437.447614	19702.928871
437.823946	19733.329550
438.200218	19876.526045
438.576429	19652.824843
438.952580	19928.311298
439.328670	19891.941894
439.704700	20304.696447
440.080670	19873.697958
440.456580	20464.722835
440.832429	20627.630242
441.208218	19639.561567
441.583947	20071.283462
441.959616	20190.542039
442.335224	20422.672050
442.710773	20553.048891
443.086261	21079.741083
443.461689	20443.960843
443.837057	20581.435629
444.212365	21214.957433
444.587612	21212.454500
444.962800	20803.858898
445.337927	21207.776309
445.712995	19952.972623
446.088002	21787.314917
446.462949	21974.112352
446.837837	22155.064569
447.212664	22112.320626
447.587431	24894.397322
447.962139	27800.914902
448.336786	30201.877847
448.711374	28695.018989
449.085901	25012.791341
449.460369	24956.726148
449.834776	24856.243349
450.209124	27321.712899
450.583412	26875.966514
450.957640	27414.271004
451.331808	26063.239253
451.705917	24703.120822
452.079965	24729.072682
452.453954	25087.168525
452.827883	24972.741894
453.201752	24776.537666
453.575562	24938.756956
453.949311	26047.011779
454.323001	26101.110921
454.696632	25864.078388
455.070202	27400.990085
455.443713	27553.411892
455.817164	28134.987126
456.190556	28661.979267
456.563888	28113.600031
456.937160	28568.425533
457.310373	26890.918577
457.683526	27341.345673
458.056619	27305.971896
458.429653	27245.588956
458.802628	27828.084200
459.175542	27925.330578
459.548398	29223.830986
459.921194	30776.524015
460.293930	31451.358074
460.666607	33481.798733
461.039224	35232.926700
461.411782	35635.989635
461.784280	34453.468533
462.156719	33967.828978
462.529099	33411.285593
462.901419	32100.174739
463.273680	31038.076720
463.645882	31132.114404
464.018024	31100.929827
464.390106	31909.868661
464.762130	34585.945015
465.134094	38601.869322
465.505999	43880.645516
465.877845	48472.866968
466.249631	49690.741682
466.621358	47984.348913
466.993026	45867.049175
467.364634	43789.476249
467.736184	41829.556292
468.107674	40574.503068
468.479105	39796.070777
468.850477	39104.308522
469.221790	37684.049126
469.593043	35957.668183
469.964238	35069.938634
470.335373	34971.507585
470.706449	36665.443662
471.077467	39162.770784
471.448425	43738.144700
471.819324	46600.239631
472.190164	44812.452393
472.560945	41254.035483
472.931667	38171.521141
473.302330	37061.998468
473.672934	36233.719247
474.043479	36730.421615
474.413965	35953.340352
474.784393	35573.731385
475.154761	36450.229243
475.525070	36493.053845
475.895321	36029.350870
476.265513	36632.759341
476.635645	37586.969106
477.005719	37394.462564
477.375734	37873.289000
477.745691	38560.811644
478.115588	39877.830730
478.485427	41830.015037
478.855207	45154.192212
479.224928	47770.644320
479.594591	49430.111507
479.964194	48434.344991
480.333739	48576.402186
480.703226	48596.597048
481.072653	49229.786136
481.442022	49730.884390
481.811333	49991.476756
482.180584	48724.899455
482.549777	48184.989357
482.918912	47656.063934
483.287988	47368.652630
483.657005	46546.715180
484.025964	45921.186126
484.394864	45919.885508
484.763706	45501.252969
485.132489	44615.398730
485.501213	44441.877174
485.869879	44599.745948
486.238487	44194.611098
486.607036	44395.188527
486.975527	43852.699880
487.343959	44069.237602
487.712333	44145.921114
488.080648	44046.698603
488.448905	44509.718502
488.817104	44309.625023
489.185244	45253.901194
489.553326	46910.182372
489.921350	49631.417383
490.289315	52520.752190
490.657222	53144.877283
491.025070	53445.377943
491.392861	52548.165984
491.760593	51315.523210
492.128267	49627.366816
492.495883	48117.364799
492.863440	46714.071406
493.230939	45353.317789
493.598380	44276.824756
493.965763	43956.172083
494.333088	43138.587670
494.700354	42658.100173
495.067563	42352.213040
495.434713	42231.852972
495.801805	42311.767863
496.168839	41929.373658
496.535815	41603.901643
496.902733	41635.199646
497.269593	41227.118242
497.636395	41171.564727
498.003139	41560.419170
498.369825	41032.333099
498.736453	41335.130005
499.103023	40864.989477
499.469535	40737.135733
499.835989	40836.380928
500.202385	40499.296615
500.568723	40514.452844
500.935003	40713.908616
501.301226	40500.047747
501.667390	41109.866045
502.033497	41378.516695
502.399546	40821.257467
502.765537	40135.882355
503.131470	40511.927226
503.497345	40876.359799
503.863163	39547.599865
504.228923	40159.447228
504.594625	40555.029091
504.960269	39855.372390
505.325856	40552.052290
505.691385	39921.741701
506.056856	40060.653216
506.422270	40487.573412
506.787625	40053.787164
507.152924	40259.156210
507.518164	40369.733920
507.883347	39579.573384
508.248472	39827.633441
508.613540	40298.222632
508.978550	40599.524836
509.343503	40354.527279
509.708398	40559.084699
510.073236	41088.758734
510.438016	41077.174163
510.802738	40539.519981
511.167403	41165.114571
511.532010	41404.874368
511.896561	41696.250540
512.261053	42539.985939
512.625488	42088.555653
512.989866	41970.252375
513.354186	41804.640389
513.718449	41802.303814
514.082655	42472.845331
514.446803	42139.163796
514.810894	42679.187320
515.174927	42610.320117
515.538904	42509.275229
515.902822	43187.869990
516.266684	42621.171201
516.630488	43049.021489
516.994235	42885.856983
517.357925	43466.862567
517.721558	43648.092048
518.085133	43948.421309
518.448651	44096.316160
518.812112	43858.119120
519.175516	43958.112927
519.538863	44293.619360
519.902152	44278.029591
520.265385	44738.352473
520.628560	44765.521771
520.991678	44567.147326
521.354739	44814.882229
521.717743	45120.298014
522.080690	45027.414755
522.443580	45567.022383
522.806413	45623.889119
523.169189	45565.515078
523.531908	45753.461896
523.894569	45602.776767
524.257174	45765.573268
524.619722	46073.141626
524.982213	46047.288069
525.344647	45972.754609
525.707025	46025.351488
526.069345	46412.890190
526.431608	46345.636156
526.793815	46653.532189
527.155964	46195.941613
527.518057	46366.418313
527.880093	46150.611558
528.242072	46668.043150
528.603995	46369.455608
528.965860	46382.388688
529.327669	46463.291646
529.689421	46366.158693
530.051117	46316.689851
530.412755	46468.287429
530.774337	46531.589198
531.135862	46341.247832
531.497331	46547.098308
531.858743	46451.807897
532.220098	46801.185065
532.581396	46502.158942
532.942638	46173.407656
533.303824	46454.273022
533.664953	46421.767662
534.026025	46150.026784
534.387040	46613.621374
534.747999	46572.087308
535.108902	46734.805671
535.469748	46268.181348
535.830537	46368.649023
536.191270	46562.095741
536.551947	46223.632671
536.912567	46532.204219
537.273131	46661.661050
537.633638	46133.842160
537.994089	46465.784496
538.354483	46069.133909
538.714821	46651.311561
539.075103	46982.220461
539.435328	46762.204342
539.795497	46637.791186
540.155609	46630.257182
540.515665	47082.504134
540.875665	46546.367341
541.235609	46873.409676
541.595496	46831.739498
541.955328	47503.891664
542.315102	46892.336688
542.674821	46668.050712
543.034483	46699.368880
543.394090	46671.340065
543.753640	46635.363871
544.113134	47644.534815
544.472571	46662.195412
544.831953	47885.799397
545.191278	47110.351468
545.550548	46824.452510
545.909761	47291.152451
546.268918	47492.912031
546.628019	47793.279100
546.987064	47346.209413
547.346053	46631.335989
547.704986	47490.628388
548.063863	47065.482678
548.422684	47263.171527
548.781449	47120.882439
549.140158	47495.692227
549.498811	47349.503807
549.857408	46784.617312
550.215949	47634.434863
550.574434	47558.439469
550.932864	47318.745207
551.291237	48035.972849
551.649555	47642.346954
552.007817	47889.741579
552.366022	47530.272022
552.724173	47692.387968
553.082267	48118.622567
553.440305	48420.507024
553.798288	47716.605671
554.156215	48040.434271
554.514086	48239.877440
554.871902	47981.019231
555.229661	47994.398454
555.587365	47816.256680
555.945014	47916.500024
556.302606	47842.342130
556.660143	48054.660407
557.017625	48151.213626
557.375050	47930.123742
557.732421	48292.091191
558.089735	48272.909601
558.446994	48196.309268
558.804197	48669.913069
559.161345	48603.170713
559.518437	47833.071448
559.875474	48152.743617
560.232455	48316.397114
560.589381	48490.992437
560.946251	48185.120427
561.303065	48872.814470
561.659825	48672.642854
562.016528	48352.307774
562.373177	48060.606448
562.729770	48540.347853
563.086307	48049.319304
563.442789	48527.888642
563.799216	48568.011185
564.155587	48374.362822
564.511904	48381.054954
564.868164	48469.880084
565.224370	48732.289786
565.580520	48451.646231
565.936615	48673.981280
566.292654	48387.578207
566.648638	48627.869846
567.004567	48588.193445
567.360441	48615.675295
567.716260	48458.789546
568.072023	48775.615983
568.427732	48760.908417
568.783385	48308.366556
569.138982	48697.233602
569.494525	48675.730561
569.850013	48434.012275
570.205445	48398.033560
570.560823	48372.850476
570.916145	48228.991068
571.271412	48261.408208
571.626625	48019.014408
571.981782	48068.465607
572.336884	47751.503058
572.691931	48069.756142
573.046923	47687.908903
573.401860	47534.420892
573.756743	47520.935805
574.111570	47641.230339
574.466342	47488.732914
574.821059	47620.627143
575.175722	47131.652864
575.530330	47140.716858
575.884882	46876.361271
576.239380	46837.035230
576.593823	46830.489292
576.948211	46733.520177
577.302544	46258.734226
577.656823	46287.340253
578.011047	46502.584919
578.365216	46227.438743
578.719330	46020.706064
579.073389	45880.307409
579.427394	45957.691641
579.781344	45916.321412
580.135239	45578.324650
580.489080	45683.533531
580.842866	45140.669317
581.196597	45614.910824
581.550273	45545.529423
581.903895	45419.709785
582.257463	45839.070771
582.610975	45225.191823
582.964434	45500.428741
583.317837	45143.628474
583.671186	44988.164331
584.024481	45203.504779
584.377721	44722.908898
584.730906	45036.236774
585.084037	45054.218570
585.437113	44766.111586
585.790135	44808.835365
586.143103	44408.976083
586.496016	44539.443665
586.848874	44566.277727
587.201679	44574.840127
587.554428	44043.177357
587.907124	44240.397378
588.259765	43997.174308
588.612352	44247.331485
588.964884	43634.556550
589.317362	43931.782981
589.669786	43878.624013
590.022155	43637.346828
590.374470	44064.002364
590.726731	43579.141666
591.078937	43113.344092
591.431090	43200.876167
591.783188	42852.479504
592.135232	42525.893393
592.487222	42776.882361
592.839157	42858.077705
593.191038	42549.581775
593.542866	42308.291987
593.894639	41703.953423
594.246358	41981.158911
594.598022	41960.923720
594.949633	41558.233830
595.301190	41513.922088
595.652692	41341.565038
596.004141	41665.524707
596.355535	40700.796575
596.706876	40663.928097
597.058162	40471.968520
597.409395	40939.873296
597.760573	41038.246372
598.111698	40598.171286
598.462768	40613.463626
598.813785	40660.898363
599.164748	40087.008368
599.515657	40485.047793
599.866511	39965.466149
600.217312	40586.841292
600.568060	39541.558042
600.918753	40287.747114
601.269392	40246.666752
601.619978	39887.900435
601.970510	40116.541968
602.320988	40293.133587
602.671412	40593.538465
603.021783	40345.364982
603.372100	39995.352629
603.722363	40095.336354
604.072572	40169.222026
604.422728	40190.331857
604.772830	39983.601700
605.122878	40082.405795
605.472872	40025.523935
605.822813	40312.829375
606.172701	40121.903235
606.522534	40374.649045
606.872314	40622.777158
607.222041	40383.869315
607.571714	40772.060847
607.921333	40216.558460
608.270899	40508.451350
608.620411	40845.157577
608.969870	40657.205718
609.319276	40639.569241
609.668627	40682.638339
610.017926	41170.803513
610.367171	41324.220948
610.716362	41423.196442
611.065500	41376.217929
611.414585	41555.481360
611.763616	41841.763446
612.112594	41770.504216
612.461518	41989.174346
612.810389	42273.823098
613.159207	42142.521205
613.507971	42214.874365
613.856682	42704.456103
614.205340	42566.404105
614.553945	43280.586891
614.902496	42724.371182
615.250994	43204.999831
615.599439	43270.822176
615.947830	43481.181965
616.296169	43526.547308
616.644454	43645.508457
616.992686	43804.876974
617.340864	44331.606974
617.688990	44052.536259
618.037063	44642.938554
618.385082	44615.852434
618.733048	44922.087407
619.080961	44944.691941
619.428821	44944.578515
619.776628	45067.015539
620.124382	44884.329164
620.472083	45021.251944
620.819731	45145.660059
621.167326	44814.045397
621.514868	44800.378829
621.862357	44362.791552
622.209793	44385.204522
622.557176	44062.096808
622.904506	43825.782639
623.251783	43469.864574
623.599007	43252.043878
623.946179	43023.755226
624.293297	42983.380625
624.640363	42372.755742
624.987376	42362.108825
625.334336	42119.011784
625.681243	41769.911880
626.028097	41710.713610
626.374899	41573.591705
626.721647	41524.695033
627.068343	41415.808631
627.414987	41194.196987
627.761577	40944.483432
628.108115	41291.468571
628.454600	40738.035579
628.801032	40925.695051
629.147412	40869.783614
629.493739	40888.665256
629.840014	40528.013548
630.186236	40846.891734
630.532405	40469.410134
630.878521	40684.231344
631.224585	40550.245036
631.570597	40264.855235
631.916556	40424.430439
632.262462	40368.168642
632.608316	40392.451880
632.954117	40286.121342
633.299866	40286.096136
633.645562	40208.991688
633.991206	39713.864681
634.336797	39271.808421
634.682336	39278.661869
635.027823	39019.299545
635.373257	38845.089871
635.718639	38591.030841
636.063968	38467.837644
636.409245	37878.977942
636.754470	37922.762884
637.099642	37670.909358
637.444762	37182.502209
637.789829	37346.939607
638.134845	36975.565364
638.479808	36925.567201
638.824719	36846.978133
639.169577	36432.232323
639.514383	36503.489033
639.859137	36189.586465
640.203839	36440.787162
640.548489	36063.542496
640.893086	36129.407691
641.237632	35867.736519
641.582125	35974.944217
641.926566	35927.514521
642.270955	35883.255711
642.615292	35892.919603
642.959576	35863.741404
643.303809	35861.883739
643.647990	36003.270460
643.992118	35971.128063
644.336195	35973.746943
644.680219	36042.543569
645.024192	36350.651331
645.368112	36844.011414
645.711981	36861.040431
646.055797	37717.335865
646.399562	37644.085379
646.743274	38602.965772
647.086935	39061.725896
647.430544	38933.254611
647.774101	39057.589629
648.117606	39321.715844
648.461059	39618.102923
648.804460	39245.052497
649.147810	38626.908733
649.491108	38385.024089
649.834354	38019.210239
650.177548	37191.314146
650.520690	36747.443071
650.863781	36741.630620
651.206820	36593.962621
651.549807	36150.956103
651.892742	35658.213562
652.235626	35476.265717
652.578458	35324.756358
652.921238	34706.443716
653.263967	35037.234149
653.606644	34715.394284
653.949269	34668.430895
654.291843	34249.977317
654.634365	34676.252245
654.976836	34263.825367
655.319255	34244.812655
655.661622	34242.695371
656.003938	34027.483472
656.346203	33868.908936
656.688416	34106.022128
657.030577	33896.544542
657.372687	33738.582507
657.714746	33999.956251
658.056753	34133.745954
658.398708	33571.826178
658.740612	33630.142246
659.082465	33906.667179
659.424266	33701.487176
659.766016	33831.034748
660.107715	33706.465315
660.449362	33836.204451
660.790958	33807.437106
661.132503	33854.350084
661.473996	33865.601939
661.815438	33976.162005
662.156829	34185.206052
662.498168	33936.929225
662.839456	33985.072244
663.180693	34107.834423
663.521879	34282.081906
663.863013	34219.952205
664.204097	34229.190119
664.545129	34682.876322
664.886110	34643.608254
665.227040	34721.713371
665.567918	34823.131304
665.908746	34888.938526
666.249522	35053.824586
666.590248	35050.658742
666.930922	35162.887429
667.271545	35121.408815
667.612118	35218.279628
667.952639	34998.359291
668.293109	35058.961522
668.633528	34956.003516
668.973896	34885.487856
669.314213	34915.790232
669.654480	34656.107795
669.994695	34672.209240
670.334859	34561.175306
670.674973	34457.133452
671.015035	34630.327334
671.355047	34570.486317
671.695008	34517.148389
672.034918	34401.834515
672.374777	34479.851412
672.714585	34309.944363
673.054342	34537.101276
673.394049	34295.556910
673.733705	34582.874953
674.073310	34234.858897
674.412864	34312.807738
674.752368	33900.582506
675.091820	34211.586410
675.431223	33790.496309
675.770574	33517.142262
676.109875	33376.995665
676.449125	33102.736731
676.788324	33031.235525
677.127473	32483.604901
677.466571	32410.684610
677.805619	32047.280432
678.144616	32038.029915
678.483562	31965.674234
678.822458	31632.096043
679.161303	31566.495508
679.500098	31448.353547
679.838842	31334.753665
680.177535	31503.211383
680.516179	31753.000556
680.854771	31989.125682
681.193314	32828.762622
681.531805	33954.182574
681.870247	34724.773351
682.208638	35466.052339
682.546978	35701.196960
682.885268	35813.110576
683.223508	35300.200898
683.561697	34944.640756
683.899836	34765.959578
684.237925	34264.016931
684.575963	34087.911783
684.913951	33629.151659
685.251889	33772.995943
685.589776	33768.156436
685.927614	33741.665172
686.265401	33869.269379
686.603137	33954.167451
686.940824	34469.985874
687.278460	34839.142008
687.616046	34968.354343
687.953582	35583.614567
688.291068	35448.057940
688.628504	35740.903608
688.965889	35692.198501
689.303224	35330.417574
689.640510	34973.070343
689.977745	34263.767394
690.314930	33472.775067
690.652065	32962.423775
690.989150	32226.569069
691.326185	31309.595787
691.663170	30607.536976
692.000105	29845.783342
692.336990	29153.363217
692.673825	28698.913280
693.010610	28171.540532
693.347345	27578.584893
693.684030	26912.706444
694.020665	26620.511084
694.357251	25921.103920
694.693786	25887.101338
695.030272	25640.107484
695.366707	25084.411014
695.703093	24788.089470
696.039429	24767.796305
696.375716	24493.799511
696.711952	24462.138545
697.048139	24294.958760
697.384276	24121.558191
697.720363	24236.468772
698.056400	24038.028792
698.392388	23819.076357
698.728326	23779.551190
699.064214	23575.432351
699.400053	23525.996275
699.735842	23164.767355
700.071581	22870.900854
700.407270	22590.660591
700.742910	22392.928893
701.078501	22119.171554
701.414042	21822.708858
701.749533	21523.281963
702.084974	21181.544665
702.420366	21388.708362
702.755709	20930.893454
703.091002	20629.727362
703.426246	20650.436422
703.761440	20546.139990
704.096584	20279.896491
704.431679	20214.237982
704.766725	20127.338573
705.101721	20046.448218
705.436668	20148.365225
705.771565	19817.463887
706.106413	20161.003398
706.441212	20139.288628
706.775961	20269.105901
707.110661	20326.053295
707.445311	20686.783141
707.779913	20513.160762
708.114465	20751.377966
708.448967	21033.702746
708.783421	21733.742575
709.117825	21999.139160
709.452180	22213.438610
709.786485	22624.121249
710.120742	23414.387650
710.454949	23428.749897
710.789107	23894.862543
711.123216	24603.676501
711.457275	24734.164247
711.791286	25286.399966
712.125247	25350.488155
712.459159	25050.196703
712.793023	25753.828353
713.126837	24646.070084
713.460602	24933.345277
713.794318	24574.130298
714.127985	24184.325597
714.461602	23283.136168
714.795171	23252.811107
715.128691	22214.829969
715.462162	21676.036487
715.795584	21257.635841
716.128957	20984.904377
716.462281	20563.249666
716.795556	20329.496403
717.128782	19820.662499
717.461960	19272.613458
717.795088	19197.591007
718.128167	18792.803997
718.461198	18319.301019
718.794180	18166.828801
719.127113	17795.618396
719.459997	17598.093385
719.792833	17235.238693
720.125619	17212.230867
720.458357	16874.176131
720.791046	16701.314966
721.123686	16530.772731
721.456278	16289.591328
721.788821	16248.669762
722.121315	15978.746221
722.453761	16051.671552
722.786158	15974.922505
723.118506	15980.092209
723.450805	15834.667523
723.783056	15995.114847
724.115259	15890.566358
724.447412	15819.652446
724.779518	16063.485496
725.111574	16081.411839
725.443582	16285.843231
725.775542	16247.023825
726.107453	16728.053246
726.439315	16608.726614
726.771129	17006.846698
727.102895	17382.200931
727.434612	17584.764575
727.766281	17713.240901
728.097901	17986.579824
728.429473	18027.604734
728.760996	18005.597577
729.092471	18110.002394
729.423897	17976.290829
729.755276	17837.485179
730.086606	17953.940874
730.417887	18490.493563
730.749120	18991.017125
731.080305	19161.771088
731.411442	19511.554068
731.742530	19581.910932
732.073570	19694.313539
732.404562	19995.366206
732.735506	19821.479166
733.066401	19543.454490
733.397249	19021.279172
733.728048	18402.754801
734.058798	17558.076706
734.389501	16855.659973
734.720156	16376.505862
735.050762	15834.680126
735.381320	15476.569160
735.711831	15229.240070
736.042293	14864.522671
736.372707	14867.622981
736.703073	14655.213963
737.033391	14836.574514
737.363661	14786.326813
737.693883	14879.878026
738.024056	15047.945054
738.354182	15233.646038
738.684260	15511.272463
739.014290	15732.342182
739.344272	15916.510656
739.674207	16199.377360
740.004093	16322.699106
740.333931	16321.126266
740.663722	16362.627565
740.993464	16364.490272
741.323159	16202.278544
741.652806	15932.808706
741.982405	15725.201388
742.311956	15395.262910
742.641460	15267.459578
742.970915	14961.000273
743.300323	14625.629952
743.629683	14414.191357
743.958996	14134.911434
744.288260	13861.322973
744.617477	13560.494638
744.946647	13484.960510
745.275768	13211.114950
745.604842	13026.117207
745.933869	12839.828928
746.262847	12792.759675
746.591778	12714.243704
746.920662	12604.570881
747.249498	12595.572422
747.578286	12728.749624
747.907027	12858.463554
748.235720	13081.053181
748.564365	13104.673507
748.892963	13005.405627
749.221514	13072.301738
749.550017	12916.809868
749.878473	12883.235784
750.206881	12657.739931
750.535242	12561.375755
750.863555	12473.213536
751.191821	12368.526414
751.520039	12393.643963
751.848210	12291.752162
752.176334	12324.103767
752.504411	12223.094167
752.832440	12070.831156
753.160421	12132.252575
753.488356	12009.187927
753.816243	11910.706466
754.144082	11772.533480
754.471875	11705.037471
754.799620	11656.032415
755.127318	11629.548713
755.454969	11584.816034
755.782572	11539.014631
756.110129	11555.506766
756.437638	11470.102058
756.765100	11459.515635
757.092515	11455.954060
757.419882	11473.497275
757.747203	11467.457973
758.074477	11537.028417
758.401703	11497.200781
758.728882	11663.200936
759.056014	11695.965915
759.383099	11811.514202
759.710138	11911.034141
760.037129	12000.156700
760.364073	12010.276816
760.690970	11998.026812
761.017820	11998.669559
761.344623	12190.283817
761.671379	12517.782377
761.998088	13152.188903
762.324751	14701.963104
762.651366	17558.807673
762.977935	21230.267417
763.304456	23496.291276
763.630931	24024.538664
763.957359	22885.885683
764.283740	20994.878300
764.610074	19113.038254
764.936362	16960.158051
765.262602	15423.634524
765.588796	13933.441720
765.914943	12891.863718
766.241044	12012.348730
766.567097	11365.828311
766.893104	10795.066352
767.219064	10435.538822
767.544978	10040.773626
767.870845	9715.808246
768.196665	9529.772025
768.522438	9329.418927
768.848165	9159.446343
769.173846	8990.431578
769.499479	8861.214202
769.825066	8704.583031
770.150607	8520.590998
770.476101	8458.052964
770.801548	8348.511212
771.126949	8205.488636
771.452303	8115.246941
771.777611	7950.323072
772.102872	7922.236284
772.428087	7806.325033
772.753256	7682.937752
773.078378	7592.590193
773.403453	7446.689118
773.728482	7339.201636
774.053465	7269.444669
774.378401	7180.410331
774.703291	7088.792401
775.028135	6989.118707
775.352932	6950.780732
775.677683	6867.636981
776.002388	6780.719927
776.327046	6780.848477
776.651658	6690.697523
776.976224	6609.482013
777.300743	6594.242605
777.625216	6523.086719
777.949643	6480.917467
778.274024	6488.514486
778.598359	6416.176449
778.922647	6417.623260
779.246889	6379.827209
779.571086	6380.921139
779.895236	6392.079733
780.219339	6384.248301
780.543397	6380.028855
780.867409	6433.318892
781.191374	6428.693634
781.515294	6399.865795
781.839167	6450.398322
782.162995	6413.746612
782.486776	6371.660540
782.810511	6333.524211
783.134201	6257.017139
783.457844	6248.994143
783.781441	6200.357091
784.104993	6155.057282
784.428498	6128.583663
784.751958	6109.961641
785.075372	6079.732362
785.398739	6042.387494
785.722061	6065.997738
786.045337	6064.016564
786.368568	6177.868503
786.691752	6190.705802
787.014891	6444.343896
787.337983	6714.887499
787.661030	7156.517782
787.984031	7586.056857
788.306987	7856.187086
788.629897	7945.211342
788.952760	7867.880042
789.275579	7689.977723
789.598351	7392.489152
789.921078	7131.059955
790.243759	6849.274578
790.566395	6643.474514
790.888984	6443.270130
791.211529	6305.190406
791.534027	6139.351567
791.856480	5996.465103
792.178888	5931.693838
792.501249	5863.383683
792.823566	5761.660760
793.145836	5753.879739
793.468062	5733.107664
793.790241	5692.450758
794.112375	5729.188167
794.434464	5827.175595
794.756507	5852.908165
795.078505	5974.379808
795.400457	6192.177819
795.722364	6423.690288
796.044226	6627.133614
796.366042	6781.418127
796.687812	6736.312403
797.009538	6771.005624
797.331218	6680.678229
797.652852	6613.943435
797.974442	6493.112018
798.295986	6419.251552
798.617484	6293.041225
798.938938	6183.794380
799.260346	6112.739316
799.581709	5973.883254
799.903026	5924.789978
800.224299	5844.348286
800.545526	5730.372838
800.866708	5667.492006
801.187845	5613.803717
801.508936	5534.647520
801.829983	5502.522767
802.150984	5394.584101
802.471940	5367.258527
802.792851	5351.736814
803.113717	5327.572043
803.434538	5303.203105
803.755314	5272.779742
804.076045	5258.853554
804.396731	5217.868974
804.717372	5230.610490
805.037967	5230.121498
805.358518	5255.319706
805.679024	5314.452440
805.999485	5323.501311
806.319901	5343.996122
806.640272	5357.367783
806.960598	5405.926697
807.280879	5397.765069
807.601115	5438.212767
807.921306	5398.962343
808.241453	5396.729112
808.561554	5411.625722
808.881611	5375.152974
809.201623	5377.025762
809.521590	5321.157175
809.841513	5308.077901
810.161390	5327.193957
810.481223	5235.452518
810.801011	5227.648812
811.120755	5203.753743
811.440453	5150.171319
811.760107	5118.989262
812.079716	5093.160910
812.399281	5044.455802
812.718801	5038.857601
813.038276	5006.069936
813.357707	4966.980829
813.677093	4989.597966
813.996434	4927.261578
814.315731	4945.674392
814.634983	4949.278817
814.954191	4949.588848
815.273354	5014.629815
815.592473	5057.204880
815.911547	5127.261795
816.230577	5186.296227
816.549562	5276.177480
816.868502	5327.221683
817.187399	5385.449530
817.506250	5470.806347
817.825058	5497.542107
818.143821	5654.523637
818.462539	5828.380431
818.781213	6054.418207
819.099843	6417.691315
819.418429	7056.836526
819.736970	7681.803492
820.055466	8400.392247
820.373919	9337.802366
820.692327	10815.762809
821.010691	13567.232140
821.329011	19869.901969
821.647286	29516.233033
821.965517	39943.285072
822.283704	45513.490370
822.601847	47110.621170
822.919945	42588.007970
823.237999	37488.268355
823.556010	32280.156534
823.873976	27503.559921
824.191897	23205.270506
824.509775	20075.402085
824.827609	17229.932879
825.145398	15614.018740
825.463144	14815.835207
825.780845	15095.034472
826.098502	16345.147364
826.416116	18792.229306
826.733685	21060.509082
827.051210	21576.743400
827.368692	20146.421860
827.686129	17585.056962
828.003522	15079.416977
828.320872	12849.951565
828.638177	11161.984214
828.955439	9895.689218
829.272656	8806.477353
829.589830	7949.637475
829.906960	7194.707043
830.224046	6657.693088
830.541088	6239.340333
830.858086	5971.372760
831.175041	5760.115646
831.491952	5697.975863
831.808819	5726.057611
832.125642	5975.531712
832.442421	6530.472009
832.759157	7645.635734
833.075849	9424.527856
833.392497	11276.438571
833.709101	12413.543918
834.025662	12171.354284
834.342179	11125.950047
834.658653	9820.656684
834.975083	8699.272176
835.291469	7788.255017
835.607811	7026.892072
835.924110	6498.329612
836.240366	5997.667418
836.556578	5537.271440
836.872746	5175.220812
837.188871	4897.790992
837.504952	4664.201567
837.820990	4497.583871
838.136984	4375.494687
838.452935	4327.402079
838.768842	4356.834856
839.084706	4639.129389
839.400526	5388.726280
839.716303	6298.888963
840.032037	6872.388269
840.347727	6742.747436
840.663373	6140.493389
840.978977	5551.432041
841.294537	5101.667857
841.610054	4759.141618
841.925527	4512.223382
842.240957	4301.745126
842.556344	4114.088174
842.871687	3952.309986
843.186987	3796.835760
843.502244	3673.861853
843.817458	3580.910538
844.132629	3512.199611
844.447756	3462.902168
844.762840	3414.877615
845.077881	3374.313971
845.392879	3339.230061
845.707833	3311.095381
846.022745	3286.436577
846.337613	3272.712036
846.652438	3249.316041
846.967221	3242.618868
847.281960	3218.234807
847.596656	3207.270297
847.911309	3200.157229
848.225919	3179.866585
848.540485	3175.569001
848.855009	3165.960562
849.169490	3153.818943
849.483928	3143.701347
849.798323	3139.108856
850.112675	3128.749285
850.426984	3131.360602
850.741251	3122.715024
851.055474	3116.615227
851.369654	3120.456587
851.683792	3114.306379
851.997887	3118.422481
852.311938	3120.028089
852.625947	3121.764766
852.939914	3112.161368
853.253837	3119.440794
853.567718	3115.503653
853.881555	3106.782457
854.195350	3115.460803
854.509103	3113.197325
854.822812	3107.447889
855.136479	3107.533589
855.450103	3110.969135
855.763685	3102.812548
856.077224	3103.293978
856.390720	3111.548868
856.704173	3121.409365
857.017584	3129.805407
857.330953	3133.984523
857.644278	3141.097591
857.957561	3144.107160
858.270802	3143.224958
858.584000	3143.966008
858.897155	3134.279431
859.210268	3124.043368
859.523339	3112.567181
859.836367	3109.923096
860.149352	3104.350100
860.462295	3102.366406
860.775195	3093.383070
861.088054	3087.144642
861.400869	3087.442070
861.713642	3084.732450
862.026373	3097.105962
862.339062	3094.068667
862.651708	3108.287241
862.964312	3125.444808
863.276873	3133.092239
863.589392	3162.749347
863.901869	3188.368491
864.214303	3210.930175
864.526696	3227.893657
864.839045	3250.354518
865.151353	3259.524377
865.463619	3263.965634
865.775842	3264.487393
866.088023	3271.083743
866.400162	3262.516302
866.712258	3261.079573
867.024313	3261.961775
867.336325	3261.871034
867.648296	3262.544028
867.960224	3258.228801
868.272110	3261.129985
868.583954	3265.064605
868.895755	3270.045265
869.207515	3268.606016
869.519233	3285.458593
869.830909	3296.392856
870.142542	3306.855771
870.454134	3313.442038
870.765684	3326.279337
871.077191	3348.432687
871.388657	3356.836291
871.700081	3374.684496
872.011463	3397.286509
872.322803	3414.522214
872.634101	3432.675409
872.945357	3455.015282
873.256571	3481.488902
873.567744	3498.560769
873.878874	3503.881707
874.189963	3519.506763
874.501010	3522.307124
874.812015	3517.407123
875.122979	3536.818086
875.433900	3534.932694
875.744780	3537.312119
876.055618	3547.943912
876.366415	3545.269580
876.677169	3553.199315
876.987882	3571.554156
877.298554	3596.338989
877.609183	3631.241418
877.919771	3681.042977
878.230317	3751.031836
878.540822	3860.041747
878.851285	4012.692927
879.161707	4240.643821
879.472087	4631.028254
879.782425	5275.701091
880.092722	6487.450802
880.402977	8458.302501
880.713191	10874.285564
881.023363	13300.839927
881.333494	14678.980483
881.643583	15161.229863
881.953631	14770.908444
882.263637	13940.083441
882.573602	12908.048343
882.883526	11923.770616
883.193408	10945.340628
883.503248	10005.321711
883.813048	9158.417948
884.122806	8371.937454
884.432522	7582.374294
884.742197	6891.070785
885.051831	6311.297763
885.361424	5790.523886
885.670975	5382.487852
885.980485	5044.168456
886.289954	4764.084469
886.599382	4537.963513
886.908768	4352.643136
887.218113	4179.832382
887.527417	4043.277607
887.836680	3917.730191
888.145901	3810.305723
888.455082	3731.948548
888.764221	3661.090090
889.073319	3599.691357
889.382376	3563.508475
889.691392	3536.540822
890.000366	3530.672919
890.309300	3524.159748
890.618193	3525.992208
890.927044	3522.395345
891.235855	3527.151673
891.544625	3545.314951
891.853353	3573.535330
892.162041	3633.520019
892.470687	3724.588464
892.779293	3851.668390
893.087858	4026.984598
893.396381	4319.265657
893.704864	4743.191407
894.013306	5317.779602
894.321707	5895.813425
894.630068	6256.094608
894.938387	6307.199305
895.246665	6123.865143
895.554903	5800.764990
895.863100	5463.496674
896.171256	5192.917783
896.479371	4944.527530
896.787446	4712.188311
897.095480	4507.000746
897.403473	4352.993496
897.711425	4203.288871
898.019336	4081.028287
898.327207	3953.303093
898.635038	3847.900128
898.942827	3741.468767
899.250576	3647.491577
899.558284	3564.819175
899.865952	3510.883870
900.173579	3443.982717
900.481165	3398.221643
900.788711	3354.542566
901.096216	3320.524859
901.403681	3290.903039
901.711105	3277.246554
902.018489	3272.999382
902.325832	3307.982469
902.633135	3367.067312
902.940397	3545.672873
903.247619	3954.823001
903.554800	4723.394796
903.861941	5711.629828
904.169041	6435.905004
904.476101	6659.858264
904.783121	6395.389251
905.090100	5985.732486
905.397039	5567.457869
905.703938	5197.785017
906.010796	4861.693810
906.317614	4601.993729
906.624391	4349.010985
906.931129	4148.337774
907.237826	3960.363229
907.544483	3780.754479
907.851099	3608.901545
908.157675	3439.365020
908.464211	3292.725417
908.770707	3186.591484
909.077163	3107.110132
909.383578	3042.429607
909.689954	2997.649038
909.996289	2965.947742
910.302584	2943.575101
910.608839	2929.238060
910.915054	2917.403951
911.221229	2912.072931
911.527363	2913.360946
911.833458	2923.342430
912.139513	2933.344079
912.445527	2950.514249
912.751502	2984.133704
913.057436	3029.972916
913.363331	3089.224118
913.669186	3181.636030
913.975000	3303.082467
914.280775	3496.839215
914.586510	3775.141154
914.892205	4163.620032
915.197859	4670.543339
915.503475	5267.539463
915.809050	5773.005876
916.114585	6065.740639
916.420081	6129.423015
916.725536	6068.309107
917.030952	5827.394885
917.336328	5623.243278
917.641665	5408.525412
917.946961	5174.416748
918.252218	4970.670954
918.557435	4735.841405
918.862612	4532.821536
919.167750	4356.766800
919.472848	4161.134743
919.777906	3987.976149
920.082925	3819.674707
920.387904	3660.981705
920.692843	3546.865105
920.997743	3444.199487
921.302603	3345.783561
921.607423	3279.217645
921.912204	3213.516287
922.216946	3158.827329
922.521647	3109.572736
922.826310	3068.421797
923.130932	3028.193389
923.435516	2986.407265
923.740059	2957.105558
924.044564	2926.200764
924.349028	2900.299316
924.653454	2870.128010
924.957840	2841.002744
925.262186	2819.928200
925.566493	2794.238480
925.870761	2773.010181
926.174989	2761.811258
926.479178	2740.832496
926.783328	2726.908829
927.087438	2717.181923
927.391509	2703.424614
927.695541	2688.568334
927.999533	2678.773372
928.303486	2668.179387
928.607400	2663.841474
928.911275	2660.458860
929.215110	2651.712458
929.518906	2650.794968
929.822663	2649.552324
930.126381	2648.702889
930.430060	2650.686583
930.733699	2651.551141
931.037299	2658.155053
931.340861	2654.124650
931.644383	2657.734116
931.947866	2659.420382
932.251309	2655.367295
932.554714	2653.615494
932.858080	2650.273209
933.161407	2646.020995
933.464694	2641.433545
933.767943	2638.998668
934.071153	2638.073616
934.374323	2634.262504
934.677455	2629.455764
934.980548	2625.959724
935.283602	2623.411420
935.586617	2622.831688
935.889593	2627.648510
936.192530	2626.335290
936.495428	2632.543471
936.798287	2642.955974
937.101108	2655.198416
937.403890	2678.639781
937.706632	2703.495190
938.009336	2736.509707
938.312002	2764.354520
938.614628	2790.414765
938.917216	2809.498053
939.219765	2821.029692
939.522275	2830.020590
939.824747	2831.076712
940.127179	2827.545384
940.429573	2820.795279
940.731929	2819.655978
941.034246	2808.217600
941.336524	2808.320943
941.638763	2801.006229
941.940964	2800.071095
942.243126	2780.725667
942.545250	2768.354676
942.847335	2755.610639
943.149381	2742.354925
943.451389	2728.159036
943.753359	2712.344936
944.055290	2705.688092
944.357182	2693.992615
944.659036	2688.888447
944.960851	2685.543642
945.262628	2681.298990
945.564367	2684.537931
945.866067	2682.309741
946.167729	2678.055007
946.469352	2680.444514
946.770937	2676.083916
947.072484	2668.963287
947.373992	2667.287103
947.675462	2665.595796
947.976893	2661.822492
948.278286	2657.829898
948.579641	2653.229845
948.880958	2652.009886
949.182236	2648.501243
949.483476	2646.406644
949.784678	2648.357570
950.085841	2645.630306
950.386967	2648.045019
950.688054	2653.812099
950.989103	2663.234015
951.290114	2672.804646
951.591087	2685.699917
951.892021	2697.259283
952.192917	2708.914431
952.493776	2719.074876
952.794596	2724.484034
953.095378	2725.822461
953.396122	2724.118551
953.696828	2720.123436
953.997496	2717.953220
954.298126	2704.339584
954.598718	2698.663244
954.899272	2688.160000
955.199788	2675.602486
955.500266	2664.872390
955.800706	2647.687097
956.101108	2628.601288
956.401472	2618.529063
956.701798	2603.551795
957.002087	2592.206678
957.302337	2577.879719
957.602550	2567.474777
957.902724	2557.868859
958.202861	2547.831921
958.502960	2538.309182
958.803022	2530.881042
959.103045	2522.071625
959.403031	2520.776049
959.702979	2512.858917
960.002889	2507.739625
960.302762	2498.516834
960.602596	2496.696977
960.902393	2495.560197
961.202153	2491.358395
961.501875	2487.864876
961.801559	2485.377066
962.101205	2481.639051
962.400814	2482.584267
962.700385	2476.988586
962.999918	2476.587815
963.299414	2472.116311
963.598873	2475.526652
963.898293	2472.133955
964.197677	2472.854840
964.497022	2469.991465
964.796331	2465.928295
965.095601	2466.750003
965.394835	2465.751854
965.694030	2465.255301
965.993189	2463.344703
966.292309	2463.853860
966.591393	2464.211782
966.890439	2461.169446
967.189447	2464.352934
967.488419	2463.198510
967.787353	2464.226905
968.086249	2463.112810
968.385108	2464.468881
968.683930	2463.601802
968.982714	2467.102884
969.281462	2469.424335
969.580172	2470.961887
969.878844	2471.518934
970.177480	2475.977835
970.476078	2476.736529
970.774639	2479.846921
971.073162	2481.467652
971.371649	2484.855307
971.670098	2483.700883
971.968510	2487.280102
972.266885	2484.797334
972.565223	2490.967706
972.863524	2490.398056
973.161788	2493.263952
973.460014	2493.916781
973.758204	2496.449961
974.056356	2498.597492
974.354471	2495.585403
974.652550	2495.955928
974.950591	2496.510455
975.248595	2493.783190
975.546563	2493.866369
975.844493	2493.516009
976.142386	2491.701194
976.440243	2488.177427
976.738062	2488.000987
977.035845	2486.355050
977.333590	2482.027220
977.631299	2480.913125
977.928971	2476.514718
978.226606	2476.292907
978.524204	2474.052114
978.821765	2472.204531
979.119290	2475.022536
979.416777	2473.424491
979.714228	2472.779223
980.011642	2474.334419
980.309020	2480.829946
980.606360	2482.238948
980.903664	2492.805207
981.200931	2505.019922
981.498162	2526.212933
981.795356	2555.686039
982.092513	2597.068871
982.389633	2642.497229
982.686717	2686.597243
982.983764	2719.447922
983.280775	2738.163205
983.577749	2739.259656
983.874686	2731.710528
984.171587	2713.385934
984.468451	2698.660724
984.765279	2677.762621
985.062070	2661.230157
985.358824	2640.243833
985.655543	2616.303393
985.952224	2593.913109
986.248869	2566.169118
986.545478	2537.583256
986.842050	2516.594412
987.138586	2496.870897
987.435086	2482.092755
987.731549	2470.298975
988.027975	2466.077009
988.324366	2458.023766
988.620719	2455.069649
988.917037	2451.981943
989.213318	2446.353494
989.509563	2444.823504
989.805772	2442.328133
990.101944	2441.024995
990.398080	2442.098761
990.694180	2442.605397
990.990244	2441.211517
991.286271	2438.418718
991.582262	2441.037598
991.878217	2441.783688
992.174136	2442.532300
992.470019	2441.322423
992.765865	2443.437187
993.061676	2446.242589
993.357450	2449.211829
993.653188	2451.510595
993.948890	2456.874383
994.244556	2465.222533
994.540186	2475.763586
994.835780	2488.139619
995.131337	2503.326095
995.426859	2516.906963
995.722345	2539.193904
996.017795	2557.642007
996.313208	2573.866960
996.608586	2581.917683
996.903928	2587.954465
997.199234	2584.040009
997.494504	2581.413568
997.789738	2575.495253
998.084936	2563.698953
998.380099	2554.072870
998.675225	2538.215920
998.970316	2527.148067
999.265371	2514.482168
999.560390	2494.655310
999.855373	2489.084835
1000.150320	2474.810808
1000.445232	2468.345528
1000.740108	2460.168777
1001.034948	2456.055195
1001.329752	2450.580502
1001.624521	2447.694441
1001.919254	2438.504418
1002.213951	2436.936619
1002.508613	2433.140630
1002.803239	2433.879159
1003.097829	2426.897161
1003.392384	2428.858170
1003.686903	2426.347675
1003.981386	2427.512182
1004.275834	2426.738365
1004.570246	2424.754671
1004.864623	2422.498754
1005.158964	2423.348189
1005.453270	2423.411203
1005.747540	2421.268713
1006.041775	2422.234094
1006.335974	2420.139494
1006.630138	2420.179824
1006.924266	2421.447674
1007.218359	2418.836356
1007.512416	2419.907601
1007.806438	2419.713517
1008.100425	2419.030441
1008.394376	2417.502971
1008.688292	2419.650502
1008.982172	2418.332241
1009.276017	2420.114289
1009.569827	2418.289391
1009.863602	2417.376942
1010.157341	2417.823084
1010.451045	2417.288722
1010.744714	2417.412230
1011.038347	2415.690676
1011.331945	2417.069432
1011.625508	2419.055646
1011.919036	2415.501633
1012.212528	2413.951478
1012.505986	2415.922569
1012.799408	2413.306210
1013.092795	2415.463824
1013.386147	2411.955181
1013.679464	2415.340316
1013.972745	2414.904256
1014.265992	2414.087589
1014.559204	2415.688156
1014.852380	2412.837383
1015.145521	2415.083217
1015.438628	2411.685479
1015.731699	2414.168248
1016.024736	2412.449214
1016.317737	2414.725295
1016.610703	2415.557086
1016.903635	2414.246386
1017.196531	2411.985428
1017.489393	2414.132960
1017.782219	2410.122722
1018.075011	2417.011458
1018.367768	2415.930131
1018.660490	2416.681263
1018.953177	2416.681263
1019.245829	2416.681263
