Dividing Wavelength (nm)	Counts (n)	Blue Motor Position (mm): 33.200000	Red Motor Position (mm): 0.000000	
326.493990	1971.827162
326.888308	1971.827162
327.282561	1971.827162
327.676750	1945.479572
328.070874	1946.671805
328.464933	1952.015428
328.858929	1962.190997
329.252859	1976.989304
329.646726	1990.245018
330.040528	2005.960815
330.434265	2023.829185
330.827938	2042.962884
331.221547	2061.148847
331.615091	2082.606518
332.008571	2105.170723
332.401986	2126.083949
332.795338	2145.857875
333.188625	2166.423263
333.581847	2184.127795
333.975006	2203.899200
334.368100	2222.034751
334.761129	2235.406412
335.154095	2251.510378
335.546996	2292.086625
335.939833	2369.095291
336.332606	2384.569113
336.725315	2396.456154
337.117960	2405.106774
337.510540	2413.134811
337.903056	2423.086049
338.295508	2429.410176
338.687896	2436.528286
339.080220	2443.732094
339.472480	2448.475820
339.864676	2453.088476
340.256807	2455.508230
340.648875	2456.655092
341.040879	2460.083077
341.432818	2462.618777
341.824694	2458.946297
342.216506	2459.836060
342.608253	2461.587861
342.999937	2456.450926
343.391557	2458.036368
343.783113	2456.244238
344.174605	2457.088632
344.566033	2454.252983
344.957397	2453.728703
345.348697	2450.023454
345.739934	2447.029009
346.131106	2446.862651
346.522215	2445.375511
346.913260	2443.119594
347.304241	2444.090016
347.695159	2438.217072
348.086012	2439.686568
348.476802	2439.469799
348.867528	2436.460230
349.258191	2437.980138
349.648789	2434.622729
350.039324	2433.049889
350.429796	2432.984354
350.820203	2431.046031
351.210548	2433.337235
351.600828	2433.087698
351.991045	2431.257759
352.381198	2429.286668
352.771288	2431.850095
353.161314	2429.384971
353.551276	2429.034610
353.941175	2426.244332
354.331010	2429.871442
354.720782	2435.744386
355.110490	2434.625250
355.500135	2431.088881
355.889717	2431.202307
356.279235	2432.281113
356.668689	2431.318253
357.058080	2430.625094
357.447408	2429.672316
357.836672	2428.664086
358.225873	2429.979827
358.615010	2428.512851
359.004084	2432.321443
359.393095	2437.491146
359.782043	2435.386464
360.170927	2434.224478
360.559748	2435.835127
360.948505	2438.156578
361.337199	2440.062134
361.725830	2440.102464
362.114398	2436.455189
362.502903	2439.933585
362.891344	2441.967691
363.279722	2439.202618
363.668037	2440.435180
364.056289	2441.357711
364.444478	2441.728236
364.832603	2444.324430
365.220665	2443.212856
365.608665	2443.096909
365.996601	2445.032712
366.384474	2439.578184
366.772284	2446.935748
367.160031	2443.064142
367.547715	2447.301231
367.935336	2445.302414
368.322893	2446.771910
368.710388	2447.886005
369.097820	2448.627055
369.485189	2449.413475
369.872495	2448.987497
370.259738	2452.483537
370.646918	2448.798454
371.034035	2449.756273
371.421090	2451.780297
371.808081	2450.898095
372.195010	2450.144442
372.581875	2450.520008
372.968678	2453.317848
373.355418	2454.303394
373.742096	2454.638631
374.128710	2453.733744
374.515262	2452.791048
374.901751	2455.092335
375.288177	2455.009156
375.674540	2454.827674
376.060841	2457.103755
376.447079	2455.304063
376.833254	2454.278188
377.219367	2456.392952
377.605417	2455.049485
377.991404	2455.157870
378.377329	2457.927984
378.763191	2453.015379
379.148991	2460.193982
379.534727	2458.608539
379.920402	2462.056689
380.306013	2460.181379
380.691563	2462.386884
381.077049	2460.758592
381.462474	2464.105918
381.847835	2463.072481
382.233134	2464.947790
382.618371	2464.254632
383.003545	2464.751185
383.388657	2465.068778
383.773706	2468.733697
384.158693	2465.199848
384.543618	2466.525672
384.928480	2467.319653
385.313280	2468.385857
385.698017	2470.155302
386.082692	2468.574901
386.467305	2469.789819
386.851856	2471.065231
387.236344	2470.969449
387.620770	2473.482464
388.005133	2472.943060
388.389435	2473.490026
388.773674	2474.846096
389.157851	2477.265850
389.541965	2475.274594
389.926018	2477.286014
390.310008	2474.702423
390.693936	2476.522280
391.077802	2481.717189
391.461606	2479.244503
391.845348	2477.722074
392.229027	2480.613176
392.612645	2478.251395
392.996200	2482.415388
393.379694	2482.750625
393.763125	2485.818167
394.146494	2484.593167
394.529801	2485.727427
394.913047	2486.662561
395.296230	2486.118116
395.679351	2488.898312
396.062410	2489.072232
396.445408	2488.361429
396.828343	2490.103148
397.211217	2485.069556
397.594028	2486.889413
397.976778	2485.999649
398.359466	2490.960144
398.742092	2487.267499
399.124656	2495.005670
399.507158	2493.430310
399.889598	2495.396360
400.271977	2494.887203
400.654294	2499.983810
401.036549	2497.145640
401.418742	2500.124962
401.800874	2497.579179
402.182944	2497.468274
402.564952	2498.849550
402.946898	2501.760816
403.328783	2503.273163
403.710606	2503.182422
404.092367	2503.341218
404.474067	2510.499657
404.855705	2507.832886
405.237282	2509.909842
405.618797	2512.440501
406.000250	2512.591735
406.381642	2516.745646
406.762972	2517.615245
407.144240	2510.847496
407.525447	2519.193126
407.906593	2520.783610
408.287677	2522.202695
408.668700	2524.430885
409.049661	2523.228570
409.430560	2527.453057
409.811399	2529.167049
410.192176	2534.046886
410.572891	2533.598223
410.953545	2538.740200
411.334138	2536.756506
411.714669	2541.964018
412.095139	2543.793957
412.475547	2550.362581
412.855894	2554.798796
413.236180	2559.194682
413.616405	2561.490928
413.996568	2573.670355
414.376670	2580.430543
414.756711	2588.098138
415.136691	2599.750765
415.516609	2610.788371
415.896466	2624.396966
416.276262	2643.321458
416.655997	2661.827533
417.035670	2680.053825
417.415283	2712.619679
417.794834	2737.031466
418.174324	2758.577358
418.553753	2780.685338
418.933121	2825.849035
419.312428	2856.741226
419.691674	2888.336658
420.070859	2946.244392
420.449983	2980.186481
420.829045	3050.639127
421.208047	3092.107658
421.586988	3166.192455
421.965867	3246.752614
422.344686	3312.806853
422.723444	3422.094027
423.102141	3409.922161
423.480777	3567.692632
423.859352	3616.972432
424.237866	3794.756284
424.616319	3866.746482
424.994712	4030.158004
425.373044	4111.965849
425.751314	4301.296464
426.129524	4312.737362
426.507673	4565.750353
426.885762	4651.054238
427.263789	4812.338394
427.641756	4967.842866
428.019662	5111.999702
428.397508	5257.396661
428.775292	5453.552998
429.153016	5597.997179
429.530679	5768.458756
429.908282	5925.808291
430.285824	6023.228589
430.663305	6339.364387
431.040726	6418.001346
431.418086	6541.595315
431.795385	6864.327464
432.172624	7157.195817
432.549802	7219.257462
432.926920	7457.356199
433.303977	7606.624765
433.680974	7872.129735
434.057910	8156.886872
434.434786	8350.270574
434.811601	8523.225001
435.188355	9097.475439
435.565050	9176.394702
435.941683	9356.568061
436.318257	9898.403879
436.694770	10033.716010
437.071222	10488.786009
437.447614	10311.488628
437.823946	10515.524289
438.200218	10796.608945
438.576429	10906.027190
438.952580	11230.924514
439.328670	11418.273955
439.704700	11824.606079
440.080670	11810.886579
440.456580	12324.149137
440.832429	12644.796768
441.208218	12289.251749
441.583947	12730.884553
441.959616	13004.646933
442.335224	13343.525897
442.710773	13612.017751
443.086261	14142.558864
443.461689	13936.274849
443.837057	14202.467937
444.212365	14799.733762
444.587612	14993.314070
444.962800	14909.759465
445.337927	15370.881369
445.712995	14685.352502
446.088002	16127.104858
446.462949	16454.643747
446.837837	16759.936023
447.212664	16905.277530
447.587431	19190.523309
447.962139	21589.190009
448.336786	23597.351288
448.711374	22643.118838
449.085901	19989.707511
449.460369	20117.974629
449.834776	20238.372507
450.209124	22382.382799
450.583412	22203.734389
450.957640	22793.531745
451.331808	21864.046319
451.705917	20879.355218
452.079965	21054.021117
452.453954	21498.877738
452.827883	21546.617465
453.201752	21504.969972
453.575562	21772.950149
453.949311	22861.665460
454.323001	23035.045864
454.696632	22951.476136
455.070202	24430.981693
455.443713	24676.765670
455.817164	25304.122142
456.190556	25889.349692
456.563888	25500.628840
456.937160	25987.505999
457.310373	24602.212045
457.683526	25073.426339
458.056619	25157.459853
458.429653	25174.572050
458.802628	25785.983353
459.175542	25972.866488
459.548398	27249.100119
459.921194	28789.689338
460.293930	29487.276645
460.666607	31477.314976
461.039224	33197.026472
461.411782	33622.814929
461.784280	32528.826571
462.156719	32108.270832
462.529099	31618.984002
462.901419	30453.771702
463.273680	29495.166051
463.645882	29633.573450
464.018024	29651.179680
464.390106	30503.222900
464.762130	33112.851806
465.134094	37109.949923
465.505999	42304.904332
465.877845	46826.078282
466.249631	47977.593767
466.621358	46257.000069
466.993026	44145.222914
467.364634	42113.955507
467.736184	40237.433878
468.107674	39044.054131
468.479105	38307.470978
468.850477	37644.410533
469.221790	36295.861550
469.593043	34644.540867
469.964238	33794.753563
470.335373	33719.796647
470.706449	35374.394080
471.077467	37826.000457
471.448425	42350.993081
471.819324	45222.847686
472.190164	43451.504692
472.560945	39962.005397
472.931667	36926.361182
473.302330	35865.717537
473.672934	35057.723919
474.043479	35565.095889
474.413965	34816.718956
474.784393	34449.957370
475.154761	35304.405220
475.525070	35348.459864
475.895321	34922.618475
476.265513	35506.762177
476.635645	36430.175533
477.005719	36286.548018
477.375734	36744.367967
477.745691	37418.758405
478.115588	38701.200217
478.485427	40654.198670
478.855207	43947.871823
479.224928	46559.494505
479.594591	48185.743010
479.964194	47155.406781
480.333739	47238.389214
480.703226	47281.405380
481.072653	47937.892160
481.442022	48423.771171
481.811333	48688.840081
482.180584	47398.004748
482.549777	46880.638690
482.918912	46363.522170
483.287988	46085.177381
483.657005	45265.347134
484.025964	44614.203977
484.394864	44622.867200
484.763706	44203.624681
485.132489	43333.652597
485.501213	43174.682331
485.869879	43330.010364
486.238487	42924.835185
486.607036	43140.967094
486.975527	42591.153650
487.343959	42806.083244
487.712333	42883.260789
488.080648	42786.425265
488.448905	43218.626069
488.817104	43062.186463
489.185244	43959.746261
489.553326	45620.188912
489.921350	48315.532557
490.289315	51268.872373
490.657222	51902.409300
491.025070	52197.094989
491.392861	51263.090169
491.760593	49968.234516
492.128267	48262.587838
492.495883	46718.734473
492.863440	45349.756214
493.230939	44007.450700
493.598380	42941.221456
493.965763	42622.267652
494.333088	41825.314161
494.700354	41382.983158
495.067563	41100.552513
495.434713	40978.866621
495.801805	41039.718389
496.168839	40675.505106
496.535815	40346.753820
496.902733	40377.288089
497.269593	39979.840999
497.636395	39910.207541
498.003139	40287.011106
498.369825	39754.083006
498.736453	40056.090972
499.103023	39616.381368
499.469535	39484.096450
499.835989	39575.865615
500.202385	39240.631405
500.568723	39260.755691
500.935003	39449.811563
501.301226	39263.722410
501.667390	39862.056960
502.033497	40112.050300
502.399546	39544.003002
502.765537	38887.110409
503.131470	39259.218139
503.497345	39599.566600
503.863163	38287.631517
504.228923	38881.615551
504.594625	39288.492119
504.960269	38570.389836
505.325856	39254.134135
505.691385	38630.490473
506.056856	38746.494984
506.422270	39189.476296
506.787625	38781.367166
507.152924	38961.802665
507.518164	39050.731139
507.883347	38298.729617
508.248472	38536.876246
508.613540	38984.369390
508.978550	39284.582705
509.343503	39038.440806
509.708398	39231.794262
510.073236	39755.902863
510.438016	39751.043191
510.802738	39220.093744
511.167403	39816.192542
511.532010	40019.804746
511.896561	40332.885606
512.261053	41145.751499
512.625488	40707.246732
512.989866	40595.822108
513.354186	40441.464498
513.718449	40399.978322
514.082655	41080.350089
514.446803	40763.621955
514.810894	41262.121494
515.174927	41176.754595
515.538904	41094.430032
515.902822	41740.640420
516.266684	41199.235621
516.630488	41618.294137
516.994235	41470.104378
517.357925	42020.230374
517.721558	42183.805734
518.085133	42479.305570
518.448651	42612.984367
518.812112	42392.544792
519.175516	42493.032632
519.538863	42827.548478
519.902152	42784.577682
520.265385	43238.082403
520.628560	43266.302782
520.991678	43065.266608
521.354739	43298.709839
521.717743	43616.254641
522.080690	43506.919576
522.443580	44044.089806
522.806413	44107.096667
523.169189	44043.157193
523.531908	44218.342330
523.894569	44090.922125
524.257174	44255.021765
524.619722	44547.257454
524.982213	44550.619903
525.344647	44466.765350
525.707025	44504.475702
526.069345	44907.558801
526.431608	44821.634855
526.793815	45125.198016
527.155964	44669.099622
527.518057	44840.939953
527.880093	44644.037525
528.242072	45158.683880
528.603995	44877.190891
528.965860	44871.091094
529.327669	44956.795751
529.689421	44868.320980
530.051117	44838.610940
530.412755	44983.344988
530.774337	45048.562395
531.135862	44871.138985
531.497331	45066.009828
531.858743	44969.665817
532.220098	45320.366287
532.581396	45029.214447
532.942638	44700.022059
533.303824	44999.764026
533.664953	44961.700794
534.026025	44685.962281
534.387040	45150.764228
534.747999	45120.212315
535.108902	45272.729904
535.469748	44801.392101
535.830537	44939.353359
536.191270	45110.500532
536.551947	44764.745433
536.912567	45083.840390
537.273131	45196.737030
537.633638	44685.541345
537.994089	45043.057455
538.354483	44657.245348
538.714821	45207.530140
539.075103	45555.911680
539.435328	45325.508264
539.795497	45235.581641
540.155609	45223.414816
540.515665	45661.914542
540.875665	45123.103416
541.235609	45453.442666
541.595496	45409.400626
541.955328	46087.110663
542.315102	45473.796325
542.674821	45263.665909
543.034483	45293.691021
543.394090	45276.493125
543.753640	45233.378657
544.113134	46225.833135
544.472571	45261.810764
544.831953	46485.873494
545.191278	45716.008644
545.550548	45444.582838
545.909761	45897.870789
546.268918	46087.672752
546.628019	46386.345994
546.987064	45964.038454
547.346053	45258.891936
547.704986	46124.745398
548.063863	45698.606581
548.422684	45893.041364
548.781449	45750.013747
549.140158	46126.971067
549.498811	45993.841756
549.857408	45436.814420
550.215949	46268.120854
550.574434	46204.841770
550.932864	45974.866853
551.291237	46667.798654
551.649555	46302.453632
552.007817	46544.411373
552.366022	46200.448405
552.724173	46366.254475
553.082267	46752.439627
553.440305	47048.650266
553.798288	46388.846406
554.156215	46689.397478
554.514086	46891.099085
554.871902	46635.545352
555.229661	46655.525965
555.587365	46494.057808
555.945014	46594.124712
556.302606	46517.476488
556.660143	46759.532531
557.017625	46818.554360
557.375050	46621.349463
557.732421	46969.506671
558.089735	46957.155844
558.446994	46871.723410
558.804197	47339.111468
559.161345	47264.668749
559.518437	46542.357103
559.875474	46849.060903
560.232455	46999.856938
560.589381	47181.772015
560.946251	46884.646408
561.303065	47553.514262
561.659825	47357.272225
562.016528	47042.311015
562.373177	46773.211702
562.729770	47244.584792
563.086307	46759.121677
563.442789	47205.047023
563.799216	47251.150895
564.155587	47048.052889
564.511904	47082.685616
564.868164	47180.252108
565.224370	47412.298940
565.580520	47150.179104
565.936615	47357.199128
566.292654	47091.096781
566.648638	47322.432811
567.004567	47269.495654
567.360441	47311.049885
567.716260	47173.892692
568.072023	47473.629617
568.427732	47451.715722
568.783385	46998.208480
569.138982	47411.278106
569.494525	47368.428298
569.850013	47130.294273
570.205445	47092.379755
570.560823	47050.276038
570.916145	46909.416117
571.271412	46953.906820
571.626625	46708.263996
571.981782	46773.723379
572.336884	46464.856924
572.691931	46779.987013
573.046923	46376.919036
573.401860	46220.885243
573.756743	46207.511061
574.111570	46305.473283
574.466342	46165.346851
574.821059	46290.982487
575.175722	45813.338201
575.530330	45834.349730
575.884882	45553.607873
576.239380	45517.911462
576.593823	45493.983625
576.948211	45409.128403
577.302544	44932.709118
577.656823	44986.694834
578.011047	45196.479931
578.365216	44930.362461
578.719330	44713.688627
579.073389	44568.702522
579.427394	44659.501265
579.781344	44625.654958
580.135239	44285.177947
580.489080	44364.838261
580.842866	43857.373029
581.196597	44304.714939
581.550273	44262.931336
581.903895	44122.757012
582.257463	44543.811825
582.610975	43925.912557
582.964434	44208.864961
583.317837	43863.634142
583.671186	43687.329869
584.024481	43912.140125
584.377721	43451.804641
584.730906	43732.266714
585.084037	43750.087193
585.437113	43461.413080
585.790135	43498.379861
586.143103	43107.448462
586.496016	43231.793563
586.848874	43252.789969
587.201679	43266.287658
587.554428	42758.315791
587.907124	42941.430663
588.259765	42708.809140
588.612352	42970.739932
588.964884	42351.451826
589.317362	42633.395999
589.669786	42583.319697
590.022155	42336.038498
590.374470	42764.206379
590.726731	42278.271916
591.078937	41798.807774
591.431090	41895.970973
591.783188	41558.367421
592.135232	41248.659093
592.487222	41476.501603
592.839157	41566.728174
593.191038	41246.498958
593.542866	41022.533096
593.894639	40420.422722
594.246358	40699.024610
594.598022	40675.245487
594.949633	40280.177822
595.301190	40226.277805
595.652692	40088.220766
596.004141	40403.776832
596.355535	39430.272051
596.706876	39381.093074
597.058162	39219.146007
597.409395	39668.922794
597.760573	39752.626113
598.111698	39326.835136
598.462768	39337.376188
598.813785	39389.393334
599.164748	38834.294240
599.515657	39241.170808
599.866511	38706.758089
600.217312	39311.497425
600.568060	38295.994791
600.918753	39026.442860
601.269392	38992.299125
601.619978	38647.151486
601.970510	38863.419507
602.320988	39029.492758
602.671412	39332.292185
603.021783	39076.778781
603.372100	38733.324970
603.722363	38840.305816
604.072572	38911.580170
604.422728	38919.583002
604.772830	38750.805171
605.122878	38834.788273
605.472872	38772.759396
605.822813	39051.026047
606.172701	38879.425170
606.522534	39118.353177
606.872314	39377.551664
607.222041	39132.344900
607.571714	39523.732522
607.921333	38977.271446
608.270899	39275.553998
608.620411	39603.723031
608.969870	39409.565511
609.319276	39399.077391
609.668627	39453.373138
610.017926	39935.814082
610.367171	40085.191032
610.716362	40188.181805
611.065500	40136.472170
611.414585	40319.385396
611.763616	40603.882913
612.112594	40535.376153
612.461518	40764.010124
612.810389	41049.183156
613.159207	40913.359348
613.507971	40986.995482
613.856682	41460.160703
614.205340	41342.832888
614.553945	42053.809500
614.902496	41511.814885
615.250994	41959.494553
615.599439	42030.481561
615.947830	42246.527770
616.296169	42308.057574
616.644454	42429.138527
616.992686	42595.950308
617.340864	43115.715955
617.688990	42839.526259
618.037063	43443.199391
618.385082	43409.809308
618.733048	43715.585536
619.080961	43737.552364
619.428821	43735.354421
619.776628	43852.208367
620.124382	43683.191082
620.472083	43792.730313
620.819731	43926.716621
621.167326	43599.331487
621.514868	43589.569293
621.862357	43139.051456
622.209793	43161.930733
622.557176	42833.497039
622.904506	42590.064761
623.251783	42244.473500
623.599007	42029.869060
623.946179	41807.914618
624.293297	41759.196907
624.640363	41179.507065
624.987376	41161.792450
625.334336	40930.133787
625.681243	40610.464139
626.028097	40548.336959
626.374899	40403.912943
626.721647	40383.922247
627.068343	40279.477101
627.414987	40053.104088
627.761577	39818.564405
628.108115	40156.513277
628.454600	39616.804825
628.801032	39802.374740
629.147412	39759.744222
629.493739	39785.345722
629.840014	39446.101274
630.186236	39773.821644
630.532405	39393.552286
630.878521	39608.817117
631.224585	39492.936114
631.570597	39209.585459
631.916556	39370.473884
632.262462	39323.071914
632.608316	39339.402732
632.954117	39233.662010
633.299866	39222.291687
633.645562	39144.662959
633.991206	38639.980445
634.336797	38207.436842
634.682336	38232.574555
635.027823	37975.551327
635.373257	37787.680126
635.718639	37556.046668
636.063968	37417.235976
636.409245	36859.220575
636.754470	36894.102839
637.099642	36654.965624
637.444762	36198.252209
637.789829	36336.805802
638.134845	36000.860789
638.479808	35945.108148
638.824719	35854.145568
639.169577	35466.029654
639.514383	35529.197832
639.859137	35242.835088
640.203839	35487.149568
640.548489	35128.211852
640.893086	35188.264597
641.237632	34950.430521
641.582125	35044.705139
641.926566	34992.095657
642.270955	34956.109381
642.615292	34989.212117
642.959576	34951.907579
643.303809	34950.314574
643.647990	35090.688024
643.992118	35065.131894
644.336195	35063.654836
644.680219	35158.703271
645.024192	35446.986695
645.368112	35969.986242
645.711981	35988.192369
646.055797	36855.439709
646.399562	36784.987064
646.743274	37727.531598
647.086935	38164.609719
647.430544	38053.674088
647.774101	38190.710293
648.117606	38427.236191
648.461059	38712.613389
648.804460	38325.767846
649.147810	37724.053202
649.491108	37457.822306
649.834354	37119.364278
650.177548	36296.085882
650.520690	35841.202405
650.863781	35851.332604
651.206820	35712.186676
651.549807	35271.657885
651.892742	34792.465965
652.235626	34598.416830
652.578458	34473.408818
652.921238	33882.630957
653.263967	34199.371694
653.606644	33892.317534
653.949269	33847.675596
654.291843	33445.177270
654.634365	33857.904098
654.976836	33459.645382
655.319255	33451.168682
655.661622	33448.975780
656.003938	33231.785228
656.346203	33084.936417
656.688416	33307.485715
657.030577	33117.282980
657.372687	32953.483289
657.714746	33217.488516
658.056753	33335.519571
658.398708	32808.761844
658.740612	32847.092258
659.082465	33121.585605
659.424266	32957.705255
659.766016	33056.350554
660.107715	32945.611527
660.449362	33077.558688
660.790958	33052.831828
661.132503	33080.820314
661.473996	33115.773155
661.815438	33219.588156
662.156829	33426.189764
662.498168	33202.060064
662.839456	33227.613673
663.180693	33370.921074
663.521879	33530.125754
663.863013	33473.450582
664.204097	33475.036025
664.545129	33943.538178
664.886110	33910.052313
665.227040	33983.312882
665.567918	34096.746405
665.908746	34169.626366
666.249522	34324.709902
666.590248	34317.858974
666.930922	34435.872386
667.271545	34414.122328
667.612118	34492.131663
667.952639	34276.403046
668.293109	34327.727033
668.633528	34216.448603
668.973896	34135.621263
669.314213	34166.389945
669.654480	33910.410235
669.994695	33942.177066
670.334859	33838.422558
670.674973	33741.282044
671.015035	33878.865215
671.355047	33838.256200
671.695008	33772.958135
672.034918	33691.838407
672.374777	33775.662714
672.714585	33602.403297
673.054342	33838.127651
673.394049	33593.472893
673.733705	33884.629775
674.073310	33549.113260
674.412864	33622.381390
674.752368	33215.721591
675.091820	33509.305788
675.431223	33096.977212
675.770574	32822.791375
676.109875	32689.006714
676.449125	32416.562596
676.788324	32335.785667
677.127473	31799.951342
677.466571	31722.418396
677.805619	31378.057177
678.144616	31363.122759
678.483562	31297.055917
678.822458	30978.354171
679.161303	30910.069221
679.500098	30803.925207
679.838842	30695.608454
680.177535	30845.209736
680.516179	31132.119445
680.854771	31366.903624
681.193314	32244.351739
681.531805	33358.837428
681.870247	34143.238446
682.208638	34879.952669
682.546978	35105.267041
682.885268	35172.674829
683.223508	34667.841080
683.561697	34318.287472
683.899836	34120.782627
684.237925	33633.237515
684.575963	33481.844103
684.913951	33019.313196
685.251889	33175.369675
685.589776	33163.580937
685.927614	33162.615556
686.265401	33311.621982
686.603137	33401.914088
686.940824	33909.260852
687.278460	34290.616579
687.616046	34448.301351
687.953582	35052.498763
688.291068	34919.679482
688.628504	35210.518771
688.965889	35132.532121
689.303224	34742.135085
689.640510	34389.576950
689.977745	33650.833662
690.314930	32845.867257
690.652065	32322.991218
690.989150	31583.186768
691.326185	30683.774346
691.663170	29977.254114
692.000105	29221.582632
692.336990	28537.949238
692.673825	28080.693899
693.010610	27556.827273
693.347345	26994.816757
693.684030	26343.890370
694.020665	26069.543216
694.357251	25407.758183
694.693786	25361.447623
695.030272	25115.719100
695.366707	24582.788480
695.703093	24290.378871
696.039429	24278.428816
696.375716	24020.089846
696.711952	23985.804959
697.048139	23832.684952
697.384276	23653.197190
697.720363	23769.864613
698.056400	23575.218102
698.392388	23353.147713
698.728326	23322.956243
699.064214	23102.965330
699.400053	23061.826994
699.735842	22698.856355
700.071581	22421.764293
700.407270	22123.527111
700.742910	21940.084563
701.078501	21671.466681
701.414042	21386.361704
701.749533	21093.087538
702.084974	20733.834751
702.420366	20945.719488
702.755709	20509.329485
703.091002	20214.669001
703.426246	20234.218596
703.761440	20132.241095
704.096584	19855.595174
704.431679	19814.789555
704.766725	19727.721266
705.101721	19656.746861
705.436668	19745.413195
705.771565	19432.649928
706.106413	19775.680283
706.441212	19763.004302
706.775961	19876.551251
707.110661	19965.323450
707.445311	20316.555762
707.779913	20149.260030
708.114465	20405.408619
708.448967	20697.503155
708.783421	21377.438862
709.117825	21655.866830
709.452180	21881.327395
709.786485	22287.828397
710.120742	23083.798863
710.454949	23097.677159
710.789107	23567.008582
711.123216	24268.336426
711.457275	24410.565020
711.791286	24942.862975
712.125247	24996.160574
712.459159	24701.880698
712.793023	25348.610325
713.126837	24252.177008
713.460602	24494.490149
713.794318	24111.533856
714.127985	23723.183529
714.461602	22827.962826
714.795171	22772.915946
715.128691	21768.944952
715.462162	21230.912684
715.795584	20800.972838
716.128957	20543.178312
716.462281	20139.434821
716.795556	19886.913343
717.128782	19407.895342
717.461960	18862.858392
717.795088	18785.683367
718.128167	18383.931132
718.461198	17926.985824
718.794180	17786.219165
719.127113	17423.349349
719.459997	17232.067807
719.792833	16881.042183
720.125619	16843.629260
720.458357	16524.141093
720.791046	16365.674943
721.123686	16198.711928
721.456278	15966.534025
721.788821	15924.846204
722.121315	15664.221070
722.453761	15743.286527
722.786158	15666.855073
723.118506	15676.738255
723.450805	15540.929571
723.783056	15701.296236
724.115259	15601.153715
724.447412	15540.122986
724.779518	15768.875424
725.111574	15790.360822
725.443582	15997.683315
725.775542	15974.718339
726.107453	16445.499093
726.439315	16327.702452
726.771129	16733.056591
727.102895	17099.329186
727.434612	17310.417421
727.766281	17441.764684
728.097901	17691.188373
728.429473	17716.774750
728.760996	17707.688070
729.092471	17777.558462
729.423897	17658.196542
729.755276	17521.800563
730.086606	17639.733316
730.417887	18157.963932
730.749120	18671.561727
731.080305	18847.946658
731.411442	19181.844963
731.742530	19253.552856
732.073570	19345.783286
732.404562	19642.465272
732.735506	19449.714234
733.066401	19160.062137
733.397249	18646.446698
733.728048	17998.849993
734.058798	17164.894432
734.389501	16500.465314
734.720156	16024.509815
735.050762	15499.932387
735.381320	15153.353060
735.711831	14921.764973
736.042293	14565.872114
736.372707	14570.845213
736.703073	14368.967166
737.033391	14558.186875
737.363661	14517.797151
737.693883	14626.255055
738.024056	14793.593637
738.354182	14982.299148
738.684260	15272.198262
739.014290	15493.825029
739.344272	15684.972980
739.674207	15967.164170
740.004093	16075.861529
740.333931	16065.970785
740.663722	16103.660972
740.993464	16090.737974
741.323159	15916.616520
741.652806	15633.190248
741.982405	15423.871458
742.311956	15094.026241
742.641460	14965.144102
742.970915	14656.880065
743.300323	14327.302029
743.629683	14107.202732
743.958996	13839.378831
744.288260	13567.123756
744.617477	13268.327005
744.946647	13191.159543
745.275768	12921.460333
745.604842	12732.981673
745.933869	12567.964543
746.262847	12522.387471
746.591778	12445.693877
746.920662	12347.961027
747.249498	12347.061181
747.578286	12464.235241
747.907027	12609.304525
748.235720	12821.549705
748.564365	12848.711442
748.892963	12761.983431
749.221514	12816.299343
749.550017	12660.525168
749.878473	12625.814304
750.206881	12408.769945
750.535242	12311.894092
750.863555	12232.639592
751.191821	12135.935137
751.520039	12146.430820
751.848210	12054.833054
752.176334	12094.058273
752.504411	12000.433963
752.832440	11839.094355
753.160421	11908.735375
753.488356	11779.583534
753.816243	11694.219155
754.144082	11556.913248
754.471875	11486.415232
754.799620	11437.752974
755.127318	11411.029817
755.454969	11370.630010
755.782572	11332.178609
756.110129	11335.727582
756.437638	11255.008626
756.765100	11253.423183
757.092515	11249.665003
757.419882	11271.896492
757.747203	11277.030907
758.074477	11342.142450
758.401703	11299.839607
758.728882	11462.678959
759.056014	11507.835095
759.383099	11611.909716
759.710138	11717.184132
760.037129	11806.147894
760.364073	11818.632312
760.690970	11804.015486
761.017820	11808.809623
761.344623	11991.513642
761.671379	12309.363433
761.998088	12933.410388
762.324751	14478.680317
762.651366	17336.235690
762.977935	20985.937813
763.304456	23184.354759
763.630931	23666.425178
763.957359	22488.559581
764.283740	20581.352450
764.610074	18706.678404
764.936362	16583.057058
765.262602	15076.213324
765.588796	13612.869706
765.914943	12579.682705
766.241044	11741.477452
766.567097	11120.001485
766.893104	10571.735675
767.219064	10209.836282
767.544978	9825.965019
767.870845	9514.993882
768.196665	9331.654679
768.522438	9132.544225
768.848165	8970.629926
769.173846	8802.399060
769.499479	8681.449176
769.825066	8527.111731
770.150607	8350.005914
770.476101	8284.289432
770.801548	8167.185949
771.126949	8030.865587
771.452303	7946.645551
771.777611	7784.199409
772.102872	7759.956500
772.428087	7641.625496
772.753256	7521.512444
773.078378	7431.288393
773.403453	7292.303781
773.728482	7188.824016
774.053465	7121.093594
774.378401	7043.099382
774.703291	6947.171266
775.028135	6846.259968
775.352932	6812.703528
775.677683	6728.826290
776.002388	6647.270503
776.327046	6644.780173
776.651658	6557.454785
776.976224	6482.553321
777.300743	6463.782585
777.625216	6399.742287
777.949643	6357.734352
778.274024	6362.389858
778.598359	6290.525689
778.922647	6295.650022
779.246889	6256.316419
779.571086	6259.641060
779.895236	6274.751919
780.219339	6271.759994
780.543397	6264.404950
780.867409	6317.021994
781.191374	6318.599875
781.515294	6283.122755
781.839167	6328.664538
782.162995	6303.231917
782.486776	6257.402788
782.810511	6217.287806
783.134201	6138.431557
783.457844	6130.842100
783.781441	6080.551549
784.104993	6036.386000
784.428498	6007.603532
784.751958	5990.135934
785.075372	5966.235824
785.398739	5926.289721
785.722061	5952.574297
786.045337	5949.184121
786.368568	6060.795267
786.691752	6079.054326
787.014891	6329.609755
787.337983	6610.815399
787.661030	7047.487707
787.984031	7465.974052
788.306987	7728.736634
788.629897	7813.425498
788.952760	7724.769246
789.275579	7549.805920
789.598351	7252.995384
789.921078	6988.412945
790.243759	6707.461880
790.566395	6504.552917
790.888984	6314.569472
791.211529	6177.981929
791.534027	6014.386405
791.856480	5877.846753
792.178888	5814.550025
792.501249	5754.754379
792.823566	5647.569366
793.145836	5645.031145
793.468062	5622.381241
793.790241	5583.534109
794.112375	5620.402588
794.434464	5722.380089
794.756507	5755.492908
795.078505	5874.116299
795.400457	6086.512713
795.722364	6325.639846
796.044226	6522.237284
796.366042	6678.273599
796.687812	6624.912985
797.009538	6651.701677
797.331218	6560.156844
797.652852	6492.479353
797.974442	6366.480754
798.295986	6294.498118
798.617484	6168.093706
798.938938	6057.831069
799.260346	5997.390155
799.581709	5857.636767
799.903026	5804.775228
800.224299	5731.222273
800.545526	5617.400581
800.866708	5558.408998
801.187845	5502.759701
801.508936	5425.937557
801.829983	5403.622890
802.150984	5296.102640
802.471940	5268.731695
802.792851	5252.476495
803.113717	5228.916662
803.434538	5206.957396
803.755314	5173.101007
804.076045	5164.594060
804.396731	5124.224500
804.717372	5142.397859
805.037967	5146.133354
805.358518	5175.505637
805.679024	5232.810954
805.999485	5245.854939
806.319901	5263.259523
806.640272	5280.026401
806.960598	5324.880067
807.280879	5315.740455
807.601115	5358.081106
807.921306	5317.560312
808.241453	5313.025794
808.561554	5326.236137
808.881611	5284.245846
809.201623	5282.342811
809.521590	5233.763732
809.841513	5219.099015
810.161390	5233.405810
810.481223	5144.401718
810.801011	5137.150018
811.120755	5111.535916
811.440453	5054.570877
811.760107	5023.477040
812.079716	5000.819574
812.399281	4948.535247
812.718801	4944.933343
813.038276	4906.733999
813.357707	4870.563721
813.677093	4896.719747
813.996434	4834.582485
814.315731	4851.835834
814.634983	4853.151575
814.954191	4859.173233
815.273354	4913.030401
815.592473	4954.783757
815.911547	5030.968195
816.230577	5084.903500
816.549562	5171.006408
816.868502	5219.469540
817.187399	5271.648003
817.506250	5354.559860
817.825058	5381.683788
818.143821	5531.668198
818.462539	5700.524166
818.781213	5921.858547
819.099843	6286.775071
819.418429	6910.262458
819.736970	7520.199223
820.055466	8226.878252
820.373919	9130.124472
820.692327	10567.478421
821.010691	13229.159761
821.329011	19396.237674
821.647286	28903.579085
821.965517	39170.904685
822.283704	44649.454245
822.601847	46117.788605
822.919945	41538.530480
823.237999	36423.758144
823.556010	31269.755548
823.873976	26585.001197
824.191897	22419.710023
824.509775	19375.246310
824.827609	16616.822707
825.145398	15077.886987
825.463144	14332.605323
825.780845	14623.318583
826.098502	15876.441044
826.416116	18307.930697
826.733685	20590.716393
827.051210	21114.716609
827.368692	19695.929229
827.686129	17135.635576
828.003522	14688.404920
828.320872	12475.741674
828.638177	10845.475370
828.955439	9613.276218
829.272656	8562.319149
829.589830	7722.049544
829.906960	7005.441963
830.224046	6475.523432
830.541088	6069.362708
830.858086	5811.946269
831.175041	5607.038489
831.491952	5549.455909
831.808819	5583.655097
832.125642	5824.934802
832.442421	6366.352205
832.759157	7461.648742
833.075849	9223.940345
833.392497	11055.681403
833.709101	12176.314780
834.025662	11919.679720
834.342179	10869.057888
834.658653	9583.147762
834.975083	8481.050708
835.291469	7578.492606
835.607811	6849.899682
835.924110	6334.156876
836.240366	5850.909347
836.556578	5405.601543
836.872746	5053.943253
837.188871	4785.295124
837.504952	4563.262544
837.820990	4398.016041
838.136984	4285.051345
838.452935	4241.049634
838.768842	4269.370836
839.084706	4544.557342
839.400526	5282.037821
839.716303	6178.309604
840.032037	6743.095276
840.347727	6592.803356
840.663373	6007.293501
840.978977	5427.268422
841.294537	4986.900948
841.610054	4657.882481
841.925527	4419.929937
842.240957	4220.315368
842.556344	4037.838202
842.871687	3878.015981
843.186987	3732.727407
843.502244	3615.195425
843.817458	3527.045809
844.132629	3458.523925
844.447756	3410.358221
844.762840	3367.316849
845.077881	3325.195488
845.392879	3290.903039
845.707833	3266.007301
846.022745	3238.303640
846.337613	3230.492372
846.652438	3205.654607
846.967221	3197.321580
847.281960	3177.832479
847.596656	3167.351920
847.911309	3156.871362
848.225919	3145.223776
848.540485	3133.964358
848.855009	3128.172073
849.169490	3113.217490
849.483928	3108.554422
849.798323	3102.356324
850.112675	3090.950713
850.426984	3095.336517
850.741251	3087.106833
851.055474	3082.312696
851.369654	3083.023499
851.683792	3081.062490
851.997887	3084.979467
852.311938	3084.233376
852.625947	3083.736822
852.939914	3076.069227
853.253837	3082.325299
853.567718	3082.000145
853.881555	3073.740214
854.195350	3081.203642
854.509103	3076.253229
854.822812	3073.611665
855.136479	3068.255439
855.450103	3070.773495
855.763685	3067.421128
856.077224	3069.518248
856.390720	3078.851944
856.704173	3085.927203
857.017584	3093.423399
857.330953	3100.773402
857.644278	3107.765482
857.957561	3110.787654
858.270802	3108.327571
858.584000	3106.132148
858.897155	3099.770212
859.210268	3088.467945
859.523339	3077.778178
859.836367	3074.319947
860.149352	3068.366344
860.462295	3069.298958
860.775195	3058.180693
861.088054	3054.321689
861.400869	3054.651885
861.713642	3051.644837
862.026373	3063.284861
862.339062	3065.394584
862.651708	3073.188208
862.964312	3087.689087
863.276873	3097.166456
863.589392	3128.918163
863.901869	3152.001607
864.214303	3178.424815
864.526696	3193.817978
864.839045	3211.247767
865.151353	3221.708162
865.463619	3221.690518
865.775842	3225.332751
866.088023	3227.762587
866.400162	3223.220508
866.712258	3224.364850
867.024313	3220.039540
867.336325	3220.445353
867.648296	3224.203533
867.960224	3220.531052
868.272110	3223.356619
868.583954	3222.151783
868.895755	3230.260479
869.207515	3226.514902
869.519233	3243.808580
869.830909	3251.297214
870.142542	3264.265582
870.454134	3266.758433
870.765684	3285.493881
871.077191	3299.556180
871.388657	3311.649908
871.700081	3329.649348
872.011463	3350.058459
872.322803	3366.885831
872.634101	3387.741084
872.945357	3407.759506
873.256571	3432.872014
873.567744	3449.429684
873.878874	3456.386476
874.189963	3469.309474
874.501010	3472.654280
874.812015	3467.686223
875.122979	3484.760611
875.433900	3483.689365
875.744780	3487.535766
876.055618	3492.453411
876.366415	3487.656753
876.677169	3495.117661
876.987882	3514.246319
877.298554	3531.487066
877.609183	3571.750761
877.919771	3614.882874
878.230317	3683.934078
878.540822	3786.425777
878.851285	3938.093932
879.161707	4155.579391
879.472087	4524.775855
879.782425	5145.036903
880.092722	6319.724052
880.402977	8233.736742
880.713191	10584.517521
881.023363	12955.125158
881.333494	14293.506134
881.643583	14755.595939
881.953631	14342.985059
882.263637	13500.734280
882.573602	12482.080925
882.883526	11525.353104
883.193408	10574.621736
883.503248	9666.583899
883.813048	8846.317592
884.122806	8091.876152
884.432522	7330.989596
884.742197	6674.926273
885.051831	6112.406600
885.361424	5625.768896
885.670975	5233.017641
885.980485	4913.199279
886.289954	4645.481243
886.599382	4432.515178
886.908768	4252.089761
887.218113	4091.786110
887.527417	3962.145277
887.836680	3839.178932
888.145901	3737.002305
888.455082	3660.031448
888.764221	3591.857403
889.073319	3531.625697
889.382376	3503.017149
889.691392	3477.035042
890.000366	3473.052531
890.309300	3464.585913
890.618193	3468.898620
890.927044	3460.744554
891.235855	3470.922643
891.544625	3482.660970
891.853353	3515.156248
892.162041	3570.961821
892.470687	3665.314577
892.779293	3780.757000
893.087858	3950.611117
893.396381	4231.032861
893.704864	4636.331548
894.013306	5197.706879
894.321707	5769.293067
894.630068	6130.234641
894.938387	6164.834600
895.246665	5987.506973
895.554903	5674.002656
895.863100	5342.070402
896.171256	5068.373556
896.479371	4832.419830
896.787446	4604.030355
897.095480	4413.890635
897.403473	4264.170886
897.711425	4119.825008
898.019336	4000.599198
898.327207	3880.826424
898.635038	3780.192391
898.942827	3675.346473
899.250576	3590.216508
899.558284	3502.530678
899.865952	3450.952112
900.173579	3387.665467
900.481165	3337.677385
900.788711	3300.700522
901.096216	3268.661469
901.403681	3242.996954
901.711105	3227.999522
902.018489	3224.258986
902.325832	3258.201074
902.633135	3317.449756
902.940397	3483.356649
903.247619	3885.164337
903.554800	4625.278818
903.861941	5589.091981
904.169041	6287.831192
904.476101	6496.976062
904.783121	6229.744497
905.090100	5827.014278
905.397039	5418.554788
905.703938	5057.711516
906.010796	4737.159666
906.317614	4488.683714
906.624391	4246.115994
906.931129	4053.337229
907.237826	3874.779560
907.544483	3708.786967
907.851099	3543.293448
908.157675	3377.565515
908.464211	3237.749113
908.770707	3140.946357
909.077163	3059.582133
909.383578	2998.105262
909.689954	2957.823923
909.996289	2926.672112
910.302584	2905.859709
910.608839	2894.847308
910.915054	2881.863816
911.221229	2878.471120
911.527363	2880.467417
911.833458	2889.105434
912.139513	2899.820406
912.445527	2913.423960
912.751502	2947.580298
913.057436	2991.017400
913.363331	3051.556617
913.669186	3134.322280
913.975000	3253.744694
914.280775	3435.458126
914.586510	3702.868652
914.892205	4074.905806
915.197859	4568.255807
915.503475	5149.682327
915.809050	5637.504702
916.114585	5927.189567
916.420081	5988.308516
916.725536	5928.094454
917.030952	5686.842475
917.336328	5483.981403
917.641665	5275.691008
917.946961	5048.977717
918.252218	4849.330381
918.557435	4627.978356
918.862612	4432.182462
919.167750	4260.332048
919.472848	4069.136206
919.777906	3905.414652
920.082925	3745.345415
920.387904	3592.883278
920.692843	3483.374293
920.997743	3383.786299
921.302603	3290.875313
921.607423	3230.610839
921.912204	3164.816220
922.216946	3113.877881
922.521647	3068.678896
922.826310	3024.747760
923.130932	2989.091679
923.435516	2946.879578
923.740059	2922.664395
924.044564	2890.496792
924.349028	2866.579038
924.653454	2836.392609
924.957840	2810.539051
925.262186	2792.370733
925.566493	2772.488422
925.870761	2745.407343
926.174989	2734.256311
926.479178	2718.797613
926.783328	2705.075592
927.087438	2692.102183
927.391509	2680.376459
927.695541	2669.061589
927.999533	2657.618170
928.303486	2648.718013
928.607400	2645.645429
928.911275	2640.362300
929.215110	2633.786115
929.518906	2629.420476
929.822663	2631.510034
930.126381	2628.407204
930.430060	2632.465333
930.733699	2636.256280
931.037299	2638.403812
931.340861	2636.198307
931.644383	2642.053607
931.947866	2638.456744
932.251309	2636.934316
932.554714	2637.330046
932.858080	2632.545991
933.161407	2629.317132
933.464694	2626.554580
933.767943	2621.596605
934.071153	2619.088631
934.374323	2612.880450
934.677455	2612.267950
934.980548	2610.652260
935.283602	2606.478185
935.586617	2607.914913
935.889593	2606.604213
936.192530	2609.031529
936.495428	2614.060080
936.798287	2625.190948
937.101108	2640.697537
937.403890	2663.022287
937.706632	2684.878209
938.009336	2718.142263
938.312002	2748.023702
938.614628	2771.638987
938.917216	2790.787810
939.219765	2799.685447
939.522275	2808.479740
939.824747	2805.966725
940.127179	2803.509162
940.429573	2796.721248
940.731929	2793.767132
941.034246	2787.216153
941.336524	2784.216666
941.638763	2779.871192
941.940964	2773.768875
942.243126	2756.989394
942.545250	2744.520100
942.847335	2731.546691
943.149381	2719.889023
943.451389	2705.017619
943.753359	2692.402131
944.055290	2683.186902
944.357182	2677.140038
944.659036	2670.100067
944.960851	2668.814572
945.262628	2662.457677
945.564367	2660.869714
945.866067	2661.663696
946.167729	2661.411638
946.469352	2659.964827
946.770937	2657.910557
947.072484	2650.968888
947.373992	2649.388486
947.675462	2646.802374
947.976893	2642.550161
948.278286	2638.088740
948.579641	2633.566825
948.880958	2631.240332
949.182236	2632.704787
949.483476	2629.654889
949.784678	2628.969292
950.085841	2627.187245
950.386967	2631.482308
950.688054	2636.258801
950.989103	2645.078300
951.290114	2653.250010
951.591087	2666.533450
951.892021	2680.454597
952.192917	2688.185206
952.493776	2701.284644
952.794596	2704.097608
953.095378	2703.961497
953.396122	2703.195242
953.696828	2701.330015
953.997496	2694.436237
954.298126	2687.638241
954.598718	2677.553413
954.899272	2667.660148
955.199788	2656.650268
955.500266	2646.623413
955.800706	2627.555249
956.101108	2611.771396
956.401472	2603.148502
956.701798	2590.878334
957.002087	2575.306210
957.302337	2564.077040
957.602550	2552.386604
957.902724	2539.894625
958.202861	2530.833151
958.502960	2524.738396
958.803022	2519.558610
959.103045	2511.182733
959.403031	2503.552947
959.702979	2498.907523
960.002889	2495.391318
960.302762	2488.812613
960.602596	2486.864207
960.902393	2483.242138
961.202153	2479.625110
961.501875	2476.711323
961.801559	2473.628657
962.101205	2473.404326
962.400814	2469.714201
962.700385	2467.012143
962.999918	2464.927626
963.299414	2465.590538
963.598873	2465.585496
963.898293	2460.151133
964.197677	2460.952676
964.497022	2458.351441
964.796331	2456.395473
965.095601	2458.048971
965.394835	2458.898406
965.694030	2456.670216
965.993189	2455.220884
966.292309	2454.152159
966.591393	2453.849690
966.890439	2454.739454
967.189447	2456.478652
967.488419	2453.721141
967.787353	2456.622325
968.086249	2455.717438
968.385108	2454.139557
968.683930	2457.532253
968.982714	2458.842953
969.281462	2460.993005
969.580172	2461.255145
969.878844	2462.654065
970.177480	2465.154478
970.476078	2469.285703
970.774639	2472.680920
971.073162	2473.996662
971.371649	2474.248719
971.670098	2473.719398
971.968510	2476.928093
972.266885	2476.539924
972.565223	2482.264154
972.863524	2482.619555
973.161788	2484.278095
973.460014	2483.037971
973.758204	2483.738691
974.056356	2485.911429
974.354471	2486.723054
974.652550	2486.745740
974.950591	2486.322283
975.248595	2487.151553
975.546563	2483.166520
975.844493	2483.849597
976.142386	2482.543938
976.440243	2478.221148
976.738062	2474.377269
977.035845	2473.235447
977.333590	2471.859212
977.631299	2469.217648
977.928971	2466.891155
978.226606	2464.826803
978.524204	2463.145578
978.821765	2464.456278
979.119290	2465.719087
979.416777	2460.698098
979.714228	2461.499641
980.011642	2464.405866
980.309020	2470.372072
980.606360	2473.195118
980.903664	2482.732981
981.200931	2492.540546
981.498162	2511.999400
981.795356	2543.110881
982.092513	2576.604307
982.389633	2620.797582
982.686717	2665.691578
982.983764	2695.061340
983.280775	2716.355174
983.577749	2715.475492
983.874686	2705.118442
984.171587	2690.829291
984.468451	2674.853875
984.765279	2658.366781
985.062070	2641.683082
985.358824	2619.625514
985.655543	2597.817482
985.952224	2573.980386
986.248869	2548.598177
986.545478	2522.495082
986.842050	2503.563029
987.138586	2482.692652
987.435086	2471.503811
987.731549	2456.087962
988.027975	2457.801955
988.324366	2449.239555
988.620719	2447.714606
988.917037	2443.704368
989.213318	2440.079778
989.509563	2437.846547
989.805772	2434.103491
990.101944	2433.876639
990.398080	2432.659200
990.694180	2432.354210
990.990244	2434.176587
991.286271	2431.237595
991.582262	2434.322781
991.878217	2431.421597
992.174136	2435.804880
992.470019	2435.048707
992.765865	2438.554829
993.061676	2440.031888
993.357450	2443.041456
993.653188	2446.847528
993.948890	2449.330296
994.244556	2456.239197
994.540186	2461.955866
994.835780	2476.242496
995.131337	2489.286481
995.426859	2506.786847
995.722345	2528.491535
996.017795	2543.980480
996.313208	2558.630073
996.608586	2567.265569
996.903928	2572.888977
997.199234	2571.018708
997.494504	2567.759602
997.789738	2559.645865
998.084936	2550.453321
998.380099	2537.038811
998.675225	2527.785773
998.970316	2514.482168
999.265371	2502.711074
999.560390	2487.378404
999.855373	2476.151755
1000.150320	2467.024746
1000.445232	2457.418827
1000.740108	2451.129988
1001.034948	2447.591098
1001.329752	2439.275714
1001.624521	2435.131886
1001.919254	2429.493355
1002.213951	2427.459250
1002.508613	2422.065215
1002.803239	2428.036462
1003.097829	2418.848959
1003.392384	2423.456574
1003.686903	2419.136305
1003.981386	2419.844587
1004.275834	2417.122364
1004.570246	2416.847621
1004.864623	2417.339133
1005.158964	2415.317631
1005.453270	2416.343506
1005.747540	2413.328896
1006.041775	2413.540624
1006.335974	2416.766963
1006.630138	2412.943247
1006.924266	2414.238824
1007.218359	2412.829821
1007.512416	2413.064235
1007.806438	2412.424008
1008.100425	2411.453586
1008.394376	2412.086251
1008.688292	2408.859913
1008.982172	2412.161868
1009.276017	2409.883267
1009.569827	2411.345202
1009.863602	2414.642116
1010.157341	2410.152969
1010.451045	2409.628689
1010.744714	2408.801939
1011.038347	2411.597259
1011.331945	2408.819583
1011.625508	2411.582136
1011.919036	2407.871847
1012.212528	2407.561816
1012.505986	2410.208421
1012.799408	2406.974521
1013.092795	2407.103071
1013.386147	2407.516445
1013.679464	2406.964439
1013.972745	2408.562485
1014.265992	2406.818245
1014.559204	2406.878739
1014.852380	2408.043246
1015.145521	2409.192629
1015.438628	2405.268091
1015.731699	2410.044584
1016.024736	2405.951167
1016.317737	2407.408060
1016.610703	2410.793195
1016.903635	2407.692886
1017.196531	2403.579304
1017.489393	2408.862433
1017.782219	2404.612741
1018.075011	2408.751528
1018.367768	2410.084913
1018.660490	2411.438463
1018.953177	2411.438463
1019.245829	2411.438463
