Dividing Wavelength (nm)	Counts (n)	Blue Motor Position (mm): 39.800000	Red Motor Position (mm): 0.000000	
326.493990	1973.563840
326.888308	1973.563840
327.282561	1973.563840
327.676750	1947.861517
328.070874	1948.595005
328.464933	1953.628597
328.858929	1962.042283
329.252859	1975.981073
329.646726	1989.123361
330.040528	2007.034581
330.434265	2026.614422
330.827938	2043.711496
331.221547	2064.050031
331.615091	2084.862434
332.008571	2106.793974
332.401986	2126.325925
332.795338	2144.874850
333.188625	2167.207162
333.581847	2185.451098
333.975006	2203.972297
334.368100	2220.093907
334.761129	2239.577967
335.154095	2254.976171
335.546996	2293.218364
335.939833	2377.448483
336.332606	2390.260576
336.725315	2403.866650
337.117960	2412.842424
337.510540	2420.565472
337.903056	2430.730959
338.295508	2434.519386
338.687896	2443.739656
339.080220	2451.019082
339.472480	2456.985288
339.864676	2457.985957
340.256807	2462.384364
340.648875	2465.111628
341.040879	2464.108438
341.432818	2467.667493
341.824694	2468.325363
342.216506	2463.906792
342.608253	2467.453244
342.999937	2464.781432
343.391557	2463.455609
343.783113	2466.649180
344.174605	2462.807821
344.566033	2461.555094
344.957397	2459.039558
345.348697	2454.769701
345.739934	2454.563013
346.131106	2455.064608
346.522215	2455.782973
346.913260	2450.192333
347.304241	2450.172168
347.695159	2446.771910
348.086012	2447.553289
348.476802	2446.119081
348.867528	2445.325099
349.258191	2442.943154
349.648789	2439.991558
350.039324	2441.466096
350.429796	2440.843513
350.820203	2440.563729
351.210548	2438.030549
351.600828	2437.312185
351.991045	2441.130859
352.381198	2436.472833
352.771288	2435.696495
353.161314	2434.484098
353.551276	2437.067689
353.941175	2436.674479
354.331010	2436.848399
354.720782	2438.685899
355.110490	2439.227823
355.500135	2438.017947
355.889717	2437.037442
356.279235	2441.095571
356.668689	2439.704213
357.058080	2437.982658
357.447408	2438.764037
357.836672	2433.957297
358.225873	2439.860488
358.615010	2436.800508
359.004084	2439.517690
359.393095	2443.848041
359.782043	2442.350818
360.170927	2444.180757
360.559748	2443.601024
360.948505	2445.060438
361.337199	2448.344750
361.725830	2447.598659
362.114398	2446.310645
362.502903	2446.290480
362.891344	2450.444391
363.279722	2447.520522
363.668037	2451.792899
364.056289	2451.291305
364.444478	2452.002107
364.832603	2450.749381
365.220665	2451.954216
365.608665	2452.286933
365.996601	2455.341872
366.384474	2454.099227
366.772284	2455.372119
367.160031	2455.941769
367.547715	2456.105607
367.935336	2453.827005
368.322893	2455.772890
368.710388	2455.863631
369.097820	2456.014866
369.485189	2456.143415
369.872495	2459.432768
370.259738	2457.733899
370.646918	2460.849332
371.034035	2462.076853
371.421090	2461.063581
371.808081	2460.496452
372.195010	2465.635908
372.581875	2463.395115
372.968678	2465.104066
373.355418	2462.054168
373.742096	2469.835189
374.128710	2464.113479
374.515262	2469.827627
374.901751	2468.151444
375.288177	2469.454582
375.674540	2467.629684
376.060841	2469.212607
376.447079	2469.260497
376.833254	2471.755869
377.219367	2468.012812
377.605417	2471.239150
377.991404	2473.061528
378.377329	2472.287710
378.763191	2469.010960
379.148991	2476.771817
379.534727	2478.707620
379.920402	2480.895481
380.306013	2476.814667
380.691563	2480.146869
381.077049	2477.401961
381.462474	2480.479585
381.847835	2482.049905
382.233134	2483.733650
382.618371	2483.138794
383.003545	2485.369505
383.388657	2487.542242
383.773706	2488.996615
384.158693	2489.372181
384.543618	2490.030051
384.928480	2493.321925
385.313280	2492.046513
385.698017	2494.599857
386.082692	2494.652789
386.467305	2494.917450
386.851856	2498.526916
387.236344	2497.977430
387.620770	2498.486587
388.005133	2503.353821
388.389435	2501.594458
388.773674	2505.637464
389.157851	2506.590242
389.541965	2510.787002
389.926018	2509.244409
390.310008	2513.713392
390.693936	2517.753877
391.077802	2519.293949
391.461606	2523.094979
391.845348	2528.136133
392.229027	2535.508821
392.612645	2541.447300
392.996200	2550.690256
393.379694	2561.979920
393.763125	2572.392423
394.146494	2587.208374
394.529801	2603.740838
394.913047	2624.255814
395.296230	2640.707619
395.679351	2657.411482
396.062410	2689.198478
396.445408	2707.656663
396.828343	2740.716550
397.211217	2773.287445
397.594028	2799.438430
397.976778	2846.737056
398.359466	2897.078019
398.742092	2938.034873
399.124656	2999.300016
399.507158	3063.405849
399.889598	3122.233593
400.271977	3202.662682
400.654294	3269.780605
401.036549	3356.296887
401.418742	3428.886982
401.800874	3546.391237
402.182944	3632.360554
402.564952	3771.569497
402.946898	3830.480421
403.328783	3924.800409
403.710606	4055.172209
404.092367	4201.708469
404.474067	4382.257394
404.855705	4442.468936
405.237282	4534.699366
405.618797	4758.519035
406.000250	4941.412097
406.381642	5169.869627
406.762972	5279.565135
407.144240	5339.328014
407.525447	5546.532040
407.906593	5654.753010
408.287677	5876.871290
408.668700	6070.121402
409.049661	6192.618920
409.430560	6396.596607
409.811399	6518.597571
410.192176	6728.274283
410.572891	6900.734677
410.953545	7272.504650
411.334138	7164.714698
411.714669	7600.504804
412.095139	7392.093422
412.475547	7802.730691
412.855894	7855.284719
413.236180	8178.949482
413.616405	8140.084706
413.996568	8441.109646
414.376670	8561.396618
414.756711	8618.412068
415.136691	8925.501516
415.516609	9169.579062
415.896466	9351.045477
416.276262	9671.811576
416.655997	10103.873748
417.035670	10263.748902
417.415283	10856.084478
417.794834	11054.632843
418.174324	11002.953455
418.553753	11056.911445
418.933121	11546.130220
419.312428	11535.836184
419.691674	11579.074160
420.070859	12056.738611
420.449983	11895.099054
420.829045	12461.059314
421.208047	12364.695137
421.586988	12862.572094
421.965867	13176.083972
422.344686	13281.345785
422.723444	13864.201472
423.102141	12814.257676
423.480777	13943.198874
423.859352	13596.891769
424.237866	14664.955993
424.616319	14489.644827
424.994712	15144.505835
425.373044	15037.643456
425.751314	15731.233128
426.129524	15005.284289
426.507673	16060.400310
426.885762	15855.913466
427.263789	16083.942498
427.641756	16302.947866
428.019662	16404.872435
428.397508	16504.137795
428.775292	16819.164540
429.153016	16825.939851
429.530679	16941.248683
429.908282	17012.765012
430.285824	16773.080832
430.663305	17476.765415
431.040726	17125.059235
431.418086	16995.904873
431.795385	17633.608314
432.172624	18072.090396
432.549802	17652.920975
432.926920	17864.886370
433.303977	17768.675949
433.680974	18029.550620
434.057910	18343.047374
434.434786	18381.589516
434.811601	18302.813926
435.188355	19325.497683
435.565050	18997.278238
435.941683	18954.206620
436.318257	19830.878397
436.694770	19642.629110
437.071222	20229.532843
437.447614	19324.708742
437.823946	19355.537919
438.200218	19516.282671
438.576429	19299.833169
438.952580	19584.822198
439.328670	19543.325941
439.704700	19948.485996
440.080670	19539.408964
440.456580	20123.237594
440.832429	20287.848911
441.208218	19316.597526
441.583947	19740.999665
441.959616	19852.769608
442.335224	20082.003476
442.710773	20214.885771
443.086261	20750.284036
443.461689	20108.945923
443.837057	20249.747870
444.212365	20887.552134
444.587612	20873.840196
444.962800	20466.199893
445.337927	20878.039477
445.712995	19641.583070
446.088002	21455.506171
446.462949	21640.874439
446.837837	21802.266979
447.212664	21779.733021
447.587431	24548.138109
447.962139	27430.301874
448.336786	29790.822162
448.711374	28258.946578
449.085901	24637.361491
449.460369	24564.627723
449.834776	24475.263189
450.209124	26917.813133
450.583412	26495.087177
450.957640	27010.761927
451.331808	25677.099471
451.705917	24343.895761
452.079965	24362.260684
452.453954	24712.726741
452.827883	24607.162458
453.201752	24413.995525
453.575562	24575.584671
453.949311	25655.477963
454.323001	25712.788320
454.696632	25486.478321
455.070202	27017.020520
455.443713	27179.058328
455.817164	27744.448937
456.190556	28263.677701
456.563888	27722.610659
456.937160	28138.546180
457.310373	26503.644535
457.683526	26917.886229
458.056619	26903.019867
458.429653	26845.278490
458.802628	27421.063959
459.175542	27534.540332
459.548398	28829.970677
459.921194	30386.542874
460.293930	31082.595150
460.666607	33077.823348
461.039224	34824.641129
461.411782	35192.761307
461.784280	33971.244359
462.156719	33451.844196
462.529099	32891.315780
462.901419	31599.462133
463.273680	30577.968088
463.645882	30670.833704
464.018024	30644.864200
464.390106	31484.733033
464.762130	34163.158566
465.134094	38228.259328
465.505999	43530.151733
465.877845	48089.068802
466.249631	49195.647442
466.621358	47406.234432
466.993026	45238.371920
467.364634	43131.315805
467.736184	41193.551720
468.107674	39956.321496
468.479105	39180.558495
468.850477	38495.526181
469.221790	37091.511903
469.593043	35386.442437
469.964238	34496.981253
470.335373	34409.429013
470.706449	36079.585968
471.077467	38602.252449
471.448425	43183.854711
471.819324	46041.473098
472.190164	44252.846507
472.560945	40689.307786
472.931667	37607.511808
473.302330	36496.645667
473.672934	35694.706475
474.043479	36188.936157
474.413965	35422.322850
474.784393	35045.330242
475.154761	35931.766734
475.525070	35952.737934
475.895321	35522.142737
476.265513	36100.917610
476.635645	37052.127888
477.005719	36871.392441
477.375734	37341.225459
477.745691	38042.641523
478.115588	39346.939257
478.485427	41299.917545
478.855207	44649.303010
479.224928	47262.140611
479.594591	48896.681813
479.964194	47849.440075
480.333739	47948.148388
480.703226	47964.932909
481.072653	48606.593656
481.442022	49113.620307
481.811333	49388.237163
482.180584	48090.777753
482.549777	47568.410871
482.918912	47047.112714
483.287988	46732.151504
483.657005	45917.874088
484.025964	45267.015756
484.394864	45284.049815
484.763706	44839.949367
485.132489	43961.583762
485.501213	43817.525229
485.869879	43963.264986
486.238487	43562.377309
486.607036	43763.794090
486.975527	43229.514962
487.343959	43440.882981
487.712333	43495.461033
488.080648	43416.834156
488.448905	43856.266496
488.817104	43671.493084
489.185244	44614.229183
489.553326	46270.737213
489.921350	48997.913223
490.289315	51926.964760
490.657222	52571.486362
491.025070	52856.621585
491.392861	51916.872370
491.760593	50637.868625
492.128267	48925.607954
492.495883	47380.554794
492.863440	45993.839235
493.230939	44639.452596
493.598380	43586.005197
493.965763	43255.648303
494.333088	42452.658031
494.700354	41970.764052
495.067563	41704.865872
495.434713	41567.728843
495.801805	41649.657676
496.168839	41258.537234
496.535815	40948.907044
496.902733	40970.369757
497.269593	40571.196072
497.636395	40498.391728
498.003139	40895.395196
498.369825	40356.193381
498.736453	40649.991827
499.103023	40186.266167
499.469535	40071.859701
499.835989	40155.126959
500.202385	39831.777269
500.568723	39848.082882
500.935003	40047.276514
501.301226	39839.291109
501.667390	40451.572011
502.033497	40702.560979
502.399546	40129.588474
502.765537	39462.278337
503.131470	39834.504534
503.497345	40183.264160
503.863163	38855.066315
504.228923	39467.006939
504.594625	39866.442764
504.960269	39158.742902
505.325856	39829.329789
505.691385	39204.032628
506.056856	39339.191004
506.422270	39772.977251
506.787625	39355.332778
507.152924	39546.657170
507.518164	39647.069392
507.883347	38864.236173
508.248472	39119.494998
508.613540	39582.615720
508.978550	39879.000278
509.343503	39637.481118
509.708398	39826.040436
510.073236	40345.301968
510.438016	40344.230722
510.802738	39806.258949
511.167403	40424.811046
511.532010	40636.743674
511.896561	40944.075098
512.261053	41762.816456
512.625488	41318.768940
512.989866	41185.876563
513.354186	41049.253732
513.718449	41025.709023
514.082655	41701.069883
514.446803	41370.917156
514.810894	41883.796587
515.174927	41796.844244
515.538904	41705.475852
515.902822	42370.366235
516.266684	41828.243071
516.630488	42248.198913
516.994235	42108.198509
517.357925	42651.002229
517.721558	42824.947242
518.085133	43138.418791
518.448651	43259.018315
518.812112	43037.988924
519.175516	43131.709015
519.538863	43475.540913
519.902152	43441.505563
520.265385	43897.493052
520.628560	43923.404583
520.991678	43729.698246
521.354739	43966.259432
521.717743	44282.284325
522.080690	44168.525648
522.443580	44731.874590
522.806413	44785.754442
523.169189	44723.355040
523.531908	44902.598306
523.894569	44742.818935
524.257174	44930.354899
524.619722	45229.406228
524.982213	45217.897273
525.344647	45154.585422
525.707025	45204.787753
526.069345	45591.913080
526.431608	45517.220824
526.793815	45828.880078
527.155964	45368.675664
527.518057	45530.511826
527.880093	45334.605026
528.242072	45857.735643
528.603995	45559.153142
528.965860	45567.544142
529.327669	45671.099525
529.689421	45570.417600
530.051117	45533.440737
530.412755	45694.782865
530.774337	45762.924142
531.135862	45575.368013
531.497331	45783.784437
531.858743	45689.842535
532.220098	46034.843980
532.581396	45752.337719
532.942638	45429.043482
533.303824	45694.747577
533.664953	45695.138267
534.026025	45424.216577
534.387040	45882.908645
534.747999	45840.580596
535.108902	46005.186872
535.469748	45535.016097
535.830537	45655.245096
536.191270	45851.877822
536.551947	45514.518766
536.912567	45814.366596
537.273131	45938.126923
537.633638	45448.998889
537.994089	45784.313758
538.354483	45403.721766
538.714821	45970.105483
539.075103	46313.952504
539.435328	46092.671056
539.795497	45975.877604
540.155609	45961.530480
540.515665	46428.265709
540.875665	45882.233130
541.235609	46207.261524
541.595496	46176.301278
541.955328	46855.450565
542.315102	46240.220588
542.674821	46030.972374
543.034483	46071.823364
543.394090	46034.624690
543.753640	45986.587535
544.113134	46985.340935
544.472571	46042.607357
544.831953	47253.268180
545.191278	46470.424878
545.550548	46196.982612
545.909761	46651.092271
546.268918	46853.197169
546.628019	47156.488108
546.987064	46730.467758
547.346053	46028.512291
547.704986	46889.228817
548.063863	46448.526106
548.422684	46643.845612
548.781449	46496.346492
549.140158	46901.272133
549.498811	46749.384688
549.857408	46180.182966
550.215949	47004.807351
550.574434	46947.204606
550.932864	46713.151395
551.291237	47425.942822
551.649555	47039.820685
552.007817	47297.683266
552.366022	46919.977334
552.724173	47104.299563
553.082267	47495.097371
553.440305	47789.518400
553.798288	47123.123232
554.156215	47431.518339
554.514086	47639.975091
554.871902	47371.599184
555.229661	47398.135818
555.587365	47207.716314
555.945014	47303.974626
556.302606	47237.174296
556.660143	47445.943600
557.017625	47538.766366
557.375050	47333.175509
557.732421	47678.933128
558.089735	47645.759815
558.446994	47582.826051
558.804197	48058.330367
559.161345	47972.676122
559.518437	47238.792507
559.875474	47528.779840
560.232455	47693.620530
560.589381	47865.546561
560.946251	47553.151299
561.303065	48245.281557
561.659825	48046.687822
562.016528	47728.626302
562.373177	47448.658262
562.729770	47916.794931
563.086307	47426.479705
563.442789	47879.180362
563.799216	47923.303061
564.155587	47723.108759
564.511904	47757.358359
564.868164	47830.669338
565.224370	48094.939226
565.580520	47814.237698
565.936615	48025.257877
566.292654	47740.137777
566.648638	47973.888519
567.004567	47925.314481
567.360441	47969.109505
567.716260	47828.035336
568.072023	48121.138102
568.427732	48102.385010
568.783385	47667.232610
569.138982	48062.106191
569.494525	48030.094864
569.850013	47768.947971
570.205445	47730.778875
570.560823	47705.167293
570.916145	47574.699711
571.271412	47594.524048
571.626625	47345.478445
571.981782	47408.137467
572.336884	47086.118642
572.691931	47413.445802
573.046923	47019.709002
573.401860	46856.405864
573.756743	46842.472115
574.111570	46967.956516
574.466342	46825.259095
574.821059	46936.497196
575.175722	46448.669779
575.530330	46463.319372
575.884882	46186.754110
576.239380	46155.264543
576.593823	46121.365304
576.948211	46035.751388
577.302544	45570.573876
577.656823	45595.759480
578.011047	45811.478015
578.365216	45544.289300
578.719330	45330.456156
579.073389	45203.101487
579.427394	45268.026507
579.781344	45234.679274
580.135239	44880.651643
580.489080	44989.064177
580.842866	44477.850848
581.196597	44918.109936
581.550273	44867.642945
581.903895	44727.017438
582.257463	45135.408873
582.610975	44545.528338
582.964434	44806.050127
583.317837	44465.144619
583.671186	44305.130834
584.024481	44518.535480
584.377721	44076.882512
584.730906	44334.760216
585.084037	44352.119429
585.437113	44071.848920
585.790135	44101.972334
586.143103	43701.298906
586.496016	43836.580790
586.848874	43851.671484
587.201679	43864.796128
587.554428	43354.225546
587.907124	43548.791399
588.259765	43308.139318
588.612352	43541.025502
588.964884	42927.040690
589.317362	43223.931884
589.669786	43162.139941
590.022155	42925.964403
590.374470	43357.386350
590.726731	42863.769168
591.078937	42392.703588
591.431090	42474.710558
591.783188	42134.954433
592.135232	41835.066273
592.487222	42069.454721
592.839157	42155.114007
593.191038	41829.596621
593.542866	41582.726276
593.894639	40989.432880
594.246358	41263.596032
594.598022	41251.189752
594.949633	40852.983969
595.301190	40810.965951
595.652692	40635.170834
596.004141	40969.212812
596.355535	39987.995065
596.706876	39944.157192
597.058162	39758.657853
597.409395	40241.996123
597.760573	40322.684831
598.111698	39892.792875
598.462768	39909.947922
598.813785	39939.305081
599.164748	39391.077080
599.515657	39794.908791
599.866511	39268.400601
600.217312	39892.734902
600.568060	38854.652940
600.918753	39585.353067
601.269392	39543.098115
601.619978	39209.212413
601.970510	39422.281822
602.320988	39592.637534
602.671412	39892.979398
603.021783	39637.256787
603.372100	39286.674783
603.722363	39392.302080
604.072572	39462.734561
604.422728	39487.915124
604.772830	39305.566507
605.122878	39396.493799
605.472872	39336.171353
605.822813	39615.882294
606.172701	39443.310995
606.522534	39678.458137
606.872314	39933.041447
607.222041	39697.392711
607.571714	40073.475391
607.921333	39554.050022
608.270899	39833.564358
608.620411	40169.027941
608.969870	39962.242331
609.319276	39972.619546
609.668627	40004.772025
610.017926	40500.478765
610.367171	40652.293113
610.716362	40735.754457
611.065500	40691.543537
611.414585	40890.598538
611.763616	41176.288288
612.112594	41093.068921
612.461518	41329.786382
612.810389	41617.427058
613.159207	41487.889569
613.507971	41551.103118
613.856682	42031.462065
614.205340	41917.872266
614.553945	42613.261630
614.902496	42071.965216
615.250994	42524.403732
615.599439	42609.069911
615.947830	42823.502952
616.296169	42871.003224
616.644454	43002.534489
616.992686	43166.412318
617.340864	43683.654868
617.688990	43409.968105
618.037063	43998.061551
618.385082	43963.751458
618.733048	44279.317606
619.080961	44286.087876
619.428821	44302.136389
619.776628	44397.736831
620.124382	44230.027724
620.472083	44371.532913
620.819731	44491.078835
621.167326	44159.862425
621.514868	44136.960463
621.862357	43699.410994
622.209793	43714.504209
622.557176	43387.671081
622.904506	43132.525682
623.251783	42798.642501
623.599007	42578.449943
623.946179	42356.137578
624.293297	42310.578151
624.640363	41726.280693
624.987376	41708.150184
625.334336	41465.403503
625.681243	41128.727522
626.028097	41083.463002
626.374899	40935.043871
626.721647	40910.818606
627.068343	40795.484568
627.414987	40566.379249
627.761577	40354.731446
628.108115	40681.390653
628.454600	40150.592442
628.801032	40327.524339
629.147412	40295.840687
629.493739	40283.825097
629.840014	39959.484820
630.186236	40289.241816
630.532405	39903.775029
630.878521	40106.462181
631.224585	39995.072845
631.570597	39703.512672
631.916556	39879.121266
632.262462	39815.161626
632.608316	39828.792906
632.954117	39735.937373
633.299866	39722.986649
633.645562	39643.873301
633.991206	39134.789859
634.336797	38710.617092
634.682336	38716.114471
635.027823	38457.934297
635.373257	38280.790671
635.718639	38034.701705
636.063968	37900.390243
636.409245	37331.080137
636.754470	37366.441310
637.099642	37135.206104
637.444762	36653.554101
637.789829	36821.847981
638.134845	36464.982179
638.479808	36414.989057
638.824719	36322.499007
639.169577	35915.834168
639.514383	35991.106156
639.859137	35698.414243
640.203839	35929.057114
640.548489	35558.383592
640.893086	35625.695599
641.237632	35389.520062
641.582125	35502.643554
641.926566	35438.252896
642.270955	35415.562663
642.615292	35424.188077
642.959576	35397.664046
643.303809	35399.229324
643.647990	35544.255759
643.992118	35514.719638
644.336195	35503.500550
644.680219	35601.553513
645.024192	35900.708185
645.368112	36432.028157
645.711981	36440.371266
646.055797	37310.378638
646.399562	37250.676253
646.743274	38190.889254
647.086935	38641.636464
647.430544	38527.376191
647.774101	38638.372317
648.117606	38894.306656
648.461059	39185.322385
648.804460	38789.175913
649.147810	38174.878550
649.491108	37915.180989
649.834354	37566.728873
650.177548	36733.441266
650.520690	36276.392614
650.863781	36289.794522
651.206820	36134.403475
651.549807	35703.367177
651.892742	35221.170729
652.235626	35031.598139
652.578458	34905.612142
652.921238	34293.842917
653.263967	34622.095130
653.606644	34302.952282
653.949269	34261.486272
654.291843	33864.356774
654.634365	34267.888537
654.976836	33873.692991
655.319255	33849.371945
655.661622	33867.759553
656.003938	33637.265397
656.346203	33487.782582
656.688416	33718.685072
657.030577	33510.240922
657.372687	33353.239227
657.714746	33622.313334
658.056753	33752.722943
658.398708	33205.077195
658.740612	33253.605862
659.082465	33528.787328
659.424266	33367.901423
659.766016	33468.384222
660.107715	33346.055583
660.449362	33478.416118
660.790958	33461.712255
661.132503	33484.382324
661.473996	33527.521998
661.815438	33622.623365
662.156829	33822.908407
662.498168	33595.391052
662.839456	33610.892600
663.180693	33782.760658
663.521879	33948.019764
663.863013	33884.360073
664.204097	33896.252155
664.545129	34350.697051
664.886110	34321.007175
665.227040	34387.298348
665.567918	34512.755023
665.908746	34573.571503
666.249522	34741.527626
666.590248	34726.958691
666.930922	34829.089948
667.271545	34805.754447
667.612118	34898.168879
667.952639	34675.145712
668.293109	34730.084207
668.633528	34631.660719
668.973896	34529.579874
669.314213	34580.518213
669.654480	34311.728931
669.994695	34344.564487
670.334859	34237.853342
670.674973	34134.141684
671.015035	34292.176816
671.355047	34252.235754
671.695008	34190.461455
672.034918	34094.457721
672.374777	34180.805125
672.714585	34006.925646
673.054342	34239.557252
673.394049	33988.570805
673.733705	34284.980569
674.073310	33950.910865
674.412864	34012.985113
674.752368	33613.771099
675.091820	33899.039913
675.431223	33481.677745
675.770574	33195.441029
676.109875	33077.709922
676.449125	32801.000988
676.788324	32729.222519
677.127473	32163.625222
677.466571	32103.731273
677.805619	31764.690992
678.144616	31755.425351
678.483562	31679.200584
678.822458	31335.867760
679.161303	31274.400972
679.500098	31186.947035
679.838842	31060.855174
680.177535	31220.619422
680.516179	31485.302684
680.854771	31745.038053
681.193314	32609.207769
681.531805	33760.934983
681.870247	34563.098506
682.208638	35283.943177
682.546978	35511.165625
682.885268	35599.393379
683.223508	35052.115635
683.561697	34718.855037
683.899836	34532.377715
684.237925	34003.946324
684.575963	33861.931979
684.913951	33402.466094
685.251889	33562.371494
685.589776	33539.887948
685.927614	33527.968140
686.265401	33685.970504
686.603137	33787.615289
686.940824	34308.873118
687.278460	34673.209909
687.616046	34819.529399
687.953582	35443.732630
688.291068	35296.629241
688.628504	35574.457311
688.965889	35501.640365
689.303224	35103.863079
689.640510	34739.957307
689.977745	34002.459184
690.314930	33208.328739
690.652065	32680.237627
690.989150	31925.362647
691.326185	31026.860153
691.663170	30321.948049
692.000105	29543.049451
692.336990	28868.074239
692.673825	28411.484332
693.010610	27877.898362
693.347345	27298.732799
693.684030	26647.796330
694.020665	26358.177000
694.357251	25687.784197
694.693786	25649.738609
695.030272	25401.330712
695.366707	24857.773340
695.703093	24569.580657
696.039429	24560.879625
696.375716	24295.866167
696.711952	24259.799232
697.048139	24098.769655
697.384276	23917.404063
697.720363	24046.480287
698.056400	23838.487320
698.392388	23629.405464
698.728326	23587.160595
699.064214	23373.382904
699.400053	23319.495490
699.735842	22965.654381
700.071581	22671.871059
700.407270	22381.974466
700.742910	22195.963450
701.078501	21914.566243
701.414042	21626.605453
701.749533	21329.810041
702.084974	20988.350005
702.420366	21182.908297
702.755709	20756.598081
703.091002	20454.491813
703.426246	20465.209306
703.761440	20363.377998
704.096584	20090.447409
704.431679	20057.473221
704.766725	19958.807758
705.101721	19893.423993
705.436668	19981.034206
705.771565	19656.948507
706.106413	20013.844555
706.441212	19996.324025
706.775961	20124.729775
707.110661	20193.710404
707.445311	20549.930938
707.779913	20395.880838
708.114465	20637.745317
708.448967	20926.260634
708.783421	21629.829271
709.117825	21905.192217
709.452180	22130.932566
709.786485	22547.125186
710.120742	23347.894831
710.454949	23358.357745
710.789107	23837.605118
711.123216	24540.372211
711.457275	24658.897300
711.791286	25210.999428
712.125247	25269.799446
712.459159	24972.121832
712.793023	25633.223789
713.126837	24506.455328
713.460602	24753.368523
713.794318	24379.791297
714.127985	23978.689370
714.461602	23081.611002
714.795171	23039.754302
715.128691	22018.683714
715.462162	21469.059313
715.795584	21044.359745
716.128957	20772.689444
716.462281	20368.015860
716.795556	20123.557707
717.128782	19627.361975
717.461960	19077.626669
717.795088	19001.485081
718.128167	18602.709647
718.461198	18126.968397
718.794180	17994.895208
719.127113	17637.684087
719.459997	17420.899348
719.792833	17079.391422
720.125619	17040.952624
720.458357	16724.993266
720.791046	16549.545988
721.123686	16396.257103
721.456278	16161.861093
721.788821	16105.564007
722.121315	15844.606158
722.453761	15919.046356
722.786158	15841.551219
723.118506	15852.760224
723.450805	15715.613113
723.783056	15882.321550
724.115259	15774.975220
724.447412	15702.813624
724.779518	15954.994824
725.111574	15980.193032
725.443582	16178.572518
725.775542	16159.774055
726.107453	16634.862476
726.439315	16507.401942
726.771129	16915.047286
727.102895	17286.474460
727.434612	17505.104262
727.766281	17635.977657
728.097901	17886.764978
728.429473	17927.061441
728.760996	17911.355727
729.092471	17991.663828
729.423897	17870.413996
729.755276	17714.828864
730.086606	17847.355758
730.417887	18371.943268
730.749120	18886.695487
731.080305	19078.213963
731.411442	19399.166585
731.742530	19472.943871
732.073570	19568.433407
732.404562	19863.217399
732.735506	19674.736218
733.066401	19382.336693
733.397249	18852.302215
733.728048	18210.286067
734.058798	17361.348198
734.389501	16686.055393
734.720156	16220.046091
735.050762	15684.350398
735.381320	15329.498537
735.711831	15086.673718
736.042293	14741.130348
736.372707	14752.798099
736.703073	14535.859605
737.033391	14730.480911
737.363661	14686.136401
737.693883	14789.802689
738.024056	14963.173011
738.354182	15152.382638
738.684260	15448.608400
739.014290	15664.057233
739.344272	15856.215935
739.674207	16141.570449
740.004093	16252.009527
740.333931	16246.113897
740.663722	16279.733352
740.993464	16273.605830
741.323159	16092.613283
741.652806	15809.035776
741.982405	15598.093735
742.311956	15259.292908
742.641460	15132.195337
742.970915	14827.389532
743.300323	14484.344054
743.629683	14263.574283
743.958996	13979.142301
744.288260	13724.417838
744.617477	13420.794183
744.946647	13347.795755
745.275768	13075.938931
745.604842	12898.971745
745.933869	12723.330384
746.262847	12667.610510
746.591778	12596.172319
746.920662	12492.619457
747.249498	12487.379178
747.578286	12605.390069
747.907027	12759.316660
748.235720	12983.930311
748.564365	13002.998476
748.892963	12904.451480
749.221514	12963.722846
749.550017	12811.343889
749.878473	12778.286522
750.206881	12555.565825
750.535242	12464.638533
750.863555	12369.322917
751.191821	12268.643512
751.520039	12294.519755
751.848210	12198.563912
752.176334	12231.812843
752.504411	12135.756177
752.832440	11980.294554
753.160421	12042.845191
753.488356	11915.740058
753.816243	11818.942343
754.144082	11680.945797
754.471875	11616.582865
754.799620	11568.064280
755.127318	11537.804754
755.454969	11502.962819
755.782572	11456.770727
756.110129	11466.608538
756.437638	11383.512679
756.765100	11377.687626
757.092515	11370.050278
757.419882	11384.755323
757.747203	11393.305120
758.074477	11466.966460
758.401703	11422.049780
758.728882	11586.512383
759.056014	11631.035853
759.383099	11746.195972
759.710138	11850.615912
760.037129	11932.721185
760.364073	11950.387908
760.690970	11931.145824
761.017820	11938.127822
761.344623	12121.212448
761.671379	12448.085904
761.998088	13082.021083
762.324751	14650.694569
762.651366	17550.991364
762.977935	21243.417267
763.304456	23463.062511
763.630931	23942.919863
763.957359	22743.732707
764.283740	20807.130607
764.610074	18921.519778
764.936362	16769.337775
765.262602	15240.592748
765.588796	13762.188683
765.914943	12730.158627
766.241044	11866.891277
766.567097	11234.402910
766.893104	10684.380258
767.219064	10324.315844
767.544978	9932.993757
767.870845	9612.666238
768.196665	9427.817209
768.522438	9231.648269
768.848165	9068.879493
769.173846	8893.013800
769.499479	8772.799925
769.825066	8619.528684
770.150607	8429.867873
770.476101	8372.320581
770.801548	8255.421265
771.126949	8118.392621
771.452303	8031.531020
771.777611	7862.715380
772.102872	7843.216197
772.428087	7724.302940
772.753256	7594.712518
773.078378	7510.679004
773.403453	7365.140893
773.728482	7258.807835
774.053465	7201.174843
774.378401	7108.800740
774.703291	7016.328335
775.028135	6922.305774
775.352932	6882.682305
775.677683	6800.667773
776.002388	6706.627569
776.327046	6708.397014
776.651658	6625.706967
776.976224	6548.753754
777.300743	6531.238265
777.625216	6463.359128
777.949643	6420.993271
778.274024	6417.628301
778.598359	6355.980031
778.922647	6357.257963
779.246889	6323.472150
779.571086	6325.675134
779.895236	6337.980591
780.219339	6325.037428
780.543397	6329.128325
780.867409	6378.730758
781.191374	6375.423761
781.515294	6342.994018
781.839167	6391.351287
782.162995	6360.804415
782.486776	6317.843702
782.810511	6277.421210
783.134201	6196.699734
783.457844	6190.504156
783.781441	6141.453729
784.104993	6092.814156
784.428498	6068.009158
784.751958	6048.832609
785.075372	6025.532396
785.398739	5984.336087
785.722061	6009.677967
786.045337	6010.451784
786.368568	6123.764320
786.691752	6144.594368
787.014891	6391.129476
787.337983	6671.062228
787.661030	7113.279805
787.984031	7544.457256
788.306987	7812.215622
788.629897	7894.888024
788.952760	7803.930485
789.275579	7623.736962
789.598351	7323.727814
789.921078	7057.257463
790.243759	6777.004597
790.566395	6570.282001
790.888984	6385.173352
791.211529	6237.028964
791.534027	6072.694911
791.856480	5932.253406
792.178888	5870.945413
792.501249	5809.375281
792.823566	5697.859917
793.145836	5696.566861
793.468062	5678.098593
793.790241	5638.263396
794.112375	5678.900137
794.434464	5779.808913
794.756507	5811.636238
795.078505	5930.562099
795.400457	6145.597557
795.722364	6385.148147
796.044226	6588.157933
796.366042	6742.089565
796.687812	6688.398756
797.009538	6716.109979
797.331218	6622.649507
797.652852	6556.227264
797.974442	6436.083965
798.295986	6364.131576
798.617484	6231.360187
798.938938	6122.630060
799.260346	6050.216406
799.581709	5913.333955
799.903026	5860.553075
800.224299	5791.156551
800.545526	5671.197254
800.866708	5610.617708
801.187845	5559.780192
801.508936	5479.391432
801.829983	5450.422442
802.150984	5341.901523
802.471940	5318.505528
802.792851	5302.996418
803.113717	5278.599754
803.434538	5256.085961
803.755314	5220.780240
804.076045	5211.375968
804.396731	5170.358619
804.717372	5191.412998
805.037967	5192.121280
805.358518	5222.032967
805.679024	5282.287358
805.999485	5292.067197
806.319901	5311.538653
806.640272	5326.563812
806.960598	5375.838571
807.280879	5367.855903
807.601115	5407.630607
807.921306	5365.153845
808.241453	5359.938771
808.561554	5369.937900
808.881611	5334.803578
809.201623	5332.845090
809.521590	5281.901710
809.841513	5264.635758
810.161390	5284.994458
810.481223	5190.321588
810.801011	5173.892468
811.120755	5155.351104
811.440453	5101.327579
811.760107	5071.302467
812.079716	5043.278693
812.399281	4994.364377
812.718801	4988.304910
813.038276	4950.856698
813.357707	4920.856792
813.677093	4942.785811
813.996434	4878.553949
814.315731	4897.811157
814.634983	4896.134973
814.954191	4899.726796
815.273354	4959.600580
815.592473	5001.550542
815.911547	5078.949897
816.230577	5130.893946
816.549562	5218.090784
816.868502	5272.557931
817.187399	5329.260830
817.506250	5406.735802
817.825058	5437.426347
818.143821	5590.180870
818.462539	5762.056490
818.781213	5991.660883
819.099843	6358.732501
819.418429	6992.846640
819.736970	7614.466280
820.055466	8335.318512
820.373919	9255.404706
820.692327	10713.508045
821.010691	13427.302312
821.329011	19684.866417
821.647286	29290.802715
821.965517	39633.843925
822.283704	45100.592144
822.601847	46589.093640
822.919945	42001.956192
823.237999	36871.604169
823.556010	31657.374909
823.873976	26931.812417
824.191897	22712.008726
824.509775	19630.152254
824.827609	16838.913260
825.145398	15284.113029
825.463144	14528.857442
825.780845	14833.322970
826.098502	16099.033193
826.416116	18577.219053
826.733685	20869.169567
827.051210	21396.481821
827.368692	19954.119485
827.686129	17373.255403
828.003522	14875.577922
828.320872	12647.927325
828.638177	10984.374282
828.955439	9727.246624
829.272656	8663.900920
829.589830	7814.690828
829.906960	7077.895947
830.224046	6539.117588
830.541088	6131.562985
830.858086	5871.691504
831.175041	5667.343292
831.491952	5610.025372
831.808819	5645.764633
832.125642	5891.059617
832.442421	6448.079391
832.759157	7561.592138
833.075849	9343.060289
833.392497	11209.774353
833.709101	12334.909480
834.025662	12075.799213
834.342179	11009.411173
834.658653	9698.418786
834.975083	8585.997449
835.291469	7675.769231
835.607811	6924.866680
835.924110	6410.479945
836.240366	5916.204893
836.556578	5458.221107
836.872746	5106.489721
837.188871	4831.237679
837.504952	4605.227629
837.820990	4440.427269
838.136984	4327.923838
838.452935	4277.081281
838.768842	4307.396260
839.084706	4587.510494
839.400526	5332.867775
839.716303	6247.817034
840.032037	6817.969013
840.347727	6666.827659
840.663373	6059.305606
840.978977	5479.940918
841.294537	5035.686715
841.610054	4701.130540
841.925527	4458.857727
842.240957	4256.435236
842.556344	4064.097572
842.871687	3906.483377
843.186987	3754.626179
843.502244	3637.522696
843.817458	3549.718398
844.132629	3477.786174
844.447756	3430.293464
844.762840	3387.282339
845.077881	3344.235927
845.392879	3312.590083
845.707833	3281.624796
846.022745	3258.286774
846.337613	3247.574322
846.652438	3221.619942
846.967221	3211.915720
847.281960	3193.787731
847.596656	3185.134591
847.911309	3172.650173
848.225919	3160.228770
848.540485	3151.530259
848.855009	3140.308651
849.169490	3130.576703
849.483928	3123.955148
849.798323	3115.876698
850.112675	3104.884462
850.426984	3108.831686
850.741251	3101.421190
851.055474	3096.352310
851.369654	3102.963783
851.683792	3095.384408
851.997887	3097.073195
852.311938	3099.530757
852.625947	3099.296343
852.939914	3091.474993
853.253837	3100.929677
853.567718	3095.076898
853.881555	3088.702359
854.195350	3096.919439
854.509103	3091.545569
854.822812	3087.852924
855.136479	3086.446442
855.450103	3087.479879
855.763685	3085.329827
856.077224	3084.147676
856.390720	3092.420210
856.704173	3104.496294
857.017584	3112.335288
857.330953	3115.266719
857.644278	3124.696197
857.957561	3123.536732
858.270802	3124.053450
858.584000	3123.481279
858.897155	3119.294601
859.210268	3106.011160
859.523339	3091.134715
859.836367	3091.913574
860.149352	3083.782192
860.462295	3082.877305
860.775195	3074.090574
861.088054	3070.241653
861.400869	3070.594534
861.713642	3067.605130
862.026373	3074.813980
862.339062	3081.780854
862.651708	3089.357709
862.964312	3106.656428
863.276873	3114.661780
863.589392	3143.547592
863.901869	3171.750327
864.214303	3193.570962
864.526696	3209.863971
864.839045	3228.314594
865.151353	3241.129207
865.463619	3241.144330
865.775842	3243.299424
866.088023	3247.975094
866.400162	3240.410843
866.712258	3242.588621
867.024313	3242.714650
867.336325	3237.262642
867.648296	3239.221130
867.960224	3237.736510
868.272110	3241.212386
868.583954	3242.084506
868.895755	3248.827049
869.207515	3245.555340
869.519233	3266.597116
869.830909	3272.946449
870.142542	3284.515898
870.454134	3290.212401
870.765684	3301.570121
871.077191	3323.158862
871.388657	3331.774194
871.700081	3351.013758
872.011463	3372.763816
872.322803	3391.668143
872.634101	3406.058117
872.945357	3428.776077
873.256571	3458.687763
873.567744	3475.169815
873.878874	3480.611741
874.189963	3494.797548
874.501010	3496.307373
874.812015	3493.360819
875.122979	3510.258767
875.433900	3504.605113
875.744780	3506.566122
876.055618	3513.782533
876.366415	3518.879140
876.677169	3519.978111
876.987882	3539.588200
877.298554	3560.483783
877.609183	3600.215637
877.919771	3646.001916
878.230317	3713.971794
878.540822	3819.379800
878.851285	3977.263697
879.161707	4195.969116
879.472087	4578.723763
879.782425	5210.965113
880.092722	6398.260188
880.402977	8350.799896
880.713191	10727.169572
881.023363	13120.056588
881.333494	14462.157936
881.643583	14924.023410
881.953631	14517.000648
882.263637	13681.933514
882.573602	12647.430771
882.883526	11682.122907
883.193408	10723.721423
883.503248	9797.953848
883.813048	8966.130696
884.122806	8191.078498
884.432522	7418.493944
884.742197	6755.614981
885.051831	6188.248239
885.361424	5684.117731
885.670975	5290.421260
885.980485	4963.008400
886.289954	4693.001679
886.599382	4473.227536
886.908768	4295.559631
887.218113	4130.749188
887.527417	3994.411182
887.836680	3867.157336
888.145901	3765.285699
888.455082	3689.244934
888.764221	3622.633648
889.073319	3559.609142
889.382376	3528.003628
889.691392	3503.077643
890.000366	3496.592199
890.309300	3493.212105
890.618193	3497.769308
890.927044	3487.795385
891.235855	3493.272599
891.544625	3508.144003
891.853353	3538.199362
892.162041	3600.555914
892.470687	3694.523022
892.779293	3813.595076
893.087858	3987.966067
893.396381	4271.044499
893.704864	4690.687790
894.013306	5259.579481
894.321707	5838.414848
894.630068	6203.860693
894.938387	6242.707824
895.246665	6059.371141
895.554903	5740.283747
895.863100	5400.026027
896.171256	5122.795333
896.479371	4882.846492
896.787446	4656.067666
897.095480	4457.773879
897.403473	4308.149912
897.711425	4159.224145
898.019336	4034.233777
898.327207	3912.696599
898.635038	3812.647339
898.942827	3704.817058
899.250576	3617.131228
899.558284	3531.426572
899.865952	3474.098570
900.173579	3410.597676
900.481165	3364.730738
900.788711	3319.451094
901.096216	3290.945889
901.403681	3261.893720
901.711105	3249.762183
902.018489	3248.522059
902.325832	3278.002727
902.633135	3337.649659
902.940397	3511.093078
903.247619	3919.827311
903.554800	4679.319988
903.861941	5651.478781
904.169041	6367.042843
904.476101	6579.550162
904.783121	6296.696061
905.090100	5899.566564
905.397039	5477.831195
905.703938	5113.592706
906.010796	4787.636740
906.317614	4532.118295
906.624391	4293.454949
906.931129	4092.965740
907.237826	3907.166453
907.544483	3733.488621
907.851099	3564.685584
908.157675	3404.046696
908.464211	3256.993718
908.770707	3160.800941
909.077163	3079.966039
909.383578	3017.090248
909.689954	2972.176088
909.996289	2941.508228
910.302584	2921.774631
910.608839	2907.800553
910.915054	2893.972668
911.221229	2888.644168
911.527363	2895.290930
911.833458	2903.830644
912.139513	2912.324988
912.445527	2928.875097
912.751502	2962.522278
913.057436	3008.553054
913.363331	3064.711507
913.669186	3153.604694
913.975000	3273.412756
914.280775	3460.696663
914.586510	3734.000298
914.892205	4110.634984
915.197859	4615.070482
915.503475	5207.393456
915.809050	5702.033992
916.114585	6004.377194
916.420081	6065.178550
916.725536	5999.928376
917.030952	5760.075317
917.336328	5548.344335
917.641665	5337.404814
917.946961	5107.026603
918.252218	4901.692846
918.557435	4675.385367
918.862612	4477.091581
919.167750	4302.559273
919.472848	4109.001650
919.777906	3939.583593
920.082925	3780.237761
920.387904	3625.091210
920.692843	3511.670290
920.997743	3409.738159
921.302603	3315.473623
921.607423	3248.043149
921.912204	3184.078469
922.216946	3133.394708
922.521647	3080.641554
922.826310	3041.318033
923.130932	3002.110459
923.435516	2962.224850
923.740059	2937.387085
924.044564	2903.749986
924.349028	2877.747714
924.653454	2848.985411
924.957840	2819.645896
925.262186	2803.047897
925.566493	2784.433436
925.870761	2758.320259
926.174989	2743.582446
926.479178	2730.979561
926.783328	2712.148331
927.087438	2702.618030
927.391509	2691.804755
927.695541	2678.148269
927.999533	2665.384067
928.303486	2659.375012
928.607400	2651.311686
928.911275	2645.660553
929.215110	2641.680562
929.518906	2636.659573
929.822663	2635.316105
930.126381	2636.523462
930.430060	2641.557054
930.733699	2642.484626
931.037299	2646.421767
931.340861	2643.581077
931.644383	2650.933600
931.947866	2646.005872
932.251309	2643.601242
932.554714	2640.390027
932.858080	2641.433545
933.161407	2638.708802
933.464694	2632.399798
933.767943	2629.884262
934.071153	2626.849487
934.374323	2623.131636
934.677455	2616.706686
934.980548	2617.674587
935.283602	2614.768362
935.586617	2614.284411
935.889593	2614.977570
936.192530	2616.200050
936.495428	2625.775722
936.798287	2630.448871
937.101108	2642.696354
937.403890	2667.002278
937.706632	2694.635362
938.009336	2727.987636
938.312002	2757.490989
938.614628	2782.946296
938.917216	2802.871456
939.219765	2810.344967
939.522275	2822.859631
939.824747	2820.931390
940.127179	2814.945020
940.429573	2810.286993
940.731929	2807.431180
941.034246	2798.064716
941.336524	2796.494397
941.638763	2789.688839
941.940964	2782.737088
942.243126	2766.063471
942.545250	2756.820516
942.847335	2743.658063
943.149381	2728.547204
943.451389	2715.563713
943.753359	2701.367823
944.055290	2692.288705
944.357182	2684.573219
944.659036	2677.356808
944.960851	2676.232630
945.262628	2670.853719
945.564367	2670.110149
945.866067	2671.390602
946.167729	2671.037721
946.469352	2668.638132
946.770937	2668.567556
947.072484	2658.588592
947.373992	2659.712769
947.675462	2657.749240
947.976893	2648.163486
948.278286	2646.346150
948.579641	2644.455717
948.880958	2641.189049
949.182236	2640.425315
949.483476	2636.906589
949.784678	2634.577576
950.085841	2634.380971
950.386967	2640.455562
950.688054	2647.550986
950.989103	2654.028868
951.290114	2658.966678
951.591087	2674.816066
951.892021	2686.907274
952.192917	2697.937318
952.493776	2709.138762
952.794596	2714.865513
953.095378	2713.406099
953.396122	2712.891901
953.696828	2709.037939
953.997496	2704.289172
954.298126	2694.093438
954.598718	2686.723272
954.899272	2677.520645
955.199788	2664.940446
955.500266	2653.060967
955.800706	2635.764768
956.101108	2618.105606
956.401472	2609.223093
956.701798	2594.424786
957.002087	2578.550192
957.302337	2567.900755
957.602550	2556.336348
957.902724	2548.802343
958.202861	2539.730787
958.502960	2531.546474
958.803022	2519.929135
959.103045	2513.955367
959.403031	2508.382372
959.702979	2507.043946
960.002889	2497.853922
960.302762	2492.311173
960.602596	2490.710607
960.902393	2488.207674
961.202153	2482.937148
961.501875	2479.763742
961.801559	2478.392548
962.101205	2477.855665
962.400814	2470.634212
962.700385	2473.676548
962.999918	2467.861577
963.299414	2468.378296
963.598873	2464.980558
963.898293	2466.318984
964.197677	2462.036524
964.497022	2464.282358
964.796331	2460.763633
965.095601	2458.235494
965.394835	2463.019549
965.694030	2461.524847
965.993189	2457.824640
966.292309	2458.560648
966.591393	2457.088632
966.890439	2460.798921
967.189447	2459.039558
967.488419	2456.279526
967.787353	2459.389918
968.086249	2456.924794
968.385108	2460.062912
968.683930	2458.883282
968.982714	2462.447378
969.281462	2463.322018
969.580172	2463.296812
969.878844	2467.511217
970.177480	2472.378451
970.476078	2472.191928
970.774639	2476.582773
971.073162	2475.511528
971.371649	2479.027733
971.670098	2476.779378
971.968510	2482.029740
972.266885	2478.599235
972.565223	2486.279433
972.863524	2485.916470
973.161788	2488.676502
973.460014	2485.051912
973.758204	2486.675163
974.056356	2492.419558
974.354471	2490.221615
974.652550	2490.967706
974.950591	2492.112048
975.248595	2489.692294
975.546563	2487.771614
975.844493	2484.499906
976.142386	2483.400934
976.440243	2481.515543
976.738062	2483.829432
977.035845	2476.958339
977.333590	2474.694861
977.631299	2473.903400
977.928971	2472.282669
978.226606	2470.341825
978.524204	2470.578759
978.821765	2465.280507
979.119290	2470.430045
979.416777	2465.678758
979.714228	2468.733697
980.011642	2469.754531
980.309020	2471.402988
980.606360	2474.916672
980.903664	2485.301449
981.200931	2500.394664
981.498162	2516.281860
981.795356	2550.481048
982.092513	2586.454722
982.389633	2631.416773
982.686717	2673.691889
982.983764	2705.693133
983.280775	2725.404045
983.577749	2724.254662
983.874686	2715.941799
984.171587	2697.501258
984.468451	2686.231759
984.765279	2662.704694
985.062070	2648.281953
985.358824	2627.318315
985.655543	2606.440376
985.952224	2582.426840
986.248869	2555.749053
986.545478	2523.309228
986.842050	2506.363390
987.138586	2489.198261
987.435086	2474.813328
987.731549	2463.924436
988.027975	2459.848663
988.324366	2454.126954
988.620719	2449.831891
988.917037	2444.465582
989.213318	2444.087496
989.509563	2438.890066
989.805772	2438.355704
990.101944	2436.581218
990.398080	2434.847061
990.694180	2436.051897
990.990244	2435.736824
991.286271	2436.014088
991.582262	2435.787236
991.878217	2434.819334
992.174136	2436.505600
992.470019	2438.847216
992.765865	2436.636670
993.061676	2441.624892
993.357450	2441.392999
993.653188	2448.052363
993.948890	2453.489248
994.244556	2458.805144
994.540186	2467.004581
994.835780	2479.151241
995.131337	2492.480052
995.426859	2509.942609
995.722345	2531.770805
996.017795	2549.520708
996.313208	2562.020249
996.608586	2573.967783
996.903928	2577.773855
997.199234	2575.323854
997.494504	2574.933164
997.789738	2566.222051
998.084936	2552.968857
998.380099	2543.998124
998.675225	2532.456402
998.970316	2518.706655
999.265371	2504.835920
999.560390	2491.174393
999.855373	2479.063021
1000.150320	2469.744448
1000.445232	2462.218006
1000.740108	2453.524536
1001.034948	2446.333330
1001.329752	2442.068514
1001.624521	2439.011054
1001.919254	2429.934456
1002.213951	2430.325146
1002.508613	2428.233067
1002.803239	2426.299784
1003.097829	2421.062026
1003.392384	2425.518406
1003.686903	2422.465987
1003.981386	2423.844743
1004.275834	2422.912129
1004.570246	2422.317273
1004.864623	2421.495565
1005.158964	2419.572365
1005.453270	2417.210584
1005.747540	2416.761921
1006.041775	2416.759401
1006.335974	2415.196643
1006.630138	2416.325862
1006.924266	2415.030285
1007.218359	2417.787796
1007.512416	2415.932652
1007.806438	2415.988104
1008.100425	2415.216808
1008.394376	2414.117836
1008.688292	2413.091961
1008.982172	2414.616910
1009.276017	2413.089441
1009.569827	2414.301838
1009.863602	2412.461817
1010.157341	2413.681776
1010.451045	2411.713206
1010.744714	2413.654050
1011.038347	2413.212949
1011.331945	2415.181520
1011.625508	2408.726322
1011.919036	2409.369069
1012.212528	2408.179357
1012.505986	2407.196332
1012.799408	2410.031981
1013.092795	2409.517783
1013.386147	2412.282856
1013.679464	2411.188926
1013.972745	2406.278842
1014.265992	2410.190777
1014.559204	2410.457958
1014.852380	2410.785633
1015.145521	2408.328071
1015.438628	2407.644995
1015.731699	2407.660118
1016.024736	2410.951992
1016.317737	2408.615417
1016.610703	2412.789492
1016.903635	2407.803791
1017.196531	2406.266239
1017.489393	2410.210942
1017.782219	2405.421846
1018.075011	2411.307393
1018.367768	2409.467372
1018.660490	2411.501477
1018.953177	2411.501477
1019.245829	2411.501477
