Dividing Wavelength (nm)	Counts (n)	Blue Motor Position (mm): 7.200000	Red Motor Position (mm): 0.000000	
326.493990	1975.169447
326.888308	1975.169447
327.282561	1975.169447
327.676750	1951.995263
328.070874	1952.612804
328.464933	1960.938270
328.858929	1967.030504
329.252859	1982.852166
329.646726	1995.296254
330.040528	2011.604387
330.434265	2028.756913
330.827938	2047.668801
331.221547	2067.591441
331.615091	2089.220512
332.008571	2110.030395
332.401986	2132.975207
332.795338	2151.161169
333.188625	2172.391989
333.581847	2189.521829
333.975006	2208.148893
334.368100	2225.916440
334.761129	2241.523852
335.154095	2256.917015
335.546996	2274.729932
335.939833	2301.730352
336.332606	2309.458441
336.725315	2325.113744
337.117960	2332.942656
337.510540	2341.235354
337.903056	2348.056036
338.295508	2353.752539
338.687896	2361.165556
339.080220	2369.554036
339.472480	2375.074100
339.864676	2375.300952
340.256807	2380.422764
340.648875	2381.937631
341.040879	2383.029040
341.432818	2385.156407
341.824694	2384.962323
342.216506	2386.250338
342.608253	2385.794113
342.999937	2385.789072
343.391557	2381.625079
343.783113	2383.109699
344.174605	2381.259595
344.566033	2378.345808
344.957397	2376.427649
345.348697	2377.047711
345.739934	2373.211393
346.131106	2372.349356
346.522215	2370.022863
346.913260	2366.559591
347.304241	2368.034128
347.695159	2362.866946
348.086012	2364.228057
348.476802	2362.067923
348.867528	2364.401977
349.258191	2356.903261
349.648789	2361.100021
350.039324	2358.342510
350.429796	2358.352592
350.820203	2353.472755
351.210548	2356.641121
351.600828	2353.850842
351.991045	2355.486696
352.381198	2353.722293
352.771288	2354.266737
353.161314	2354.160873
353.551276	2354.927128
353.941175	2352.754391
354.331010	2355.123733
354.720782	2353.301356
355.110490	2354.372601
355.500135	2353.944103
355.889717	2354.808661
356.279235	2353.001408
356.668689	2356.772191
357.058080	2355.602643
357.447408	2352.557786
357.836672	2349.954030
358.225873	2353.180368
358.615010	2354.420492
359.004084	2354.997704
359.393095	2357.147757
359.782043	2357.896368
360.170927	2357.863600
360.559748	2360.396780
360.948505	2360.827799
361.337199	2360.195134
361.725830	2361.710001
362.114398	2361.291585
362.502903	2361.977182
362.891344	2363.837368
363.279722	2362.806452
363.668037	2364.306195
364.056289	2360.626153
364.444478	2363.706298
364.832603	2366.383150
365.220665	2362.788808
365.608665	2363.290403
365.996601	2362.531709
366.384474	2365.931967
366.772284	2365.206041
367.160031	2366.678058
367.547715	2367.736700
367.935336	2364.951463
368.322893	2367.020856
368.710388	2365.281658
369.097820	2369.596886
369.485189	2370.337936
369.872495	2367.272914
370.259738	2368.260980
370.646918	2367.194776
371.034035	2369.002030
371.421090	2370.491691
371.808081	2366.647811
372.195010	2371.096629
372.581875	2369.962370
372.968678	2367.444313
373.355418	2370.824407
373.742096	2368.903727
374.128710	2370.756351
374.515262	2368.697040
374.901751	2369.097812
375.288177	2370.970600
375.674540	2371.991434
376.060841	2370.179139
376.447079	2372.908924
376.833254	2369.937164
377.219367	2367.865250
377.605417	2369.017153
377.991404	2367.799715
378.377329	2369.115456
378.763191	2367.835003
379.148991	2369.803573
379.534727	2373.607124
379.920402	2371.941022
380.306013	2373.891949
380.691563	2372.636702
381.077049	2375.684079
381.462474	2372.230889
381.847835	2374.872453
382.233134	2375.668956
382.618371	2375.386651
383.003545	2374.322968
383.388657	2374.658204
383.773706	2377.259440
384.158693	2374.224665
384.543618	2374.416229
384.928480	2377.082999
385.313280	2376.982176
385.698017	2374.080992
386.082692	2378.365973
386.467305	2377.539224
386.851856	2380.024513
387.236344	2377.854296
387.620770	2377.440921
388.005133	2378.587784
388.389435	2377.869419
388.773674	2377.584594
389.157851	2376.694831
389.541965	2377.234234
389.926018	2376.740201
390.310008	2377.970242
390.693936	2379.550644
391.077802	2377.146014
391.461606	2382.499719
391.845348	2377.864378
392.229027	2381.504091
392.612645	2379.694317
392.996200	2377.937475
393.379694	2380.826056
393.763125	2382.217415
394.146494	2381.993083
394.529801	2381.856972
394.913047	2382.789586
395.296230	2382.514843
395.679351	2381.841849
396.062410	2380.263968
396.445408	2382.766900
396.828343	2382.192209
397.211217	2376.155427
397.594028	2383.334030
397.976778	2378.582743
398.359466	2381.811602
398.742092	2378.900335
399.124656	2381.609956
399.507158	2383.500388
399.889598	2384.266644
400.271977	2383.686911
400.654294	2386.157076
401.036549	2384.674977
401.418742	2383.228166
401.800874	2383.601211
402.182944	2385.053064
402.564952	2386.383928
402.946898	2389.459032
403.328783	2386.368805
403.710606	2384.725389
404.092367	2385.968033
404.474067	2385.015255
404.855705	2383.059287
405.237282	2388.193703
405.618797	2385.942827
406.000250	2387.094731
406.381642	2384.828732
406.762972	2386.789741
407.144240	2389.171686
407.525447	2387.800493
407.906593	2386.225132
408.287677	2386.242776
408.668700	2385.191695
409.049661	2387.772766
409.430560	2385.927704
409.811399	2387.213198
410.192176	2387.918960
410.572891	2388.211347
410.953545	2389.945503
411.334138	2391.341903
411.714669	2388.327293
412.095139	2391.679660
412.475547	2390.452139
412.855894	2390.058929
413.236180	2389.333003
413.616405	2388.380225
413.996568	2387.762684
414.376670	2390.109341
414.756711	2391.641852
415.136691	2389.234701
415.516609	2390.706718
415.896466	2390.063971
416.276262	2392.793755
416.655997	2386.310832
417.035670	2389.196892
417.415283	2391.397356
417.794834	2384.367467
418.174324	2391.956924
418.553753	2391.694784
418.933121	2390.217726
419.312428	2388.221429
419.691674	2391.336862
420.070859	2391.614125
420.449983	2391.558673
420.829045	2390.300905
421.208047	2393.426420
421.586988	2390.905843
421.965867	2391.432644
422.344686	2394.802655
422.723444	2395.223592
423.102141	2392.818961
423.480777	2392.798797
423.859352	2392.972716
424.237866	2391.972047
424.616319	2393.333159
424.994712	2393.575134
425.373044	2395.621843
425.751314	2391.659496
426.129524	2395.392470
426.507673	2392.650083
426.885762	2395.253838
427.263789	2393.638149
427.641756	2392.924825
428.019662	2391.961965
428.397508	2392.874414
428.775292	2394.371637
429.153016	2395.180742
429.530679	2394.207799
429.908282	2395.619322
430.285824	2392.226626
430.663305	2395.707542
431.040726	2396.244425
431.418086	2394.563200
431.795385	2395.352141
432.172624	2393.779301
432.549802	2395.475649
432.926920	2396.176370
433.303977	2396.204096
433.680974	2395.203427
434.057910	2394.331307
434.434786	2394.333828
434.811601	2399.979920
435.188355	2396.408263
435.565050	2395.173180
435.941683	2395.337017
436.318257	2395.697460
436.694770	2392.902140
437.071222	2392.345093
437.447614	2393.401214
437.823946	2391.122613
438.200218	2396.899775
438.576429	2395.556308
438.952580	2398.709549
439.328670	2397.774415
439.704700	2394.883314
440.080670	2395.992368
440.456580	2397.335835
440.832429	2397.320712
441.208218	2397.640825
441.583947	2398.575959
441.959616	2400.652914
442.335224	2394.830382
442.710773	2396.115876
443.086261	2396.476318
443.461689	2397.724004
443.837057	2398.543191
444.212365	2397.618140
444.587612	2395.999929
444.962800	2396.002450
445.337927	2398.850702
445.712995	2393.300391
446.088002	2400.698285
446.462949	2400.191649
446.837837	2396.521689
447.212664	2398.112173
447.587431	2399.001936
447.962139	2396.012532
448.336786	2401.797256
448.711374	2398.601165
449.085901	2399.395146
449.460369	2399.891700
449.834776	2400.960425
450.209124	2399.932029
450.583412	2399.213665
450.957640	2400.315157
451.331808	2400.478994
451.705917	2400.728532
452.079965	2399.183418
452.453954	2399.853891
452.827883	2400.410939
453.201752	2398.086967
453.575562	2396.849364
453.949311	2397.842471
454.323001	2398.880949
454.696632	2399.790877
455.070202	2399.080074
455.443713	2400.713408
455.817164	2399.564025
456.190556	2395.994888
456.563888	2397.784498
456.937160	2398.124776
457.310373	2403.002092
457.683526	2399.735424
458.056619	2402.805487
458.429653	2401.986299
458.802628	2401.824983
459.175542	2400.521844
459.548398	2400.801628
459.921194	2403.367576
460.293930	2401.981258
460.666607	2401.807338
461.039224	2405.436969
461.411782	2403.932185
461.784280	2403.395302
462.156719	2404.012843
462.529099	2406.911507
462.901419	2406.190622
463.273680	2405.807494
463.645882	2405.857906
464.018024	2403.380178
464.390106	2403.672565
464.762130	2403.486043
465.134094	2404.869839
465.505999	2405.820097
465.877845	2405.386558
466.249631	2407.617268
466.621358	2406.195663
466.993026	2408.650705
467.364634	2409.343863
467.736184	2404.902607
468.107674	2403.980076
468.479105	2407.309758
468.850477	2402.687020
469.221790	2404.884963
469.593043	2404.433780
469.964238	2404.388409
470.335373	2404.688358
470.706449	2408.799419
471.077467	2405.358831
471.448425	2409.963925
471.819324	2405.477298
472.190164	2409.341343
472.560945	2407.219017
472.931667	2409.492577
473.302330	2407.637433
473.672934	2406.908986
474.043479	2403.818759
474.413965	2408.254974
474.784393	2404.068296
475.154761	2406.679614
475.525070	2403.458316
475.895321	2403.155847
476.265513	2404.375806
476.635645	2407.017371
477.005719	2408.529717
477.375734	2408.731363
477.745691	2408.958215
478.115588	2409.578277
478.485427	2409.953843
478.855207	2410.503329
479.224928	2410.218504
479.594591	2412.139183
479.964194	2409.268246
480.333739	2410.851168
480.703226	2409.835376
481.072653	2409.694224
481.442022	2411.829152
481.811333	2412.739081
482.180584	2412.229924
482.549777	2412.567681
482.918912	2411.614903
483.287988	2410.692372
483.657005	2407.929820
484.025964	2413.069276
484.394864	2410.846127
484.763706	2411.879564
485.132489	2410.689852
485.501213	2409.585839
485.869879	2410.543658
486.238487	2412.534914
486.607036	2409.845458
486.975527	2410.808319
487.343959	2408.295303
487.712333	2409.669018
488.080648	2410.644481
488.448905	2411.781261
488.817104	2411.042732
489.185244	2411.403175
489.553326	2412.671025
489.921350	2413.865778
490.289315	2413.578433
490.657222	2413.026426
491.025070	2411.294790
491.392861	2413.381828
491.760593	2414.319482
492.128267	2414.604308
492.495883	2414.417785
492.863440	2413.046591
493.230939	2411.874523
493.598380	2413.613721
493.965763	2405.230282
494.333088	2409.444687
494.700354	2410.178174
495.067563	2411.448545
495.434713	2406.853533
495.801805	2412.948288
496.168839	2412.204718
496.535815	2413.318813
496.902733	2411.156158
497.269593	2411.534245
497.636395	2412.396282
498.003139	2412.489543
498.369825	2410.031981
498.736453	2413.530542
499.103023	2413.749832
499.469535	2413.225552
499.835989	2411.327558
500.202385	2414.589184
500.568723	2410.455438
500.935003	2413.192784
501.301226	2412.355953
501.667390	2412.154307
502.033497	2411.816549
502.399546	2412.620613
502.765537	2412.688669
503.131470	2411.967784
503.497345	2413.875861
503.863163	2411.312434
504.228923	2412.872671
504.594625	2410.732701
504.960269	2411.156158
505.325856	2410.468041
505.691385	2415.191602
506.056856	2413.354101
506.422270	2414.546334
506.787625	2409.812691
507.152924	2412.116498
507.518164	2414.044739
507.883347	2412.842424
508.248472	2415.592374
508.613540	2413.903587
508.978550	2414.884092
509.343503	2411.788823
509.708398	2413.896025
510.073236	2415.373083
510.438016	2415.491551
510.802738	2413.109605
511.167403	2413.417116
511.532010	2412.439132
511.896561	2413.210428
512.261053	2418.783424
512.625488	2412.628175
512.989866	2410.765469
513.354186	2414.561458
513.718449	2412.406364
514.082655	2417.046747
514.446803	2416.033475
514.810894	2413.916190
515.174927	2418.198650
515.538904	2418.672519
515.902822	2419.214443
516.266684	2422.115627
516.630488	2420.222673
516.994235	2419.597570
517.357925	2423.300298
517.721558	2420.749474
518.085133	2421.593867
518.448651	2424.031265
518.812112	2424.119485
519.175516	2424.109403
519.538863	2425.044537
519.902152	2426.745927
520.265385	2428.059147
520.628560	2428.109559
520.991678	2428.843047
521.354739	2428.890938
521.717743	2428.908582
522.080690	2431.575352
522.443580	2433.566608
522.806413	2435.636001
523.169189	2434.572318
523.531908	2436.861002
523.894569	2437.458378
524.257174	2437.221444
524.619722	2436.422421
524.982213	2438.673297
525.344647	2440.538523
525.707025	2442.602876
526.069345	2445.408278
526.431608	2443.003648
526.793815	2447.381890
527.155964	2446.466920
527.518057	2447.495316
527.880093	2447.152517
528.242072	2448.717796
528.603995	2447.092023
528.965860	2453.055708
529.327669	2450.812395
529.689421	2453.668209
530.051117	2454.920935
530.412755	2453.491768
530.774337	2457.801955
531.135862	2454.767180
531.497331	2454.832715
531.858743	2456.017386
532.220098	2458.290947
532.581396	2460.798921
532.942638	2462.497790
533.303824	2464.917543
533.664953	2465.174642
534.026025	2464.947790
534.387040	2467.387709
534.747999	2464.357975
535.108902	2467.327215
535.469748	2470.200673
535.830537	2470.858543
536.191270	2468.509366
536.551947	2470.387195
536.912567	2472.857361
537.273131	2472.713688
537.633638	2472.491877
537.994089	2476.063535
538.354483	2473.379120
538.714821	2478.367342
539.075103	2480.477065
539.435328	2478.750470
539.795497	2481.039153
540.155609	2481.644092
540.515665	2482.816160
540.875665	2480.527476
541.235609	2482.337251
541.595496	2486.377735
541.955328	2485.369505
542.315102	2486.649958
542.674821	2487.133908
543.034483	2487.612818
543.394090	2487.769094
543.753640	2490.181286
544.113134	2494.526761
544.472571	2493.309322
544.831953	2493.921822
545.191278	2490.571975
545.550548	2493.276554
545.909761	2496.586072
546.268918	2494.579693
546.628019	2496.427276
546.987064	2495.197234
547.346053	2496.639004
547.704986	2497.755620
548.063863	2496.407111
548.422684	2498.206803
548.781449	2498.811741
549.140158	2499.169663
549.498811	2502.653101
549.857408	2501.060096
550.215949	2501.886845
550.574434	2497.997595
550.932864	2500.442555
551.291237	2498.501710
551.649555	2501.861639
552.007817	2502.955570
552.366022	2503.129490
552.724173	2503.835251
553.082267	2507.013699
553.440305	2506.262567
553.798288	2508.904131
554.156215	2506.375993
554.514086	2509.234327
554.871902	2507.099398
555.229661	2507.951353
555.587365	2506.076044
555.945014	2507.298524
556.302606	2508.347084
556.660143	2509.201559
557.017625	2508.004285
557.375050	2508.417660
557.732421	2507.207783
558.089735	2511.356653
558.446994	2509.015037
558.804197	2509.917403
559.161345	2510.209790
559.518437	2506.186949
559.875474	2512.669873
560.232455	2509.093175
560.589381	2509.927486
560.946251	2509.002434
561.303065	2510.976046
561.659825	2508.082423
562.016528	2509.332629
562.373177	2506.771723
562.729770	2506.960767
563.086307	2506.781806
563.442789	2509.367918
563.799216	2507.653925
564.155587	2505.133348
564.511904	2504.173008
564.868164	2504.782988
565.224370	2508.720129
565.580520	2504.331805
565.936615	2503.068996
566.292654	2505.955056
566.648638	2503.686537
567.004567	2502.320384
567.360441	2504.818276
567.716260	2502.060765
568.072023	2505.990344
568.427732	2496.414673
568.783385	2498.907523
569.138982	2495.963489
569.494525	2498.083295
569.850013	2495.232522
570.205445	2501.123110
570.560823	2496.260918
570.916145	2495.885352
571.271412	2494.085660
571.626625	2498.952894
571.981782	2493.475680
572.336884	2495.045999
572.691931	2492.787563
573.046923	2492.727069
573.401860	2491.764208
573.756743	2491.877634
574.111570	2490.564414
574.466342	2490.289671
574.821059	2488.598364
575.175722	2485.321614
575.530330	2488.164824
575.884882	2489.215905
576.239380	2485.182982
576.593823	2489.359578
576.948211	2482.566623
577.302544	2484.018475
577.656823	2479.400778
578.011047	2482.639720
578.365216	2481.767600
578.719330	2481.172744
579.073389	2481.139977
579.427394	2481.986890
579.781344	2479.052939
580.135239	2479.539410
580.489080	2480.030923
580.842866	2480.441777
581.196597	2480.676190
581.550273	2476.061014
581.903895	2475.897177
582.257463	2476.403813
582.610975	2478.521097
582.964434	2474.823411
583.317837	2473.721919
583.671186	2475.652681
584.024481	2473.041363
584.377721	2470.477936
584.730906	2473.623616
585.084037	2472.423822
585.437113	2473.585807
585.790135	2471.191259
586.143103	2468.766464
586.496016	2471.246712
586.848874	2468.771506
587.201679	2469.653707
587.554428	2466.997019
587.907124	2468.302678
588.259765	2465.194807
588.612352	2472.053297
588.964884	2469.976341
589.317362	2470.057000
589.669786	2471.246712
590.022155	2468.660600
590.374470	2468.622792
590.726731	2472.222175
591.078937	2470.205714
591.431090	2466.762606
591.783188	2467.526341
592.135232	2469.063892
592.487222	2466.578604
592.839157	2471.423152
593.191038	2468.640436
593.542866	2470.566156
593.894639	2468.494242
594.246358	2470.079685
594.598022	2470.155302
594.949633	2467.554067
595.301190	2468.935343
595.652692	2467.811166
596.004141	2468.791670
596.355535	2464.640280
596.706876	2467.261680
597.058162	2467.450723
597.409395	2467.422997
597.760573	2466.475260
598.111698	2468.756382
598.462768	2467.793522
598.813785	2472.431383
599.164748	2469.016002
599.515657	2470.767803
599.866511	2469.033646
600.217312	2471.397947
600.568060	2468.244705
600.918753	2473.951291
601.269392	2473.351394
601.619978	2472.368369
601.970510	2476.187043
602.320988	2476.504636
602.671412	2479.690645
603.021783	2474.541106
603.372100	2478.992445
603.722363	2478.284163
604.072572	2479.385655
604.422728	2478.286683
604.772830	2478.090078
605.122878	2475.312403
605.472872	2479.541931
605.822813	2476.683597
606.172701	2484.000831
606.522534	2485.190544
606.872314	2485.634165
607.222041	2488.389156
607.571714	2486.836480
607.921333	2489.218426
608.270899	2495.741679
608.620411	2493.241266
608.969870	2495.988695
609.319276	2498.552122
609.668627	2499.527585
610.017926	2502.446413
610.367171	2499.330980
610.716362	2505.425735
611.065500	2505.869357
611.414585	2510.464368
611.763616	2515.056860
612.112594	2510.983607
612.461518	2514.681294
612.810389	2518.772190
613.159207	2519.664474
613.507971	2528.153777
613.856682	2526.820392
614.205340	2529.003212
614.553945	2536.534696
614.902496	2535.924716
615.250994	2542.180788
615.599439	2542.142979
615.947830	2547.907539
616.296169	2549.803012
616.644454	2555.945658
616.992686	2560.238201
617.340864	2565.806155
617.688990	2571.230437
618.037063	2578.099009
618.385082	2584.261820
618.733048	2589.277768
619.080961	2591.760536
619.428821	2599.644901
619.776628	2601.565580
620.124382	2604.071034
620.472083	2609.119749
620.819731	2611.292487
621.167326	2614.223917
621.514868	2616.552931
621.862357	2611.683176
622.209793	2619.577623
622.557176	2618.788682
622.904506	2620.265740
623.251783	2618.060236
623.599007	2618.571913
623.946179	2620.704321
624.293297	2626.068108
624.640363	2628.266052
624.987376	2634.756537
625.334336	2635.394243
625.681243	2635.600930
626.028097	2640.178298
626.374899	2645.794143
626.721647	2650.421923
627.068343	2653.575164
627.414987	2659.155722
627.761577	2661.663696
628.108115	2669.278359
628.454600	2673.714574
628.801032	2677.266067
629.147412	2687.053467
629.493739	2690.274764
629.840014	2696.669468
630.186236	2704.137937
630.532405	2712.118084
630.878521	2722.056719
631.224585	2726.941597
631.570597	2730.611557
631.916556	2741.044225
632.262462	2751.043353
632.608316	2760.160280
632.954117	2764.689757
633.299866	2770.361055
633.645562	2774.346087
633.991206	2775.734925
634.336797	2773.945315
634.682336	2779.972015
635.027823	2778.399175
635.373257	2785.786986
635.718639	2784.395627
636.063968	2789.386370
636.409245	2787.480813
636.754470	2794.377112
637.099642	2794.336783
637.444762	2800.199645
637.789829	2805.467650
638.134845	2807.065696
638.479808	2815.030719
638.824719	2820.664209
639.169577	2820.049188
639.514383	2831.215344
639.859137	2832.236177
640.203839	2842.633557
640.548489	2844.392920
640.893086	2849.834845
641.237632	2853.005731
641.582125	2866.944522
641.926566	2869.460057
642.270955	2884.628889
642.615292	2890.665671
642.959576	2899.470046
643.303809	2905.597569
643.647990	2916.083169
643.992118	2924.529622
644.336195	2934.601847
644.680219	2945.773044
645.024192	2962.670992
645.368112	2980.461224
645.711981	2991.944972
646.055797	3024.772966
646.399562	3043.246274
646.743274	3071.668300
647.086935	3098.467074
647.430544	3113.096502
647.774101	3128.056126
648.117606	3142.241933
648.461059	3158.131650
648.804460	3161.325221
649.147810	3154.665857
649.491108	3156.941938
649.834354	3154.617966
650.177548	3148.994559
650.520690	3142.826707
650.863781	3152.422543
651.206820	3160.732885
651.549807	3156.679798
651.892742	3160.296826
652.235626	3161.673061
652.578458	3170.154802
652.921238	3166.968793
653.263967	3186.296577
653.606644	3187.980322
653.949269	3203.126469
654.291843	3204.830379
654.634365	3222.247565
654.976836	3226.318297
655.319255	3235.571335
655.661622	3243.944691
656.003938	3250.019282
656.346203	3257.429778
656.688416	3271.998713
657.030577	3278.126235
657.372687	3286.063532
657.714746	3303.069864
658.056753	3313.565547
658.398708	3310.230823
658.740612	3319.254489
659.082465	3337.511027
659.424266	3348.334385
659.766016	3365.113865
660.107715	3376.726163
660.449362	3391.574882
660.790958	3406.002664
661.132503	3417.367945
661.473996	3432.035183
661.815438	3448.847431
662.156829	3466.098259
662.498168	3469.158239
662.839456	3485.675580
663.180693	3503.496059
663.521879	3521.903832
663.863013	3532.054195
664.204097	3544.470557
664.545129	3576.242429
664.886110	3591.277671
665.227040	3608.863736
665.567918	3629.761839
665.908746	3651.216990
666.249522	3674.837316
666.590248	3686.610931
666.930922	3705.245556
667.271545	3720.961353
667.612118	3739.260742
667.952639	3740.296699
668.293109	3758.311262
668.633528	3765.207561
668.973896	3776.262811
669.314213	3788.280922
669.654480	3793.067497
669.994695	3804.523520
670.334859	3813.685817
670.674973	3821.449194
671.015035	3844.520034
671.355047	3857.087631
671.695008	3869.267058
672.034918	3883.014285
672.374777	3906.526227
672.714585	3913.898914
673.054342	3941.403449
673.394049	3949.350828
673.733705	3979.622957
674.073310	3976.820076
674.412864	3995.434536
674.752368	3989.017147
675.091820	4017.184595
675.431223	4012.032535
675.770574	4005.282430
676.109875	4012.652597
676.449125	4004.191021
676.788324	4012.617309
677.127473	4000.621884
677.466571	4004.627080
677.805619	4004.992564
678.144616	4015.127804
678.483562	4026.490565
678.822458	4021.804812
679.161303	4029.699259
679.500098	4038.685116
679.838842	4046.937485
680.177535	4068.440526
680.516179	4104.015949
680.854771	4136.574241
681.193314	4211.306826
681.531805	4309.785767
681.870247	4387.853075
682.208638	4459.341678
682.546978	4489.681862
682.885268	4506.330273
683.223508	4493.550948
683.561697	4492.152028
683.899836	4495.164117
684.237925	4486.833610
684.575963	4489.235720
684.913951	4486.861337
685.251889	4522.461965
685.589776	4546.094894
685.927614	4569.558945
686.265401	4603.445581
686.603137	4639.452022
686.940824	4704.878638
687.278460	4763.499695
687.616046	4806.397394
687.953582	4877.762488
688.291068	4894.703286
688.628504	4939.821613
688.965889	4954.572029
689.303224	4946.982572
689.640510	4927.233852
689.977745	4881.024115
690.314930	4832.127443
690.652065	4799.279285
690.989150	4748.393878
691.326185	4688.424312
691.663170	4642.426303
692.000105	4588.677521
692.336990	4546.132703
692.673825	4524.251575
693.010610	4492.283098
693.347345	4453.594762
693.684030	4413.547836
694.020665	4399.077204
694.357251	4359.897357
694.693786	4373.581569
695.030272	4365.838356
695.366707	4337.522195
695.703093	4327.777645
696.039429	4338.331300
696.375716	4336.277030
696.711952	4346.601313
697.048139	4347.450748
697.384276	4352.343188
697.720363	4382.000296
698.056400	4378.060634
698.392388	4375.713977
698.728326	4381.085326
699.064214	4375.497207
699.400053	4384.535996
699.735842	4366.995301
700.071581	4351.004761
700.407270	4331.901309
700.742910	4326.406451
701.078501	4310.821724
701.414042	4298.586843
701.749533	4279.070016
702.084974	4254.537241
702.420366	4287.211480
702.755709	4255.542951
703.091002	4235.269951
703.426246	4250.688320
703.761440	4251.230244
704.096584	4237.437647
704.431679	4247.378803
704.766725	4245.760592
705.101721	4256.457921
705.436668	4272.453502
705.771565	4257.158641
706.106413	4305.919202
706.441212	4317.428156
706.775961	4350.535934
707.110661	4373.563925
707.445311	4427.189199
707.779913	4424.131739
708.114465	4470.240653
708.448967	4519.631357
708.783421	4615.239361
709.117825	4666.717103
709.452180	4719.129980
709.786485	4785.287562
710.120742	4900.450201
710.454949	4925.489612
710.789107	5000.718751
711.123216	5103.091983
711.457275	5148.167460
711.791286	5225.833997
712.125247	5256.128811
712.459159	5241.131378
712.793023	5334.085214
713.126837	5216.187749
713.460602	5257.759624
713.794318	5220.208069
714.127985	5185.744221
714.461602	5084.974076
714.795171	5090.542030
715.128691	4971.626252
715.462162	4912.743055
715.795584	4871.783680
716.128957	4842.897868
716.462281	4803.032424
716.795556	4783.611378
717.128782	4732.852000
717.461960	4672.781611
717.795088	4669.842618
718.128167	4631.471876
718.461198	4579.089246
718.794180	4574.388370
719.127113	4534.202812
719.459997	4518.474412
719.792833	4486.127849
720.125619	4491.574816
720.458357	4459.344198
720.791046	4444.122434
721.123686	4433.430147
721.456278	4416.040687
721.788821	4418.208383
722.121315	4395.061925
722.453761	4417.467333
722.786158	4414.180501
723.118506	4426.085186
723.450805	4420.958333
723.783056	4455.936378
724.115259	4455.747335
724.447412	4455.293631
724.779518	4506.995705
725.111574	4518.547509
725.443582	4564.238007
725.775542	4573.659924
726.107453	4656.811236
726.439315	4655.621523
726.771129	4734.278647
727.102895	4801.013442
727.434612	4849.237119
727.766281	4877.959093
728.097901	4932.574954
728.429473	4944.313281
728.760996	4960.202998
729.092471	4982.971369
729.423897	4975.981809
729.755276	4971.046520
730.086606	5005.316283
730.417887	5103.865800
730.749120	5203.380698
731.080305	5248.809055
731.411442	5318.356814
731.742530	5351.603223
732.073570	5380.284868
732.404562	5436.614721
732.735506	5423.399337
733.066401	5389.154778
733.397249	5312.181400
733.728048	5213.735228
734.058798	5080.603396
734.389501	4974.509792
734.720156	4908.067385
735.050762	4820.595804
735.381320	4774.227271
735.711831	4738.427517
736.042293	4687.670659
736.372707	4700.134912
736.703073	4676.653217
737.033391	4722.038725
737.363661	4726.553079
737.693883	4755.441411
738.024056	4800.814316
738.354182	4839.769832
738.684260	4908.455553
739.014290	4956.273418
739.344272	5005.848125
739.674207	5065.933638
740.004093	5099.243062
740.333931	5108.107931
740.663722	5129.492506
740.993464	5142.004649
741.323159	5120.413388
741.652806	5080.752110
741.982405	5054.475095
742.311956	5000.103730
742.641460	4985.980938
742.970915	4940.461839
743.300323	4882.196183
743.629683	4848.715360
743.958996	4805.258093
744.288260	4759.612966
744.617477	4712.276531
744.946647	4702.388308
745.275768	4661.416330
745.604842	4630.902226
745.933869	4610.518320
746.262847	4601.867700
746.591778	4602.152525
746.920662	4589.801698
747.249498	4601.885344
747.578286	4632.003718
747.907027	4673.194986
748.235720	4724.874374
748.564365	4743.640070
748.892963	4727.455445
749.221514	4749.240792
749.550017	4731.926949
749.878473	4733.953492
750.206881	4699.477041
750.535242	4686.019681
750.863555	4675.246735
751.191821	4660.380373
751.520039	4677.774874
751.848210	4666.661650
752.176334	4680.711346
752.504411	4669.262886
752.832440	4640.392198
753.160421	4662.517822
753.488356	4637.269203
753.816243	4629.336947
754.144082	4604.189151
754.471875	4595.467955
754.799620	4591.404785
755.127318	4596.536680
755.454969	4592.944858
755.782572	4589.158951
756.110129	4601.139253
756.437638	4587.114763
756.765100	4594.686576
757.092515	4599.911732
757.419882	4610.903968
757.747203	4621.349239
758.074477	4641.231550
758.401703	4638.423627
758.728882	4676.812014
759.056014	4694.992935
759.383099	4730.558275
759.710138	4768.979429
760.037129	4789.988438
760.364073	4805.525274
760.690970	4806.294050
761.017820	4818.682686
761.344623	4874.541191
761.671379	4969.040140
761.998088	5137.069360
762.324751	5528.920769
762.651366	6234.049642
762.977935	7128.461240
763.304456	7703.019188
763.630931	7860.522478
763.957359	7600.787109
764.283740	7144.965978
764.610074	6695.065682
764.936362	6173.815416
765.262602	5794.093023
765.588796	5424.513432
765.914943	5168.574051
766.241044	4954.030105
766.567097	4790.495074
766.893104	4654.759486
767.219064	4565.672215
767.544978	4466.820230
767.870845	4392.644692
768.196665	4345.172146
768.522438	4302.234118
768.848165	4264.894292
769.173846	4223.284608
769.499479	4197.720917
769.825066	4160.779341
770.150607	4117.145634
770.476101	4103.862194
770.801548	4077.975869
771.126949	4043.015467
771.452303	4022.092158
771.777611	3983.557578
772.102872	3982.080520
772.428087	3958.571099
772.753256	3924.286212
773.078378	3902.871390
773.403453	3867.477449
773.728482	3842.511134
774.053465	3829.734330
774.378401	3807.853202
774.703291	3782.097947
775.028135	3756.894698
775.352932	3752.377824
775.677683	3731.893096
776.002388	3708.265208
776.327046	3713.886094
776.651658	3692.584698
776.976224	3670.423786
777.300743	3667.401614
777.625216	3656.396776
777.949643	3642.916730
778.274024	3646.649705
778.598359	3630.540698
778.922647	3631.271665
779.246889	3626.230511
779.571086	3628.090697
779.895236	3632.284937
780.219339	3633.081439
780.543397	3639.597130
780.867409	3653.724964
781.191374	3658.829132
781.515294	3652.031136
781.839167	3673.992923
782.162995	3668.084691
782.486776	3656.890809
782.810511	3647.274808
783.134201	3626.951396
783.457844	3628.156232
783.781441	3620.468472
784.104993	3609.710650
784.428498	3600.775205
784.751958	3602.547170
785.075372	3598.443671
785.398739	3588.436981
785.722061	3596.802775
786.045337	3603.215123
786.368568	3638.772902
786.691752	3651.660612
787.014891	3733.347468
787.337983	3817.433915
787.661030	3958.230821
787.984031	4096.134105
788.306987	4187.623486
788.629897	4230.170824
788.952760	4215.798494
789.275579	4171.494314
789.598351	4084.317640
789.921078	4002.605578
790.243759	3911.267432
790.566395	3847.791743
790.888984	3786.655150
791.211529	3742.361052
791.534027	3690.565716
791.856480	3645.202893
792.178888	3626.374184
792.501249	3603.515072
792.823566	3570.918971
793.145836	3576.237388
793.468062	3570.850915
793.790241	3557.199471
794.112375	3574.999785
794.434464	3610.890280
794.756507	3623.815798
795.078505	3662.872138
795.400457	3738.542377
795.722364	3813.854695
796.044226	3881.786764
796.366042	3938.282975
796.687812	3926.602622
797.009538	3949.408802
797.331218	3921.460645
797.652852	3903.350300
797.974442	3868.785628
798.295986	3845.772761
798.617484	3804.752892
798.938938	3773.129734
799.260346	3749.484202
799.581709	3702.178014
799.903026	3684.072710
800.224299	3663.741737
800.545526	3622.101806
800.866708	3596.729679
801.187845	3580.461875
801.508936	3554.157134
801.829983	3546.544992
802.150984	3508.421266
802.471940	3501.353568
802.792851	3498.018845
803.113717	3487.941579
803.434538	3478.890187
803.755314	3466.249494
804.076045	3467.078763
804.396731	3452.403965
804.717372	3460.684060
805.037967	3455.630303
805.358518	3468.666727
805.679024	3492.670181
805.999485	3493.363340
806.319901	3502.641583
806.640272	3510.737676
806.960598	3529.967158
807.280879	3530.342724
807.601115	3543.232954
807.921306	3534.090822
808.241453	3538.668189
808.561554	3543.174981
808.881611	3532.543187
809.201623	3536.245915
809.521590	3522.927186
809.841513	3516.688758
810.161390	3527.393649
810.481223	3496.791324
810.801011	3494.467352
811.120755	3489.862258
811.440453	3472.936584
811.760107	3462.294708
812.079716	3455.181640
812.399281	3436.317643
812.718801	3439.412911
813.038276	3425.151487
813.357707	3415.293511
813.677093	3427.409924
813.996434	3408.818148
814.315731	3418.562699
814.634983	3417.393151
814.954191	3423.351795
815.273354	3448.544961
815.592473	3470.473981
815.911547	3500.335255
816.230577	3522.831404
816.549562	3559.828432
816.868502	3583.494129
817.187399	3610.081175
817.506250	3649.349243
817.825058	3667.681398
818.143821	3734.748909
818.462539	3811.681958
818.781213	3906.279210
819.099843	4051.330850
819.418429	4309.848781
819.736970	4559.184250
820.055466	4854.706771
820.373919	5244.899641
820.692327	5846.216033
821.010691	6857.254725
821.329011	8886.069611
821.647286	11701.798530
821.965517	14792.807217
822.283704	16581.799291
822.601847	17448.287937
822.919945	16323.009137
823.237999	14900.214040
823.556010	13289.630922
823.873976	11701.163345
824.191897	10248.663249
824.509775	9166.284668
824.827609	8197.364817
825.145398	7640.614745
825.463144	7374.257819
825.780845	7495.046386
826.098502	7950.723844
826.416116	8823.657606
826.733685	9665.454681
827.051210	9913.471888
827.368692	9451.077093
827.686129	8531.058954
828.003522	7575.175527
828.320872	6699.138935
828.638177	6030.863416
828.955439	5515.450806
829.272656	5078.685237
829.589830	4731.059870
829.906960	4434.975261
830.224046	4208.503945
830.541088	4040.275600
830.858086	3936.329528
831.175041	3854.161241
831.491952	3832.239783
831.808819	3855.681149
832.125642	3965.903457
832.442421	4214.276066
832.759157	4681.573383
833.075849	5402.355040
833.392497	6157.368651
833.709101	6621.076667
834.025662	6548.247118
834.342179	6143.495396
834.658653	5607.880362
834.975083	5136.872755
835.291469	4747.191562
835.607811	4428.310855
835.924110	4196.649672
836.240366	3983.797033
836.556578	3783.383441
836.872746	3631.052375
837.188871	3506.477901
837.504952	3403.918147
837.820990	3332.142198
838.136984	3282.592697
838.452935	3258.624531
838.768842	3273.372427
839.084706	3395.050757
839.400526	3709.117163
839.716303	4103.171556
840.032037	4360.033468
840.347727	4314.234585
840.663373	4061.818971
840.978977	3806.557625
841.294537	3603.724280
841.610054	3455.211887
841.925527	3348.024354
842.240957	3254.185795
842.556344	3170.704288
842.871687	3097.307608
843.186987	3027.089376
843.502244	2974.061479
843.817458	2932.328287
844.132629	2897.723286
844.447756	2877.901469
844.762840	2852.481451
845.077881	2835.475119
845.392879	2821.874086
845.707833	2808.426808
846.022745	2796.459108
846.337613	2792.274951
846.652438	2780.372787
846.967221	2777.665687
847.281960	2768.815941
847.596656	2764.120107
847.911309	2757.226329
848.225919	2751.476893
848.540485	2748.361460
848.855009	2744.999010
849.169490	2741.354256
849.483928	2737.936353
849.798323	2733.913513
850.112675	2729.116855
850.426984	2728.587534
850.741251	2725.371277
851.055474	2723.947152
851.369654	2727.289437
851.683792	2726.235835
851.997887	2725.469580
852.311938	2725.545197
852.625947	2729.653738
852.939914	2724.902450
853.253837	2727.932184
853.567718	2724.889847
853.881555	2724.421020
854.195350	2725.199878
854.509103	2728.217009
854.822812	2723.511092
855.136479	2722.810371
855.450103	2726.175342
855.763685	2722.321379
856.077224	2725.585527
856.390720	2729.522668
856.704173	2733.006105
857.017584	2732.786815
857.330953	2738.836199
857.644278	2744.739391
857.957561	2743.927765
858.270802	2742.712847
858.584000	2744.300810
858.897155	2740.935840
859.210268	2738.778226
859.523339	2730.228429
859.836367	2729.575600
860.149352	2730.185579
860.462295	2727.501165
860.775195	2723.354816
861.088054	2721.204764
861.400869	2720.972871
861.713642	2716.534135
862.026373	2724.254662
862.339062	2725.772049
862.651708	2732.265055
862.964312	2737.717063
863.276873	2742.639750
863.589392	2759.172214
863.901869	2768.770571
864.214303	2778.126952
864.526696	2791.828809
864.839045	2801.681744
865.151353	2804.494708
865.463619	2808.411684
865.775842	2809.714822
866.088023	2810.990234
866.400162	2810.334884
866.712258	2811.953095
867.024313	2810.339926
867.336325	2810.105512
867.648296	2811.522076
867.960224	2812.406799
868.272110	2815.277736
868.583954	2811.743887
868.895755	2818.196564
869.207515	2819.572799
869.519233	2829.314829
869.830909	2829.904644
870.142542	2837.428566
870.454134	2840.511231
870.765684	2845.867457
871.077191	2856.532018
871.388657	2862.790611
871.700081	2871.045500
872.011463	2882.493961
872.322803	2891.240363
872.634101	2900.294275
872.945357	2906.777199
873.256571	2921.522574
873.567744	2926.662030
873.878874	2930.987340
874.189963	2942.090481
874.501010	2940.704164
874.812015	2943.297838
875.122979	2954.065742
875.433900	2952.140022
875.744780	2957.143367
876.055618	2960.523460
876.366415	2962.446661
876.677169	2966.328349
876.987882	2975.485605
877.298554	2987.957420
877.609183	3007.499453
877.919771	3034.716642
878.230317	3073.558733
878.540822	3131.642907
878.851285	3213.639795
879.161707	3330.224039
879.472087	3524.043802
879.782425	3834.382274
880.092722	4377.889235
880.402977	5150.942615
880.713191	5970.951823
881.023363	6746.525781
881.333494	7198.911365
881.643583	7467.814073
881.953631	7467.403219
882.263637	7265.142044
882.573602	6935.939575
882.883526	6584.931594
883.193408	6202.406320
883.503248	5816.689995
883.813048	5457.356549
884.122806	5125.867916
884.432522	4786.862923
884.742197	4501.697452
885.051831	4249.407867
885.361424	4022.593753
885.670975	3842.909386
885.980485	3687.593956
886.289954	3558.457239
886.599382	3450.700055
886.908768	3365.486911
887.218113	3282.010444
887.527417	3218.708675
887.836680	3153.075373
888.145901	3100.365068
888.455082	3065.780232
888.764221	3029.398225
889.073319	2995.781290
889.382376	2982.263436
889.691392	2966.535036
890.000366	2963.951445
890.309300	2958.499437
890.618193	2962.005560
890.927044	2958.164200
891.235855	2964.763071
891.544625	2970.976293
891.853353	2983.329640
892.162041	3013.521111
892.470687	3061.588513
892.779293	3122.730147
893.087858	3211.913200
893.396381	3351.210363
893.704864	3550.880384
894.013306	3824.481448
894.321707	4103.849591
894.630068	4285.684010
894.938387	4321.163651
895.246665	4246.269749
895.554903	4100.018314
895.863100	3931.026234
896.171256	3800.117551
896.479371	3676.493335
896.787446	3562.956468
897.095480	3459.759008
897.403473	3383.604818
897.711425	3307.964825
898.019336	3244.393354
898.327207	3183.254240
898.635038	3131.675675
898.942827	3073.914134
899.250576	3029.715818
899.558284	2986.472800
899.865952	2957.622276
900.173579	2921.618356
900.481165	2896.767988
900.788711	2876.036242
901.096216	2860.416227
901.403681	2841.648012
901.711105	2839.800429
902.018489	2835.994357
902.325832	2855.818695
902.633135	2887.056205
902.940397	2977.486943
903.247619	3179.639733
903.554800	3531.650903
903.861941	3987.063700
904.169041	4322.872602
904.476101	4439.673616
904.783121	4338.071681
905.090100	4151.682579
905.397039	3953.141776
905.703938	3776.159467
906.010796	3611.845578
906.317614	3483.908656
906.624391	3363.576313
906.931129	3262.211312
907.237826	3164.435613
907.544483	3082.383272
907.851099	2994.216012
908.157675	2915.773138
908.464211	2836.732887
908.770707	2785.739095
909.077163	2746.168558
909.383578	2712.912066
909.689954	2689.004394
909.996289	2674.848834
910.302584	2665.391629
910.608839	2658.986843
910.915054	2653.229845
911.221229	2647.503095
911.527363	2651.614156
911.833458	2655.047181
912.139513	2663.322235
912.445527	2669.704336
912.751502	2689.511030
913.057436	2715.863661
913.363331	2744.792323
913.669186	2789.467028
913.975000	2852.310052
914.280775	2951.819908
914.586510	3094.580344
914.892205	3280.538427
915.197859	3527.118906
915.503475	3811.515600
915.809050	4051.741704
916.114585	4198.625804
916.420081	4244.021394
916.725536	4224.252509
917.030952	4113.735294
917.336328	4013.406250
917.641665	3908.469591
917.946961	3794.544556
918.252218	3692.380532
918.557435	3575.017429
918.862612	3469.992550
919.167750	3385.712020
919.472848	3286.759211
919.777906	3202.914740
920.082925	3119.274436
920.387904	3039.528423
920.692843	2984.562203
920.997743	2928.660848
921.302603	2881.823487
921.607423	2844.851665
921.912204	2809.099802
922.216946	2782.144752
922.521647	2756.056781
922.826310	2734.962073
923.130932	2713.012889
923.435516	2691.020855
923.740059	2678.055007
924.044564	2660.753767
924.349028	2644.896818
924.653454	2624.611215
924.957840	2612.623351
925.262186	2598.765219
925.566493	2588.987901
925.870761	2573.710685
926.174989	2569.970148
926.479178	2558.917419
926.783328	2552.711758
927.087438	2544.066179
927.391509	2538.871270
927.695541	2527.662265
927.999533	2522.636234
928.303486	2519.417458
928.607400	2517.516943
928.911275	2513.443690
929.215110	2508.957063
929.518906	2507.941271
929.822663	2507.719460
930.126381	2506.991013
930.430060	2510.108967
930.733699	2508.389934
931.037299	2513.350429
931.340861	2512.155676
931.644383	2511.903618
931.947866	2515.571057
932.251309	2509.746004
932.554714	2509.032681
932.858080	2512.732888
933.161407	2505.760972
933.464694	2504.886332
933.767943	2504.714933
934.071153	2503.762154
934.374323	2499.807369
934.677455	2497.044817
934.980548	2495.673623
935.283602	2495.338386
935.586617	2494.118427
935.889593	2496.369302
936.192530	2499.935919
936.495428	2500.878614
936.798287	2506.199552
937.101108	2511.865809
937.403890	2529.081350
937.706632	2540.759182
938.009336	2563.053685
938.312002	2579.815522
938.614628	2595.707759
938.917216	2604.804522
939.219765	2608.794595
939.522275	2616.610904
939.824747	2618.292129
940.127179	2613.639144
940.429573	2608.391302
940.731929	2612.399020
941.034246	2603.793770
941.336524	2605.900973
941.638763	2600.547267
941.940964	2597.794797
942.243126	2587.016810
942.545250	2578.262847
942.847335	2572.505849
943.149381	2565.639797
943.451389	2554.040102
943.753359	2548.295707
944.055290	2540.587783
944.357182	2540.008051
944.659036	2536.149047
944.960851	2529.570342
945.262628	2527.926925
945.564367	2533.129396
945.866067	2526.033972
946.167729	2528.529343
946.469352	2528.690660
946.770937	2526.570855
947.072484	2523.286543
947.373992	2523.455422
947.675462	2520.617252
947.976893	2518.394103
948.278286	2516.428053
948.579641	2514.845131
948.880958	2511.356653
949.182236	2512.937054
949.483476	2511.596108
949.784678	2511.394461
950.085841	2512.712723
950.386967	2514.721623
950.688054	2517.257323
950.989103	2526.139836
951.290114	2526.507841
951.591087	2533.429345
951.892021	2543.536858
952.192917	2545.918803
952.493776	2554.440874
952.794596	2553.906512
953.095378	2556.109496
953.396122	2553.543549
953.696828	2552.184958
953.997496	2551.164124
954.298126	2547.017775
954.598718	2539.927392
954.899272	2533.784746
955.199788	2524.982892
955.500266	2521.176820
955.800706	2509.428411
956.101108	2498.020280
956.401472	2495.096411
956.701798	2486.113075
957.002087	2476.547485
957.302337	2473.850468
957.602550	2465.867801
957.902724	2461.257666
958.202861	2457.890175
958.502960	2451.528239
958.803022	2450.300718
959.103045	2444.495829
959.403031	2440.412495
959.702979	2437.198759
960.002889	2437.029880
960.302762	2432.384457
960.602596	2427.865063
960.902393	2427.681061
961.202153	2426.511513
961.501875	2423.940524
961.801559	2422.188723
962.101205	2423.063364
962.400814	2422.055133
962.700385	2417.104720
962.999918	2421.132602
963.299414	2416.492220
963.598873	2417.926428
963.898293	2417.119843
964.197677	2412.983577
964.497022	2414.924421
964.796331	2415.015162
965.095601	2411.146076
965.394835	2411.761097
965.694030	2414.647157
965.993189	2415.383166
966.292309	2412.413926
966.591393	2413.689338
966.890439	2412.461817
967.189447	2412.194636
967.488419	2411.695562
967.787353	2411.037691
968.086249	2411.680438
968.385108	2414.866447
968.683930	2413.407033
968.982714	2414.803433
969.281462	2415.370563
969.580172	2416.703948
969.878844	2420.305853
970.177480	2416.275450
970.476078	2422.793662
970.774639	2420.172262
971.073162	2423.411203
971.371649	2424.575710
971.670098	2422.060174
971.968510	2425.609146
972.266885	2424.926070
972.565223	2429.415218
972.863524	2429.581576
973.161788	2429.725248
973.460014	2430.105856
973.758204	2432.172729
974.056356	2428.981678
974.354471	2431.930753
974.652550	2432.336566
974.950591	2435.215065
975.248595	2430.400763
975.546563	2430.186514
975.844493	2428.832964
976.142386	2431.776998
976.440243	2424.711821
976.738062	2427.383632
977.035845	2425.813313
977.333590	2424.051430
977.631299	2420.230235
977.928971	2424.278282
978.226606	2421.041861
978.524204	2419.542118
978.821765	2419.005235
979.119290	2419.340472
979.416777	2417.752508
979.714228	2419.612694
980.011642	2416.935841
980.309020	2425.374733
980.606360	2422.917170
980.903664	2430.330187
981.200931	2437.143306
981.498162	2449.504216
981.795356	2462.903602
982.092513	2487.539721
982.389633	2507.474964
982.686717	2530.654190
982.983764	2546.105326
983.280775	2557.969682
983.577749	2557.382387
983.874686	2554.463559
984.171587	2543.166333
984.468451	2536.801877
984.765279	2525.345855
985.062070	2515.109792
985.358824	2505.755931
985.655543	2491.577686
985.952224	2481.860862
986.248869	2461.860084
986.545478	2450.404062
986.842050	2440.765375
987.138586	2426.234249
987.435086	2422.813827
987.731549	2415.224369
988.027975	2413.144893
988.324366	2411.135994
988.620719	2411.582136
988.917037	2408.358318
989.213318	2407.531569
989.509563	2405.928482
989.805772	2402.651732
990.101944	2402.729870
990.398080	2402.311454
990.694180	2402.409756
990.990244	2403.836403
991.286271	2400.531927
991.582262	2404.421177
991.878217	2404.280024
992.174136	2405.787329
992.470019	2404.708523
992.765865	2404.360683
993.061676	2407.909655
993.357450	2407.856723
993.653188	2410.871333
993.948890	2412.499626
994.244556	2415.294946
994.540186	2422.902047
994.835780	2426.970258
995.131337	2434.673141
995.426859	2442.925510
995.722345	2457.224743
996.017795	2465.514920
996.313208	2477.293576
996.608586	2478.712661
996.903928	2481.717189
997.199234	2482.949751
997.494504	2481.303814
997.789738	2476.628144
998.084936	2471.339973
998.380099	2463.122893
998.675225	2456.950000
998.970316	2450.015893
999.265371	2442.988524
999.560390	2435.149530
999.855373	2428.780032
1000.150320	2425.372212
1000.445232	2418.874165
1000.740108	2411.897208
1001.034948	2413.822929
1001.329752	2408.766651
1001.624521	2408.890160
1001.919254	2400.894890
1002.213951	2401.013357
1002.508613	2397.754251
1002.803239	2398.452451
1003.097829	2397.348438
1003.392384	2398.328942
1003.686903	2399.311967
1003.981386	2395.904147
1004.275834	2394.570762
1004.570246	2398.031514
1004.864623	2395.952038
1005.158964	2395.155536
1005.453270	2395.279044
1005.747540	2392.813920
1006.041775	2396.793911
1006.335974	2393.128992
1006.630138	2393.295350
1006.924266	2394.792573
1007.218359	2392.188817
1007.512416	2391.377191
1007.806438	2391.281409
1008.100425	2394.157387
1008.394376	2391.198230
1008.688292	2393.736451
1008.982172	2391.039434
1009.276017	2394.303581
1009.569827	2392.022459
1009.863602	2393.675957
1010.157341	2392.297202
1010.451045	2393.023128
1010.744714	2390.764691
1011.038347	2390.757129
1011.331945	2391.702346
1011.625508	2392.148488
1011.919036	2391.488097
1012.212528	2391.102448
1012.505986	2390.187479
1012.799408	2391.450288
1013.092795	2392.650082
1013.386147	2391.104969
1013.679464	2387.624052
1013.972745	2389.312839
1014.265992	2390.709238
1014.559204	2389.953065
1014.852380	2391.883827
1015.145521	2391.639331
1015.438628	2394.369116
1015.731699	2392.682850
1016.024736	2388.347458
1016.317737	2393.938097
1016.610703	2394.432130
1016.903635	2388.657489
1017.196531	2389.630431
1017.489393	2392.483724
1017.782219	2388.281923
1018.075011	2396.577141
1018.367768	2392.697973
1018.660490	2390.686553
1018.953177	2390.686553
1019.245829	2390.686553
