Dividing Wavelength (nm)	Counts (n)	Blue Motor Position (mm): 14.000000	Red Motor Position (mm): 0.000000	
326.493990	1974.214149
326.888308	1974.214149
327.282561	1974.214149
327.676750	1949.769594
328.070874	1950.114913
328.464933	1958.800821
328.858929	1968.610906
329.252859	1979.782103
329.646726	1992.873980
330.040528	2012.768893
330.434265	2028.877900
330.827938	2047.368853
331.221547	2064.869218
331.615091	2088.083732
332.008571	2108.754983
332.401986	2130.000926
332.795338	2150.722589
333.188625	2169.435352
333.581847	2186.418999
333.975006	2207.435570
334.368100	2222.138095
334.761129	2240.376989
335.154095	2254.673702
335.546996	2285.840635
335.939833	2341.754593
336.332606	2354.239011
336.725315	2364.079343
337.117960	2372.800539
337.510540	2380.546272
337.903056	2392.531615
338.295508	2395.309291
338.687896	2404.965621
339.080220	2411.420819
339.472480	2419.809299
339.864676	2419.234607
340.256807	2423.007911
340.648875	2426.251893
341.040879	2428.933787
341.432818	2430.589806
341.824694	2428.797676
342.216506	2427.197110
342.608253	2427.723910
342.999937	2427.923036
343.391557	2426.420772
343.783113	2424.006059
344.174605	2422.579413
344.566033	2422.203847
344.957397	2421.283836
345.348697	2414.924421
345.739934	2420.164700
346.131106	2413.359143
346.522215	2416.688825
346.913260	2412.171951
347.304241	2410.538617
347.695159	2409.621127
348.086012	2407.080385
348.476802	2404.642988
348.867528	2404.622823
349.258191	2402.719787
349.648789	2399.251473
350.039324	2399.543860
350.429796	2402.029149
350.820203	2398.099570
351.210548	2398.381874
351.600828	2397.897924
351.991045	2397.446740
352.381198	2395.619322
352.771288	2397.633263
353.161314	2394.333828
353.551276	2394.598488
353.941175	2392.640000
354.331010	2392.645041
354.720782	2398.369272
355.110490	2399.624519
355.500135	2397.691236
355.889717	2393.960782
356.279235	2395.642007
356.668689	2397.335835
357.058080	2397.721483
357.447408	2396.204096
357.836672	2393.696122
358.225873	2398.336504
358.615010	2393.093704
359.004084	2400.264745
359.393095	2400.100908
359.782043	2400.005126
360.170927	2399.984961
360.559748	2401.023439
360.948505	2401.767009
361.337199	2403.922102
361.725830	2403.417987
362.114398	2403.670045
362.502903	2403.538975
362.891344	2404.559808
363.279722	2403.183573
363.668037	2406.447721
364.056289	2406.425035
364.444478	2405.651218
364.832603	2408.466703
365.220665	2405.121897
365.608665	2405.900755
365.996601	2408.459141
366.384474	2407.892011
366.772284	2408.073493
367.160031	2409.651374
367.547715	2406.591393
367.935336	2407.871847
368.322893	2408.496950
368.710388	2408.136507
369.097820	2409.101888
369.485189	2408.565005
369.872495	2410.599111
370.259738	2413.850655
370.646918	2408.534758
371.034035	2411.778741
371.421090	2412.673546
371.808081	2409.290931
372.195010	2411.803947
372.581875	2412.938206
372.968678	2412.058525
373.355418	2413.404513
373.742096	2412.113978
374.128710	2412.340829
374.515262	2415.093299
374.901751	2413.565830
375.288177	2415.025244
375.674540	2414.316962
376.060841	2414.480799
376.447079	2414.455593
376.833254	2415.357960
377.219367	2411.423339
377.605417	2413.044070
377.991404	2410.667166
378.377329	2411.574574
378.763191	2412.550037
379.148991	2416.945923
379.534727	2417.349216
379.920402	2418.228897
380.306013	2417.434915
380.691563	2419.224525
381.077049	2418.007086
381.462474	2415.388207
381.847835	2415.844431
382.233134	2420.734351
382.618371	2417.061870
383.003545	2419.471542
383.388657	2418.997673
383.773706	2418.617066
384.158693	2420.217632
384.543618	2420.532704
384.928480	2419.128743
385.313280	2421.021696
385.698017	2418.632189
386.082692	2421.654361
386.467305	2421.883734
386.851856	2422.808785
387.236344	2420.958682
387.620770	2421.535894
388.005133	2422.352561
388.389435	2422.423137
388.773674	2422.919691
389.157851	2425.677202
389.541965	2425.692325
389.926018	2423.917839
390.310008	2423.985895
390.693936	2425.062181
391.077802	2423.847263
391.461606	2424.767274
391.845348	2424.424475
392.229027	2424.086718
392.612645	2426.680392
392.996200	2427.378591
393.379694	2424.691656
393.763125	2427.308015
394.146494	2426.040165
394.529801	2426.796338
394.913047	2425.732655
395.296230	2428.654003
395.679351	2427.456729
396.062410	2428.192738
396.445408	2425.115113
396.828343	2428.094435
397.211217	2425.115113
397.594028	2426.219126
397.976778	2424.187541
398.359466	2429.442944
398.742092	2423.053281
399.124656	2427.739034
399.507158	2427.668458
399.889598	2428.323808
400.271977	2431.214909
400.654294	2430.428489
401.036549	2428.432193
401.418742	2430.304981
401.800874	2429.841195
402.182944	2429.384971
402.564952	2431.340938
402.946898	2430.821699
403.328783	2433.664910
403.710606	2431.290527
404.092367	2432.916299
404.474067	2430.325146
404.855705	2432.916299
405.237282	2432.515527
405.618797	2433.322112
406.000250	2434.494180
406.381642	2433.586772
406.762972	2433.155754
407.144240	2432.029056
407.525447	2435.328491
407.906593	2435.482246
408.287677	2433.175918
408.668700	2435.822524
409.049661	2433.876639
409.430560	2433.075095
409.811399	2437.138265
410.192176	2431.381267
410.572891	2434.237081
410.953545	2433.685075
411.334138	2437.304623
411.714669	2434.973090
412.095139	2436.394695
412.475547	2434.496701
412.855894	2437.516352
413.236180	2436.024170
413.616405	2436.815631
413.996568	2434.007709
414.376670	2437.045004
414.756711	2435.434355
415.136691	2436.485436
415.516609	2436.077102
415.896466	2437.733121
416.276262	2437.445776
416.655997	2436.760179
417.035670	2432.588624
417.415283	2437.566763
417.794834	2431.484611
418.174324	2438.012905
418.553753	2438.572473
418.933121	2437.576846
419.312428	2438.390992
419.691674	2439.681527
420.070859	2439.222782
420.449983	2442.567588
420.829045	2439.580704
421.208047	2440.732608
421.586988	2439.547937
421.965867	2440.946857
422.344686	2438.769078
422.723444	2440.772937
423.102141	2438.804367
423.480777	2441.181271
423.859352	2440.876281
424.237866	2441.970211
424.616319	2441.251847
424.994712	2440.762855
425.373044	2441.599686
425.751314	2441.445931
426.129524	2440.777978
426.507673	2441.168668
426.885762	2439.437031
427.263789	2441.115736
427.641756	2440.362083
428.019662	2441.738318
428.397508	2443.722012
428.775292	2442.325613
429.153016	2438.567432
429.530679	2444.266457
429.908282	2442.055911
430.285824	2440.725046
430.663305	2443.066662
431.040726	2440.301589
431.418086	2443.699327
431.795385	2442.814604
432.172624	2444.004317
432.549802	2443.225458
432.926920	2443.699327
433.303977	2445.824173
433.680974	2443.792588
434.057910	2442.653287
434.434786	2444.047167
434.811601	2445.773762
435.188355	2442.401230
435.565050	2445.231838
435.941683	2443.991714
436.318257	2444.321909
436.694770	2442.902825
437.071222	2443.318720
437.447614	2441.672783
437.823946	2445.685542
438.200218	2445.491457
438.576429	2442.872578
438.952580	2447.147476
439.328670	2447.061777
439.704700	2445.287290
440.080670	2445.388113
440.456580	2447.593618
440.832429	2449.536983
441.208218	2446.605552
441.583947	2449.229473
441.959616	2446.101437
442.335224	2449.816767
442.710773	2448.314503
443.086261	2448.937086
443.461689	2449.027827
443.837057	2447.863320
444.212365	2449.786520
444.587612	2449.642847
444.962800	2449.073197
445.337927	2449.887343
445.712995	2447.971705
446.088002	2450.772066
446.462949	2451.346757
446.837837	2449.078238
447.212664	2450.736778
447.587431	2454.560493
447.962139	2455.601491
448.336786	2460.067953
448.711374	2454.535287
449.085901	2452.511264
449.460369	2455.412448
449.834776	2454.978909
450.209124	2454.474793
450.583412	2457.224743
450.957640	2455.840946
451.331808	2457.635597
451.705917	2456.587037
452.079965	2456.239197
452.453954	2452.080245
452.827883	2456.377829
453.201752	2453.993363
453.575562	2459.367233
453.949311	2460.781277
454.323001	2457.194496
454.696632	2457.796914
455.070202	2458.442181
455.443713	2459.871348
455.817164	2459.757923
456.190556	2457.769187
456.563888	2464.161370
456.937160	2458.152315
457.310373	2462.049127
457.683526	2462.964096
458.056619	2461.015690
458.429653	2462.313788
458.802628	2462.500310
459.175542	2462.865794
459.548398	2465.668675
459.921194	2465.424179
460.293930	2469.590693
460.666607	2466.142544
461.039224	2468.590024
461.411782	2467.884263
461.784280	2472.426342
462.156719	2469.815024
462.529099	2470.321660
462.901419	2470.077164
463.273680	2467.569190
463.645882	2466.737400
464.018024	2471.269397
464.390106	2469.890642
464.762130	2472.963225
465.134094	2477.921200
465.505999	2482.470841
465.877845	2486.339927
466.249631	2489.760350
466.621358	2488.089207
466.993026	2485.374546
467.364634	2484.693990
467.736184	2481.016468
468.107674	2480.469503
468.479105	2482.405306
468.850477	2481.432363
469.221790	2478.624441
469.593043	2479.373052
469.964238	2475.829121
470.335373	2477.359111
470.706449	2478.475727
471.077467	2483.726088
471.448425	2488.079125
471.819324	2489.674650
472.190164	2486.057622
472.560945	2485.437560
472.931667	2483.403455
473.302330	2479.806591
473.672934	2481.505460
474.043479	2482.034781
474.413965	2479.065542
474.784393	2477.941364
475.154761	2479.695686
475.525070	2476.234934
475.895321	2477.848103
476.265513	2479.279791
476.635645	2485.309011
477.005719	2484.968733
477.375734	2482.470841
477.745691	2485.508136
478.115588	2487.015441
478.485427	2490.471152
478.855207	2493.374857
479.224928	2497.737976
479.594591	2501.357524
479.964194	2501.594458
480.333739	2498.705877
480.703226	2501.017246
481.072653	2502.343070
481.442022	2508.518483
481.811333	2506.350787
482.180584	2504.326764
482.549777	2506.023112
482.918912	2506.315499
483.287988	2504.510766
483.657005	2504.795591
484.025964	2505.753410
484.394864	2507.911024
484.763706	2509.556961
485.132489	2508.546209
485.501213	2511.331447
485.869879	2511.918741
486.238487	2513.731036
486.607036	2514.104082
486.975527	2514.998886
487.343959	2516.428053
487.712333	2516.208763
488.080648	2518.326048
488.448905	2524.393077
488.817104	2522.525329
489.185244	2528.665454
489.553326	2532.496731
489.921350	2541.119625
490.289315	2549.576161
490.657222	2554.140925
491.025070	2557.962120
491.392861	2560.570917
491.760593	2559.623180
492.128267	2557.339537
492.495883	2553.230997
492.863440	2551.466593
493.230939	2552.618497
493.598380	2554.798796
493.965763	2550.967519
494.333088	2553.599001
494.700354	2553.833415
495.067563	2558.148643
495.434713	2558.693087
495.801805	2566.035528
496.168839	2566.844633
496.535815	2568.936712
496.902733	2571.890828
497.269593	2573.262022
497.636395	2576.011971
498.003139	2579.873495
498.369825	2579.069431
498.736453	2585.766604
499.103023	2585.804413
499.469535	2589.378591
499.835989	2593.696339
500.202385	2594.669282
500.568723	2597.031062
500.935003	2600.917792
501.301226	2603.158585
501.667390	2608.681169
502.033497	2615.950513
502.399546	2615.438836
502.765537	2613.059411
503.131470	2621.755401
503.497345	2623.681122
503.863163	2619.996039
504.228923	2626.315125
504.594625	2632.369551
504.960269	2632.845940
505.325856	2637.672845
505.691385	2639.616209
506.056856	2642.313227
506.422270	2646.313382
506.787625	2648.496202
507.152924	2653.272695
507.518164	2655.266472
507.883347	2655.120278
508.248472	2660.905002
508.613540	2662.923984
508.978550	2670.246260
509.343503	2669.220385
509.708398	2676.434277
510.073236	2678.980059
510.438016	2684.621110
510.802738	2684.527849
511.167403	2688.601101
511.532010	2695.237780
511.896561	2699.623584
512.261053	2708.856457
512.625488	2705.136086
512.989866	2705.249512
513.354186	2710.149513
513.718449	2709.567260
514.082655	2719.979763
514.446803	2718.905998
514.810894	2730.735065
515.174927	2731.488718
515.538904	2731.639952
515.902822	2739.796539
516.266684	2739.972980
516.630488	2742.937178
516.994235	2743.312744
517.357925	2749.372211
517.721558	2756.775145
518.085133	2757.806061
518.448651	2762.935435
518.812112	2762.156577
519.175516	2767.051537
519.538863	2769.998092
519.902152	2773.428597
520.265385	2778.966305
520.628560	2783.697427
520.991678	2779.344391
521.354739	2788.496606
521.717743	2796.242339
522.080690	2795.254273
522.443580	2802.553863
522.806413	2806.647280
523.169189	2808.583083
523.531908	2811.995945
523.894569	2813.777992
524.257174	2818.473827
524.619722	2824.170331
524.982213	2827.494972
525.344647	2828.331804
525.707025	2833.012515
526.069345	2837.836899
526.431608	2839.024091
526.793815	2847.841069
527.155964	2848.826615
527.518057	2854.467666
527.880093	2853.272912
528.242072	2859.813809
528.603995	2863.761033
528.965860	2864.638194
529.327669	2871.438710
529.689421	2874.992724
530.051117	2877.465410
530.412755	2884.742315
530.774337	2890.753891
531.135862	2891.802451
531.497331	2899.006260
531.858743	2897.138513
532.220098	2910.076634
532.581396	2913.625606
532.942638	2913.862540
533.303824	2926.165476
533.664953	2930.679830
534.026025	2939.953032
534.387040	2948.298662
534.747999	2954.123716
535.108902	2959.399283
535.469748	2963.817854
535.830537	2973.406129
536.191270	2983.110350
536.551947	2987.773418
536.912567	2998.914368
537.273131	3009.483147
537.633638	3012.583456
537.994089	3030.461908
538.354483	3031.502907
538.714821	3049.240206
539.075103	3062.047258
539.435328	3076.699371
539.795497	3081.070052
540.155609	3096.397680
540.515665	3119.400465
540.875665	3120.975826
541.235609	3137.430152
541.595496	3155.258192
541.955328	3176.216789
542.315102	3183.380269
542.674821	3195.494162
543.034483	3210.461347
543.394090	3224.132957
543.753640	3242.298755
544.113134	3278.224537
544.472571	3277.244033
544.831953	3321.938903
545.191278	3326.327227
545.550548	3342.085874
545.909761	3373.378837
546.268918	3396.316087
546.628019	3426.172321
546.987064	3441.068930
547.346053	3451.751135
547.704986	3498.152436
548.063863	3514.263963
548.422684	3546.015671
548.781449	3568.355544
549.140158	3606.146554
549.498811	3632.751243
549.857408	3646.967297
550.215949	3704.602809
550.574434	3728.379411
550.932864	3758.583485
551.291237	3813.350580
551.649555	3843.499201
552.007817	3881.980848
552.366022	3913.057041
552.724173	3954.442394
553.082267	4011.674613
553.440305	4066.101431
553.798288	4082.916200
554.156215	4134.182214
554.514086	4199.376936
554.871902	4229.964137
555.229661	4281.716622
555.587365	4324.415195
555.945014	4383.870564
556.302606	4431.335548
556.660143	4495.181761
557.017625	4551.861974
557.375050	4597.469293
557.732421	4670.271117
558.089735	4733.005756
558.446994	4785.932830
558.804197	4869.401735
559.161345	4929.986322
559.518437	4951.174291
559.875474	5026.055590
560.232455	5104.286736
560.589381	5183.765568
560.946251	5231.432198
561.303065	5343.980999
561.659825	5403.138939
562.016528	5459.259584
562.373177	5513.643552
562.729770	5622.487105
563.086307	5666.826573
563.442789	5773.908243
563.799216	5862.201532
564.155587	5925.662097
564.511904	6013.337845
564.868164	6102.578871
565.224370	6217.111366
565.580520	6279.997239
565.936615	6389.163426
566.292654	6453.896882
566.648638	6571.849800
567.004567	6660.974879
567.360441	6763.693430
567.716260	6854.713983
568.072023	6980.190823
568.427732	7078.866369
568.783385	7141.696790
569.138982	7289.092566
569.494525	7396.181798
569.850013	7472.464537
570.205445	7584.055519
570.560823	7690.675923
570.916145	7791.433465
571.271412	7913.220180
571.626625	7995.282603
571.981782	8119.562169
572.336884	8197.828603
572.691931	8361.459415
573.046923	8427.256555
573.401860	8526.947893
573.756743	8643.617837
574.111570	8782.942727
574.466342	8881.842603
574.821059	9033.820789
575.175722	9085.306093
575.530330	9208.574908
575.884882	9292.000963
576.239380	9413.442359
576.593823	9539.158653
576.948211	9654.656529
577.302544	9715.044511
577.656823	9847.503349
578.011047	10027.747284
578.365216	10115.347415
578.719330	10218.111336
579.073389	10330.944962
579.427394	10489.829528
579.781344	10625.199632
580.135239	10697.938441
580.489080	10861.849038
580.842866	10912.472305
581.196597	11144.012501
581.550273	11288.025663
581.903895	11419.461147
582.257463	11667.233859
582.610975	11686.027280
582.964434	11902.406206
583.317837	11981.824544
583.671186	12094.254877
584.024481	12306.487454
584.377721	12353.680216
584.730906	12580.441398
585.084037	12751.870876
585.437113	12834.805419
585.790135	13005.098116
586.143103	13062.214389
586.496016	13255.025921
586.848874	13428.355914
587.201679	13596.259104
587.554428	13624.061068
587.907124	13841.896887
588.259765	13942.296507
588.612352	14183.520760
588.964884	14169.294624
589.317362	14412.510132
589.669786	14574.958794
590.022155	14667.579914
590.374470	14961.416169
590.726731	14979.967615
591.078937	14989.485313
591.431090	15179.821638
591.783188	15224.503906
592.135232	15287.742660
592.487222	15532.069743
592.839157	15730.958386
593.191038	15790.444001
593.542866	15863.139960
593.894639	15814.099615
594.246358	16078.598875
594.598022	16236.979326
594.949633	16251.797798
595.301190	16403.665078
595.652692	16497.851476
596.004141	16786.318902
596.355535	16576.737972
596.706876	16713.471708
597.058162	16807.590051
597.409395	17155.104512
597.760573	17344.672061
598.111698	17339.890527
598.462768	17508.514602
598.813785	17699.987707
599.164748	17630.954147
599.515657	17970.937124
599.866511	17907.017814
600.217312	18336.826591
600.568060	18055.497438
600.918753	18532.771199
601.269392	18687.821968
601.619978	18692.404377
601.970510	18947.249827
602.320988	19196.308033
602.671412	19494.540174
603.021783	19532.870587
603.372100	19536.722029
603.722363	19753.819319
604.072572	19947.407189
604.422728	20106.894173
604.772830	20179.217087
605.122878	20388.714838
605.472872	20510.073055
605.822813	20803.203548
606.172701	20889.689583
606.522534	21170.033190
606.872314	21467.574693
607.222041	21499.389415
607.571714	21858.332172
607.921333	21728.991287
608.270899	22038.220705
608.620411	22374.536243
608.969870	22427.508688
609.319276	22576.139547
609.668627	22770.866717
610.017926	23198.553168
610.367171	23452.770995
610.716362	23651.611747
611.065500	23788.721049
611.414585	24046.684453
611.763616	24378.518405
612.112594	24494.696837
612.461518	24779.509426
612.810389	25096.265287
613.159207	25161.994371
613.507971	25372.467586
613.856682	25822.912326
614.205340	25888.459929
614.553945	26475.114125
614.902496	26290.028162
615.250994	26734.010143
615.599439	26936.072192
615.947830	27222.071973
616.296169	27408.647597
616.644454	27639.411456
616.992686	27901.574141
617.340864	28402.188444
617.688990	28369.425985
618.037063	28899.951975
618.385082	29038.583706
618.733048	29365.068993
619.080961	29526.194353
619.428821	29675.687249
619.776628	29898.647402
620.124382	29910.448743
620.472083	30147.035134
620.819731	30374.776821
621.167326	30280.640834
621.514868	30418.791135
621.862357	30240.430071
622.209793	30409.374260
622.557176	30298.703289
622.904506	30272.413671
623.251783	30151.680557
623.599007	30136.577260
623.946179	30088.817369
624.293297	30188.468378
624.640363	29899.355684
624.987376	30025.228254
625.334336	29951.884507
625.681243	29808.647682
626.028097	29912.382025
626.374899	29928.574212
626.721647	30023.453768
627.068343	30044.805575
627.414987	29998.003503
627.761577	29939.032085
628.108115	30288.457143
628.454600	29984.231071
628.801032	30238.700955
629.147412	30308.331892
629.493739	30428.742373
629.840014	30266.747414
630.186236	30622.279831
630.532405	30430.640367
630.878521	30683.673523
631.224585	30691.807424
631.570597	30551.431454
631.916556	30778.656423
632.262462	30833.789002
632.608316	30935.307758
632.954117	30946.829315
633.299866	31021.272034
633.645562	31050.699770
633.991206	30764.841141
634.336797	30521.875169
634.682336	30608.784662
635.027823	30510.850166
635.373257	30461.416611
635.718639	30353.414931
636.063968	30336.297693
636.409245	29962.160899
636.754470	30087.020197
637.099642	29970.640120
637.444762	29670.399079
637.789829	29857.821617
638.134845	29670.338585
638.479808	29695.367914
638.824719	29686.150164
639.169577	29447.703587
639.514383	29573.482896
639.859137	29389.027077
640.203839	29667.087041
640.548489	29434.561299
640.893086	29553.661079
641.237632	29413.030531
641.582125	29577.228474
641.926566	29588.029146
642.270955	29618.581059
642.615292	29704.094151
642.959576	29751.987633
643.303809	29813.232612
643.647990	29991.691978
643.992118	30035.149245
644.336195	30084.421483
644.680219	30218.579189
645.024192	30531.274401
645.368112	31029.020287
645.711981	31082.786714
646.055797	31890.777811
646.399562	31881.456718
646.743274	32721.940572
647.086935	33161.995494
647.430544	33112.871971
647.774101	33263.627676
648.117606	33528.656257
648.461059	33855.144066
648.804460	33580.217179
649.147810	33112.473719
649.491108	32961.239104
649.834354	32692.832950
650.177548	32021.419313
650.520690	31678.666222
650.863781	31760.708480
651.206820	31678.363753
651.549807	31349.655316
651.892742	30967.878653
652.235626	30841.199498
652.578458	30774.605856
652.921238	30283.655444
653.263967	30624.669338
653.606644	30379.122295
653.949269	30387.523378
654.291843	30073.076366
654.634365	30457.048452
654.976836	30145.326183
655.319255	30189.025425
655.661622	30227.023122
656.003938	30062.908359
656.346203	29977.670009
656.688416	30217.023993
657.030577	30076.050647
657.372687	29957.949015
657.714746	30232.270963
658.056753	30389.010519
658.398708	29935.440263
658.740612	30014.152839
659.082465	30294.355293
659.424266	30166.226807
659.766016	30309.977829
660.107715	30239.119371
660.449362	30369.304648
660.790958	30381.670599
661.132503	30445.978078
661.473996	30485.863687
661.815438	30620.407042
662.156829	30830.910503
662.498168	30656.753761
662.839456	30711.946834
663.180693	30872.920959
663.521879	31046.329089
663.863013	31035.591432
664.204097	31066.672666
664.545129	31520.227798
664.886110	31515.226973
665.227040	31606.262650
665.567918	31722.433520
665.908746	31811.505667
666.249522	31992.677174
666.590248	32006.500018
666.930922	32145.797181
667.271545	32126.431589
667.612118	32238.975348
667.952639	32074.094330
668.293109	32137.746459
668.633528	32075.757910
668.973896	32019.894364
669.314213	32090.354571
669.654480	31863.369058
669.994695	31921.175969
670.334859	31844.391634
670.674973	31780.847890
671.015035	31940.508794
671.355047	31939.034256
671.695008	31893.343758
672.034918	31799.769861
672.374777	31906.768351
672.714585	31782.831584
673.054342	32038.251726
673.394049	31812.655050
673.733705	32104.386623
674.073310	31806.527528
674.412864	31882.291029
674.752368	31531.467050
675.091820	31838.473319
675.431223	31458.617336
675.770574	31226.436913
676.109875	31106.948964
676.449125	30874.468593
676.788324	30818.509265
677.127473	30335.783496
677.466571	30277.318714
677.805619	29969.548710
678.144616	29982.406173
678.483562	29933.479254
678.822458	29631.791402
679.161303	29584.775081
679.500098	29512.679019
679.838842	29426.019064
680.177535	29594.093654
680.516179	29873.040861
680.854771	30117.088160
681.193314	30965.766410
681.531805	32033.823072
681.870247	32786.936169
682.208638	33512.358207
682.546978	33730.778800
682.885268	33829.323276
683.223508	33334.095445
683.561697	33020.245810
683.899836	32854.399410
684.237925	32398.031314
684.575963	32239.630698
684.913951	31819.042192
685.251889	31993.914778
685.589776	31985.700217
685.927614	31990.181803
686.265401	32144.433549
686.603137	32243.260329
686.940824	32742.470671
687.278460	33129.689260
687.616046	33244.093205
687.953582	33839.788711
688.291068	33705.096642
688.628504	33986.088037
688.965889	33937.539205
689.303224	33585.142386
689.640510	33260.708848
689.977745	32578.756679
690.314930	31812.677735
690.652065	31325.525833
690.989150	30623.116662
691.326185	29773.306673
691.663170	29082.101466
692.000105	28364.634369
692.336990	27732.723213
692.673825	27312.953894
693.010610	26811.737173
693.347345	26274.264474
693.684030	25643.517825
694.020665	25393.685802
694.357251	24756.408339
694.693786	24714.445774
695.030272	24497.872764
695.366707	23972.929852
695.703093	23691.774620
696.039429	23690.325288
696.375716	23443.429737
696.711952	23409.016300
697.048139	23272.519498
697.384276	23110.126289
697.720363	23242.431372
698.056400	23038.607439
698.392388	22839.239887
698.728326	22812.539416
699.064214	22608.808745
699.400053	22561.633627
699.735842	22224.970250
700.071581	21962.835291
700.407270	21689.594670
700.742910	21500.221205
701.078501	21247.523286
701.414042	20988.491158
701.749533	20692.908143
702.084974	20357.331134
702.420366	20555.985363
702.755709	20136.634460
703.091002	19865.929540
703.426246	19883.848321
703.761440	19784.640934
704.096584	19525.815493
704.431679	19487.739658
704.766725	19407.366021
705.101721	19340.442183
705.436668	19440.148645
705.771565	19124.690881
706.106413	19464.144537
706.441212	19459.549525
706.775961	19594.360062
707.110661	19668.482667
707.445311	20018.124495
707.779913	19872.813235
708.114465	20108.464492
708.448967	20400.140613
708.783421	21079.085733
709.117825	21349.641940
709.452180	21569.337945
709.786485	21959.356895
710.120742	22747.029621
710.454949	22768.532663
710.789107	23230.468713
711.123216	23923.955042
711.457275	24044.940214
711.791286	24567.412960
712.125247	24635.957529
712.459159	24332.974101
712.793023	24989.445757
713.126837	23899.397061
713.460602	24143.434278
713.794318	23781.519761
714.127985	23393.565164
714.461602	22516.777440
714.795171	22482.795022
715.128691	21494.340699
715.462162	20968.271090
715.795584	20566.211344
716.128957	20303.831889
716.462281	19901.905734
716.795556	19678.464152
717.128782	19200.101502
717.461960	18664.257095
717.795088	18574.509433
718.128167	18184.566100
718.461198	17742.358606
718.794180	17597.869054
719.127113	17240.045433
719.459997	17047.871608
719.792833	16720.037811
720.125619	16689.574119
720.458357	16377.803959
720.791046	16203.536312
721.123686	16040.195365
721.456278	15823.297201
721.788821	15781.334636
722.121315	15526.736202
722.453761	15598.192037
722.786158	15528.901378
723.118506	15531.348858
723.450805	15404.697429
723.783056	15556.622683
724.115259	15468.266379
724.447412	15398.824485
724.779518	15647.665921
725.111574	15665.050340
725.443582	15858.280288
725.775542	15843.728997
726.107453	16301.823688
726.439315	16190.673808
726.771129	16589.502174
727.102895	16947.920650
727.434612	17157.700706
727.766281	17268.409486
728.097901	17531.192233
728.429473	17566.906287
728.760996	17552.309626
729.092471	17642.087535
729.423897	17511.836723
729.755276	17381.628760
730.086606	17509.679109
730.417887	18023.838992
730.749120	18544.393580
731.080305	18712.899188
731.411442	19035.908600
731.742530	19111.236042
732.073570	19210.370332
732.404562	19490.348455
732.735506	19308.622420
733.066401	19026.753865
733.397249	18505.077621
733.728048	17873.758801
734.058798	17051.763378
734.389501	16387.467851
734.720156	15927.951554
735.050762	15408.659776
735.381320	15059.252362
735.711831	14817.312265
736.042293	14484.044105
736.372707	14490.680784
736.703073	14294.514365
737.033391	14463.138440
737.363661	14431.303554
737.693883	14553.606987
738.024056	14722.087390
738.354182	14896.299584
738.684260	15180.918089
739.014290	15399.696605
739.344272	15589.007055
739.674207	15867.485435
740.004093	15973.813452
740.333931	15967.862369
740.663722	16003.775549
740.993464	15994.028478
741.323159	15826.458004
741.652806	15547.667073
741.982405	15333.165977
742.311956	15001.425286
742.641460	14886.897832
742.970915	14575.243619
743.300323	14250.457201
743.629683	14042.456672
743.958996	13772.139921
744.288260	13500.179753
744.617477	13196.906458
744.946647	13128.427424
745.275768	12858.602185
745.604842	12675.729288
745.933869	12513.610822
746.262847	12463.786578
746.591778	12390.795711
746.920662	12289.115638
747.249498	12291.966411
747.578286	12413.702714
747.907027	12550.428889
748.235720	12768.763783
748.564365	12799.066158
748.892963	12700.491436
749.221514	12755.654262
749.550017	12613.997839
749.878473	12575.254051
750.206881	12357.017460
750.535242	12266.904314
750.863555	12187.193590
751.191821	12086.279772
751.520039	12109.569903
751.848210	12019.025739
752.176334	12051.415152
752.504411	11959.668673
752.832440	11797.522480
753.160421	11864.690814
753.488356	11744.474418
753.816243	11642.869962
754.144082	11508.119920
754.471875	11455.949019
754.799620	11403.946996
755.127318	11361.616427
755.454969	11327.321458
755.782572	11291.415839
756.110129	11298.044957
756.437638	11215.435569
756.765100	11206.326204
757.092515	11209.726462
757.419882	11223.395551
757.747203	11233.485420
758.074477	11305.405041
758.401703	11270.318611
758.728882	11425.734863
759.056014	11461.053187
759.383099	11572.553428
759.710138	11676.030672
760.037129	11756.570667
760.364073	11779.084460
760.690970	11762.925041
761.017820	11760.285997
761.344623	11949.959410
761.671379	12273.112495
761.998088	12906.798137
762.324751	14436.894193
762.651366	17291.084596
762.977935	20925.585119
763.304456	23121.915027
763.630931	23583.891407
763.957359	22390.955281
764.283740	20502.138279
764.610074	18645.468714
764.936362	16530.833225
765.262602	15024.375139
765.588796	13562.639649
765.914943	12547.174824
766.241044	11710.703728
766.567097	11079.344579
766.893104	10533.463235
767.219064	10176.012660
767.544978	9795.249269
767.870845	9488.071600
768.196665	9305.642325
768.522438	9107.741748
768.848165	8942.182694
769.173846	8784.818036
769.499479	8657.564189
769.825066	8504.343359
770.150607	8320.379053
770.476101	8263.166998
770.801548	8158.295874
771.126949	8013.818926
771.452303	7920.973475
771.777611	7760.566480
772.102872	7740.674087
772.428087	7619.845191
772.753256	7500.541244
773.078378	7413.054539
773.403453	7270.347036
773.728482	7172.319279
774.053465	7108.175637
774.378401	7021.104828
774.703291	6928.277021
775.028135	6836.225552
775.352932	6797.648122
775.677683	6716.672068
776.002388	6631.549664
776.327046	6630.853985
776.651658	6543.314349
776.976224	6467.185364
777.300743	6450.027797
777.625216	6383.529936
777.949643	6344.672722
778.274024	6350.908630
778.598359	6280.793742
778.922647	6284.067971
779.246889	6245.082208
779.571086	6254.962869
779.895236	6260.818169
780.219339	6257.780874
780.543397	6253.657210
780.867409	6306.057484
781.191374	6302.016999
781.515294	6267.396875
781.839167	6321.037273
782.162995	6292.106091
782.486776	6241.258492
782.810511	6201.211566
783.134201	6127.346060
783.457844	6115.174194
783.781441	6069.314817
784.104993	6027.589187
784.428498	5997.052397
784.751958	5985.528320
785.075372	5954.184946
785.398739	5919.211941
785.722061	5940.588954
786.045337	5943.303615
786.368568	6043.589809
786.691752	6069.634930
787.014891	6320.891079
787.337983	6594.010712
787.661030	7028.926178
787.984031	7449.771783
788.306987	7719.297074
788.629897	7793.772560
788.952760	7710.810291
789.275579	7528.590224
789.598351	7238.759166
789.921078	6975.719320
790.243759	6697.732453
790.566395	6498.001937
790.888984	6304.461959
791.211529	6166.004148
791.534027	6004.651937
791.856480	5869.216298
792.178888	5805.664992
792.501249	5742.821968
792.823566	5642.359333
793.145836	5634.137211
793.468062	5615.575683
793.790241	5575.059929
794.112375	5620.579028
794.434464	5715.506476
794.756507	5743.189972
795.078505	5867.630855
795.400457	6079.268575
795.722364	6317.909237
796.044226	6510.607343
796.366042	6657.151164
796.687812	6609.600481
797.009538	6638.604759
797.331218	6543.200923
797.652852	6477.227342
797.974442	6356.887438
798.295986	6287.173322
798.617484	6158.941491
798.938938	6054.761006
799.260346	5983.998329
799.581709	5852.051169
799.903026	5793.868692
800.224299	5721.107197
800.545526	5609.571669
800.866708	5545.143202
801.187845	5496.891798
801.508936	5417.657462
801.829983	5391.259460
802.150984	5282.604951
802.471940	5261.263226
802.792851	5241.063322
803.113717	5217.465681
803.434538	5196.557496
803.755314	5161.405530
804.076045	5150.120907
804.396731	5115.762923
804.717372	5133.540552
805.037967	5133.278412
805.358518	5164.231097
805.679024	5221.987596
805.999485	5233.070573
806.319901	5252.237040
806.640272	5265.928814
806.960598	5313.882790
807.280879	5303.823167
807.601115	5338.924722
807.921306	5301.690759
808.241453	5296.906704
808.561554	5311.654600
808.881611	5274.208909
809.201623	5269.631541
809.521590	5224.997165
809.841513	5210.960072
810.161390	5222.390889
810.481223	5135.128516
810.801011	5122.313903
811.120755	5096.041929
811.440453	5040.795924
811.760107	5013.994630
812.079716	4985.933047
812.399281	4938.836067
812.718801	4934.644348
813.038276	4899.257968
813.357707	4866.651785
813.677093	4884.794898
813.996434	4823.489426
814.315731	4845.224361
814.634983	4842.487014
814.954191	4846.991285
815.273354	4910.219957
815.592473	4951.232264
815.911547	5019.670969
816.230577	5071.030244
816.549562	5165.151107
816.868502	5219.078851
817.187399	5269.684473
817.506250	5348.533161
817.825058	5376.211616
818.143821	5530.632241
818.462539	5693.985790
818.781213	5921.465337
819.099843	6285.209792
819.418429	6906.100985
819.736970	7523.360027
820.055466	8231.818583
820.373919	9137.172005
820.692327	10580.734135
821.010691	13263.512703
821.329011	19431.235885
821.647286	28922.115408
821.965517	39153.179988
822.283704	44552.739708
822.601847	46009.348345
822.919945	41445.695112
823.237999	36387.963431
823.556010	31237.910579
823.873976	26570.328918
824.191897	22401.277044
824.509775	19350.030458
824.827609	16616.495032
825.145398	15081.995527
825.463144	14337.003730
825.780845	14634.593124
826.098502	15871.117586
826.416116	18310.337848
826.733685	20574.357849
827.051210	21094.483938
827.368692	19672.813018
827.686129	17142.972975
828.003522	14671.136448
828.320872	12470.597177
828.638177	10831.715541
828.955439	9606.851267
829.272656	8554.069301
829.589830	7719.720531
829.906960	6990.683985
830.224046	6467.339119
830.541088	6058.912396
830.858086	5805.271782
831.175041	5605.420278
831.491952	5544.772677
831.808819	5577.235187
832.125642	5823.213248
832.442421	6370.700200
832.759157	7469.429763
833.075849	9224.777176
833.392497	11053.856506
833.709101	12159.227789
834.025662	11905.607339
834.342179	10856.722184
834.658653	9566.690915
834.975083	8465.493707
835.291469	7568.087664
835.607811	6839.368711
835.924110	6328.974569
836.240366	5842.233522
836.556578	5397.886057
836.872746	5042.565369
837.188871	4773.014873
837.504952	4557.601328
837.820990	4388.319382
838.136984	4274.850571
838.452935	4229.893561
838.768842	4259.149897
839.084706	4540.269841
839.400526	5273.460298
839.716303	6168.025651
840.032037	6725.710857
840.347727	6581.236428
840.663373	5985.016643
840.978977	5414.778963
841.294537	4977.156398
841.610054	4645.360255
841.925527	4410.404677
842.240957	4209.618040
842.556344	4024.582488
842.871687	3869.985423
843.186987	3719.454048
843.502244	3600.064402
843.817458	3518.647247
844.132629	3446.888942
844.447756	3398.937487
844.762840	3353.451156
845.077881	3316.582677
845.392879	3283.089251
845.707833	3257.714603
846.022745	3231.871128
846.337613	3221.662791
846.652438	3195.121116
846.967221	3183.534024
847.281960	3164.896878
847.596656	3160.223729
847.911309	3145.765700
848.225919	3131.640387
848.540485	3125.928759
848.855009	3111.052314
849.169490	3104.713063
849.483928	3097.229470
849.798323	3092.730241
850.112675	3081.382603
850.426984	3082.199270
850.741251	3073.465471
851.055474	3069.306519
851.369654	3073.394895
851.683792	3067.423648
851.997887	3073.130234
852.311938	3069.460274
852.625947	3072.583269
852.939914	3068.399112
853.253837	3070.203845
853.567718	3070.816345
853.881555	3061.459963
854.195350	3070.846592
854.509103	3064.983730
854.822812	3064.179666
855.136479	3058.594067
855.450103	3062.652196
855.763685	3053.315979
856.077224	3059.524160
856.390720	3067.884914
856.704173	3080.172726
857.017584	3083.920824
857.330953	3090.255034
857.644278	3095.780139
857.957561	3100.624687
858.270802	3098.119234
858.584000	3095.633945
858.897155	3092.034561
859.210268	3081.120463
859.523339	3067.282496
859.836367	3066.652352
860.149352	3060.930642
860.462295	3058.556259
860.775195	3048.272305
861.088054	3042.953888
861.400869	3043.687375
861.713642	3037.877446
862.026373	3047.828683
862.339062	3054.296484
862.651708	3063.242011
862.964312	3079.451841
863.276873	3085.100454
863.589392	3117.497429
863.901869	3143.807211
864.214303	3160.987464
864.526696	3185.021165
864.839045	3198.034903
865.151353	3209.823642
865.463619	3210.872202
865.775842	3214.199363
866.088023	3216.987121
866.400162	3210.806667
866.712258	3211.073848
867.024313	3216.049467
867.336325	3209.369938
867.648296	3212.273642
867.960224	3209.264073
868.272110	3213.939744
868.583954	3211.467058
868.895755	3218.776731
869.207515	3219.379149
869.519233	3236.599730
869.830909	3241.093919
870.142542	3251.849221
870.454134	3259.773914
870.765684	3269.470574
871.077191	3289.557051
871.388657	3303.652118
871.700081	3319.851865
872.011463	3338.436079
872.322803	3357.080787
872.634101	3375.322202
872.945357	3394.501272
873.256571	3422.146959
873.567744	3437.925771
873.878874	3441.570525
874.189963	3458.397897
874.501010	3461.835963
874.812015	3455.227011
875.122979	3473.357521
875.433900	3470.904999
875.744780	3473.753251
876.055618	3480.447903
876.366415	3476.886328
876.677169	3485.352946
876.987882	3500.189062
877.298554	3520.842669
877.609183	3559.835994
877.919771	3605.745782
878.230317	3671.401770
878.540822	3772.567645
878.851285	3923.741767
879.161707	4145.489522
879.472087	4516.614227
879.782425	5137.245800
880.092722	6310.667619
880.402977	8224.317346
880.713191	10572.065871
881.023363	12919.186772
881.333494	14246.845214
881.643583	14695.921281
881.953631	14292.364312
882.263637	13461.342704
882.573602	12436.909666
882.883526	11489.170222
883.193408	10545.950173
883.503248	9641.121031
883.813048	8816.574785
884.122806	8057.908857
884.432522	7304.944475
884.742197	6651.641183
885.051831	6088.458599
885.361424	5601.367191
885.670975	5212.820258
885.980485	4893.319489
886.289954	4624.978870
886.599382	4413.588166
886.908768	4235.569900
887.218113	4074.673913
887.527417	3944.503759
887.836680	3822.943896
888.145901	3726.312538
888.455082	3645.465033
888.764221	3578.279056
889.073319	3520.590612
889.382376	3489.900067
889.691392	3465.697487
890.000366	3458.864203
890.309300	3451.546968
890.618193	3453.192905
890.927044	3451.572174
891.235855	3456.799851
891.544625	3470.239567
891.853353	3498.180162
892.162041	3557.532187
892.470687	3652.250427
892.779293	3767.266872
893.087858	3938.499745
893.396381	4215.924523
893.704864	4621.034167
894.013306	5187.203635
894.321707	5748.538636
894.630068	6105.807730
894.938387	6143.399614
895.246665	5963.299352
895.554903	5646.155322
895.863100	5315.017049
896.171256	5050.535433
896.479371	4809.792611
896.787446	4588.264146
897.095480	4396.687697
897.403473	4248.772682
897.711425	4105.472843
898.019336	3983.983555
898.327207	3863.547869
898.635038	3760.557096
898.942827	3656.958864
899.250576	3568.511820
899.558284	3488.987618
899.865952	3435.311933
900.173579	3370.391953
900.481165	3327.758915
900.788711	3283.505146
901.096216	3253.507760
901.403681	3226.467011
901.711105	3213.609548
902.018489	3211.227603
902.325832	3245.394023
902.633135	3301.638177
902.940397	3470.973055
903.247619	3871.011298
903.554800	4618.795895
903.861941	5568.992901
904.169041	6263.351349
904.476101	6471.626620
904.783121	6197.866761
905.090100	5799.529907
905.397039	5387.738214
905.703938	5037.201582
906.010796	4714.686202
906.317614	4463.611535
906.624391	4226.455494
906.931129	4040.139489
907.237826	3858.708362
907.544483	3689.169317
907.851099	3520.146990
908.157675	3361.108668
908.464211	3224.765622
908.770707	3123.332565
909.077163	3045.676111
909.383578	2989.051350
909.689954	2945.011830
909.996289	2914.296080
910.302584	2893.687843
910.608839	2877.790564
910.915054	2869.223123
911.221229	2865.462422
911.527363	2870.649770
911.833458	2875.383413
912.139513	2888.470248
912.445527	2899.046589
912.751502	2933.984306
913.057436	2978.543065
913.363331	3035.543391
913.669186	3121.411885
913.975000	3236.874473
914.280775	3418.920621
914.586510	3686.058925
914.892205	4054.915111
915.197859	4546.336870
915.503475	5126.576198
915.809050	5614.849757
916.114585	5899.158231
916.420081	5962.550740
916.725536	5896.262088
917.030952	5663.862375
917.336328	5463.075738
917.641665	5254.177884
917.946961	5021.694992
918.252218	4825.742822
918.557435	4604.055561
918.862612	4406.069285
919.167750	4238.773553
919.472848	4050.090726
919.777906	3886.354049
920.082925	3728.384453
920.387904	3575.042635
920.692843	3467.161943
920.997743	3367.447919
921.302603	3276.293776
921.607423	3213.480999
921.912204	3147.431801
922.216946	3100.387753
922.521647	3050.397151
922.826310	3009.122704
923.130932	2972.289513
923.435516	2933.270983
923.740059	2908.685275
924.044564	2877.896428
924.349028	2850.154959
924.653454	2822.829384
924.957840	2798.465488
925.262186	2777.685852
925.566493	2755.968561
925.870761	2733.200189
926.174989	2720.904815
926.479178	2708.342260
926.783328	2690.274764
927.087438	2680.583146
927.391509	2666.261228
927.695541	2655.195895
927.999533	2646.192395
928.303486	2638.323153
928.607400	2630.675723
928.911275	2624.772532
929.215110	2621.261368
929.518906	2613.132508
929.822663	2618.352622
930.126381	2617.109978
930.430060	2618.886985
930.733699	2622.037706
931.037299	2626.736061
931.340861	2622.287243
931.644383	2628.203037
931.947866	2627.552728
932.251309	2622.569548
932.554714	2625.889147
932.858080	2619.789351
933.161407	2616.129474
933.464694	2614.609566
933.767943	2612.303238
934.071153	2606.314347
934.374323	2602.372165
934.677455	2599.289499
934.980548	2598.185487
935.283602	2595.155753
935.586617	2591.884044
935.889593	2596.216916
936.192530	2597.031062
936.495428	2604.807042
936.798287	2612.787189
937.101108	2625.354785
937.403890	2648.284473
937.706632	2673.044101
938.009336	2708.130531
938.312002	2733.127093
938.614628	2757.420413
938.917216	2777.539658
939.219765	2785.141718
939.522275	2795.027421
939.824747	2795.362657
940.127179	2789.298149
940.429573	2784.486368
940.731929	2784.546862
941.034246	2772.596807
941.336524	2774.285593
941.638763	2765.125817
941.940964	2761.178593
942.243126	2745.392220
942.545250	2733.064078
942.847335	2719.087479
943.149381	2708.770758
943.451389	2690.478931
943.753359	2681.286387
944.055290	2672.418997
944.357182	2664.053203
944.659036	2660.257214
944.960851	2656.189003
945.262628	2649.557365
945.564367	2653.560041
945.866067	2649.852272
946.167729	2648.299597
946.469352	2649.607776
946.770937	2646.406644
947.072484	2639.331384
947.373992	2640.891621
947.675462	2636.619243
947.976893	2629.599437
948.278286	2627.829992
948.579641	2622.105762
948.880958	2620.343878
949.182236	2622.907305
949.483476	2616.815071
949.784678	2614.995214
950.085841	2617.157869
950.386967	2621.200874
950.688054	2623.940742
950.989103	2635.812659
951.290114	2643.119811
951.591087	2655.914260
951.892021	2667.680313
952.192917	2676.351097
952.493776	2687.797037
952.794596	2690.809127
953.095378	2694.209385
953.396122	2692.210567
953.696828	2689.032120
953.997496	2684.353929
954.298126	2674.596776
954.598718	2666.374654
954.899272	2656.047850
955.199788	2648.954947
955.500266	2636.079840
955.800706	2618.357664
956.101108	2601.787391
956.401472	2592.499065
956.701798	2575.356621
957.002087	2563.764488
957.302337	2551.617828
957.602550	2540.678524
957.902724	2532.131248
958.202861	2521.738909
958.502960	2513.668022
958.803022	2509.294821
959.103045	2502.532113
959.403031	2492.623725
959.702979	2488.008549
960.002889	2486.022334
960.302762	2481.848259
960.602596	2475.428349
960.902393	2471.647484
961.202153	2472.960704
961.501875	2466.122379
961.801559	2464.476443
962.101205	2462.157512
962.400814	2464.108438
962.700385	2459.057202
962.999918	2458.847994
963.299414	2455.667026
963.598873	2453.007817
963.898293	2453.975719
964.197677	2452.702828
964.497022	2450.560337
964.796331	2451.528239
965.095601	2449.022785
965.394835	2446.986159
965.694030	2446.482044
965.993189	2447.744853
966.292309	2445.859461
966.591393	2442.736467
966.890439	2444.342074
967.189447	2445.138576
967.488419	2443.187650
967.787353	2446.512291
968.086249	2447.510439
968.385108	2445.819132
968.683930	2449.032868
968.982714	2449.957919
969.281462	2450.837601
969.580172	2452.730554
969.878844	2455.054526
970.177480	2457.134002
970.476078	2461.759261
970.774639	2463.697584
971.073162	2463.508541
971.371649	2464.355455
971.670098	2467.720425
971.968510	2467.165898
972.266885	2465.835033
972.565223	2473.989100
972.863524	2472.985910
973.161788	2476.643267
973.460014	2474.823411
973.758204	2476.507156
974.056356	2477.094451
974.354471	2477.583442
974.652550	2477.230562
974.950591	2478.841210
975.248595	2475.841724
975.546563	2476.706282
975.844493	2473.938688
976.142386	2471.534058
976.440243	2468.461475
976.738062	2469.822586
977.035845	2464.252111
977.333590	2464.113479
977.631299	2461.189610
977.928971	2463.364868
978.226606	2458.656430
978.524204	2457.131481
978.821765	2456.718107
979.119290	2459.168107
979.416777	2453.264916
979.714228	2456.266923
980.011642	2456.178703
980.309020	2461.361009
980.606360	2462.404528
980.903664	2475.178812
981.200931	2484.429329
981.498162	2507.038904
981.795356	2534.588810
982.092513	2572.193297
982.389633	2614.909514
982.686717	2655.616832
982.983764	2685.813343
983.280775	2705.796477
983.577749	2703.593493
983.874686	2697.584437
984.171587	2679.980728
984.468451	2664.945487
984.765279	2649.214566
985.062070	2628.654220
985.358824	2612.973711
985.655543	2590.323807
985.952224	2566.380847
986.248869	2539.841692
986.545478	2512.445542
986.842050	2494.408293
987.138586	2478.440439
987.435086	2466.349231
987.731549	2450.772066
988.027975	2449.728547
988.324366	2441.808894
988.620719	2440.470468
988.917037	2434.418563
989.213318	2431.403953
989.509563	2429.233736
989.805772	2427.991092
990.101944	2424.033786
990.398080	2426.514033
990.694180	2425.324321
990.990244	2428.376740
991.286271	2425.092428
991.582262	2426.445978
991.878217	2428.346493
992.174136	2428.661565
992.470019	2430.864549
992.765865	2431.892945
993.061676	2432.112235
993.357450	2436.566094
993.653188	2436.626588
993.948890	2444.203442
994.244556	2450.393979
994.540186	2458.795062
994.835780	2469.293265
995.131337	2486.586943
995.426859	2498.834427
995.722345	2520.057684
996.017795	2540.721374
996.313208	2547.259750
996.608586	2562.620146
996.903928	2564.835733
997.199234	2563.749365
997.494504	2561.185938
997.789738	2552.452139
998.084936	2543.713299
998.380099	2530.840712
998.675225	2521.328055
998.970316	2504.483039
999.265371	2494.899806
999.560390	2481.434884
999.855373	2470.447689
1000.150320	2461.242542
1000.445232	2452.478496
1000.740108	2445.090685
1001.034948	2441.156065
1001.329752	2434.816814
1001.624521	2432.752461
1001.919254	2425.311718
1002.213951	2425.218457
1002.508613	2418.254103
1002.803239	2421.614032
1003.097829	2415.604977
1003.392384	2418.087745
1003.686903	2416.023392
1003.981386	2413.762435
1004.275834	2414.024575
1004.570246	2413.893505
1004.864623	2414.130439
1005.158964	2412.005593
1005.453270	2411.440983
1005.747540	2410.606672
1006.041775	2412.033319
1006.335974	2412.083731
1006.630138	2410.097516
1006.924266	2411.713206
1007.218359	2407.886970
1007.512416	2407.571898
1007.806438	2407.390416
1008.100425	2408.751528
1008.394376	2407.624830
1008.688292	2409.313617
1008.982172	2408.063410
1009.276017	2409.059038
1009.569827	2406.001578
1009.863602	2409.822773
1010.157341	2407.418143
1010.451045	2405.106774
1010.744714	2409.374110
1011.038347	2405.908317
1011.331945	2405.467216
1011.625508	2402.999571
1011.919036	2406.099881
1012.212528	2404.317833
1012.505986	2406.583832
1012.799408	2407.425704
1013.092795	2404.741290
1013.386147	2406.644326
1013.679464	2404.814387
1013.972745	2406.601476
1014.265992	2405.212638
1014.559204	2403.055024
1014.852380	2404.506876
1015.145521	2401.618295
1015.438628	2401.966135
1015.731699	2405.212638
1016.024736	2403.874212
1016.317737	2405.527710
1016.610703	2404.063255
1016.903635	2402.621485
1017.196531	2400.224416
1017.489393	2404.617782
1017.782219	2403.407905
1018.075011	2405.378996
1018.367768	2406.747669
1018.660490	2408.839748
1018.953177	2408.839748
1019.245829	2408.839748
