Dividing Wavelength (nm)	Counts (n)	Blue Motor Position (mm): 46.200000	Red Motor Position (mm): 0.000000	
326.493990	1976.510394
326.888308	1976.510394
327.282561	1976.510394
327.676750	1949.895622
328.070874	1952.622887
328.464933	1958.594133
328.858929	1966.092850
329.252859	1979.194809
329.646726	1993.839361
330.040528	2008.380569
330.434265	2027.297499
330.827938	2047.600746
331.221547	2066.736966
331.615091	2089.560790
332.008571	2105.904211
332.401986	2128.440689
332.795338	2150.410037
333.188625	2169.954591
333.581847	2187.454956
333.975006	2206.145034
334.368100	2224.726727
334.761129	2239.446897
335.154095	2256.959865
335.546996	2299.227419
335.939833	2380.173227
336.332606	2399.400188
336.725315	2410.838566
337.117960	2418.682601
337.510540	2426.009918
337.903056	2435.386464
338.295508	2439.200097
338.687896	2450.522529
339.080220	2457.481842
339.472480	2463.226236
339.864676	2465.673717
340.256807	2466.092132
340.648875	2471.161012
341.040879	2473.401805
341.432818	2471.226547
341.824694	2473.611013
342.216506	2474.462968
342.608253	2472.509521
342.999937	2471.607155
343.391557	2473.999182
343.783113	2470.810652
344.174605	2468.549695
344.566033	2468.171608
344.957397	2468.635394
345.348697	2462.139868
345.739934	2463.803448
346.131106	2457.716255
346.522215	2458.653910
346.913260	2457.955710
347.304241	2459.863787
347.695159	2452.450770
348.086012	2453.892540
348.476802	2449.761314
348.867528	2450.328444
349.258191	2449.481530
349.648789	2448.080090
350.039324	2444.488267
350.429796	2448.080090
350.820203	2445.299893
351.210548	2447.482713
351.600828	2444.200922
351.991045	2445.937599
352.381198	2443.210335
352.771288	2447.109668
353.161314	2442.277722
353.551276	2443.258226
353.941175	2443.994234
354.331010	2444.533638
354.720782	2447.999431
355.110490	2444.891560
355.500135	2444.475665
355.889717	2446.371138
356.279235	2445.304934
356.668689	2447.510439
357.058080	2444.445418
357.447408	2446.194698
357.836672	2445.957764
358.225873	2444.846189
358.615010	2444.584049
359.004084	2449.698300
359.393095	2452.755760
359.782043	2449.778958
360.170927	2453.829526
360.559748	2454.162242
360.948505	2454.661316
361.337199	2454.694083
361.725830	2456.524022
362.114398	2455.775411
362.502903	2457.708693
362.891344	2457.151646
363.279722	2456.834053
363.668037	2461.166925
364.056289	2458.638786
364.444478	2459.901595
364.832603	2461.373612
365.220665	2464.559622
365.608665	2463.616926
365.996601	2462.303705
366.384474	2464.413428
366.772284	2464.637759
367.160031	2467.153295
367.547715	2470.135138
367.935336	2468.642956
368.322893	2468.937864
368.710388	2469.265539
369.097820	2472.443986
369.485189	2472.194449
369.872495	2471.987762
370.259738	2472.748976
370.646918	2477.041518
371.034035	2474.636888
371.421090	2478.480768
371.808081	2479.466313
372.195010	2475.090592
372.581875	2479.214256
372.968678	2477.986735
373.355418	2480.398927
373.742096	2483.905049
374.128710	2483.675677
374.515262	2484.111737
374.901751	2487.713641
375.288177	2488.890751
375.674540	2489.079794
376.060841	2490.844198
376.447079	2492.585916
376.833254	2494.035248
377.219367	2496.523057
377.605417	2502.025477
377.991404	2503.437000
378.377329	2511.714575
378.763191	2514.424195
379.148991	2528.433561
379.534727	2535.985210
379.920402	2549.724875
380.306013	2560.155022
380.691563	2580.662436
381.077049	2596.226998
381.462474	2614.521346
381.847835	2644.110398
382.233134	2668.703667
382.618371	2695.381453
383.003545	2732.307905
383.388657	2764.959459
383.773706	2808.535192
384.158693	2847.518435
384.543618	2899.394429
384.928480	2942.652570
385.313280	3004.699092
385.698017	3064.111610
386.082692	3134.027373
386.467305	3184.829601
386.851856	3268.011160
387.236344	3362.865511
387.620770	3427.160387
388.005133	3507.652490
388.389435	3612.372379
388.773674	3687.808205
389.157851	3795.507416
389.541965	3902.430289
389.926018	3957.424236
390.310008	4092.232252
390.693936	4205.380950
391.077802	4318.827076
391.461606	4439.313174
391.845348	4552.161923
392.229027	4680.938198
392.612645	4866.240931
392.996200	4992.917566
393.379694	5160.107433
393.763125	5357.776116
394.146494	5486.935519
394.529801	5632.811388
394.913047	5859.973342
395.296230	5921.203197
395.679351	6022.933681
396.062410	6268.964674
396.445408	6254.156285
396.828343	6432.557678
397.211217	6594.655980
397.594028	6564.913172
397.976778	6780.120030
398.359466	6974.280070
398.742092	7013.250710
399.124656	7190.941301
399.507158	7401.313692
399.889598	7479.824622
400.271977	7715.148204
400.654294	7793.089484
401.036549	8025.191769
401.418742	8103.117925
401.800874	8419.530987
402.182944	8548.357674
402.564952	8922.267616
402.946898	8814.089496
403.328783	8900.391529
403.710606	9128.907033
404.092367	9406.276359
404.474067	9785.310634
404.855705	9627.691397
405.237282	9619.580181
405.618797	10056.887674
406.000250	10325.331637
406.381642	10700.716117
406.762972	10680.002016
407.144240	10519.075782
407.525447	10779.789136
407.906593	10754.054045
408.287677	11017.824858
408.668700	11187.240395
409.049661	11174.703046
409.430560	11345.882986
409.811399	11332.864206
410.192176	11503.275371
410.572891	11586.139337
410.953545	12069.956516
411.334138	11559.413660
411.714669	12151.902992
412.095139	11496.610966
412.475547	11987.957107
412.855894	11844.548883
413.236180	12170.537617
413.616405	11862.245854
413.996568	12133.916155
414.376670	12108.367588
414.756711	11990.928868
415.136691	12272.384049
415.516609	12452.469188
415.896466	12518.689784
416.276262	12812.553766
416.655997	13252.495262
417.035670	13294.651911
417.415283	13924.024845
417.794834	14013.868289
418.174324	13765.939302
418.553753	13682.356971
418.933121	14155.459177
419.312428	13970.111073
419.691674	13875.654974
420.070859	14336.829810
420.449983	13993.824661
420.829045	14532.678637
421.208047	14288.359116
421.586988	14743.222427
421.965867	14984.920548
422.344686	14974.747500
422.723444	15537.962852
423.102141	14246.273043
423.480777	15423.548824
423.859352	14925.225725
424.237866	16022.175761
424.616319	15733.264713
424.994712	16381.320164
425.373044	16177.841551
425.751314	16846.772419
426.129524	15977.143134
426.507673	17049.394036
426.885762	16759.598266
427.263789	16941.059640
427.641756	17112.136237
428.019662	17163.994587
428.397508	17213.150878
428.775292	17510.130292
429.153016	17468.192933
429.530679	17537.745733
429.908282	17573.724448
430.285824	17299.016851
430.663305	17999.510384
431.040726	17599.477182
431.418086	17427.341943
431.795385	18072.806240
432.172624	18481.439650
432.549802	18039.416158
432.926920	18229.651660
433.303977	18112.858208
433.680974	18367.655767
434.057910	18643.515267
434.434786	18676.585236
434.811601	18594.550540
435.188355	19628.173601
435.565050	19277.692421
435.941683	19214.761177
436.318257	20085.454146
436.694770	19902.062010
437.071222	20497.190386
437.447614	19582.306663
437.823946	19604.180229
438.200218	19756.720503
438.576429	19526.506131
438.952580	19805.443255
439.328670	19759.263766
439.704700	20177.387148
440.080670	19750.194730
440.456580	20335.714667
440.832429	20505.929226
441.208218	19510.934007
441.583947	19959.558890
441.959616	20053.200843
442.335224	20280.632499
442.710773	20423.035013
443.086261	20953.442536
443.461689	20315.981070
443.837057	20448.412182
444.212365	21077.217986
444.587612	21075.771175
444.962800	20666.237919
445.337927	21079.191598
445.712995	19830.069292
446.088002	21656.953199
446.462949	21849.424453
446.837837	22004.177793
447.212664	21962.063994
447.587431	24724.412135
447.962139	27626.664898
448.336786	30016.862459
448.711374	28512.201545
449.085901	24859.144533
449.460369	24794.953001
449.834776	24691.248905
450.209124	27147.024316
450.583412	26690.041199
450.957640	27231.221667
451.331808	25898.789253
451.705917	24546.895464
452.079965	24577.404527
452.453954	24927.885707
452.827883	24821.202289
453.201752	24627.753051
453.575562	24782.279540
453.949311	25882.092951
454.323001	25932.166733
454.696632	25705.927310
455.070202	27227.125730
455.443713	27380.628864
455.817164	27946.858826
456.190556	28485.249016
456.563888	27940.512013
456.937160	28381.824703
457.310373	26726.753402
457.683526	27149.083627
458.056619	27133.229198
458.429653	27087.251354
458.802628	27637.851219
459.175542	27755.864630
459.548398	29042.288954
459.921194	30595.730594
460.293930	31251.642682
460.666607	33256.141563
461.039224	35008.159294
461.411782	35407.902629
461.784280	34227.944954
462.156719	33755.238479
462.529099	33188.007848
462.901419	31901.422208
463.273680	30853.583093
463.645882	30929.104618
464.018024	30905.189384
464.390106	31723.131719
464.762130	34385.874222
465.134094	38396.069257
465.505999	43633.157630
465.877845	48216.052947
466.249631	49400.270397
466.621358	47712.620639
466.993026	45584.661380
467.364634	43521.468346
467.736184	41569.271436
468.107674	40320.738946
468.479105	39554.239065
468.850477	38839.078295
469.221790	37434.965714
469.593043	35727.811732
469.964238	34855.344277
470.335373	34754.594297
470.706449	36428.161592
471.077467	38915.509749
471.448425	43483.095082
471.819324	46327.450194
472.190164	44542.143203
472.560945	41003.187668
472.931667	37924.428985
473.302330	36811.521177
473.672934	36010.476790
474.043479	36498.437797
474.413965	35707.261468
474.784393	35342.607084
475.154761	36226.578452
475.525070	36261.528772
475.895321	35803.063556
476.265513	36385.586527
476.635645	37354.503858
477.005719	37174.980808
477.375734	37622.166442
477.745691	38317.553286
478.115588	39622.060228
478.485427	41569.848648
478.855207	44882.569802
479.224928	47498.558123
479.594591	49146.990225
479.964194	48150.298657
480.333739	48309.785641
480.703226	48310.095672
481.072653	48946.863979
481.442022	49436.521334
481.811333	49712.917717
482.180584	48420.837219
482.549777	47899.465965
482.918912	47387.287255
483.287988	47096.642050
483.657005	46274.059333
484.025964	45623.705117
484.394864	45631.571837
484.763706	45199.633173
485.132489	44339.062841
485.501213	44185.305128
485.869879	44308.503366
486.238487	43914.905198
486.607036	44110.091113
486.975527	43585.536370
487.343959	43790.514726
487.712333	43855.664078
488.080648	43756.577679
488.448905	44224.248042
488.817104	44021.308832
489.185244	44978.497918
489.553326	46610.415200
489.921350	49325.447071
490.289315	52233.182089
490.657222	52850.375596
491.025070	53145.729238
491.392861	52260.527828
491.760593	51011.266891
492.128267	49316.040278
492.495883	47789.009243
492.863440	46411.685354
493.230939	45072.553246
493.598380	43978.340557
493.965763	43661.287268
494.333088	42854.616953
494.700354	42377.517112
495.067563	42080.139447
495.434713	41961.309368
495.801805	42032.349308
496.168839	41657.650425
496.535815	41323.046359
496.902733	41348.196676
497.269593	40946.116765
497.636395	40875.618749
498.003139	41288.877418
498.369825	40738.285116
498.736453	41053.291696
499.103023	40580.718811
499.469535	40466.962654
499.835989	40544.987113
500.202385	40214.327750
500.568723	40235.309032
500.935003	40434.946286
501.301226	40235.515719
501.667390	40853.127642
502.033497	41094.850968
502.399546	40533.105113
502.765537	39872.386284
503.131470	40245.572821
503.497345	40588.830028
503.863163	39246.088454
504.228923	39877.341738
504.594625	40298.860338
504.960269	39580.001882
505.325856	40261.785172
505.691385	39623.086103
506.056856	39765.297053
506.422270	40191.193895
506.787625	39786.638778
507.152924	39974.981327
507.518164	40080.190208
507.883347	39293.833222
508.248472	39555.055732
508.613540	40015.461792
508.978550	40310.273510
509.343503	40080.061658
509.708398	40266.085276
510.073236	40790.171192
510.438016	40796.016410
510.802738	40252.171692
511.167403	40865.785979
511.532010	41114.521551
511.896561	41407.997363
512.261053	42242.343613
512.625488	41796.824080
512.989866	41655.066834
513.354186	41521.569518
513.718449	41496.013389
514.082655	42179.114941
514.446803	41841.985257
514.810894	42383.488359
515.174927	42310.946155
515.538904	42206.317007
515.902822	42882.376067
516.266684	42324.476612
516.630488	42747.310952
516.994235	42610.562093
517.357925	43167.057586
517.721558	43339.351622
518.085133	43648.780165
518.448651	43784.825784
518.812112	43575.123867
519.175516	43662.267772
519.538863	44005.552705
519.902152	43976.727388
520.265385	44439.172595
520.628560	44475.380682
520.991678	44276.270229
521.354739	44505.378068
521.717743	44834.010887
522.080690	44722.334206
522.443580	45265.256393
522.806413	45310.087374
523.169189	45257.452687
523.531908	45441.341376
523.894569	45319.307645
524.257174	45478.356048
524.619722	45766.883968
524.982213	45751.087513
525.344647	45683.599066
525.707025	45730.018010
526.069345	46128.843856
526.431608	46053.718060
526.793815	46360.247941
527.155964	45910.531647
527.518057	46068.836481
527.880093	45857.743205
528.242072	46373.738068
528.603995	46093.212980
528.965860	46096.308249
529.327669	46196.634772
529.689421	46081.562874
530.051117	46034.095369
530.412755	46190.262753
530.774337	46257.688186
531.135862	46065.166521
531.497331	46270.444826
531.858743	46179.378902
532.220098	46512.281579
532.581396	46232.910915
532.942638	45887.435601
533.303824	46183.071547
533.664953	46158.967270
534.026025	45879.740279
534.387040	46343.188676
534.747999	46319.795202
535.108902	46459.798126
535.469748	45981.397667
535.830537	46110.045393
536.191270	46300.200237
536.551947	45944.735876
536.912567	46253.274656
537.273131	46376.500621
537.633638	45858.287649
537.994089	46205.189610
538.354483	45828.948134
538.714821	46376.707308
539.075103	46733.172338
539.435328	46474.888820
539.795497	46363.985956
540.155609	46365.684825
540.515665	46814.365161
540.875665	46276.048068
541.235609	46595.241327
541.595496	46571.908347
541.955328	47241.829802
542.315102	46622.057745
542.674821	46381.135962
543.034483	46434.110927
543.394090	46399.432829
543.753640	46374.564817
544.113134	47376.496665
544.472571	46393.116264
544.831953	47625.786764
545.191278	46835.583378
545.550548	46566.718479
545.909761	47003.383225
546.268918	47232.342350
546.628019	47523.741207
546.987064	47083.340966
547.346053	46369.135495
547.704986	47246.719721
548.063863	46810.806107
548.422684	46987.415370
548.781449	46851.052158
549.140158	47228.339674
549.498811	47083.945904
549.857408	46526.348919
550.215949	47350.890124
550.574434	47308.143660
550.932864	47060.582677
551.291237	47772.254968
551.649555	47383.093015
552.007817	47621.569839
552.366022	47265.984490
552.724173	47454.299313
553.082267	47830.344184
553.440305	48140.619642
553.798288	47435.531097
554.156215	47764.831869
554.514086	47977.024117
554.871902	47694.931230
555.229661	47734.191736
555.587365	47546.781801
555.945014	47644.055905
556.302606	47573.406655
556.660143	47789.031928
557.017625	47890.119666
557.375050	47687.160291
557.732421	48019.019449
558.089735	48005.985546
558.446994	47938.229917
558.804197	48403.528417
559.161345	48337.345629
559.518437	47581.159949
559.875474	47888.357783
560.232455	48032.464206
560.589381	48223.324812
560.946251	47920.280889
561.303065	48599.389847
561.659825	48401.484230
562.016528	48081.000436
562.373177	47796.414698
562.729770	48271.540928
563.086307	47803.260585
563.442789	48251.162063
563.799216	48299.844486
564.155587	48083.536136
564.511904	48114.120816
564.868164	48195.936223
565.224370	48450.413669
565.580520	48180.742185
565.936615	48390.232374
566.292654	48125.813773
566.648638	48354.374647
567.004567	48299.844486
567.360441	48352.136375
567.716260	48207.702276
568.072023	48493.568466
568.427732	48491.562087
568.783385	48024.337866
569.138982	48426.858878
569.494525	48372.880723
569.850013	48143.803130
570.205445	48119.245149
570.560823	48075.989529
570.916145	47945.292574
571.271412	47968.711254
571.626625	47728.487671
571.981782	47807.401893
572.336884	47471.363619
572.691931	47804.011717
573.046923	47412.891275
573.401860	47261.056762
573.756743	47249.414218
574.111570	47375.191006
574.466342	47225.055362
574.821059	47343.537601
575.175722	46840.329624
575.530330	46872.935807
575.884882	46581.121055
576.239380	46567.469611
576.593823	46533.688839
576.948211	46455.059442
577.302544	45962.516026
577.656823	45990.012999
578.011047	46226.470841
578.365216	45947.921885
578.719330	45751.783192
579.073389	45597.105468
579.427394	45681.297779
579.781344	45647.577501
580.135239	45302.356765
580.489080	45397.816054
580.842866	44872.288368
581.196597	45320.966184
581.550273	45271.542712
581.903895	45135.781918
582.257463	45563.261682
582.610975	44947.215038
582.964434	45227.513274
583.317837	44874.375406
583.671186	44700.584148
584.024481	44924.083704
584.377721	44463.594464
584.730906	44757.191264
585.084037	44772.382782
585.437113	44488.028937
585.790135	44546.899532
586.143103	44125.461591
586.496016	44258.295995
586.848874	44277.596052
587.201679	44293.526098
587.554428	43778.766317
587.907124	43970.095750
588.259765	43726.411414
588.612352	43974.287469
588.964884	43372.199780
589.317362	43655.578161
589.669786	43582.128550
590.022155	43356.118499
590.374470	43787.578254
590.726731	43315.592664
591.078937	42814.476766
591.431090	42932.485136
591.783188	42583.934718
592.135232	42268.993672
592.487222	42504.670135
592.839157	42591.622478
593.191038	42263.062755
593.542866	42039.139742
593.894639	41435.451487
594.246358	41719.351627
594.598022	41700.222969
594.949633	41295.249437
595.301190	41255.709147
595.652692	41094.568664
596.004141	41406.323700
596.355535	40437.691194
596.706876	40390.894163
597.058162	40212.644004
597.409395	40688.758300
597.760573	40768.063212
598.111698	40344.255928
598.462768	40351.850427
598.813785	40393.092106
599.164748	39841.915030
599.515657	40237.199465
599.866511	39713.947860
600.217312	40335.030617
600.568060	39287.793920
600.918753	40030.161797
601.269392	39992.940437
601.619978	39641.584617
601.970510	39859.377587
602.320988	40043.120083
602.671412	40345.894303
603.021783	40095.071694
603.372100	39741.447354
603.722363	39834.302887
604.072572	39924.068193
604.422728	39937.422210
604.772830	39741.860729
605.122878	39842.998878
605.472872	39785.179364
605.822813	40054.742463
606.172701	39880.404239
606.522534	40126.062187
606.872314	40393.737374
607.222041	40129.696859
607.571714	40534.728365
607.921333	39980.448458
608.270899	40265.535790
608.620411	40607.706628
608.969870	40416.747721
609.319276	40406.252038
609.668627	40451.327515
610.017926	40926.773858
610.367171	41097.008582
610.716362	41170.044819
611.065500	41129.841617
611.414585	41326.739004
611.763616	41607.821140
612.112594	41535.906560
612.461518	41765.054728
612.810389	42056.745972
613.159207	41897.362332
613.507971	41978.824857
613.856682	42459.440903
614.205340	42336.325844
614.553945	43048.023341
614.902496	42493.345183
615.250994	42954.124289
615.599439	43031.954663
615.947830	43240.134152
616.296169	43297.474757
616.644454	43401.332608
616.992686	43566.500973
617.340864	44112.765445
617.688990	43816.738809
618.037063	44397.434361
618.385082	44374.489550
618.733048	44686.229462
619.080961	44705.400970
619.428821	44715.183329
619.776628	44824.125185
620.124382	44642.711702
620.472083	44787.460873
620.819731	44923.183858
621.167326	44583.979739
621.514868	44563.177417
621.862357	44132.246984
622.209793	44141.648736
622.557176	43842.741080
622.904506	43591.860497
623.251783	43249.130091
623.599007	43018.986295
623.946179	42807.751866
624.293297	42737.412647
624.640363	42155.350941
624.987376	42148.058912
625.334336	41903.376428
625.681243	41554.256360
626.028097	41501.462876
626.374899	41351.291944
626.721647	41321.377737
627.068343	41204.428009
627.414987	40984.101860
627.761577	40741.992884
628.108115	41081.317991
628.454600	40513.429490
628.801032	40708.691022
629.147412	40671.416731
629.493739	40668.933962
629.840014	40311.369961
630.186236	40650.634574
630.532405	40272.038879
630.878521	40476.555970
631.224585	40366.404238
631.570597	40067.148743
631.916556	40225.861910
632.262462	40160.599132
632.608316	40188.948061
632.954117	40092.137742
633.299866	40081.712636
633.645562	40015.829796
633.991206	39515.001244
634.336797	39056.387314
634.682336	39082.104760
635.027823	38833.054116
635.373257	38653.218515
635.718639	38425.827188
636.063968	38270.620143
636.409245	37689.969961
636.754470	37730.445385
637.099642	37495.603233
637.444762	37007.556527
637.789829	37137.114181
638.134845	36803.084806
638.479808	36738.691628
638.824719	36664.508528
639.169577	36260.860819
639.514383	36313.671947
639.859137	36020.566659
640.203839	36255.428976
640.548489	35874.330348
640.893086	35951.938911
641.237632	35702.721909
641.582125	35805.289225
641.926566	35746.942911
642.270955	35709.303136
642.615292	35715.264300
642.959576	35687.883273
643.303809	35685.818920
643.647990	35826.081464
643.992118	35791.526875
644.336195	35784.081091
644.680219	35878.390997
645.024192	36162.034039
645.368112	36680.481424
645.711981	36679.314397
646.055797	37546.302118
646.399562	37477.654205
646.743274	38414.421577
647.086935	38869.700784
647.430544	38754.812888
647.774101	38870.872853
648.117606	39129.773911
648.461059	39434.710787
648.804460	39051.883043
649.147810	38433.714073
649.491108	38209.871719
649.834354	37832.425407
650.177548	37010.170365
650.520690	36564.383651
650.863781	36560.743938
651.206820	36414.242966
651.549807	35981.767419
651.892742	35483.986244
652.235626	35299.502698
652.578458	35159.388868
652.921238	34537.905340
653.263967	34872.564858
653.606644	34554.031991
653.949269	34493.293649
654.291843	34092.726085
654.634365	34502.256820
654.976836	34090.331537
655.319255	34084.698047
655.661622	34073.920060
656.003938	33856.084241
656.346203	33707.425655
656.688416	33926.771300
657.030577	33726.246803
657.372687	33570.432299
657.714746	33838.389791
658.056753	33959.072493
658.398708	33412.122425
658.740612	33464.487410
659.082465	33733.642176
659.424266	33547.590831
659.766016	33654.783406
660.107715	33536.437278
660.449362	33671.572969
660.790958	33654.160824
661.132503	33676.107487
661.473996	33701.920715
661.815438	33812.881553
662.156829	33995.215046
662.498168	33786.183602
662.839456	33798.610046
663.180693	33954.721978
663.521879	34114.768530
663.863013	34041.215575
664.204097	34050.239240
664.545129	34516.767782
664.886110	34478.155064
665.227040	34544.637801
665.567918	34654.736601
665.908746	34711.003439
666.249522	34887.516921
666.590248	34886.609513
666.930922	34995.087582
667.271545	34947.574707
667.612118	35045.632711
667.952639	34830.798899
668.293109	34886.158330
668.633528	34788.785923
668.973896	34710.204417
669.314213	34729.416254
669.654480	34475.924353
669.994695	34504.651368
670.334859	34375.693612
670.674973	34282.152482
671.015035	34440.066626
671.355047	34387.585694
671.695008	34328.158052
672.034918	34228.691045
672.374777	34315.535002
672.714585	34139.195441
673.054342	34357.754666
673.394049	34109.518168
673.733705	34408.582100
674.073310	34059.255344
674.412864	34136.238804
674.752368	33745.158692
675.091820	34049.667069
675.431223	33624.579333
675.770574	33340.699357
676.109875	33212.850654
676.449125	32929.270627
676.788324	32841.546988
677.127473	32303.282828
677.466571	32224.698801
677.805619	31867.674203
678.144616	31888.751267
678.483562	31797.972689
678.822458	31454.687757
679.161303	31389.621584
679.500098	31302.853244
679.838842	31173.519921
680.177535	31333.216113
680.516179	31589.417634
680.854771	31819.379949
681.193314	32661.628207
681.531805	33779.428456
681.870247	34547.297009
682.208638	35293.171009
682.546978	35519.521337
682.885268	35641.655892
683.223508	35104.405003
683.561697	34777.191269
683.899836	34592.919452
684.237925	34077.184207
684.575963	33922.713171
684.913951	33457.492809
685.251889	33610.685913
685.589776	33574.777774
685.927614	33566.540529
686.265401	33691.336813
686.603137	33780.177067
686.940824	34301.636541
687.278460	34661.060728
687.616046	34798.520391
687.953582	35392.499384
688.291068	35276.464625
688.628504	35562.756793
688.965889	35520.935381
689.303224	35133.200074
689.640510	34811.224098
689.977745	34070.671037
690.314930	33293.262099
690.652065	32774.920578
690.989150	32034.702753
691.326185	31130.894445
691.663170	30445.544538
692.000105	29677.048361
692.336990	28992.036212
692.673825	28525.333750
693.010610	28008.408794
693.347345	27431.698273
693.684030	26758.184996
694.020665	26476.843241
694.357251	25792.075588
694.693786	25737.442083
695.030272	25495.877552
695.366707	24947.336999
695.703093	24654.256918
696.039429	24638.425174
696.375716	24356.160888
696.711952	24332.424615
697.048139	24159.495394
697.384276	23984.993333
697.720363	24098.618420
698.056400	23880.843095
698.392388	23674.344830
698.728326	23648.758454
699.064214	23439.298512
699.400053	23396.148755
699.735842	23023.531869
700.071581	22741.517120
700.407270	22457.914407
700.742910	22259.234972
701.078501	21988.356132
701.414042	21704.004808
701.749533	21402.780742
702.084974	21055.876261
702.420366	21250.895818
702.755709	20813.313582
703.091002	20515.976246
703.426246	20528.564007
703.761440	20426.649520
704.096584	20154.175155
704.431679	20110.755697
704.766725	20002.166722
705.101721	19941.909811
705.436668	20032.816938
705.771565	19704.335353
706.106413	20052.800072
706.441212	20027.758140
706.775961	20143.029164
707.110661	20212.191274
707.445311	20553.570651
707.779913	20388.815661
708.114465	20636.611057
708.448967	20921.400962
708.783421	21611.925613
709.117825	21876.124924
709.452180	22101.509871
709.786485	22480.743272
710.120742	23275.168625
710.454949	23299.414054
710.789107	23752.797787
711.123216	24464.333967
711.457275	24585.084725
711.791286	25148.136239
712.125247	25214.467742
712.459159	24912.326186
712.793023	25593.587717
713.126837	24516.618294
713.460602	24787.479490
713.794318	24419.790332
714.127985	24031.873543
714.461602	23134.838025
714.795171	23110.751392
715.128691	22090.058890
715.462162	21536.550280
715.795584	21111.502873
716.128957	20854.467042
716.462281	20436.474729
716.795556	20204.410253
717.128782	19689.194248
717.461960	19144.631165
717.795088	19074.092820
718.128167	18675.181275
718.461198	18202.343729
718.794180	18045.581489
719.127113	17685.494390
719.459997	17483.059296
719.792833	17133.672046
720.125619	17085.377792
720.458357	16768.226201
720.791046	16592.597442
721.123686	16426.524190
721.456278	16190.172213
721.788821	16137.116589
722.121315	15877.000612
722.453761	15958.415247
722.786158	15878.722167
723.118506	15867.866042
723.450805	15739.601444
723.783056	15887.549227
724.115259	15788.961902
724.447412	15720.465224
724.779518	15963.305166
725.111574	15983.084133
725.443582	16170.090777
725.775542	16146.599000
726.107453	16616.913448
726.439315	16505.889596
726.771129	16898.252682
727.102895	17272.510464
727.434612	17474.481772
727.766281	17601.327286
728.097901	17868.634468
728.429473	17911.023010
728.760996	17901.621258
729.092471	17984.318867
729.423897	17873.559676
729.755276	17726.617603
730.086606	17835.249427
730.417887	18365.689717
730.749120	18870.266367
731.080305	19042.827584
731.411442	19384.022958
731.742530	19461.238312
732.073570	19553.075532
732.404562	19869.397854
732.735506	19683.860707
733.066401	19408.147400
733.397249	18897.289472
733.728048	18251.923478
734.058798	17421.695851
734.389501	16734.513485
734.720156	16269.577948
735.050762	15734.283027
735.381320	15370.324322
735.711831	15121.755108
736.042293	14762.855201
736.372707	14762.162042
736.703073	14551.096493
737.033391	14742.940123
737.363661	14688.377194
737.693883	14779.249033
738.024056	14947.542913
738.354182	15121.414830
738.684260	15404.586524
739.014290	15623.929648
739.344272	15805.713656
739.674207	16096.210146
740.004093	16220.633385
740.333931	16203.226281
740.663722	16253.111019
740.993464	16260.012358
741.323159	16090.869044
741.652806	15820.133877
741.982405	15614.139727
742.311956	15279.296207
742.641460	15170.140102
742.970915	14857.402041
743.300323	14521.711607
743.629683	14311.596314
743.958996	14034.199262
744.288260	13763.275052
744.617477	13459.490080
744.946647	13383.240107
745.275768	13110.062501
745.604842	12924.069130
745.933869	12745.899629
746.262847	12698.212835
746.591778	12617.340124
746.920662	12515.342458
747.249498	12509.182168
747.578286	12630.699182
747.907027	12766.560798
748.235720	12987.920384
748.564365	13012.634641
748.892963	12916.749374
749.221514	12967.964977
749.550017	12824.415601
749.878473	12784.116617
750.206881	12560.554047
750.535242	12467.277577
750.863555	12382.999567
751.191821	12278.181376
751.520039	12299.734829
751.848210	12204.446939
752.176334	12233.625137
752.504411	12140.807413
752.832440	11983.709935
753.160421	12047.276365
753.488356	11919.099987
753.816243	11828.800319
754.144082	11690.375275
754.471875	11626.259360
754.799620	11571.202398
755.127318	11539.828778
755.454969	11502.829229
755.782572	11458.328443
756.110129	11465.043260
756.437638	11388.689944
756.765100	11373.047244
757.092515	11376.870959
757.419882	11384.462937
757.747203	11396.191181
758.074477	11464.382869
758.401703	11417.313616
758.728882	11578.718759
759.056014	11621.195521
759.383099	11729.295504
759.710138	11832.555978
760.037129	11913.673185
760.364073	11928.990731
760.690970	11912.642269
761.017820	11918.583269
761.344623	12099.517842
761.671379	12426.817276
761.998088	13059.098956
762.324751	14586.792903
762.651366	17426.842869
762.977935	21077.722101
763.304456	23315.160098
763.630931	23847.251366
763.957359	22708.699208
764.283740	20816.645785
764.610074	18953.636969
764.936362	16820.747462
765.262602	15305.621112
765.588796	13822.135564
765.914943	12783.365485
766.241044	11912.828792
766.567097	11280.045517
766.893104	10721.263860
767.219064	10354.625782
767.544978	9963.780083
767.870845	9648.942381
768.196665	9459.891550
768.522438	9262.122044
768.848165	9093.916384
769.173846	8925.952700
769.499479	8802.656159
769.825066	8646.211511
770.150607	8455.696225
770.476101	8395.136844
770.801548	8282.716592
771.126949	8145.070407
771.452303	8056.749392
771.777611	7890.519864
772.102872	7862.319650
772.428087	7750.592557
772.753256	7630.028322
773.078378	7537.712192
773.403453	7396.804380
773.728482	7290.423431
774.053465	7221.329376
774.378401	7136.557333
774.703291	7042.592746
775.028135	6941.288239
775.352932	6905.009575
775.677683	6821.911195
776.002388	6729.743780
776.327046	6734.537917
776.651658	6645.344782
776.976224	6564.973666
777.300743	6550.084618
777.625216	6483.460729
777.949643	6439.955571
778.274024	6443.098731
778.598359	6371.660540
778.922647	6377.306632
779.246889	6331.832904
779.571086	6338.406568
779.895236	6349.998702
780.219339	6343.009142
780.543397	6339.150138
780.867409	6385.808538
781.191374	6384.969186
781.515294	6349.567683
781.839167	6406.688997
782.162995	6377.689760
782.486776	6333.577143
782.810511	6288.617612
783.134201	6210.154573
783.457844	6206.285488
783.781441	6156.418394
784.104993	6116.346262
784.428498	6086.711839
784.751958	6066.758952
785.075372	6043.756167
785.398739	5999.439384
785.722061	6024.070461
786.045337	6026.303692
786.368568	6133.564323
786.691752	6153.759185
787.014891	6400.410240
787.337983	6674.417116
787.661030	7100.311437
787.984031	7528.033176
788.306987	7794.705174
788.629897	7884.956951
788.952760	7802.491236
789.275579	7634.464537
789.598351	7337.953950
789.921078	7076.244969
790.243759	6793.940353
790.566395	6589.017449
790.888984	6398.968470
791.211529	6255.903044
791.534027	6090.901038
791.856480	5949.310150
792.178888	5893.307972
792.501249	5826.600903
792.823566	5718.982351
793.145836	5713.492535
793.468062	5693.353125
793.790241	5654.984903
794.112375	5685.420869
794.434464	5783.909892
794.756507	5811.164890
795.078505	5932.119815
795.400457	6148.980171
795.722364	6383.139247
796.044226	6575.300470
796.366042	6736.380459
796.687812	6684.995977
797.009538	6718.645679
797.331218	6631.418594
797.652852	6566.856537
797.974442	6443.610408
798.295986	6370.042329
798.617484	6248.122023
798.938938	6137.647658
799.260346	6072.720117
799.581709	5931.610659
799.903026	5880.745416
800.224299	5805.274302
800.545526	5688.432959
800.866708	5617.967710
801.187845	5571.420216
801.508936	5494.300645
801.829983	5471.502027
802.150984	5360.183267
802.471940	5331.645295
802.792851	5314.661648
803.113717	5285.881701
803.434538	5264.562661
803.755314	5230.008072
804.076045	5217.417790
804.396731	5182.412018
804.717372	5195.987845
805.037967	5201.079411
805.358518	5222.622782
805.679024	5281.251401
805.999485	5290.852278
806.319901	5312.257018
806.640272	5325.956353
806.960598	5369.065780
807.280879	5361.446076
807.601115	5400.348661
807.921306	5366.653588
808.241453	5364.851376
808.561554	5377.749168
808.881611	5342.090566
809.201623	5335.030430
809.521590	5292.714985
809.841513	5277.538591
810.161390	5293.977794
810.481223	5204.119227
810.801011	5192.890056
811.120755	5169.683105
811.440453	5113.721256
811.760107	5087.413994
812.079716	5061.988935
812.399281	5006.634545
812.718801	5003.670347
813.038276	4970.965861
813.357707	4935.453453
813.677093	4957.420281
813.996434	4892.616248
814.315731	4914.315895
814.634983	4916.687758
814.954191	4917.547274
815.273354	4978.474660
815.592473	5019.295403
815.911547	5096.785499
816.230577	5147.302902
816.549562	5235.777673
816.868502	5289.274397
817.187399	5347.109035
817.506250	5428.145583
817.825058	5457.212876
818.143821	5613.546618
818.462539	5781.603564
818.781213	6009.161249
819.099843	6369.724737
819.418429	6999.211097
819.736970	7612.868234
820.055466	8325.193355
820.373919	9250.885312
820.692327	10713.054341
821.010691	13430.687447
821.329011	19680.790644
821.647286	29279.535736
821.965517	39650.557871
822.283704	45172.973031
822.601847	46753.490708
822.919945	42224.457599
823.237999	37127.150340
823.556010	31943.800667
823.873976	27205.778964
824.191897	22958.105253
824.509775	19850.443115
824.827609	17029.569699
825.145398	15438.042141
825.463144	14658.432740
825.780845	14940.505462
826.098502	16180.203331
826.416116	18605.630996
826.733685	20851.578460
827.051210	21355.214935
827.368692	19923.691081
827.686129	17382.924336
828.003522	14917.192647
828.320872	12707.851521
828.638177	11046.577079
828.955439	9789.126787
829.272656	8720.732368
829.589830	7873.460600
829.906960	7133.673793
830.224046	6598.855261
830.541088	6180.076529
830.858086	5917.571045
831.175041	5713.033790
831.491952	5645.449561
831.808819	5677.266803
832.125642	5919.521972
832.442421	6475.599050
832.759157	7577.302893
833.075849	9332.897323
833.392497	11172.558035
833.709101	12291.237964
834.025662	12055.062427
834.342179	11015.889055
834.658653	9719.135407
834.975083	8617.424002
835.291469	7711.405148
835.607811	6966.062990
835.924110	6442.012362
836.240366	5948.173370
836.556578	5492.137990
836.872746	5135.947703
837.188871	4858.250702
837.504952	4632.573368
837.820990	4463.472903
838.136984	4346.079554
838.452935	4297.959220
838.768842	4324.470648
839.084706	4607.491107
839.400526	5342.385474
839.716303	6245.793010
840.032037	6820.580331
840.347727	6683.692839
840.663373	6086.979020
840.978977	5505.920504
841.294537	5061.399120
841.610054	4726.938727
841.925527	4482.704905
842.240957	4274.951394
842.556344	4088.590018
842.871687	3927.963733
843.186987	3776.068727
843.502244	3658.423319
843.817458	3567.909402
844.132629	3495.556242
844.447756	3443.206379
844.762840	3400.752302
845.077881	3362.268134
845.392879	3324.280519
845.707833	3301.368475
846.022745	3271.242539
846.337613	3260.441867
846.652438	3236.060327
846.967221	3226.406517
847.281960	3204.361551
847.596656	3195.519367
847.911309	3185.921011
848.225919	3169.927950
848.540485	3159.097031
848.855009	3152.830877
849.169490	3139.557519
849.483928	3134.027373
849.798323	3124.035806
850.112675	3120.282667
850.426984	3121.976495
850.741251	3110.966615
851.055474	3105.237343
851.369654	3110.396964
851.683792	3103.251129
851.997887	3108.869495
852.311938	3107.452930
852.625947	3105.565018
852.939914	3102.862960
853.253837	3108.070472
853.567718	3102.613423
853.881555	3095.454984
854.195350	3104.123248
854.509103	3101.811879
854.822812	3097.688215
855.136479	3091.666557
855.450103	3097.219388
855.763685	3091.694283
856.077224	3094.605550
856.390720	3102.159719
856.704173	3110.603652
857.017584	3115.677573
857.330953	3120.733850
857.644278	3127.196609
857.957561	3133.094759
858.270802	3127.667957
858.584000	3127.967906
858.897155	3125.250724
859.210268	3114.923920
859.523339	3100.697784
859.836367	3100.685181
860.149352	3095.502875
860.462295	3089.241762
860.775195	3080.923858
861.088054	3076.938826
861.400869	3078.436049
861.713642	3076.046542
862.026373	3084.273705
862.339062	3086.133891
862.651708	3097.345417
862.964312	3112.247068
863.276873	3121.240486
863.589392	3150.968170
863.901869	3177.061183
864.214303	3197.369471
864.526696	3217.952502
864.839045	3235.150398
865.151353	3247.881832
865.463619	3246.946698
865.775842	3246.921493
866.088023	3256.061105
866.400162	3247.312182
866.712258	3246.966863
867.024313	3248.305289
867.336325	3248.985845
867.648296	3250.530959
867.960224	3246.233375
868.272110	3250.447780
868.583954	3250.825866
868.895755	3259.287443
869.207515	3254.422730
869.519233	3274.713374
869.830909	3282.537245
870.142542	3294.192392
870.454134	3297.338072
870.765684	3308.872232
871.077191	3329.472908
871.388657	3342.070751
871.700081	3359.016590
872.011463	3381.031308
872.322803	3400.049061
872.634101	3416.374838
872.945357	3438.795370
873.256571	3466.562045
873.567744	3481.526710
873.878874	3487.654233
874.189963	3502.724762
874.501010	3507.534023
874.812015	3503.455730
875.122979	3516.492153
875.433900	3516.852596
875.744780	3516.267822
876.055618	3531.653424
876.366415	3527.736447
876.677169	3534.973023
876.987882	3551.034140
877.298554	3572.786718
877.609183	3613.231896
877.919771	3658.972805
878.230317	3729.619535
878.540822	3834.851101
878.851285	3989.843897
879.161707	4213.527455
879.472087	4599.034572
879.782425	5225.672680
880.092722	6422.167860
880.402977	8380.862817
880.713191	10782.261822
881.023363	13201.332591
881.333494	14570.814966
881.643583	15045.008582
881.953631	14642.853054
882.263637	13804.078151
882.573602	12777.729475
882.883526	11803.198819
883.193408	10842.125523
883.503248	9906.772195
883.813048	9067.828413
884.122806	8287.205740
884.432522	7503.157603
884.742197	6828.310940
885.051831	6253.568990
885.361424	5741.854066
885.670975	5334.937169
885.980485	5000.161704
886.289954	4727.241196
886.599382	4503.171990
886.908768	4322.547448
887.218113	4155.871778
887.527417	4015.972197
887.836680	3891.274216
888.145901	3787.943165
888.455082	3709.212944
888.764221	3635.697798
889.073319	3577.527924
889.382376	3545.312430
889.691392	3515.526772
890.000366	3510.888911
890.309300	3505.860360
890.618193	3509.812625
890.927044	3501.265348
891.235855	3509.164836
891.544625	3526.196375
891.853353	3556.967578
892.162041	3615.394551
892.470687	3706.339487
892.779293	3826.336592
893.087858	4007.369468
893.396381	4290.611738
893.704864	4705.294533
894.013306	5276.011122
894.321707	5846.450447
894.630068	6206.973605
894.938387	6245.687146
895.246665	6072.019396
895.554903	5755.460140
895.863100	5417.947329
896.171256	5147.272655
896.479371	4903.061519
896.787446	4677.878218
897.095480	4474.326508
897.403473	4322.983508
897.711425	4178.587217
898.019336	4050.786406
898.327207	3930.955658
898.635038	3824.126046
898.942827	3717.737536
899.250576	3632.980616
899.558284	3545.640105
899.865952	3489.784120
900.173579	3427.407403
900.481165	3382.299159
900.788711	3340.878518
901.096216	3306.142448
901.403681	3278.085906
901.711105	3263.239708
902.018489	3259.572268
902.325832	3294.245324
902.633135	3354.966023
902.940397	3521.929038
903.247619	3930.023045
903.554800	4694.577040
903.861941	5668.855638
904.169041	6387.411625
904.476101	6614.361850
904.783121	6337.468914
905.090100	5939.711793
905.397039	5520.186970
905.703938	5150.844313
906.010796	4827.718954
906.317614	4567.671033
906.624391	4319.237930
906.931129	4118.930203
907.237826	3934.875155
907.544483	3761.169597
907.851099	3588.827670
908.157675	3426.399173
908.464211	3278.025412
908.770707	3173.376099
909.077163	3092.090014
909.383578	3029.811599
909.689954	2984.337871
909.996289	2954.355609
910.302584	2930.039603
910.608839	2917.245155
910.915054	2903.555901
911.221229	2898.827299
911.527363	2907.253588
911.833458	2911.094947
912.139513	2928.040786
912.445527	2939.640481
912.751502	2974.437045
913.057436	3020.150228
913.363331	3080.329002
913.669186	3169.678413
913.975000	3288.712658
914.280775	3478.761638
914.586510	3753.617948
914.892205	4132.279178
915.197859	4642.015449
915.503475	5227.868102
915.809050	5722.112908
916.114585	6018.540316
916.420081	6083.498103
916.725536	6014.923288
917.030952	5779.438389
917.336328	5579.120579
917.641665	5362.537486
917.946961	5130.893946
918.252218	4931.816260
918.557435	4701.211198
918.862612	4500.364067
919.167750	4326.386286
919.472848	4134.865290
919.777906	3965.303560
920.082925	3803.227943
920.387904	3641.797594
920.692843	3529.306767
920.997743	3428.327414
921.302603	3332.895851
921.607423	3267.806993
921.912204	3198.402907
922.216946	3148.281235
922.521647	3097.592433
922.826310	3056.035682
923.130932	3017.785927
923.435516	2974.618527
923.740059	2948.303703
924.044564	2916.524270
924.349028	2892.614077
924.653454	2860.426310
924.957840	2830.633090
925.262186	2812.739515
925.566493	2791.425516
925.870761	2768.125303
926.174989	2756.823036
926.479178	2737.984244
926.783328	2723.001935
927.087438	2710.323433
927.391509	2696.188038
927.695541	2684.933662
927.999533	2675.118535
928.303486	2664.320384
928.607400	2660.305105
928.911275	2652.203971
929.215110	2647.306490
929.518906	2644.175933
929.822663	2643.308855
930.126381	2640.974800
930.430060	2645.257261
930.733699	2649.257416
931.037299	2652.292191
931.340861	2652.246820
931.644383	2655.523570
931.947866	2652.491316
932.251309	2648.493681
932.554714	2647.616521
932.858080	2648.304638
933.161407	2644.105357
933.464694	2641.206693
933.767943	2636.841054
934.071153	2634.295272
934.374323	2628.213119
934.677455	2625.712707
934.980548	2623.111472
935.283602	2621.004269
935.586617	2617.788013
935.889593	2622.529218
936.192530	2621.725154
936.495428	2625.117851
936.798287	2638.388688
937.101108	2651.558703
937.403890	2674.382527
937.706632	2698.892617
938.009336	2732.338152
938.312002	2760.041813
938.614628	2784.498971
938.917216	2803.882207
939.219765	2814.060297
939.522275	2823.542707
939.824747	2824.626556
940.127179	2818.960299
940.429573	2813.543579
940.731929	2814.042653
941.034246	2804.890438
941.336524	2801.427166
941.638763	2795.453398
941.940964	2788.665485
942.243126	2771.974224
942.545250	2764.016763
942.847335	2748.477406
943.149381	2737.200345
943.451389	2724.163921
943.753359	2711.102292
944.055290	2699.737010
944.357182	2691.446833
944.659036	2682.211439
944.960851	2680.512570
945.262628	2678.090296
945.564367	2679.726150
945.866067	2676.275480
946.167729	2674.700120
946.469352	2673.122238
946.770937	2672.144255
947.072484	2665.008501
947.373992	2666.314160
947.675462	2659.788387
947.976893	2654.452325
948.278286	2650.837818
948.579641	2646.436891
948.880958	2645.474030
949.182236	2644.382620
949.483476	2641.408340
949.784678	2641.105870
950.085841	2642.056128
950.386967	2643.465130
950.688054	2652.077942
950.989103	2660.242090
951.290114	2666.745179
951.591087	2677.999555
951.892021	2690.365505
952.192917	2702.159285
952.493776	2712.561706
952.794596	2718.898436
953.095378	2721.184599
953.396122	2718.974053
953.696828	2716.095554
953.997496	2711.170347
954.298126	2699.547967
954.598718	2693.649817
954.899272	2681.485513
955.199788	2672.136693
955.500266	2658.260917
955.800706	2643.336581
956.101108	2626.423510
956.401472	2616.189967
956.701798	2602.326794
957.002087	2587.321800
957.302337	2578.814853
957.602550	2565.924622
957.902724	2555.249979
958.202861	2543.468803
958.502960	2537.411856
958.803022	2528.778880
959.103045	2522.003570
959.403031	2515.495440
959.702979	2508.392454
960.002889	2507.177536
960.302762	2501.228975
960.602596	2496.165136
960.902393	2493.906699
961.202153	2488.931080
961.501875	2485.311531
961.801559	2479.352888
962.101205	2482.082672
962.400814	2479.922538
962.700385	2475.362814
962.999918	2475.864409
963.299414	2471.279480
963.598873	2472.204531
963.898293	2467.609520
964.197677	2469.333594
964.497022	2466.339149
964.796331	2469.623461
965.095601	2464.962914
965.394835	2463.652214
965.694030	2465.744293
965.993189	2467.294448
966.292309	2463.132975
966.591393	2464.554580
966.890439	2461.625670
967.189447	2464.814200
967.488419	2462.318829
967.787353	2462.127265
968.086249	2462.492748
968.385108	2464.478963
968.683930	2464.229426
968.982714	2464.685650
969.281462	2466.578604
969.580172	2470.193111
969.878844	2469.608337
970.177480	2473.157309
970.476078	2476.297948
970.774639	2478.533700
971.073162	2479.478916
971.371649	2485.745071
971.670098	2480.792137
971.968510	2483.322796
972.266885	2483.189206
972.565223	2490.912253
972.863524	2489.110041
973.161788	2493.823520
973.460014	2492.606081
973.758204	2493.377378
974.056356	2494.239415
974.354471	2492.933756
974.652550	2495.509786
974.950591	2494.254538
975.248595	2492.648931
975.546563	2492.926194
975.844493	2488.966368
976.142386	2487.632983
976.440243	2487.796820
976.738062	2488.918477
977.035845	2482.072590
977.333590	2481.828094
977.631299	2477.933803
977.928971	2474.415077
978.226606	2474.087402
978.524204	2472.885087
978.821765	2472.640591
979.119290	2470.677062
979.416777	2469.973821
979.714228	2470.409881
980.011642	2475.388020
980.309020	2478.727784
980.606360	2479.897332
980.903664	2488.898312
981.200931	2502.847185
981.498162	2524.181348
981.795356	2552.031203
982.092513	2593.308170
982.389633	2637.294758
982.686717	2682.397962
982.983764	2715.838456
983.280775	2732.650704
983.577749	2731.639952
983.874686	2726.074518
984.171587	2709.383258
984.468451	2692.571010
984.765279	2672.363545
985.062070	2653.242448
985.358824	2635.444655
985.655543	2610.841303
985.952224	2587.420102
986.248869	2559.078736
986.545478	2531.049920
986.842050	2512.493433
987.138586	2491.963334
987.435086	2480.197281
987.731549	2469.230251
988.027975	2462.918726
988.324366	2455.679629
988.620719	2452.629731
988.917037	2447.817950
989.213318	2446.156889
989.509563	2444.364759
989.805772	2440.984666
990.101944	2438.890066
990.398080	2437.042483
990.694180	2439.134562
990.990244	2440.523400
991.286271	2440.137752
991.582262	2437.662545
991.878217	2440.765375
992.174136	2442.509615
992.470019	2443.825356
992.765865	2442.426436
993.061676	2444.672270
993.357450	2445.292332
993.653188	2449.161417
993.948890	2458.074177
994.244556	2464.907461
994.540186	2472.224696
994.835780	2483.093424
995.131337	2500.588748
995.426859	2514.605676
995.722345	2537.404295
996.017795	2553.583878
996.313208	2571.409398
996.608586	2579.964236
996.903928	2585.101172
997.199234	2580.349884
997.494504	2579.800398
997.789738	2570.070972
998.084936	2561.173335
998.380099	2551.403579
998.675225	2537.058976
998.970316	2526.462470
999.265371	2510.925634
999.560390	2497.710249
999.855373	2482.813640
1000.150320	2475.861888
1000.445232	2465.051134
1000.740108	2458.716924
1001.034948	2450.187292
1001.329752	2444.344595
1001.624521	2442.922989
1001.919254	2437.478543
1002.213951	2436.276228
1002.508613	2431.703901
1002.803239	2429.069898
1003.097829	2424.116965
1003.392384	2430.178952
1003.686903	2425.099990
1003.981386	2426.239291
1004.275834	2425.730134
1004.570246	2425.324321
1004.864623	2421.225863
1005.158964	2421.389701
1005.453270	2421.354413
1005.747540	2421.717376
1006.041775	2418.334761
1006.335974	2419.862231
1006.630138	2419.529515
1006.924266	2421.142684
1007.218359	2419.960533
1007.512416	2420.177303
1007.806438	2417.805440
1008.100425	2418.049936
1008.394376	2415.725964
1008.688292	2416.963567
1008.982172	2418.334761
1009.276017	2418.513722
1009.569827	2416.038516
1009.863602	2417.422313
1010.157341	2415.567168
1010.451045	2415.322672
1010.744714	2417.891140
1011.038347	2414.024575
1011.331945	2414.836201
1011.625508	2412.953330
1011.919036	2415.461304
1012.212528	2413.565830
1012.505986	2415.680594
1012.799408	2412.852507
1013.092795	2412.252609
1013.386147	2410.669687
1013.679464	2412.880233
1013.972745	2413.641447
1014.265992	2411.355284
1014.559204	2413.936355
1014.852380	2412.902918
1015.145521	2412.439132
1015.438628	2413.122208
1015.731699	2412.267733
1016.024736	2411.922414
1016.317737	2413.578433
1016.610703	2414.417785
1016.903635	2412.459297
1017.196531	2410.044584
1017.489393	2412.585325
1017.782219	2408.998544
1018.075011	2414.750501
1018.367768	2416.673701
1018.660490	2417.182858
1018.953177	2417.182858
1019.245829	2417.182858
