Dividing Wavelength (nm)	Counts (n)	Blue Motor Position (mm): 41.600000	Red Motor Position (mm): 0.000000	
326.493990	1972.396813
326.888308	1972.396813
327.282561	1972.396813
327.676750	1947.143152
328.070874	1947.430498
328.464933	1953.777311
328.858929	1964.567901
329.252859	1975.391258
329.646726	1991.059164
330.040528	2005.549961
330.434265	2026.069978
330.827938	2044.853317
331.221547	2062.608261
331.615091	2084.638103
332.008571	2107.177102
332.401986	2128.307098
332.795338	2145.200005
333.188625	2169.097595
333.581847	2185.597291
333.975006	2204.060517
334.368100	2223.191696
334.761129	2237.521176
335.154095	2251.646489
335.546996	2294.534105
335.939833	2377.191384
336.332606	2394.767367
336.725315	2403.332288
337.117960	2412.940727
337.510540	2418.128074
337.903056	2433.065013
338.295508	2433.992585
338.687896	2444.221086
339.080220	2452.934721
339.472480	2457.396142
339.864676	2458.280864
340.256807	2465.603140
340.648875	2464.867132
341.040879	2469.966259
341.432818	2467.753193
341.824694	2468.637915
342.216506	2466.931484
342.608253	2471.360138
342.999937	2468.171608
343.391557	2466.802935
343.783113	2467.334777
344.174605	2467.715384
344.566033	2462.865794
344.957397	2461.779425
345.348697	2459.624332
345.739934	2457.691049
346.131106	2454.164762
346.522215	2455.183075
346.913260	2451.482868
347.304241	2450.469597
347.695159	2449.045471
348.086012	2447.578495
348.476802	2444.470623
348.867528	2446.668567
349.258191	2442.741508
349.648789	2441.849223
350.039324	2440.712443
350.429796	2441.249326
350.820203	2438.375868
351.210548	2440.551126
351.600828	2435.590631
351.991045	2438.317895
352.381198	2437.854109
352.771288	2440.596497
353.161314	2437.165992
353.551276	2439.923503
353.941175	2436.273707
354.331010	2436.538368
354.720782	2440.646908
355.110490	2443.003648
355.500135	2438.368307
355.889717	2438.234716
356.279235	2438.252360
356.668689	2442.658329
357.058080	2442.232351
357.447408	2435.560384
357.836672	2435.081474
358.225873	2439.575663
358.615010	2439.467278
359.004084	2442.030705
359.393095	2443.422063
359.782043	2444.082455
360.170927	2445.733433
360.559748	2443.288473
360.948505	2447.928855
361.337199	2449.279884
361.725830	2448.440532
362.114398	2446.363577
362.502903	2450.824998
362.891344	2451.203084
363.279722	2448.737960
363.668037	2451.467745
364.056289	2450.464555
364.444478	2453.900102
364.832603	2453.925308
365.220665	2455.157870
365.608665	2455.722479
365.996601	2456.392952
366.384474	2457.345730
366.772284	2453.852211
367.160031	2457.587706
367.547715	2460.549384
367.935336	2457.219702
368.322893	2459.425206
368.710388	2458.427058
369.097820	2461.522326
369.485189	2457.451595
369.872495	2460.977882
370.259738	2462.976699
370.646918	2463.679940
371.034035	2465.489714
371.421090	2464.781432
371.808081	2464.473922
372.195010	2465.101546
372.581875	2465.590537
372.968678	2464.932667
373.355418	2468.297637
373.742096	2466.616412
374.128710	2470.243523
374.515262	2472.602782
374.901751	2471.178657
375.288177	2475.045222
375.674540	2472.575056
376.060841	2474.125211
376.447079	2473.855509
376.833254	2473.958853
377.219367	2471.607155
377.605417	2477.235603
377.991404	2475.672845
378.377329	2475.277115
378.763191	2476.252578
379.148991	2478.571509
379.534727	2484.905718
379.920402	2485.979484
380.306013	2484.933445
380.691563	2485.465287
381.077049	2487.010400
381.462474	2487.073415
381.847835	2488.237921
382.233134	2489.954434
382.618371	2492.303612
383.003545	2495.088849
383.388657	2491.832264
383.773706	2502.516989
384.158693	2496.588592
384.543618	2499.981289
384.928480	2499.162102
385.313280	2503.787360
385.698017	2506.020591
386.082692	2509.640140
386.467305	2511.462517
386.851856	2516.261695
387.236344	2519.286388
387.620770	2527.417769
388.005133	2533.179808
388.389435	2541.515356
388.773674	2550.788558
389.157851	2566.995868
389.541965	2575.643967
389.926018	2590.061667
390.310008	2608.277877
390.693936	2631.694036
391.077802	2652.733292
391.461606	2676.867816
391.845348	2707.782692
392.229027	2739.393247
392.612645	2786.550721
392.996200	2828.427586
393.379694	2878.682848
393.763125	2936.719132
394.146494	2991.869355
394.529801	3052.123746
394.913047	3131.128709
395.296230	3185.013603
395.679351	3246.288828
396.062410	3342.441276
396.445408	3383.919890
396.828343	3475.787357
397.211217	3565.376222
397.594028	3613.403295
397.976778	3727.207343
398.359466	3845.818131
398.742092	3913.800612
399.124656	4035.541956
399.507158	4168.489786
399.889598	4263.001338
400.271977	4417.671500
400.654294	4521.368035
401.036549	4681.076830
401.418742	4791.384838
401.800874	5000.368391
402.182944	5138.601871
402.564952	5384.831989
402.946898	5428.460655
403.328783	5557.723401
403.710606	5758.361324
404.092367	5986.501262
404.474067	6277.146467
404.855705	6299.544313
405.237282	6397.072996
405.618797	6731.740077
406.000250	6992.201372
406.381642	7316.955024
406.762972	7417.989829
407.144240	7430.025584
407.525447	7709.156793
407.906593	7800.431924
408.287677	8083.308711
408.668700	8309.207856
409.049661	8418.447139
409.430560	8649.644537
409.811399	8750.235721
410.192176	8977.760638
410.572891	9151.962750
410.953545	9617.863668
411.334138	9351.539510
411.714669	9907.777905
412.095139	9505.292182
412.475547	9981.837496
412.855894	9978.903545
413.236180	10329.717441
413.616405	10188.882726
413.996568	10503.785962
414.376670	10580.971069
414.756711	10567.954810
415.136691	10886.611186
415.516609	11118.320260
415.896466	11253.256825
416.276262	11581.546846
416.655997	12032.629292
417.035670	12151.834937
417.415283	12819.997029
417.794834	12969.066469
418.174324	12807.487406
418.553753	12775.571861
418.933121	13295.884473
419.312428	13184.427082
419.691674	13155.069922
420.070859	13639.658398
420.449983	13367.151265
420.829045	13929.048355
421.208047	13732.536616
421.586988	14204.948184
421.965867	14470.097753
422.344686	14516.645247
422.723444	15088.831332
423.102141	13869.971073
423.480777	15027.775397
423.859352	14585.860289
424.237866	15676.125755
424.616319	15406.792029
424.994712	16072.257104
425.373044	15887.219031
425.751314	16557.881536
426.129524	15724.717437
426.507673	16801.429761
426.885762	16517.827048
427.263789	16720.932616
427.641756	16891.462248
428.019662	16961.335161
428.397508	17015.787184
428.775292	17310.775342
429.153016	17285.133513
429.530679	17353.657918
429.908282	17392.341212
430.285824	17130.932179
430.663305	17814.799986
431.040726	17437.908201
431.418086	17273.748068
431.795385	17901.366680
432.172624	18323.117173
432.549802	17888.635246
432.926920	18074.661385
433.303977	17966.079972
433.680974	18218.856029
434.057910	18518.242594
434.434786	18541.734371
434.811601	18457.078274
435.188355	19471.973449
435.565050	19128.459144
435.941683	19088.104707
436.318257	19947.399627
436.694770	19769.114180
437.071222	20351.017089
437.447614	19435.493139
437.823946	19456.965934
438.200218	19618.839905
438.576429	19387.035048
438.952580	19671.396454
439.328670	19633.595362
439.704700	20048.547858
440.080670	19619.066757
440.456580	20204.901766
440.832429	20369.177846
441.208218	19385.505058
441.583947	19822.121913
441.959616	19926.773746
442.335224	20148.907149
442.710773	20290.966865
443.086261	20814.578912
443.461689	20182.914773
443.837057	20310.944957
444.212365	20930.921181
444.587612	20934.737334
444.962800	20531.586179
445.337927	20941.857964
445.712995	19703.135559
446.088002	21513.492043
446.462949	21701.421217
446.837837	21878.655583
447.212664	21830.358809
447.587431	24612.677481
447.962139	27500.807451
448.336786	29855.933705
448.711374	28333.419544
449.085901	24708.900505
449.460369	24644.280474
449.834776	24536.056983
450.209124	26988.369122
450.583412	26551.011217
450.957640	27067.913488
451.331808	25747.902477
451.705917	24394.531630
452.079965	24422.031125
452.453954	24780.036227
452.827883	24670.060935
453.201752	24480.599250
453.575562	24633.066427
453.949311	25724.652676
454.323001	25782.033609
454.696632	25561.253756
455.070202	27081.668277
455.443713	27220.698258
455.817164	27800.632597
456.190556	28323.828749
456.563888	27788.803529
456.937160	28215.527120
457.310373	26567.228609
457.683526	26978.553995
458.056619	26971.168705
458.429653	26917.326661
458.802628	27475.261404
459.175542	27591.618797
459.548398	28883.064110
459.921194	30449.854725
460.293930	31128.956121
460.666607	33136.537667
461.039224	34879.894696
461.411782	35251.135348
461.784280	34040.361099
462.156719	33536.535581
462.529099	32968.304281
462.901419	31682.104289
463.273680	30636.586625
463.645882	30734.256460
464.018024	30704.359898
464.390106	31540.876364
464.762130	34233.762446
465.134094	38286.996332
465.505999	43589.677678
465.877845	48153.661107
466.249631	49293.173604
466.621358	47494.762134
466.993026	45331.116548
467.364634	43227.541350
467.736184	41285.835082
468.107674	40032.866376
468.479105	39266.414386
468.850477	38590.803989
469.221790	37168.039139
469.593043	35456.958098
469.964238	34583.091722
470.335373	34500.031151
470.706449	36162.676786
471.077467	38682.532824
471.448425	43246.309566
471.819324	46125.468803
472.190164	44320.072814
472.560945	40766.442481
472.931667	37680.248096
473.302330	36575.617862
473.672934	35769.098782
474.043479	36264.082116
474.413965	35489.413046
474.784393	35109.962875
475.154761	35992.500035
475.525070	36031.556375
475.895321	35571.112506
476.265513	36163.213669
476.635645	37130.613613
477.005719	36951.582075
477.375734	37410.881602
477.745691	38103.836089
478.115588	39414.488198
478.485427	41364.232586
478.855207	44708.191249
479.224928	47329.311465
479.594591	48959.008119
479.964194	47919.398687
480.333739	48042.163386
480.703226	48069.254547
481.072653	48706.360611
481.442022	49204.325788
481.811333	49465.598710
482.180584	48174.108027
482.549777	47657.684665
482.918912	47135.474058
483.287988	46851.737755
483.657005	46004.836512
484.025964	45377.336367
484.394864	45383.688220
484.763706	44943.540037
485.132489	44069.343466
485.501213	43902.811469
485.869879	44055.114809
486.238487	43651.391483
486.607036	43863.001478
486.975527	43327.557842
487.343959	43535.334039
487.712333	43617.933345
488.080648	43514.602294
488.448905	43951.035147
488.817104	43785.213953
489.185244	44714.154934
489.553326	46379.295940
489.921350	49102.159244
490.289315	52034.847973
490.657222	52664.611597
491.025070	52952.509373
491.392861	52028.412940
491.760593	50761.475197
492.128267	49064.214479
492.495883	47497.086106
492.863440	46131.742519
493.230939	44780.524245
493.598380	43699.254718
493.965763	43374.377559
494.333088	42576.486413
494.700354	42104.069804
495.067563	41829.465551
495.434713	41689.142513
495.801805	41752.487132
496.168839	41402.792372
496.535815	41064.415002
496.902733	41102.155600
497.269593	40704.816895
497.636395	40634.268468
498.003139	41025.086440
498.369825	40493.335450
498.736453	40796.409620
499.103023	40330.871665
499.469535	40214.199200
499.835989	40304.292181
500.202385	39964.591509
500.568723	39984.249488
500.935003	40193.641375
501.301226	39986.538172
501.667390	40581.986661
502.033497	40838.649448
502.399546	40269.402355
502.765537	39606.074729
503.131470	39984.163788
503.497345	40330.687663
503.863163	39014.460038
504.228923	39622.103078
504.594625	40025.221466
504.960269	39326.144497
505.325856	39992.096044
505.691385	39367.318122
506.056856	39494.808902
506.422270	39936.892889
506.787625	39506.088484
507.152924	39694.420951
507.518164	39808.940842
507.883347	39023.173672
508.248472	39266.530333
508.613540	39741.344011
508.978550	40034.744206
509.343503	39794.684459
509.708398	39993.603349
510.073236	40514.253718
510.438016	40516.529799
510.802738	39970.819854
511.167403	40585.961611
511.532010	40829.696358
511.896561	41114.934925
512.261053	41938.805657
512.625488	41499.874913
512.989866	41374.403114
513.354186	41205.426157
513.718449	41212.438402
514.082655	41878.243756
514.446803	41565.949316
514.810894	42075.685587
515.174927	41991.231137
515.538904	41892.863102
515.902822	42570.313520
516.266684	42016.578058
516.630488	42431.704475
516.994235	42280.789972
517.357925	42856.575441
517.721558	43014.497147
518.085133	43331.883152
518.448651	43461.362668
518.812112	43238.946961
519.175516	43325.422914
519.538863	43675.508363
519.902152	43635.748783
520.265385	44093.097383
520.628560	44127.551149
520.991678	43936.670379
521.354739	44171.867933
521.717743	44481.180530
522.080690	44382.739398
522.443580	44932.464622
522.806413	44995.373181
523.169189	44928.083859
523.531908	45115.035050
523.894569	44985.361449
524.257174	45146.728784
524.619722	45446.130473
524.982213	45433.071363
525.344647	45346.509711
525.707025	45404.961890
526.069345	45809.774105
526.431608	45737.955307
526.793815	46039.701132
527.155964	45585.987204
527.518057	45765.588392
527.880093	45531.532660
528.242072	46071.722541
528.603995	45770.377488
528.965860	45776.988961
529.327669	45895.584626
529.689421	45786.015147
530.051117	45740.029742
530.412755	45895.892136
530.774337	45966.440564
531.135862	45790.607638
531.497331	45979.623181
531.858743	45894.639410
532.220098	46235.083652
532.581396	45943.087419
532.942638	45612.354959
533.303824	45915.227482
533.664953	45888.915179
534.026025	45596.513133
534.387040	46074.800166
534.747999	46036.484876
535.108902	46196.624690
535.469748	45711.577469
535.830537	45840.356265
536.191270	46032.842642
536.551947	45686.999324
536.912567	45990.882598
537.273131	46109.574045
537.633638	45604.016890
537.994089	45965.787734
538.354483	45561.182206
538.714821	46127.865872
539.075103	46481.394429
539.435328	46246.222082
539.795497	46124.979811
540.155609	46132.922149
540.515665	46572.752740
540.875665	46035.070832
541.235609	46361.178033
541.595496	46328.546645
541.955328	46992.191863
542.315102	46388.158289
542.674821	46173.919333
543.034483	46200.524022
543.394090	46173.316915
543.753640	46134.595812
544.113134	47154.186822
544.472571	46167.060843
544.831953	47407.744257
545.191278	46604.595188
545.550548	46339.828747
545.909761	46786.500183
546.268918	46996.872575
546.628019	47280.913868
546.987064	46844.642331
547.346053	46137.635628
547.704986	47012.900923
548.063863	46574.345744
548.422684	46779.987013
548.781449	46624.225441
549.140158	47012.739606
549.498811	46876.472177
549.857408	46309.473439
550.215949	47135.438770
550.574434	47075.474245
550.932864	46842.194851
551.291237	47546.587716
551.649555	47164.841300
552.007817	47407.845080
552.366022	47039.339255
552.724173	47220.407418
553.082267	47618.124210
553.440305	47919.174356
553.798288	47228.047287
554.156215	47553.491577
554.514086	47759.299203
554.871902	47484.178232
555.229661	47505.275461
555.587365	47330.299531
555.945014	47437.761808
556.302606	47349.534054
556.660143	47571.546469
557.017625	47655.055703
557.375050	47459.592524
557.732421	47801.806212
558.089735	47782.559087
558.446994	47702.747539
558.804197	48175.829581
559.161345	48116.873286
559.518437	47373.035913
559.875474	47675.459773
560.232455	47830.384513
560.589381	47994.343001
560.946251	47695.251343
561.303065	48389.942508
561.659825	48186.143781
562.016528	47873.957727
562.373177	47575.586954
562.729770	48064.946881
563.086307	47573.890606
563.442789	48031.012354
563.799216	48069.380576
564.155587	47875.545690
564.511904	47903.450997
564.868164	47990.312598
565.224370	48246.393132
565.580520	47967.975246
565.936615	48186.698308
566.292654	47894.293741
566.648638	48141.345568
567.004567	48098.626830
567.360441	48144.743305
567.716260	47984.142226
568.072023	48288.043145
568.427732	48270.046225
568.783385	47819.523347
569.138982	48211.987257
569.494525	48177.450312
569.850013	47936.087427
570.205445	47910.871576
570.560823	47875.326400
570.916145	47742.839836
571.271412	47776.625649
571.626625	47533.405099
571.981782	47581.391843
572.336884	47266.397865
572.691931	47607.646172
573.046923	47199.844552
573.401860	47037.864717
573.756743	47025.851648
574.111570	47152.649270
574.466342	47003.693256
574.821059	47119.349928
575.175722	46641.183883
575.530330	46641.677916
575.884882	46369.339662
576.239380	46342.576176
576.593823	46311.638615
576.948211	46231.877478
577.302544	45762.243586
577.656823	45796.263813
578.011047	46020.151537
578.365216	45739.323980
578.719330	45532.034255
579.073389	45390.236679
579.427394	45471.076622
579.781344	45440.481860
580.135239	45089.418426
580.489080	45169.126630
580.842866	44660.854814
581.196597	45123.002593
581.550273	45059.668057
581.903895	44915.647333
582.257463	45354.073962
582.610975	44737.921454
582.964434	45026.214960
583.317837	44646.868133
583.671186	44493.221326
584.024481	44712.075458
584.377721	44255.966982
584.730906	44535.962748
585.084037	44564.137757
585.437113	44268.935350
585.790135	44311.906145
586.143103	43903.945729
586.496016	44039.724167
586.848874	44066.906068
587.201679	44082.861320
587.554428	43559.314808
587.907124	43748.814302
588.259765	43506.876726
588.612352	43753.003501
588.964884	43138.736384
589.317362	43429.505097
589.669786	43369.175088
590.022155	43132.152637
590.374470	43571.801746
590.726731	43096.163840
591.078937	42587.433279
591.431090	42705.184550
591.783188	42348.681712
592.135232	42031.220090
592.487222	42273.036678
592.839157	42364.929351
593.191038	42030.723536
593.542866	41805.293218
593.894639	41202.794675
594.246358	41474.727117
594.598022	41464.347381
594.949633	41068.284088
595.301190	41028.441328
595.652692	40852.477333
596.004141	41177.014214
596.355535	40212.923788
596.706876	40158.035705
597.058162	39980.337553
597.409395	40446.543460
597.760573	40538.463860
598.111698	40095.351478
598.462768	40126.160489
598.813785	40157.980252
599.164748	39621.586360
599.515657	40000.305563
599.866511	39475.120676
600.217312	40102.772056
600.568060	39055.840349
600.918753	39802.533536
601.269392	39762.479048
601.619978	39410.593907
601.970510	39623.345722
602.320988	39800.083535
602.671412	40119.919541
603.021783	39849.552378
603.372100	39502.940283
603.722363	39599.163307
604.072572	39691.585302
604.422728	39715.649249
604.772830	39516.090133
605.122878	39608.287796
605.472872	39546.034587
605.822813	39816.439559
606.172701	39653.698510
606.522534	39901.869473
606.872314	40164.614411
607.222041	39906.472046
607.571714	40307.528602
607.921333	39747.771482
608.270899	40053.454448
608.620411	40379.062575
608.969870	40197.318897
609.319276	40182.555877
609.668627	40239.941852
610.017926	40704.421165
610.367171	40878.393905
610.716362	40949.065840
611.065500	40915.479153
611.414585	41090.132448
611.763616	41380.218085
612.112594	41320.394712
612.461518	41552.446585
612.810389	41829.304234
613.159207	41702.441077
613.507971	41768.598659
613.856682	42249.975920
614.205340	42133.303455
614.553945	42838.034077
614.902496	42292.251036
615.250994	42740.613779
615.599439	42828.992768
615.947830	43037.502453
616.296169	43074.043257
616.644454	43193.838716
616.992686	43375.647929
617.340864	43905.485802
617.688990	43629.525478
618.037063	44224.280809
618.385082	44186.429305
618.733048	44502.071071
619.080961	44503.240619
619.428821	44502.023180
619.776628	44631.054033
620.124382	44441.410867
620.472083	44567.686730
620.819731	44696.727665
621.167326	44364.152664
621.514868	44341.704406
621.862357	43901.699895
622.209793	43917.055250
622.557176	43602.174698
622.904506	43342.668701
623.251783	43003.661187
623.599007	42788.782004
623.946179	42543.237483
624.293297	42506.588294
624.640363	41916.932091
624.987376	41905.957499
625.334336	41659.702175
625.681243	41313.253918
626.028097	41277.239915
626.374899	41123.572943
626.721647	41103.826743
627.068343	40974.702628
627.414987	40753.554771
627.761577	40526.092868
628.108115	40860.414629
628.454600	40337.596564
628.801032	40502.709476
629.147412	40460.419236
629.493739	40469.301749
629.840014	40113.849992
630.186236	40440.839395
630.532405	40062.828474
630.878521	40287.265684
631.224585	40173.270072
631.570597	39858.255930
631.916556	40038.446933
632.262462	39981.076082
632.608316	39996.743988
632.954117	39888.016382
633.299866	39891.406558
633.645562	39790.961567
633.991206	39292.605701
634.336797	38859.147129
634.682336	38869.547029
635.027823	38603.772357
635.373257	38430.160060
635.718639	38189.830612
636.063968	38049.931031
636.409245	37482.493713
636.754470	37526.137502
637.099642	37283.259751
637.444762	36801.234703
637.789829	36954.773125
638.134845	36586.864677
638.479808	36549.852525
638.824719	36443.847142
639.169577	36047.493982
639.514383	36125.531044
639.859137	35830.399213
640.203839	36063.620634
640.548489	35694.225044
640.893086	35770.164986
641.237632	35512.128485
641.582125	35610.166325
641.926566	35567.041774
642.270955	35521.121904
642.615292	35546.330193
642.959576	35520.010329
643.303809	35514.966655
643.647990	35655.627450
643.992118	35619.799970
644.336195	35627.613758
644.680219	35721.406946
645.024192	36018.189755
645.368112	36528.886366
645.711981	36541.075876
646.055797	37405.200222
646.399562	37346.006993
646.743274	38299.881521
647.086935	38740.997606
647.430544	38628.683219
647.774101	38739.013912
648.117606	38996.117799
648.461059	39287.993045
648.804460	38880.408195
649.147810	38275.573077
649.491108	38023.346506
649.834354	37663.715632
650.177548	36843.066197
650.520690	36362.339246
650.863781	36392.412249
651.206820	36230.379482
651.549807	35800.106919
651.892742	35309.317825
652.235626	35129.338550
652.578458	34982.782126
652.921238	34382.146289
653.263967	34713.892021
653.606644	34387.497474
653.949269	34347.957183
654.291843	33939.379226
654.634365	34346.775033
654.976836	33951.606545
655.319255	33944.501038
655.661622	33939.107004
656.003938	33704.043041
656.346203	33574.049327
656.688416	33788.805002
657.030577	33581.089299
657.372687	33418.060904
657.714746	33687.881102
658.056753	33812.049762
658.398708	33281.853968
658.740612	33318.714885
659.082465	33592.487348
659.424266	33408.631426
659.766016	33531.378481
660.107715	33417.171140
660.449362	33558.696493
660.790958	33534.239335
661.132503	33554.857655
661.473996	33580.340687
661.815438	33681.254505
662.156829	33886.101792
662.498168	33651.990607
662.839456	33676.893907
663.180693	33833.446940
663.521879	34000.170500
663.863013	33931.641055
664.204097	33932.465283
664.545129	34406.973972
664.886110	34369.452663
665.227040	34435.380873
665.567918	34561.596242
665.908746	34625.533197
666.249522	34785.607475
666.590248	34784.178308
666.930922	34890.675204
667.271545	34851.081981
667.612118	34935.019713
667.952639	34731.745267
668.293109	34772.203047
668.633528	34674.051782
668.973896	34585.221610
669.314213	34624.948423
669.654480	34374.186307
669.994695	34394.179523
670.334859	34277.698622
670.674973	34180.595917
671.015035	34334.615770
671.355047	34279.021925
671.695008	34220.804160
672.034918	34136.281654
672.374777	34213.204621
672.714585	34045.624064
673.054342	34277.360865
673.394049	34021.164385
673.733705	34320.797967
674.073310	33970.193279
674.412864	34034.273906
674.752368	33637.683812
675.091820	33923.416412
675.431223	33514.793084
675.770574	33244.962804
676.109875	33106.777216
676.449125	32828.475276
676.788324	32749.591301
677.127473	32201.779195
677.466571	32127.049130
677.805619	31777.503084
678.144616	31770.218617
678.483562	31690.071832
678.822458	31380.938196
679.161303	31302.707050
679.500098	31226.943549
679.838842	31084.137743
680.177535	31251.625038
680.516179	31532.424869
680.854771	31770.296755
681.193314	32641.428304
681.531805	33770.412352
681.870247	34561.603804
682.208638	35289.032222
682.546978	35528.333274
682.885268	35614.768898
683.223508	35075.753605
683.561697	34730.411882
683.899836	34532.165986
684.237925	34022.553223
684.575963	33859.600446
684.913951	33406.173863
685.251889	33557.506781
685.589776	33544.591345
685.927614	33537.480797
686.265401	33675.822662
686.603137	33785.641678
686.940824	34295.985408
687.278460	34674.772667
687.616046	34816.643339
687.953582	35426.751504
688.291068	35282.997961
688.628504	35582.296306
688.965889	35509.431468
689.303224	35104.967092
689.640510	34742.871093
689.977745	34018.926113
690.314930	33215.726632
690.652065	32685.356919
690.989150	31936.997630
691.326185	31038.278367
691.663170	30329.489615
692.000105	29571.405941
692.336990	28872.896102
692.673825	28419.409026
693.010610	27892.631134
693.347345	27317.664853
693.684030	26657.833267
694.020665	26375.289197
694.357251	25700.550919
694.693786	25650.383877
695.030272	25414.583905
695.366707	24874.666246
695.703093	24565.280552
696.039429	24553.365785
696.375716	24298.805160
696.711952	24254.445527
697.048139	24096.914510
697.384276	23911.838629
697.720363	24044.834350
698.056400	23838.187371
698.392388	23624.896152
698.728326	23591.997582
699.064214	23376.062278
699.400053	23324.904648
699.735842	22957.394451
700.071581	22682.941432
700.407270	22378.675030
700.742910	22200.187937
701.078501	21920.943302
701.414042	21641.890231
701.749533	21337.129796
702.084974	20987.704738
702.420366	21198.714835
702.755709	20748.111298
703.091002	20448.487799
703.426246	20461.441044
703.761440	20359.052688
704.096584	20105.999368
704.431679	20050.639937
704.766725	19961.625763
705.101721	19892.463653
705.436668	19992.021400
705.771565	19670.557102
706.106413	20014.429329
706.441212	19989.372274
706.775961	20116.963878
707.110661	20187.585402
707.445311	20555.191382
707.779913	20384.949096
708.114465	20634.123248
708.448967	20920.765776
708.783421	21627.669136
709.117825	21900.483779
709.452180	22123.955609
709.786485	22523.595601
710.120742	23322.908352
710.454949	23342.326876
710.789107	23811.128978
711.123216	24513.323900
711.457275	24641.263344
711.791286	25192.810945
712.125247	25241.468162
712.459159	24938.041112
712.793023	25605.855365
713.126837	24490.240457
713.460602	24751.107565
713.794318	24367.488361
714.127985	23971.208298
714.461602	23075.238984
714.795171	23039.998798
715.128691	22004.518071
715.462162	21466.747944
715.795584	21036.689630
716.128957	20777.140783
716.462281	20358.793069
716.795556	20129.057606
717.128782	19623.576069
717.461960	19081.067256
717.795088	19000.991048
718.128167	18595.997351
718.461198	18138.835273
718.794180	17998.287904
719.127113	17615.926467
719.459997	17422.691478
719.792833	17074.050320
720.125619	17037.832150
720.458357	16717.323150
720.791046	16549.304013
721.123686	16388.481123
721.456278	16146.916592
721.788821	16100.570744
722.121315	15845.387537
722.453761	15919.484937
722.786158	15839.436455
723.118506	15844.366703
723.450805	15714.151179
723.783056	15869.683378
724.115259	15767.098418
724.447412	15697.167531
724.779518	15940.854388
725.111574	15963.290043
725.443582	16169.223698
725.775542	16149.074206
726.107453	16612.429341
726.439315	16497.019686
726.771129	16902.240235
727.102895	17275.058768
727.434612	17476.767936
727.766281	17618.560470
728.097901	17874.194861
728.429473	17908.613339
728.760996	17894.049445
729.092471	17976.714286
729.423897	17854.708281
729.755276	17709.018935
730.086606	17830.039394
730.417887	18357.162605
730.749120	18875.307521
731.080305	19055.833761
731.411442	19385.477331
731.742530	19450.757753
732.073570	19551.984122
732.404562	19839.259315
732.735506	19654.301901
733.066401	19368.647439
733.397249	18849.065795
733.728048	18201.917752
734.058798	17352.485849
734.389501	16671.710790
734.720156	16213.666510
735.050762	15676.720611
735.381320	15331.782180
735.711831	15083.197843
736.042293	14727.655344
736.372707	14738.541716
736.703073	14534.296847
737.033391	14721.288367
737.363661	14677.034598
737.693883	14785.464776
738.024056	14958.875427
738.354182	15144.773016
738.684260	15427.392704
739.014290	15647.466796
739.344272	15840.752196
739.674207	16123.306348
740.004093	16234.302474
740.333931	16232.923718
740.663722	16262.127122
740.993464	16257.567399
741.323159	16074.966724
741.652806	15803.694674
741.982405	15587.867754
742.311956	15254.702938
742.641460	15131.381191
742.970915	14822.444160
743.300323	14475.524555
743.629683	14266.236012
743.958996	13991.717459
744.288260	13720.659658
744.617477	13418.694542
744.946647	13344.622348
745.275768	13070.817118
745.604842	12894.696847
745.933869	12708.166593
746.262847	12662.108091
746.591778	12591.781474
746.920662	12485.892038
747.249498	12484.160401
747.578286	12604.507867
747.907027	12753.063109
748.235720	12961.199748
748.564365	12995.734173
748.892963	12892.387998
749.221514	12960.879635
749.550017	12809.942448
749.878473	12766.712033
750.206881	12548.747664
750.535242	12451.017335
750.863555	12366.436856
751.191821	12266.644695
751.520039	12286.927777
751.848210	12194.120135
752.176334	12221.967469
752.504411	12135.557051
752.832440	11975.250879
753.160421	12035.059128
753.488356	11904.717575
753.816243	11816.683906
754.144082	11677.742144
754.471875	11614.999943
754.799620	11566.340206
755.127318	11530.898373
755.454969	11495.726243
755.782572	11447.454674
756.110129	11457.748711
756.437638	11388.281611
756.765100	11369.354598
757.092515	11364.116840
757.419882	11392.793443
757.747203	11390.804708
758.074477	11461.332971
758.401703	11423.390727
758.728882	11581.289747
759.056014	11622.657456
759.383099	11737.421844
759.710138	11843.580982
760.037129	11918.641242
760.364073	11942.193513
760.690970	11921.214751
761.017820	11925.159454
761.344623	12115.420162
761.671379	12434.875561
761.998088	13078.719127
762.324751	14634.948525
762.651366	17522.118156
762.977935	21219.108823
763.304456	23437.264406
763.630931	23920.494290
763.957359	22736.725503
764.283740	20800.650204
764.610074	18920.332587
764.936362	16770.925739
765.262602	15244.003089
765.588796	13768.462399
765.914943	12733.006878
766.241044	11871.027544
766.567097	11234.375184
766.893104	10687.377224
767.219064	10321.008848
767.544978	9937.213202
767.870845	9620.195202
768.196665	9436.747613
768.522438	9234.302436
768.848165	9062.046209
769.173846	8895.960355
769.499479	8774.022405
769.825066	8615.767983
770.150607	8437.293493
770.476101	8372.708750
770.801548	8261.284127
771.126949	8124.920915
771.452303	8031.289044
771.777611	7865.634208
772.102872	7841.628234
772.428087	7726.435348
772.753256	7600.373734
773.078378	7510.996597
773.403453	7368.725153
773.728482	7260.370592
774.053465	7199.725512
774.378401	7108.873837
774.703291	7019.723552
775.028135	6920.642193
775.352932	6885.376802
775.677683	6800.377907
776.002388	6715.999074
776.327046	6711.330965
776.651658	6623.962728
776.976224	6548.605040
777.300743	6531.709613
777.625216	6465.050435
777.949643	6420.443785
778.274024	6428.925527
778.598359	6358.183015
778.922647	6357.278128
779.246889	6322.010215
779.571086	6327.857954
779.895236	6337.184088
780.219339	6331.767369
780.543397	6327.096740
780.867409	6377.223453
781.191374	6371.771445
781.515294	6341.348082
781.839167	6399.732205
782.162995	6366.851279
782.486776	6318.630122
782.810511	6274.613287
783.134201	6199.547986
783.457844	6188.071799
783.781441	6138.562627
784.104993	6095.044866
784.428498	6067.835238
784.751958	6049.707249
785.075372	6024.284710
785.398739	5987.191900
785.722061	6014.151991
786.045337	6012.967320
786.368568	6116.994050
786.691752	6143.409696
787.014891	6390.857253
787.337983	6674.253279
787.661030	7114.353571
787.984031	7543.030609
788.306987	7809.899211
788.629897	7894.724187
788.952760	7814.726116
789.275579	7628.717622
789.598351	7328.710994
789.921078	7065.230047
790.243759	6778.564834
790.566395	6577.306849
790.888984	6386.567232
791.211529	6240.262865
791.534027	6074.358492
791.856480	5937.743222
792.178888	5875.220312
792.501249	5806.713552
792.823566	5705.436771
793.145836	5698.782448
793.468062	5683.162432
793.790241	5637.252644
794.112375	5685.327608
794.434464	5780.933091
794.756507	5810.365867
795.078505	5934.181647
795.400457	6154.291027
795.722364	6392.152830
796.044226	6589.748417
796.366042	6746.719865
796.687812	6694.125507
797.009538	6721.181380
797.331218	6628.403984
797.652852	6551.241563
797.974442	6432.918121
798.295986	6361.973962
798.617484	6238.506022
798.938938	6127.179702
799.260346	6055.764196
799.581709	5917.568525
799.903026	5864.636409
800.224299	5794.264422
800.545526	5675.071381
800.866708	5610.116113
801.187845	5559.419750
801.508936	5485.826465
801.829983	5452.517041
802.150984	5346.932594
802.471940	5321.426877
802.792851	5305.963137
803.113717	5278.587151
803.434538	5258.747690
803.755314	5222.834510
804.076045	5215.945773
804.396731	5176.382798
804.717372	5189.704047
805.037967	5196.441549
805.358518	5225.145879
805.679024	5282.229385
805.999485	5294.434018
806.319901	5308.385412
806.640272	5326.057176
806.960598	5375.770515
807.280879	5368.430595
807.601115	5406.352675
807.921306	5364.440522
808.241453	5366.351119
808.561554	5374.701790
808.881611	5340.011090
809.201623	5334.954813
809.521590	5281.826093
809.841513	5269.389566
810.161390	5282.531854
810.481223	5196.227300
810.801011	5179.392367
811.120755	5156.233306
811.440453	5103.293629
811.760107	5077.787911
812.079716	5049.925454
812.399281	4998.167927
812.718801	4991.483357
813.038276	4954.630002
813.357707	4923.155558
813.677093	4945.049289
813.996434	4882.027304
814.315731	4902.002877
814.634983	4901.770983
814.954191	4906.335748
815.273354	4963.749449
815.592473	5004.663454
815.911547	5077.586265
816.230577	5137.026510
816.549562	5227.028750
816.868502	5277.523468
817.187399	5331.700748
817.506250	5417.859108
817.825058	5443.500938
818.143821	5601.626810
818.462539	5767.886585
818.781213	5994.370503
819.099843	6360.610330
819.418429	6996.473750
819.736970	7622.154039
820.055466	8332.359355
820.373919	9260.413093
820.692327	10723.169416
821.010691	13446.990539
821.329011	19722.370081
821.647286	29372.504695
821.965517	39779.064444
822.283704	45281.602334
822.601847	46779.621529
822.919945	42183.132740
823.237999	37014.941817
823.556010	31784.026337
823.873976	27037.603551
824.191897	22800.942241
824.509775	19687.336583
824.827609	16898.827374
825.145398	15328.603733
825.463144	14569.353031
825.780845	14863.274986
826.098502	16137.371168
826.416116	18606.976984
826.733685	20914.522307
827.051210	21435.432296
827.368692	20000.341825
827.686129	17423.845903
828.003522	14914.598973
828.320872	12674.766428
828.638177	11005.030410
828.955439	9753.140511
829.272656	8681.938168
829.589830	7831.671955
829.906960	7091.111331
830.224046	6557.507717
830.541088	6145.411034
830.858086	5884.727928
831.175041	5677.097924
831.491952	5618.706239
831.808819	5656.303165
832.125642	5901.409106
832.442421	6461.007430
832.759157	7580.836742
833.075849	9363.413948
833.392497	11222.488143
833.709101	12345.420286
834.025662	12091.691451
834.342179	11026.288956
834.658653	9716.753462
834.975083	8600.405067
835.291469	7695.364196
835.607811	6946.599095
835.924110	6414.764926
836.240366	5923.932981
836.556578	5468.787365
836.872746	5111.646821
837.188871	4835.663812
837.504952	4614.793218
837.820990	4447.084112
838.136984	4329.441226
838.452935	4278.583545
838.768842	4313.049914
839.084706	4592.097944
839.400526	5341.379763
839.716303	6252.071767
840.032037	6826.465878
840.347727	6674.608680
840.663373	6070.580147
840.978977	5489.443493
841.294537	5044.896903
841.610054	4709.493814
841.925527	4467.203357
842.240957	4257.357767
842.556344	4073.847164
842.871687	3911.489242
843.186987	3761.542642
843.502244	3642.064775
843.817458	3558.404307
844.132629	3482.212307
844.447756	3434.046603
844.762840	3388.832494
845.077881	3345.375227
845.392879	3315.511432
845.707833	3288.647123
846.022745	3262.964965
846.337613	3247.965012
846.652438	3225.867114
846.967221	3218.900239
847.281960	3197.981971
847.596656	3186.422605
847.911309	3175.425328
848.225919	3163.533246
848.540485	3153.277019
848.855009	3145.100267
849.169490	3134.382774
849.483928	3125.800210
849.798323	3121.333747
850.112675	3108.065431
850.426984	3112.078189
850.741251	3104.778598
851.055474	3097.814244
851.369654	3101.131323
851.683792	3098.451950
851.997887	3104.075357
852.311938	3101.421190
852.625947	3102.011005
852.939914	3096.269131
853.253837	3097.869697
853.567718	3098.023452
853.881555	3092.410127
854.195350	3099.533278
854.509103	3094.550097
854.822812	3092.510950
855.136479	3086.282605
855.450103	3093.383070
855.763685	3087.295877
856.077224	3088.591453
856.390720	3094.721496
856.704173	3106.648866
857.017584	3109.174484
857.330953	3117.424333
857.644278	3125.913636
857.957561	3129.540746
858.270802	3126.208543
858.584000	3122.324334
858.897155	3120.378449
859.210268	3108.614916
859.523339	3097.320211
859.836367	3092.594129
860.149352	3087.931062
860.462295	3083.063828
860.775195	3076.759865
861.088054	3069.472877
861.400869	3073.369689
861.713642	3068.767116
862.026373	3082.869744
862.339062	3081.669949
862.651708	3091.016248
862.964312	3110.099536
863.276873	3114.911318
863.589392	3148.019095
863.901869	3172.307375
864.214303	3195.458874
864.526696	3212.911348
864.839045	3232.317270
865.151353	3244.368148
865.463619	3247.692789
865.775842	3247.216400
866.088023	3251.816453
866.400162	3244.123652
866.712258	3247.317223
867.024313	3245.378900
867.336325	3242.631471
867.648296	3243.649784
867.960224	3243.158271
868.272110	3245.691451
868.583954	3246.263622
868.895755	3252.958274
869.207515	3250.357039
869.519233	3269.039555
869.830909	3275.522479
870.142542	3286.227369
870.454134	3293.378246
870.765684	3306.709577
871.077191	3326.727999
871.388657	3336.928774
871.700081	3353.254551
872.011463	3375.581821
872.322803	3395.869945
872.634101	3415.061618
872.945357	3433.910492
873.256571	3464.422075
873.567744	3477.836586
873.878874	3484.218687
874.189963	3501.358610
874.501010	3504.612674
874.812015	3500.332735
875.122979	3518.347298
875.433900	3509.729446
875.744780	3514.062317
876.055618	3522.927186
876.366415	3523.242258
876.677169	3525.828370
876.987882	3544.866288
877.298554	3563.410172
877.609183	3601.654886
877.919771	3653.319151
878.230317	3721.072259
878.540822	3828.731140
878.851285	3981.447855
879.161707	4205.915312
879.472087	4586.822376
879.782425	5219.285538
880.092722	6421.081491
880.402977	8388.361533
880.713191	10796.535849
881.023363	13210.187378
881.333494	14569.113576
881.643583	15027.924111
881.953631	14625.466115
882.263637	13779.021096
882.573602	12735.862692
882.883526	11764.926379
883.193408	10790.839345
883.503248	9857.809988
883.813048	9010.991924
884.122806	8242.326868
884.432522	7458.046838
884.742197	6787.467512
885.051831	6216.095573
885.361424	5712.814499
885.670975	5311.667203
885.980485	4980.745700
886.289954	4711.031366
886.599382	4491.741174
886.908768	4306.750992
887.218113	4137.234632
887.527417	3999.585927
887.836680	3877.305178
888.145901	3775.859519
888.455082	3699.027293
888.764221	3630.497848
889.073319	3566.744896
889.382376	3533.122920
889.691392	3505.262983
890.000366	3502.656707
890.309300	3495.957013
890.618193	3500.110924
890.927044	3496.254441
891.235855	3498.926253
891.544625	3513.979138
891.853353	3542.615413
892.162041	3605.871811
892.470687	3697.391439
892.779293	3820.120850
893.087858	3996.510823
893.396381	4281.338536
893.704864	4702.899985
894.013306	5276.381646
894.321707	5858.014854
894.630068	6221.217385
894.938387	6266.023161
895.246665	6086.482467
895.554903	5761.748980
895.863100	5415.940949
896.171256	5143.902644
896.479371	4898.743771
896.787446	4670.613915
897.095480	4468.294767
897.403473	4314.995799
897.711425	4170.934746
898.019336	4047.643246
898.327207	3922.940223
898.635038	3821.696210
898.942827	3715.186712
899.250576	3624.962661
899.558284	3538.542160
899.865952	3480.513438
900.173579	3416.838624
900.481165	3369.514793
900.788711	3331.065912
901.096216	3295.987043
901.403681	3268.343876
901.711105	3255.604880
902.018489	3250.921648
902.325832	3283.699231
902.633135	3346.627954
902.940397	3519.078265
903.247619	3931.001028
903.554800	4696.477555
903.861941	5682.275189
904.169041	6404.889305
904.476101	6614.230780
904.783121	6332.926834
905.090100	5926.118322
905.397039	5501.585112
905.703938	5138.188496
906.010796	4809.628773
906.317614	4549.301068
906.624391	4306.937515
906.931129	4106.029890
907.237826	3919.993669
907.544483	3750.893204
907.851099	3572.796801
908.157675	3410.960639
908.464211	3264.983947
908.770707	3163.382012
909.077163	3084.873602
909.383578	3019.454549
909.689954	2976.239258
909.996289	2945.674742
910.302584	2925.265630
910.608839	2910.311047
910.915054	2900.470715
911.221229	2893.604664
911.527363	2901.042886
911.833458	2906.550347
912.139513	2919.753129
912.445527	2934.324584
912.751502	2967.465129
913.057436	3010.808970
913.363331	3070.607137
913.669186	3158.121568
913.975000	3279.699075
914.280775	3467.663537
914.586510	3745.229468
914.892205	4127.704331
915.197859	4636.129902
915.503475	5230.315583
915.809050	5733.319393
916.114585	6026.759917
916.420081	6098.072079
916.725536	6031.526328
917.030952	5788.751920
917.336328	5580.269962
917.641665	5367.714751
917.946961	5135.733454
918.252218	4926.444911
918.557435	4693.520918
918.862612	4496.038757
919.167750	4318.252385
919.472848	4124.336840
919.777906	3952.025161
920.082925	3791.250162
920.387904	3634.066985
920.692843	3516.698841
920.997743	3417.877102
921.302603	3321.132318
921.607423	3254.873913
921.912204	3189.374201
922.216946	3138.584576
922.521647	3091.485076
922.826310	3046.719629
923.130932	3007.751510
923.435516	2970.199955
923.740059	2941.573763
924.044564	2909.169226
924.349028	2882.564537
924.653454	2853.845083
924.957840	2825.997749
925.262186	2807.595017
925.566493	2783.117695
925.870761	2758.698346
926.174989	2749.301635
926.479178	2733.583317
926.783328	2712.518856
927.087438	2705.816642
927.391509	2690.219312
927.695541	2678.808660
927.999533	2665.404232
928.303486	2659.921977
928.607400	2653.277736
928.911275	2649.955616
929.215110	2642.880357
929.518906	2637.602268
929.822663	2636.720067
930.126381	2639.170067
930.430060	2643.104688
930.733699	2646.421767
931.037299	2648.657519
931.340861	2643.553351
931.644383	2650.389155
931.947866	2648.881850
932.251309	2647.074597
932.554714	2643.863382
932.858080	2644.183495
933.161407	2640.193422
933.464694	2635.164871
933.767943	2630.630353
934.071153	2629.667492
934.374323	2625.145577
934.677455	2621.735237
934.980548	2617.034361
935.283602	2616.109309
935.586617	2613.835749
935.889593	2616.230297
936.192530	2621.311780
936.495428	2623.454270
936.798287	2633.897020
937.101108	2647.677014
937.403890	2673.366734
937.706632	2695.787266
938.009336	2729.956207
938.312002	2762.718666
938.614628	2785.729012
938.917216	2802.914306
939.219765	2811.373362
939.522275	2825.455825
939.824747	2827.003460
940.127179	2816.152376
940.429573	2812.013589
940.731929	2809.319092
941.034246	2800.797021
941.336524	2800.066054
941.638763	2793.419293
941.940964	2786.994342
942.243126	2769.882145
942.545250	2758.058119
942.847335	2743.300141
943.149381	2730.833368
943.451389	2716.655122
943.753359	2706.514842
944.055290	2697.460929
944.357182	2685.210925
944.659036	2681.311593
944.960851	2677.611386
945.262628	2671.738442
945.564367	2673.417146
945.866067	2673.855726
946.167729	2670.599141
946.469352	2669.873215
946.770937	2666.856084
947.072484	2659.100269
947.373992	2661.633449
947.675462	2656.829229
947.976893	2652.241779
948.278286	2649.075935
948.579641	2642.996303
948.880958	2640.594193
949.182236	2640.599234
949.483476	2636.168060
949.784678	2638.973462
950.085841	2638.691158
950.386967	2640.299286
950.688054	2647.493012
950.989103	2655.586585
951.290114	2665.729386
951.591087	2676.295645
951.892021	2689.926925
952.192917	2702.960828
952.493776	2713.209494
952.794596	2717.781820
953.095378	2715.866182
953.396122	2715.294011
953.696828	2713.532128
953.997496	2707.581046
954.298126	2696.029242
954.598718	2688.485155
954.899272	2678.647343
955.199788	2668.252484
955.500266	2654.401914
955.800706	2639.066724
956.101108	2620.752212
956.401472	2611.032867
956.701798	2596.574838
957.002087	2581.355594
957.302337	2569.208934
957.602550	2562.597461
957.902724	2549.435008
958.202861	2540.980993
958.502960	2531.244005
958.803022	2525.812161
959.103045	2514.323372
959.403031	2513.789009
959.702979	2505.634943
960.002889	2502.421208
960.302762	2495.451812
960.602596	2488.613487
960.902393	2486.738178
961.202153	2482.609473
961.501875	2479.841879
961.801559	2478.780717
962.101205	2473.910962
962.400814	2474.044553
962.700385	2472.602783
962.999918	2472.726291
963.299414	2467.901907
963.598873	2467.942236
963.898293	2466.054324
964.197677	2466.228243
964.497022	2461.897892
964.796331	2461.149281
965.095601	2461.688684
965.394835	2460.168777
965.694030	2457.809517
965.993189	2459.203396
966.292309	2458.215329
966.591393	2457.224743
966.890439	2458.275823
967.189447	2456.783642
967.488419	2459.422686
967.787353	2456.138374
968.086249	2459.105093
968.385108	2462.525516
968.683930	2463.700105
968.982714	2462.487707
969.281462	2461.834878
969.580172	2465.436782
969.878844	2467.511217
970.177480	2468.584983
970.476078	2471.045066
970.774639	2475.191415
971.073162	2477.772486
971.371649	2477.449852
971.670098	2478.490850
971.968510	2480.293063
972.266885	2480.320789
972.565223	2483.443784
972.863524	2486.198774
973.161788	2490.753457
973.460014	2489.276399
973.758204	2492.028869
974.056356	2492.170021
974.354471	2491.212202
974.652550	2489.273878
974.950591	2493.180772
975.248595	2488.989053
975.546563	2488.706748
975.844493	2486.957468
976.142386	2483.970584
976.440243	2483.874803
976.738062	2482.102837
977.035845	2477.749801
977.333590	2475.723257
977.631299	2473.096816
977.928971	2471.811321
978.226606	2471.518934
978.524204	2470.513224
978.821765	2467.168419
979.119290	2466.986937
979.416777	2468.630353
979.714228	2467.118007
980.011642	2468.335446
980.309020	2472.406178
980.606360	2477.278453
980.903664	2488.469814
981.200931	2501.463388
981.498162	2522.207736
981.795356	2549.931562
982.092513	2589.325659
982.389633	2635.658904
982.686717	2677.324040
982.983764	2709.814277
983.280775	2728.509396
983.577749	2730.551063
983.874686	2721.905484
984.171587	2702.882690
984.468451	2686.652695
984.765279	2669.578307
985.062070	2649.552324
985.358824	2631.754530
985.655543	2607.693103
985.952224	2585.101172
986.248869	2557.024465
986.545478	2527.390043
986.842050	2507.979080
987.138586	2488.300936
987.435086	2476.829790
987.731549	2462.195320
988.027975	2461.285392
988.324366	2453.716100
988.620719	2448.372477
988.917037	2444.465582
989.213318	2443.464913
989.509563	2437.619695
989.805772	2438.978286
990.101944	2435.903182
990.398080	2435.157092
990.694180	2434.037956
990.990244	2434.292534
991.286271	2434.005188
991.582262	2435.305806
991.878217	2436.293872
992.174136	2438.910231
992.470019	2438.683379
992.765865	2439.671445
993.061676	2441.070365
993.357450	2443.722012
993.653188	2445.849379
993.948890	2455.508230
994.244556	2460.496452
994.540186	2470.493060
994.835780	2481.623927
995.131337	2495.114055
995.426859	2512.064935
995.722345	2532.113604
996.017795	2551.675801
996.313208	2566.166598
996.608586	2577.400809
996.903928	2581.300142
997.199234	2578.000707
997.494504	2573.940057
997.789738	2567.522668
998.084936	2557.001780
998.380099	2544.527445
998.675225	2532.978162
998.970316	2520.203878
999.265371	2506.794408
999.560390	2492.595999
999.855373	2481.565954
1000.150320	2471.907103
1000.445232	2463.067440
1000.740108	2454.061419
1001.034948	2447.906170
1001.329752	2443.101950
1001.624521	2439.933585
1001.919254	2431.356062
1002.213951	2432.439910
1002.508613	2423.701070
1002.803239	2429.508479
1003.097829	2420.210071
1003.392384	2426.229208
1003.686903	2422.730647
1003.981386	2424.938673
1004.275834	2421.064546
1004.570246	2422.755853
1004.864623	2419.519432
1005.158964	2418.274268
1005.453270	2419.292581
1005.747540	2417.409710
1006.041775	2415.042888
1006.335974	2415.516756
1006.630138	2416.711510
1006.924266	2417.079514
1007.218359	2414.959709
1007.512416	2415.932652
1007.806438	2415.133629
1008.100425	2414.977353
1008.394376	2413.512898
1008.688292	2413.926272
1008.982172	2413.170099
1009.276017	2415.990625
1009.569827	2412.746642
1009.863602	2412.497105
1010.157341	2412.401323
1010.451045	2413.971643
1010.744714	2411.866961
1011.038347	2410.160530
1011.331945	2412.056004
1011.625508	2410.848648
1011.919036	2408.481826
1012.212528	2410.147927
1012.505986	2407.720612
1012.799408	2408.859913
1013.092795	2409.442166
1013.386147	2410.286559
1013.679464	2410.299162
1013.972745	2410.213463
1014.265992	2405.910838
1014.559204	2410.727660
1014.852380	2408.507032
1015.145521	2408.217166
1015.438628	2409.603483
1015.731699	2408.998544
1016.024736	2409.858061
1016.317737	2411.872002
1016.610703	2413.780079
1016.903635	2408.738925
1017.196531	2407.297155
1017.489393	2409.870664
1017.782219	2407.534089
1018.075011	2411.380490
1018.367768	2411.350243
1018.660490	2411.932496
1018.953177	2411.932496
1019.245829	2411.932496
