Dividing Wavelength (nm)	Counts (n)	Blue Motor Position (mm): 30.800000	Red Motor Position (mm): 0.000000	
326.493990	1973.982256
326.888308	1973.982256
327.282561	1973.982256
327.676750	1948.789089
328.070874	1950.147680
328.464933	1954.596498
328.858929	1963.874742
329.252859	1976.412092
329.646726	1988.649493
330.040528	2006.056597
330.434265	2025.376819
330.827938	2044.729809
331.221547	2062.288148
331.615091	2083.902095
332.008571	2105.458068
332.401986	2125.053033
332.795338	2147.234110
333.188625	2165.407470
333.581847	2183.598474
333.975006	2203.168233
334.368100	2220.862683
334.761129	2236.230640
335.154095	2252.359812
335.546996	2291.285082
335.939833	2367.517410
336.332606	2384.503578
336.725315	2396.251987
337.117960	2404.799263
337.510540	2410.193298
337.903056	2423.796852
338.295508	2427.234918
338.687896	2437.944850
339.080220	2441.410643
339.472480	2448.284256
339.864676	2451.036726
340.256807	2454.862962
340.648875	2458.658951
341.040879	2456.597119
341.432818	2458.676595
341.824694	2459.921760
342.216506	2460.050309
342.608253	2458.719445
342.999937	2457.741461
343.391557	2454.721810
343.783113	2454.744495
344.174605	2453.622838
344.566033	2452.566717
344.957397	2449.829370
345.348697	2447.142435
345.739934	2447.815429
346.131106	2447.495316
346.522215	2445.171344
346.913260	2443.938782
347.304241	2443.427105
347.695159	2436.722370
348.086012	2438.665735
348.476802	2436.717329
348.867528	2434.385795
349.258191	2430.370516
349.648789	2432.447472
350.039324	2432.223140
350.429796	2432.636515
350.820203	2428.157450
351.210548	2429.531164
351.600828	2428.099476
351.991045	2429.180804
352.381198	2427.837336
352.771288	2427.638211
353.161314	2425.891451
353.551276	2426.166194
353.941175	2426.304826
354.331010	2425.972109
354.720782	2426.745927
355.110490	2430.325146
355.500135	2427.350865
355.889717	2427.229877
356.279235	2430.970413
356.668689	2430.657862
357.058080	2430.551998
357.447408	2430.463777
357.836672	2428.679209
358.225873	2427.320618
358.615010	2425.410021
359.004084	2431.981165
359.393095	2432.870928
359.782043	2433.622060
360.170927	2432.321443
360.559748	2434.489139
360.948505	2435.951073
361.337199	2436.886208
361.725830	2435.353697
362.114398	2434.703388
362.502903	2436.931578
362.891344	2438.123811
363.279722	2437.281938
363.668037	2441.529110
364.056289	2438.731270
364.444478	2440.649429
364.832603	2439.676486
365.220665	2438.612803
365.608665	2442.675973
365.996601	2443.616148
366.384474	2442.028184
366.772284	2446.018258
367.160031	2440.651949
367.547715	2446.320727
367.935336	2441.622372
368.322893	2443.159923
368.710388	2444.352156
369.097820	2448.755604
369.485189	2444.833587
369.872495	2446.948351
370.259738	2444.805860
370.646918	2449.287446
371.034035	2447.122270
371.421090	2444.992383
371.808081	2446.983639
372.195010	2447.555810
372.581875	2449.151335
372.968678	2448.816098
373.355418	2447.785182
373.742096	2452.231480
374.128710	2452.864145
374.515262	2455.447736
374.901751	2452.271809
375.288177	2450.479679
375.674540	2452.405400
376.060841	2452.780966
376.447079	2453.242231
376.833254	2452.760801
377.219367	2450.013372
377.605417	2453.600153
377.991404	2451.588733
378.377329	2452.259206
378.763191	2450.673763
379.148991	2458.043930
379.534727	2456.082921
379.920402	2456.675257
380.306013	2455.641820
380.691563	2458.888323
381.077049	2458.948817
381.462474	2457.570062
381.847835	2459.808334
382.233134	2460.083077
382.618371	2459.221040
383.003545	2461.852522
383.388657	2459.972172
383.773706	2461.267748
384.158693	2462.394446
384.543618	2462.805300
384.928480	2462.336473
385.313280	2460.347737
385.698017	2463.667337
386.082692	2464.252111
386.467305	2466.865949
386.851856	2467.753193
387.236344	2464.511731
387.620770	2467.546505
388.005133	2467.158336
388.389435	2470.641774
388.773674	2466.976855
389.157851	2472.839717
389.541965	2469.686475
389.926018	2469.240333
390.310008	2470.016671
390.693936	2470.321660
391.077802	2469.220168
391.461606	2472.204531
391.845348	2470.558595
392.229027	2473.452217
392.612645	2473.616054
392.996200	2474.122690
393.379694	2473.452217
393.763125	2476.935654
394.146494	2473.663945
394.529801	2479.415902
394.913047	2477.772486
395.296230	2478.682414
395.679351	2478.193422
396.062410	2480.257775
396.445408	2476.098823
396.828343	2480.151910
397.211217	2477.152424
397.594028	2479.748618
397.976778	2476.696199
398.359466	2484.381438
398.742092	2477.827938
399.124656	2485.752632
399.507158	2482.163331
399.889598	2485.117447
400.271977	2482.909422
400.654294	2485.331696
401.036549	2490.088025
401.418742	2486.443270
401.800874	2486.881851
402.182944	2487.257417
402.564952	2490.501399
402.946898	2489.851090
403.328783	2491.252531
403.710606	2492.117089
404.092367	2492.359064
404.474067	2494.065495
404.855705	2490.004846
405.237282	2494.148674
405.618797	2497.049858
406.000250	2496.838130
406.381642	2497.823675
406.762972	2495.845022
407.144240	2497.382574
407.525447	2499.930878
407.906593	2498.345435
408.287677	2499.595641
408.668700	2499.399036
409.049661	2500.828203
409.430560	2502.534633
409.811399	2504.041938
410.192176	2506.227279
410.572891	2504.104953
410.953545	2510.570233
411.334138	2507.727022
411.714669	2507.648884
412.095139	2503.963801
412.475547	2509.221724
412.855894	2509.763648
413.236180	2512.843793
413.616405	2513.105933
413.996568	2512.334637
414.376670	2514.726664
414.756711	2514.845131
415.136691	2516.614576
415.516609	2516.675070
415.896466	2518.555420
416.276262	2520.990298
416.655997	2521.680936
417.035670	2522.333765
417.415283	2526.412059
417.794834	2525.597912
418.174324	2528.950280
418.553753	2531.501103
418.933121	2533.353727
419.312428	2535.332380
419.691674	2535.899510
420.070859	2541.840510
420.449983	2543.471323
420.829045	2548.260419
421.208047	2551.189330
421.586988	2555.459187
421.965867	2563.978737
422.344686	2567.283213
422.723444	2575.296128
423.102141	2573.806467
423.480777	2586.575709
423.859352	2592.279775
424.237866	2612.537652
424.616319	2617.099896
424.994712	2636.326857
425.373044	2645.932775
425.751314	2666.909016
426.129524	2676.071313
426.507673	2706.477033
426.885762	2722.538149
427.263789	2750.299783
427.641756	2776.879267
428.019662	2807.254739
428.397508	2835.848164
428.775292	2874.286962
429.153016	2910.434556
429.530679	2952.757563
429.908282	2997.177690
430.285824	3034.204965
430.663305	3103.755244
431.040726	3144.429794
431.418086	3193.084490
431.795385	3279.890639
432.172624	3367.394987
432.549802	3415.527924
432.926920	3497.108917
433.303977	3568.020307
433.680974	3661.488341
434.057910	3769.384157
434.434786	3864.059547
434.811601	3951.952064
435.188355	4137.632883
435.565050	4212.284810
435.941683	4317.715502
436.318257	4515.210265
436.694770	4613.805152
437.071222	4800.804234
437.447614	4813.230678
437.823946	4940.330769
438.200218	5091.961115
438.576429	5193.437022
438.952580	5367.997056
439.328670	5500.513867
439.704700	5710.651844
440.080670	5781.727072
440.456580	6037.603439
440.832429	6229.326081
441.208218	6188.258322
441.583947	6427.408139
441.959616	6607.805830
442.335224	6824.565363
442.710773	7022.108017
443.086261	7323.322001
443.461689	7339.065524
443.837057	7545.556227
444.212365	7907.753049
444.587612	8086.398938
444.962800	8159.961976
445.337927	8465.539078
445.712995	8265.589272
446.088002	9026.468266
446.462949	9302.708373
446.837837	9567.739475
447.212664	9761.826419
447.587431	11000.127888
447.962139	12348.848270
448.336786	13544.589798
448.711374	13207.974312
449.085901	11953.725152
449.460369	12158.403560
449.834776	12373.524718
450.209124	13728.856574
450.583412	13799.062203
450.957640	14278.806129
451.331808	13900.855702
451.705917	13487.183658
452.079965	13731.140217
452.453954	14147.736129
452.827883	14335.773688
453.201752	14451.485813
453.575562	14766.600778
453.949311	15601.551966
454.323001	15886.583846
454.696632	15994.381359
455.070202	17119.466075
455.443713	17465.616903
455.817164	18062.885249
456.190556	18654.104211
456.563888	18548.660916
456.937160	19060.842147
457.310373	18246.302591
457.683526	18759.343338
458.056619	18971.583477
458.429653	19163.371655
458.802628	19772.569891
459.175542	20077.663042
459.548398	21201.913447
459.921194	22525.077700
460.293930	23249.302464
460.666607	24947.657113
461.039224	26472.805277
461.411782	27010.351073
461.784280	26352.422523
462.156719	26214.428498
462.529099	26011.408630
462.901419	25250.471663
463.273680	24644.151925
463.645882	24929.945019
464.018024	25126.761747
464.390106	25971.323895
464.762130	28349.228603
465.134094	31866.287886
465.505999	36485.151836
465.877845	40658.360142
466.249631	41946.584158
466.621358	40658.828969
466.993026	39006.991568
467.364634	37412.812364
467.736184	35919.451195
468.107674	35037.594591
468.479105	34543.168304
468.850477	34116.084271
469.221790	33034.615619
469.593043	31672.914265
469.964238	31033.148992
470.335373	31098.053848
470.706449	32714.661146
471.077467	35140.764325
471.448425	39472.171601
471.819324	42266.314299
472.190164	40721.230892
472.560945	37557.823675
472.931667	34826.216490
473.302330	33898.833226
473.672934	33252.017899
474.043479	33808.377282
474.413965	33182.815460
474.784393	32906.645928
475.154761	33820.322296
475.525070	33931.416723
475.895321	33566.797628
476.265513	34220.378182
476.635645	35169.889592
477.005719	35086.259370
477.375734	35588.995999
477.745691	36301.668959
478.115588	37606.158258
478.485427	39558.007328
478.855207	42836.254550
479.224928	45440.197034
479.594591	47099.974253
479.964194	46128.833773
480.333739	46278.493028
480.703226	46338.785228
481.072653	47031.076803
481.442022	47547.777429
481.811333	47853.087350
482.180584	46622.677807
482.549777	46147.198697
482.918912	45657.899263
483.287988	45412.304330
483.657005	44625.594464
484.025964	44019.201629
484.394864	44056.241507
484.763706	43642.158610
485.132489	42814.769152
485.501213	42683.782332
485.869879	42841.041126
486.238487	42478.957730
486.607036	42688.601675
486.975527	42182.132071
487.343959	42379.493244
487.712333	42503.498067
488.080648	42409.951896
488.448905	42835.493336
488.817104	42691.001264
489.185244	43617.048622
489.553326	45278.602848
489.921350	47974.009507
490.289315	50942.755089
490.657222	51590.729881
491.025070	51898.817478
491.392861	50966.521609
491.760593	49674.100833
492.128267	47967.541707
492.495883	46457.365769
492.863440	45080.329226
493.230939	43775.237510
493.598380	42713.444481
493.965763	42411.844849
494.333088	41626.601958
494.700354	41166.410147
495.067563	40917.835892
495.434713	40794.783847
495.801805	40866.796730
496.168839	40510.550991
496.535815	40192.547444
496.902733	40221.115663
497.269593	39822.461217
497.636395	39766.416189
498.003139	40167.077015
498.369825	39640.374740
498.736453	39935.589751
499.103023	39501.657310
499.469535	39368.459943
499.835989	39458.005959
500.202385	39132.740630
500.568723	39156.315586
500.935003	39363.078511
501.301226	39164.507461
501.667390	39776.279207
502.033497	40016.926247
502.399546	39454.151997
502.765537	38800.959610
503.131470	39172.137248
503.497345	39518.313282
503.863163	38209.160916
504.228923	38818.402003
504.594625	39207.004388
504.960269	38514.521249
505.325856	39182.925317
505.691385	38578.576670
506.056856	38701.913540
506.422270	39130.101586
506.787625	38713.341836
507.152924	38905.949201
507.518164	38993.748457
507.883347	38238.155113
508.248472	38484.334820
508.613540	38934.658572
508.978550	39233.820806
509.343503	38989.355091
509.708398	39177.546406
510.073236	39700.331703
510.438016	39694.357936
510.802738	39162.836319
511.167403	39769.806365
511.532010	39992.126291
511.896561	40287.749635
512.261053	41096.990938
512.625488	40672.999653
512.989866	40522.737980
513.354186	40367.803158
513.718449	40372.713242
514.082655	41029.656246
514.446803	40717.618906
514.810894	41217.935781
515.174927	41148.352734
515.538904	41042.750643
515.902822	41692.567977
516.266684	41160.635506
516.630488	41574.877199
516.994235	41432.585591
517.357925	41970.769093
517.721558	42140.633293
518.085133	42454.114924
518.448651	42567.233375
518.812112	42343.620393
519.175516	42455.783546
519.538863	42764.226544
519.902152	42751.394287
520.265385	43186.980226
520.628560	43230.979417
520.991678	43031.717729
521.354739	43251.330555
521.717743	43562.944439
522.080690	43473.433711
522.443580	44013.185012
522.806413	44055.195468
523.169189	44002.006254
523.531908	44162.990461
523.894569	44026.541549
524.257174	44211.965270
524.619722	44483.864944
524.982213	44472.348428
525.344647	44400.597685
525.707025	44433.413076
526.069345	44838.346280
526.431608	44769.852122
526.793815	45063.574951
527.155964	44600.449188
527.518057	44762.718890
527.880093	44575.515642
528.242072	45087.250730
528.603995	44798.795907
528.965860	44793.268282
529.327669	44886.761521
529.689421	44794.145443
530.051117	44746.521662
530.412755	44896.173355
530.774337	44950.706037
531.135862	44773.207010
531.497331	44965.153984
531.858743	44886.106171
532.220098	45212.092385
532.581396	44928.890444
532.942638	44581.486888
533.303824	44879.716509
533.664953	44860.134147
534.026025	44592.206902
534.387040	45040.874635
534.747999	44995.859652
535.108902	45154.910577
535.469748	44677.518348
535.830537	44800.013346
536.191270	44982.056973
536.551947	44645.953164
536.912567	44938.120797
537.273131	45067.449078
537.633638	44549.646961
537.994089	44897.000105
538.354483	44513.131363
538.714821	45062.806175
539.075103	45402.222022
539.435328	45188.764445
539.795497	45083.424494
540.155609	45062.538994
540.515665	45523.532349
540.875665	44978.704606
541.235609	45300.204192
541.595496	45262.841680
541.955328	45915.592966
542.315102	45309.051417
542.674821	45104.814110
543.034483	45144.661911
543.394090	45105.517351
543.753640	45069.304223
544.113134	46063.455049
544.472571	45086.822232
544.831953	46309.919581
545.191278	45552.319858
545.550548	45266.173883
545.909761	45702.339555
546.268918	45923.759635
546.628019	46204.630042
546.987064	45793.970088
547.346053	45078.373258
547.704986	45943.694878
548.063863	45505.069123
548.422684	45713.878756
548.781449	45581.140134
549.140158	45954.125025
549.498811	45807.051882
549.857408	45254.901863
550.215949	46059.651498
550.574434	46003.964393
550.932864	45795.346323
551.291237	46492.522776
551.649555	46097.681963
552.007817	46341.807400
552.366022	46011.253901
552.724173	46173.619384
553.082267	46567.469611
553.440305	46874.314563
553.798288	46205.134157
554.156215	46509.647576
554.514086	46714.875470
554.871902	46453.680686
555.229661	46474.210785
555.587365	46320.385017
555.945014	46418.392609
556.302606	46356.623351
556.660143	46563.449290
557.017625	46645.947773
557.375050	46451.865871
557.732421	46812.295768
558.089735	46783.440203
558.446994	46703.285857
558.804197	47165.471444
559.161345	47105.456508
559.518437	46389.859678
559.875474	46681.240891
560.232455	46855.316975
560.589381	47025.559261
560.946251	46727.866523
561.303065	47416.422603
561.659825	47204.444605
562.016528	46887.963487
562.373177	46618.591952
562.729770	47106.132023
563.086307	46616.797301
563.442789	47080.540605
563.799216	47144.285995
564.155587	46941.684543
564.511904	46959.925958
564.868164	47049.232519
565.224370	47296.523800
565.580520	47025.289559
565.936615	47244.040348
566.292654	46965.413254
566.648638	47213.836274
567.004567	47164.826177
567.360441	47199.574850
567.716260	47063.660301
568.072023	47363.054428
568.427732	47362.734315
568.783385	46921.159485
569.138982	47317.545412
569.494525	47279.676264
569.850013	47044.047692
570.205445	47008.711724
570.560823	46963.258161
570.916145	46855.823611
571.271412	46889.493477
571.626625	46645.138668
571.981782	46710.177114
572.336884	46398.260761
572.691931	46718.583238
573.046923	46306.176524
573.401860	46171.691143
573.756743	46161.697055
574.111570	46266.885771
574.466342	46120.465458
574.821059	46241.180928
575.175722	45767.441016
575.530330	45799.729606
575.884882	45522.566968
576.239380	45475.071737
576.593823	45448.036029
576.948211	45367.251538
577.302544	44902.953707
577.656823	44965.272451
578.011047	45154.393858
578.365216	44911.634574
578.719330	44703.215630
579.073389	44547.733843
579.427394	44638.220034
579.781344	44621.937107
580.135239	44275.393068
580.489080	44343.128532
580.842866	43845.115464
581.196597	44307.270804
581.550273	44238.605248
581.903895	44110.030619
582.257463	44528.156522
582.610975	43936.650215
582.964434	44200.778950
583.317837	43845.377604
583.671186	43689.096793
584.024481	43911.981328
584.377721	43475.740039
584.730906	43729.264707
585.084037	43756.537349
585.437113	43472.821211
585.790135	43520.694528
586.143103	43125.120227
586.496016	43236.209614
586.848874	43268.185653
587.201679	43281.040595
587.554428	42757.599947
587.907124	42950.048516
588.259765	42716.995974
588.612352	42967.760610
588.964884	42368.233827
589.317362	42644.350426
589.669786	42587.292126
590.022155	42379.102555
590.374470	42784.434009
590.726731	42320.761281
591.078937	41834.196674
591.431090	41946.374950
591.783188	41596.682710
592.135232	41271.916456
592.487222	41518.791842
592.839157	41602.994235
593.191038	41275.929215
593.542866	41052.412015
593.894639	40465.974588
594.246358	40728.621224
594.598022	40698.679291
594.949633	40321.696765
595.301190	40269.198189
595.652692	40124.050767
596.004141	40431.314135
596.355535	39474.513217
596.706876	39419.050442
597.058162	39246.912682
597.409395	39709.599865
597.760573	39782.416812
598.111698	39375.036128
598.462768	39375.509997
598.813785	39426.987739
599.164748	38895.135926
599.515657	39281.792426
599.866511	38753.885316
600.217312	39361.029282
600.568060	38342.007923
600.918753	39091.259496
601.269392	39050.181654
601.619978	38696.620329
601.970510	38903.158922
602.320988	39080.244575
602.671412	39396.461032
603.021783	39124.957089
603.372100	38794.302767
603.722363	38900.882841
604.072572	38965.661668
604.422728	38968.436823
604.772830	38811.372114
605.122878	38883.284173
605.472872	38830.147891
605.822813	39110.831776
606.172701	38941.146537
606.522534	39149.764607
606.872314	39433.233729
607.222041	39178.463896
607.571714	39577.193959
607.921333	39022.180565
608.270899	39307.204883
608.620411	39641.511520
608.969870	39462.278337
609.319276	39439.152043
609.668627	39495.020631
610.017926	39980.758489
610.367171	40137.165328
610.716362	40222.426363
611.065500	40170.124392
611.414585	40360.352332
611.763616	40650.448051
612.112594	40567.548797
612.461518	40796.117233
612.810389	41080.927302
613.159207	40956.133538
613.507971	41034.624303
613.856682	41496.469613
614.205340	41389.070351
614.553945	42084.903337
614.902496	41522.199662
615.250994	41977.355361
615.599439	42056.463667
615.947830	42284.820375
616.296169	42317.373626
616.644454	42458.629277
616.992686	42623.903506
617.340864	43140.399965
617.688990	42868.220507
618.037063	43457.049961
618.385082	43417.106379
618.733048	43734.298299
619.080961	43732.342332
619.428821	43747.251544
619.776628	43854.912946
620.124382	43669.970656
620.472083	43801.723732
620.819731	43916.982153
621.167326	43588.775311
621.514868	43566.700098
621.862357	43133.128100
622.209793	43169.870550
622.557176	42829.890093
622.904506	42578.661671
623.251783	42226.481622
623.599007	42009.109589
623.946179	41794.868112
624.293297	41756.923347
624.640363	41156.458910
624.987376	41144.770994
625.334336	40905.497668
625.681243	40568.514178
626.028097	40531.912880
626.374899	40391.577239
626.721647	40359.205470
627.068343	40261.638978
627.414987	40009.389722
627.761577	39798.798041
628.108115	40138.450823
628.454600	39575.928629
628.801032	39766.721179
629.147412	39733.346220
629.493739	39750.062686
629.840014	39407.007126
630.186236	39746.821224
630.532405	39359.882420
630.878521	39568.472763
631.224585	39460.584509
631.570597	39165.535857
631.916556	39333.507103
632.262462	39280.882498
632.608316	39283.130852
632.954117	39180.291314
633.299866	39165.556021
633.645562	39086.067107
633.991206	38589.629400
634.336797	38180.877523
634.682336	38182.800723
635.027823	37917.101668
635.373257	37736.159533
635.718639	37501.382916
636.063968	37366.214458
636.409245	36792.619371
636.754470	36840.104519
637.099642	36606.729343
637.444762	36139.011089
637.789829	36272.876409
638.134845	35935.532476
638.479808	35892.503708
638.824719	35798.791178
639.169577	35403.484058
639.514383	35467.726002
639.859137	35177.479049
640.203839	35409.740130
640.548489	35050.361313
640.893086	35116.778515
641.237632	34864.125967
641.582125	34996.204198
641.926566	34911.094397
642.270955	34888.320985
642.615292	34897.299280
642.959576	34876.161722
643.303809	34872.020414
643.647990	35024.202766
643.992118	34994.769989
644.336195	34985.824462
644.680219	35081.747537
645.024192	35367.049119
645.368112	35893.138893
645.711981	35895.155354
646.055797	36770.408047
646.399562	36707.670887
646.743274	37636.987434
647.086935	38066.418125
647.430544	37956.919222
647.774101	38088.261444
648.117606	38332.638939
648.461059	38619.956982
648.804460	38231.773012
649.147810	37622.231977
649.491108	37363.973665
649.834354	37011.120623
650.177548	36185.198141
650.520690	35740.558289
650.863781	35762.724243
651.206820	35606.403103
651.549807	35174.721538
651.892742	34701.029517
652.235626	34507.948283
652.578458	34377.699991
652.921238	33783.244609
653.263967	34109.941625
653.606644	33797.506033
653.949269	33746.257663
654.291843	33350.058259
654.634365	33758.827780
654.976836	33359.018910
655.319255	33357.113354
655.661622	33350.285111
656.003938	33121.353712
656.346203	32975.422390
656.688416	33211.920561
657.030577	33020.036602
657.372687	32846.068903
657.714746	33122.389669
658.056753	33229.403283
658.398708	32686.266847
658.740612	32732.433734
659.082465	33015.149203
659.424266	32844.410364
659.766016	32945.157823
660.107715	32838.630681
660.449362	32967.636328
660.790958	32955.487148
661.132503	32986.016375
661.473996	33017.127856
661.815438	33122.084679
662.156829	33302.741989
662.498168	33076.883173
662.839456	33099.744806
663.180693	33248.479009
663.521879	33414.345573
663.863013	33364.685167
664.204097	33365.169118
664.545129	33823.934282
664.886110	33793.871361
665.227040	33843.141078
665.567918	33979.829444
665.908746	34043.751275
666.249522	34201.362950
666.590248	34192.815674
666.930922	34299.589833
667.271545	34272.917088
667.612118	34360.849934
667.952639	34158.883667
668.293109	34181.503325
668.633528	34085.945733
668.973896	34013.232130
669.314213	34044.215061
669.654480	33779.269659
669.994695	33809.700584
670.334859	33696.178841
670.674973	33600.021352
671.015035	33756.294601
671.355047	33721.737491
671.695008	33655.350536
672.034918	33558.683890
672.374777	33642.782939
672.714585	33489.231914
673.054342	33710.531006
673.394049	33475.131807
673.733705	33748.793364
674.073310	33419.560647
674.412864	33492.916997
674.752368	33094.050823
675.091820	33389.182654
675.431223	32949.190746
675.770574	32692.096941
676.109875	32551.355488
676.449125	32277.003292
676.788324	32194.393904
677.127473	31664.462771
677.466571	31596.475250
677.805619	31237.933265
678.144616	31242.072052
678.483562	31166.142193
678.822458	30847.243842
679.161303	30776.080393
679.500098	30688.843226
679.838842	30569.657746
680.177535	30726.974514
680.516179	31002.327378
680.854771	31252.711407
681.193314	32106.098095
681.531805	33221.299628
681.870247	33997.607073
682.208638	34729.862396
682.546978	34969.153366
682.885268	35043.457453
683.223508	34519.348853
683.561697	34175.174156
683.899836	33984.525279
684.237925	33486.711337
684.575963	33338.327494
684.913951	32882.098030
685.251889	33032.304250
685.589776	33022.826881
685.927614	33012.283307
686.265401	33168.044879
686.603137	33268.114303
686.940824	33780.764361
687.278460	34152.385620
687.616046	34296.618073
687.953582	34907.212709
688.291068	34772.404693
688.628504	35049.700922
688.965889	34984.914534
689.303224	34581.652473
689.640510	34235.357971
689.977745	33492.624610
690.314930	32706.197049
690.652065	32184.591381
690.989150	31435.725456
691.326185	30555.373637
691.663170	29837.271354
692.000105	29089.186808
692.336990	28421.922041
692.673825	27967.678791
693.010610	27449.475902
693.347345	26879.928861
693.684030	26218.085855
694.020665	25949.979650
694.357251	25289.449864
694.693786	25246.174079
695.030272	25009.262533
695.366707	24472.490554
695.703093	24177.971223
696.039429	24173.401417
696.375716	23908.128340
696.711952	23878.665316
697.048139	23728.852306
697.384276	23552.238002
697.720363	23674.891795
698.056400	23471.370332
698.392388	23261.262602
698.728326	23228.154824
699.064214	23013.419314
699.400053	22950.021763
699.735842	22596.493206
700.071581	22319.572543
700.407270	22044.396119
700.742910	21847.428156
701.078501	21576.098132
701.414042	21300.513375
701.749533	21000.942808
702.084974	20656.942031
702.420366	20856.601970
702.755709	20417.782131
703.091002	20137.924996
703.426246	20155.629528
703.761440	20044.192302
704.096584	19785.941552
704.431679	19743.195088
704.766725	19651.546911
705.101721	19583.486293
705.436668	19684.011942
705.771565	19355.288382
706.106413	19691.447643
706.441212	19677.092958
706.775961	19801.571649
707.110661	19884.856552
707.445311	20244.061449
707.779913	20081.242262
708.114465	20323.205043
708.448967	20607.233733
708.783421	21308.276752
709.117825	21582.893608
709.452180	21800.159777
709.786485	22198.385725
710.120742	22989.657835
710.454949	23020.176981
710.789107	23483.973217
711.123216	24180.872407
711.457275	24309.784793
711.791286	24850.667833
712.125247	24904.908128
712.459159	24591.633184
712.793023	25260.843837
713.126837	24149.440813
713.460602	24402.955398
713.794318	24020.435165
714.127985	23621.188383
714.461602	22737.080904
714.795171	22700.451880
715.128691	21678.955315
715.462162	21140.088736
715.795584	20728.687733
716.128957	20463.155036
716.462281	20065.218954
716.795556	19844.343319
717.128782	19337.994703
717.461960	18796.557136
717.795088	18710.376091
718.128167	18318.789342
718.461198	17859.930916
718.794180	17714.423052
719.127113	17351.018874
719.459997	17161.544586
719.792833	16816.656566
720.125619	16789.847710
720.458357	16472.020604
720.791046	16308.220913
721.123686	16152.585370
721.456278	15920.266315
721.788821	15865.710948
722.121315	15612.329953
722.453761	15687.690162
722.786158	15611.157885
723.118506	15618.328926
723.450805	15495.352499
723.783056	15645.316743
724.115259	15550.422063
724.447412	15485.391179
724.779518	15729.967799
725.111574	15744.829120
725.443582	15947.246571
725.775542	15923.442242
726.107453	16387.135135
726.439315	16276.494411
726.771129	16681.853592
727.102895	17047.359931
727.434612	17248.993482
727.766281	17376.509468
728.097901	17627.387530
728.429473	17661.012027
728.760996	17651.716139
729.092471	17726.292448
729.423897	17605.670240
729.755276	17472.414899
730.086606	17582.153257
730.417887	18106.236652
730.749120	18615.919991
731.080305	18793.638308
731.411442	19130.258836
731.742530	19192.852322
732.073570	19291.316139
732.404562	19573.494726
732.735506	19388.559997
733.066401	19110.701679
733.397249	18582.139219
733.728048	17948.463660
734.058798	17116.900127
734.389501	16448.589321
734.720156	15986.134032
735.050762	15463.648682
735.381320	15110.619199
735.711831	14874.030287
736.042293	14532.502197
736.372707	14543.081058
736.703073	14339.239482
737.033391	14521.605743
737.363661	14481.730216
737.693883	14598.470736
738.024056	14762.308236
738.354182	14949.057780
738.684260	15228.551952
739.014290	15463.005935
739.344272	15650.529297
739.674207	15928.017089
740.004093	16039.797114
740.333931	16026.599373
740.663722	16063.049436
740.993464	16053.468723
741.323159	15878.505397
741.652806	15606.381392
741.982405	15388.555655
742.311956	15050.178285
742.641460	14933.780563
742.970915	14621.917142
743.300323	14297.700374
743.629683	14078.551334
743.958996	13797.562460
744.288260	13541.010579
744.617477	13246.040064
744.946647	13172.655988
745.275768	12897.381261
745.604842	12704.476468
745.933869	12541.581664
746.262847	12491.013850
746.591778	12421.498859
746.920662	12319.037407
747.249498	12324.615444
747.578286	12440.554420
747.907027	12585.336359
748.235720	12800.543217
748.564365	12832.337774
748.892963	12730.178791
749.221514	12793.727577
749.550017	12649.984116
749.878473	12613.355092
750.206881	12384.572407
750.535242	12296.770630
750.863555	12209.752753
751.191821	12116.962755
751.520039	12136.464459
751.848210	12046.941128
752.176334	12072.197309
752.504411	11983.321767
752.832440	11829.417860
753.160421	11886.680327
753.488356	11768.382090
753.816243	11675.193841
754.144082	11531.253775
754.471875	11477.028603
754.799620	11423.148751
755.127318	11395.548434
755.454969	11359.098371
755.782572	11314.355610
756.110129	11326.625778
756.437638	11245.720300
756.765100	11234.256717
757.092515	11234.317210
757.419882	11253.145920
757.747203	11254.738925
758.074477	11336.428302
758.401703	11288.433997
758.728882	11450.257556
759.056014	11493.278763
759.383099	11598.076790
759.710138	11707.517719
760.037129	11790.535441
760.364073	11807.377936
760.690970	11792.972838
761.017820	11784.085284
761.344623	11978.764563
761.671379	12296.231227
761.998088	12922.365220
762.324751	14461.847905
762.651366	17317.137279
762.977935	20962.614915
763.304456	23171.734230
763.630931	23639.253358
763.957359	22461.889357
764.283740	20554.306659
764.610074	18675.655143
764.936362	16558.718368
765.262602	15059.310335
765.588796	13595.533178
765.914943	12568.168709
766.241044	11734.772717
766.567097	11097.838052
766.893104	10556.050125
767.219064	10195.108551
767.544978	9820.618876
767.870845	9510.325774
768.196665	9324.024893
768.522438	9127.525757
768.848165	8964.845202
769.173846	8797.990571
769.499479	8677.910286
769.825066	8517.455401
770.150607	8336.871188
770.476101	8276.221066
770.801548	8167.949684
771.126949	8025.169083
771.452303	7947.520191
771.777611	7778.144983
772.102872	7750.219512
772.428087	7641.857389
772.753256	7511.586412
773.078378	7431.580780
773.403453	7283.612832
773.728482	7189.476846
774.053465	7116.801051
774.378401	7033.932044
774.703291	6941.005934
775.028135	6847.674012
775.352932	6810.671943
775.677683	6731.427525
776.002388	6640.512836
776.327046	6642.496530
776.651658	6549.255348
776.976224	6479.815975
777.300743	6464.609334
777.625216	6394.275156
777.949643	6353.625812
778.274024	6358.142686
778.598359	6295.642460
778.922647	6291.685154
779.246889	6254.100832
779.571086	6264.558706
779.895236	6278.754595
780.219339	6269.030209
780.543397	6269.874602
780.867409	6319.136758
781.191374	6310.123175
781.515294	6279.808196
781.839167	6337.519325
782.162995	6303.604963
782.486776	6258.544609
782.810511	6219.642025
783.134201	6141.592360
783.457844	6131.371421
783.781441	6080.296971
784.104993	6035.561772
784.428498	6006.681001
784.751958	5990.261963
785.075372	5966.240865
785.398739	5932.185350
785.722061	5952.728052
786.045337	5955.654442
786.368568	6057.936933
786.691752	6082.328556
787.014891	6328.548592
787.337983	6608.385562
787.661030	7043.169958
787.984031	7466.959598
788.306987	7731.645380
788.629897	7814.012793
788.952760	7729.462561
789.275579	7548.175107
789.598351	7254.220385
789.921078	6987.240877
790.243759	6713.057560
790.566395	6507.549883
790.888984	6318.090718
791.211529	6175.852042
791.534027	6015.944121
791.856480	5879.674171
792.178888	5816.942053
792.501249	5752.750520
792.823566	5651.927443
793.145836	5647.589530
793.468062	5626.310820
793.790241	5585.066620
794.112375	5628.191170
794.434464	5721.190377
794.756507	5756.581797
795.078505	5878.865066
795.400457	6095.889260
795.722364	6333.710733
796.044226	6528.505959
796.366042	6678.170255
796.687812	6627.834334
797.009538	6659.079406
797.331218	6566.445683
797.652852	6492.920454
797.974442	6375.559872
798.295986	6302.505991
798.617484	6173.833060
798.938938	6065.584363
799.260346	6002.038098
799.581709	5862.549372
799.903026	5809.569365
800.224299	5736.908694
800.545526	5621.514162
800.866708	5557.882198
801.187845	5511.448130
801.508936	5435.160348
801.829983	5406.259413
802.150984	5301.118588
802.471940	5274.680257
802.792851	5258.803143
803.113717	5231.011262
803.434538	5212.439651
803.755314	5174.878014
804.076045	5168.329555
804.396731	5130.223473
804.717372	5152.868336
805.037967	5155.593080
805.358518	5181.338252
805.679024	5237.388321
805.999485	5245.774281
806.319901	5264.088793
806.640272	5283.328356
806.960598	5331.816695
807.280879	5320.645498
807.601115	5358.965829
807.921306	5322.911496
808.241453	5320.211958
808.561554	5324.973328
808.881611	5291.694151
809.201623	5283.706443
809.521590	5239.079628
809.841513	5224.240992
810.161390	5240.284464
810.481223	5152.192821
810.801011	5143.131347
811.120755	5112.350062
811.440453	5058.097164
811.760107	5030.159090
812.079716	5006.609339
812.399281	4952.331236
812.718801	4947.816883
813.038276	4913.905041
813.357707	4878.354824
813.677093	4904.740223
813.996434	4839.245552
814.315731	4858.981670
814.634983	4860.277246
814.954191	4861.454356
815.273354	4923.337040
815.592473	4965.818843
815.911547	5038.943300
816.230577	5090.670580
816.549562	5181.628119
816.868502	5227.658894
817.187399	5283.499756
817.506250	5361.582188
817.825058	5387.907093
818.143821	5540.535587
818.462539	5710.697215
818.781213	5941.297236
819.099843	6300.744108
819.418429	6924.475991
819.736970	7539.736215
820.055466	8249.744926
820.373919	9155.453749
820.692327	10600.331620
821.010691	13274.542748
821.329011	19479.961157
821.647286	29056.666325
821.965517	39426.972616
822.283704	44914.618937
822.601847	46390.820018
822.919945	41781.430917
823.237999	36642.128326
823.556010	31418.625862
823.873976	26727.290285
824.191897	22518.148634
824.509775	19454.251273
824.827609	16689.374993
825.145398	15131.550070
825.463144	14383.127767
825.780845	14673.682231
826.098502	15916.074596
826.416116	18390.320795
826.733685	20669.915440
827.051210	21204.635670
827.368692	19769.842627
827.686129	17215.958800
828.003522	14745.785854
828.320872	12525.999457
828.638177	10882.777388
828.955439	9638.844950
829.272656	8585.886543
829.589830	7741.896567
829.906960	7015.907398
830.224046	6488.441389
830.541088	6083.283854
830.858086	5821.403474
831.175041	5616.770436
831.491952	5559.407147
831.808819	5596.930975
832.125642	5839.044992
832.442421	6384.142437
832.759157	7485.914336
833.075849	9255.250951
833.392497	11097.621283
833.709101	12216.225595
834.025662	11971.472534
834.342179	10914.314847
834.658653	9609.568449
834.975083	8505.129779
835.291469	7604.003365
835.607811	6872.610080
835.924110	6352.645307
836.240366	5867.739239
836.556578	5420.172998
836.872746	5061.510025
837.188871	4792.617400
837.504952	4572.268565
837.820990	4411.677568
838.136984	4294.755567
838.452935	4244.485180
838.768842	4277.030870
839.084706	4552.968508
839.400526	5295.159944
839.716303	6197.017326
840.032037	6763.290138
840.347727	6614.795390
840.663373	6019.062075
840.978977	5436.831491
841.294537	4998.611549
841.610054	4667.954706
841.925527	4431.340589
842.240957	4225.613621
842.556344	4044.442113
842.871687	3888.360429
843.186987	3737.657655
843.502244	3620.949902
843.817458	3532.326418
844.132629	3461.725058
844.447756	3412.223448
844.762840	3370.134854
845.077881	3329.276303
845.392879	3296.236580
845.707833	3266.886982
846.022745	3247.728077
846.337613	3232.763412
846.652438	3211.595607
846.967221	3203.408773
847.281960	3183.385310
847.596656	3173.353414
847.911309	3163.661796
848.225919	3145.952222
848.540485	3138.387971
848.855009	3128.406486
849.169490	3118.157821
849.483928	3111.387551
849.798323	3105.837241
850.112675	3093.083121
850.426984	3098.222578
850.741251	3087.744539
851.055474	3083.003334
851.369654	3088.566247
851.683792	3086.428798
851.997887	3083.988880
852.311938	3087.721854
852.625947	3087.731937
852.939914	3080.646595
853.253837	3085.589446
853.567718	3087.646237
853.881555	3078.504104
854.195350	3082.418560
854.509103	3079.353539
854.822812	3082.930237
855.136479	3074.138465
855.450103	3081.163313
855.763685	3070.428176
856.077224	3075.907910
856.390720	3078.622572
856.704173	3093.372988
857.017584	3100.133175
857.330953	3103.246087
857.644278	3111.259002
857.957561	3112.239506
858.270802	3110.626337
858.584000	3109.600462
858.897155	3106.996706
859.210268	3095.407093
859.523339	3079.925710
859.836367	3079.368662
860.149352	3076.873291
860.462295	3074.619895
860.775195	3062.178328
861.088054	3057.938717
861.400869	3059.219170
861.713642	3057.197668
862.026373	3064.172104
862.339062	3073.233578
862.651708	3079.817325
862.964312	3093.620004
863.276873	3100.854060
863.589392	3132.898154
863.901869	3161.678102
864.214303	3179.538910
864.526696	3199.252342
864.839045	3218.123901
865.151353	3227.387022
865.463619	3229.615212
865.775842	3229.408524
866.088023	3234.096797
866.400162	3229.214440
866.712258	3229.844584
867.024313	3228.060016
867.336325	3228.664954
867.648296	3228.133112
867.960224	3227.437433
868.272110	3230.426837
868.583954	3228.324676
868.895755	3235.163001
869.207515	3235.064699
869.519233	3253.419540
869.830909	3258.049840
870.142542	3271.663476
870.454134	3273.858898
870.765684	3288.150569
871.077191	3306.913744
871.388657	3318.977225
871.700081	3338.050431
872.011463	3355.742360
872.322803	3377.663818
872.634101	3393.571179
872.945357	3416.722678
873.256571	3440.398457
873.567744	3457.170376
873.878874	3463.688588
874.189963	3478.723829
874.501010	3482.950836
874.812015	3475.701657
875.122979	3494.369050
875.433900	3491.256137
875.744780	3491.687156
876.055618	3503.284330
876.366415	3501.565297
876.677169	3504.141327
876.987882	3523.106147
877.298554	3542.869991
877.609183	3578.518510
877.919771	3627.858804
878.230317	3696.531922
878.540822	3799.424392
878.851285	3949.945685
879.161707	4169.903830
879.472087	4546.846026
879.782425	5173.723589
880.092722	6357.159661
880.402977	8296.660424
880.713191	10688.433346
881.023363	13100.665790
881.333494	14455.165855
881.643583	14919.526701
881.953631	14504.415408
882.263637	13650.070901
882.573602	12603.252620
882.883526	11634.315124
883.193408	10676.780718
883.503248	9754.408361
883.813048	8917.488602
884.122806	8152.380080
884.432522	7384.740899
884.742197	6718.872531
885.051831	6155.886552
885.361424	5654.074975
885.670975	5262.357156
885.980485	4935.549235
886.289954	4664.231814
886.599382	4448.195687
886.908768	4269.035600
887.218113	4106.778501
887.527417	3976.441989
887.836680	3849.450283
888.145901	3750.638626
888.455082	3672.825896
888.764221	3606.275103
889.073319	3544.311761
889.382376	3512.005527
889.691392	3484.369921
890.000366	3479.689210
890.309300	3475.817604
890.618193	3479.911021
890.927044	3473.160916
891.235855	3480.384889
891.544625	3495.886437
891.853353	3525.656971
892.162041	3585.422371
892.470687	3676.463088
892.779293	3795.832570
893.087858	3966.558807
893.396381	4248.215634
893.704864	4664.340199
894.013306	5231.349019
894.321707	5806.670702
894.630068	6169.706875
894.938387	6209.474017
895.246665	6029.504825
895.554903	5711.274427
895.863100	5369.733733
896.171256	5093.670066
896.479371	4856.642574
896.787446	4632.280981
897.095480	4436.021300
897.403473	4281.504894
897.711425	4140.531547
898.019336	4017.925644
898.327207	3896.267478
898.635038	3792.618835
898.942827	3686.187474
899.250576	3600.298816
899.558284	3513.265815
899.865952	3460.132053
900.173579	3397.500758
900.481165	3353.241948
900.788711	3309.421718
901.096216	3278.723612
901.403681	3248.950557
901.711105	3240.685585
902.018489	3232.115624
902.325832	3266.375305
902.633135	3328.079028
902.940397	3493.207064
903.247619	3899.040113
903.554800	4658.618489
903.861941	5629.350636
904.169041	6341.905129
904.476101	6556.585186
904.783121	6277.630417
905.090100	5873.450867
905.397039	5453.628616
905.703938	5091.106640
906.010796	4766.423564
906.317614	4514.925440
906.624391	4272.892082
906.931129	4076.884459
907.237826	3896.138929
907.544483	3722.816498
907.851099	3553.642937
908.157675	3392.222670
908.464211	3247.365114
908.770707	3149.226452
909.077163	3068.215109
909.383578	3005.188083
909.689954	2961.224181
909.996289	2934.969852
910.302584	2914.742222
910.608839	2902.751837
910.915054	2890.453943
911.221229	2883.144269
911.527363	2888.019065
911.833458	2894.499468
912.139513	2906.499935
912.445527	2920.499219
912.751502	2953.919549
913.057436	2997.923781
913.363331	3055.377811
913.669186	3141.027015
913.975000	3260.164604
914.280775	3449.419602
914.586510	3717.901373
914.892205	4097.875824
915.197859	4598.590950
915.503475	5184.509138
915.809050	5690.522517
916.114585	5982.337269
916.420081	6052.668927
916.725536	5979.945242
917.030952	5742.164097
917.336328	5533.488054
917.641665	5317.179704
917.946961	5087.597997
918.252218	4887.123911
918.557435	4659.369621
918.862612	4458.693890
919.167750	4283.468423
919.472848	4091.178651
919.777906	3924.742436
920.082925	3764.907612
920.387904	3608.468005
920.692843	3499.024555
920.997743	3399.582755
921.302603	3305.287972
921.607423	3239.891604
921.912204	3171.939370
922.216946	3123.282153
922.521647	3073.888928
922.826310	3034.179759
923.130932	2997.628873
923.435516	2957.735702
923.740059	2927.082966
924.044564	2897.980385
924.349028	2871.829400
924.653454	2843.253619
924.957840	2816.369146
925.262186	2797.870632
925.566493	2774.388937
925.870761	2752.512850
926.174989	2738.372413
926.479178	2726.535784
926.783328	2708.024667
927.087438	2698.091073
927.391509	2685.213446
927.695541	2670.780622
927.999533	2663.554128
928.303486	2652.919814
928.607400	2646.076448
928.911275	2639.628812
929.215110	2637.987917
929.518906	2633.110600
929.822663	2633.420631
930.126381	2632.288892
930.430060	2637.125879
930.733699	2637.456075
931.037299	2641.972949
931.340861	2639.608648
931.644383	2643.838176
931.947866	2641.625109
932.251309	2644.138124
932.554714	2637.980355
932.858080	2639.868267
933.161407	2633.884417
933.464694	2629.188583
933.767943	2628.646659
934.071153	2624.016359
934.374323	2618.264402
934.677455	2614.423043
934.980548	2611.368104
935.283602	2610.080089
935.586617	2610.601848
935.889593	2613.283742
936.192530	2614.407920
936.495428	2618.231635
936.798287	2631.515075
937.101108	2643.986890
937.403890	2663.082781
937.706632	2687.600432
938.009336	2723.707697
938.312002	2755.272882
938.614628	2776.213835
938.917216	2793.845270
939.219765	2807.131231
939.522275	2817.291677
939.824747	2812.883188
940.127179	2808.724236
940.429573	2803.985551
940.731929	2800.786939
941.034246	2794.241001
941.336524	2790.099693
941.638763	2783.024433
941.940964	2780.435801
942.243126	2761.871752
942.545250	2750.942530
942.847335	2735.866960
943.149381	2726.162739
943.451389	2709.819318
943.753359	2698.234746
944.055290	2687.842408
944.357182	2678.044925
944.659036	2675.047959
944.960851	2672.504697
945.262628	2668.570077
945.564367	2668.005467
945.866067	2666.503203
946.167729	2666.636794
946.469352	2665.799962
946.770937	2661.169663
947.072484	2653.802016
947.373992	2655.258910
947.675462	2653.456697
947.976893	2648.095430
948.278286	2641.536889
948.579641	2639.177629
948.880958	2634.968266
949.182236	2635.328708
949.483476	2632.364510
949.784678	2631.449540
950.085841	2632.866104
950.386967	2633.171094
950.688054	2641.834317
950.989103	2647.099802
951.290114	2658.449960
951.591087	2670.876404
951.892021	2680.464679
952.192917	2695.636032
952.493776	2706.386292
952.794596	2710.605738
953.095378	2713.388455
953.396122	2708.793443
953.696828	2703.333873
953.997496	2698.665765
954.298126	2687.308045
954.598718	2686.597243
954.899272	2674.639626
955.199788	2660.552121
955.500266	2648.234062
955.800706	2635.099336
956.101108	2615.499329
956.401472	2608.807198
956.701798	2588.105699
957.002087	2574.759245
957.302337	2566.038048
957.602550	2556.270813
957.902724	2543.546941
958.202861	2535.070240
958.502960	2527.717717
958.803022	2519.949299
959.103045	2514.315810
959.403031	2505.191322
959.702979	2502.048162
960.002889	2496.588593
960.302762	2491.577686
960.602596	2485.140132
960.902393	2483.358084
961.202153	2479.456231
961.501875	2479.163844
961.801559	2476.670994
962.101205	2474.062197
962.400814	2472.552371
962.700385	2468.143882
962.999918	2469.792339
963.299414	2468.506845
963.598873	2466.376957
963.898293	2461.877728
964.197677	2460.758592
964.497022	2461.784466
964.796331	2463.435444
965.095601	2458.525360
965.394835	2457.915381
965.694030	2456.312294
965.993189	2458.285906
966.292309	2456.362705
966.591393	2456.410596
966.890439	2455.785493
967.189447	2454.421861
967.488419	2454.656275
967.787353	2457.993519
968.086249	2454.424382
968.385108	2459.233643
968.683930	2455.893878
968.982714	2460.256997
969.281462	2463.372430
969.580172	2460.415793
969.878844	2464.279837
970.177480	2465.071299
970.476078	2468.204376
970.774639	2475.181333
971.073162	2475.972794
971.371649	2475.141003
971.670098	2476.527321
971.968510	2480.673670
972.266885	2477.555716
972.565223	2483.043012
972.863524	2485.238435
973.161788	2487.050729
973.460014	2484.452015
973.758204	2488.530308
974.056356	2485.339258
974.354471	2489.992243
974.652550	2486.178610
974.950591	2489.825885
975.248595	2485.861017
975.546563	2486.014772
975.844493	2484.452015
976.142386	2482.798516
976.440243	2479.980511
976.738062	2479.546972
977.035845	2474.798205
977.333590	2473.681589
977.631299	2472.910293
977.928971	2470.412401
978.226606	2467.876701
978.524204	2466.699591
978.821765	2465.315795
979.119290	2464.597430
979.416777	2464.940229
979.714228	2465.923254
980.011642	2465.640949
980.309020	2471.965077
980.606360	2473.490026
980.903664	2482.657364
981.200931	2497.127996
981.498162	2515.369411
981.795356	2544.323278
982.092513	2584.622262
982.389633	2630.942904
982.686717	2672.736590
982.983764	2703.964018
983.280775	2722.197871
983.577749	2723.750547
983.874686	2716.085472
984.171587	2699.167360
984.468451	2681.798064
984.765279	2661.852739
985.062070	2645.093423
985.358824	2626.748664
985.655543	2602.684716
985.952224	2580.974987
986.248869	2552.177396
986.545478	2524.705628
986.842050	2505.203924
987.138586	2487.708600
987.435086	2473.263174
987.731549	2462.248253
988.027975	2456.934876
988.324366	2451.313990
988.620719	2445.463731
988.917037	2446.789554
989.213318	2439.076589
989.509563	2437.864191
989.805772	2434.831937
990.101944	2433.740528
990.398080	2432.394539
990.694180	2430.967893
990.990244	2433.465785
991.286271	2437.428132
991.582262	2433.891762
991.878217	2435.411670
992.174136	2433.954777
992.470019	2437.513831
992.765865	2438.922834
993.061676	2438.378389
993.357450	2442.900304
993.653188	2446.897939
993.948890	2450.431788
994.244556	2453.756429
994.540186	2467.228913
994.835780	2476.739049
995.131337	2491.890237
995.426859	2509.861951
995.722345	2528.438603
996.017795	2548.900646
996.313208	2564.495455
996.608586	2571.999213
996.903928	2573.070458
997.199234	2575.875860
997.494504	2570.930488
997.789738	2566.937894
998.084936	2556.752243
998.380099	2541.885880
998.675225	2529.555218
998.970316	2517.428723
999.265371	2505.264418
999.560390	2490.534167
999.855373	2479.690645
1000.150320	2466.893676
1000.445232	2460.365382
1000.740108	2451.576130
1001.034948	2448.246448
1001.329752	2439.028698
1001.624521	2438.060796
1001.919254	2432.336566
1002.213951	2432.757503
1002.508613	2427.023190
1002.803239	2427.479414
1003.097829	2419.688311
1003.392384	2424.878179
1003.686903	2422.105544
1003.981386	2419.310225
1004.275834	2420.648651
1004.570246	2419.862231
1004.864623	2419.030441
1005.158964	2416.787127
1005.453270	2416.459452
1005.747540	2415.385686
1006.041775	2414.997518
1006.335974	2415.388207
1006.630138	2414.982394
1006.924266	2412.754204
1007.218359	2413.522980
1007.512416	2413.956519
1007.806438	2413.056673
1008.100425	2414.601787
1008.394376	2413.175140
1008.688292	2413.558268
1008.982172	2412.406364
1009.276017	2412.567681
1009.569827	2411.166241
1009.863602	2412.245048
1010.157341	2411.400654
1010.451045	2410.815880
1010.744714	2411.652712
1011.038347	2410.110119
1011.331945	2410.193298
1011.625508	2409.520304
1011.919036	2408.829666
1012.212528	2409.263205
1012.505986	2408.638102
1012.799408	2410.722619
1013.092795	2405.643657
1013.386147	2408.537279
1013.679464	2409.817732
1013.972745	2409.053997
1014.265992	2408.638102
1014.559204	2408.058369
1014.852380	2409.172464
1015.145521	2406.457803
1015.438628	2408.605334
1015.731699	2405.893194
1016.024736	2409.033832
1016.317737	2409.212793
1016.610703	2409.023750
1016.903635	2406.488050
1017.196531	2406.140210
1017.489393	2410.150448
1017.782219	2404.159037
1018.075011	2410.594070
1018.367768	2412.363515
1018.660490	2411.070459
1018.953177	2411.070459
1019.245829	2411.070459
