Dividing Wavelength (nm)	Counts (n)	Blue Motor Position (mm): 8.400000	Red Motor Position (mm): 0.000000	
326.493990	1978.027782
326.888308	1978.027782
327.282561	1978.027782
327.676750	1952.905191
328.070874	1954.354523
328.464933	1960.572786
328.858929	1969.084775
329.252859	1982.751343
329.646726	1996.886738
330.040528	2014.634120
330.434265	2030.904444
330.827938	2051.250541
331.221547	2068.483726
331.615091	2089.810327
332.008571	2109.329675
332.401986	2129.206944
332.795338	2149.787455
333.188625	2168.122131
333.581847	2189.216840
333.975006	2209.323482
334.368100	2225.918960
334.761129	2243.540313
335.154095	2257.509351
335.546996	2279.040119
335.939833	2311.976498
336.332606	2324.039979
336.725315	2334.099601
337.117960	2344.499502
337.510540	2348.298011
337.903056	2361.830988
338.295508	2366.073119
338.687896	2375.585777
339.080220	2381.733464
339.472480	2385.252189
339.864676	2390.762170
340.256807	2393.504558
340.648875	2394.225443
341.040879	2398.351628
341.432818	2395.402553
341.824694	2400.902451
342.216506	2394.900958
342.608253	2398.807852
342.999937	2397.628222
343.391557	2393.514640
343.783113	2393.204609
344.174605	2392.650083
344.566033	2390.210164
344.957397	2389.156563
345.348697	2385.655482
345.739934	2384.811088
346.131106	2385.398383
346.522215	2382.398896
346.913260	2380.763042
347.304241	2379.636344
347.695159	2375.996631
348.086012	2375.631147
348.476802	2373.806249
348.867528	2371.560415
349.258191	2369.780888
349.648789	2372.162833
350.039324	2369.107894
350.429796	2372.309027
350.820203	2366.955321
351.210548	2366.859539
351.600828	2365.185876
351.991045	2364.583458
352.381198	2364.434744
352.771288	2367.751824
353.161314	2363.960876
353.551276	2364.291072
353.941175	2363.885259
354.331010	2363.605475
354.720782	2364.354086
355.110490	2366.650332
355.500135	2366.584797
355.889717	2363.570187
356.279235	2368.167719
356.668689	2367.845085
357.058080	2367.913141
357.447408	2364.679240
357.836672	2363.960876
358.225873	2366.312574
358.615010	2365.448016
359.004084	2367.862729
359.393095	2370.355580
359.782043	2372.225848
360.170927	2369.765765
360.559748	2370.348018
360.948505	2371.520086
361.337199	2371.535210
361.725830	2373.639891
362.114398	2371.673841
362.502903	2375.386651
362.891344	2373.730632
363.279722	2373.488657
363.668037	2372.566126
364.056289	2373.622247
364.444478	2375.157279
364.832603	2377.196425
365.220665	2375.800026
365.608665	2375.167361
365.996601	2376.929244
366.384474	2377.002341
366.772284	2378.726416
367.160031	2377.294728
367.547715	2379.565768
367.935336	2376.344470
368.322893	2376.195756
368.710388	2378.328164
369.097820	2380.712630
369.485189	2377.856817
369.872495	2378.456714
370.259738	2380.760521
370.646918	2380.238762
371.034035	2381.506612
371.421090	2379.979142
371.808081	2380.821015
372.195010	2380.445449
372.581875	2381.151211
372.968678	2381.299925
373.355418	2380.924359
373.742096	2381.607435
374.128710	2379.681714
374.515262	2379.434698
374.901751	2381.685573
375.288177	2384.617004
375.674540	2381.030223
376.060841	2384.206150
376.447079	2380.924359
376.833254	2382.671118
377.219367	2377.269522
377.605417	2381.645244
377.991404	2379.089379
378.377329	2380.873947
378.763191	2380.556354
379.148991	2386.066336
379.534727	2384.662374
379.920402	2384.112888
380.306013	2386.706562
380.691563	2386.797303
381.077049	2387.845863
381.462474	2387.470297
381.847835	2386.759494
382.233134	2388.102962
382.618371	2386.260420
383.003545	2384.422919
383.388657	2387.351830
383.773706	2387.525750
384.158693	2386.978784
384.543618	2388.276882
384.928480	2386.817468
385.313280	2386.958620
385.698017	2384.208670
386.082692	2386.784700
386.467305	2388.082797
386.851856	2388.962478
387.236344	2387.813095
387.620770	2392.314846
388.005133	2390.341234
388.389435	2389.373332
388.773674	2392.163611
389.157851	2393.663354
389.541965	2389.680843
389.926018	2394.535474
390.310008	2392.347613
390.693936	2389.980792
391.077802	2392.808879
391.461606	2390.406769
391.845348	2392.239228
392.229027	2392.153529
392.612645	2393.887686
392.996200	2390.754609
393.379694	2391.399876
393.763125	2392.289640
394.146494	2393.484393
394.529801	2395.452964
394.913047	2393.796945
395.296230	2390.989022
395.679351	2392.864332
396.062410	2394.656462
396.445408	2393.809548
396.828343	2393.159239
397.211217	2387.702190
397.594028	2393.686040
397.976778	2392.677809
398.359466	2392.997922
398.742092	2391.553632
399.124656	2398.744838
399.507158	2394.560680
399.889598	2395.949518
400.271977	2394.200237
400.654294	2396.902296
401.036549	2396.088149
401.418742	2395.105124
401.800874	2398.003788
402.182944	2396.957748
402.564952	2397.177039
402.946898	2396.403222
403.328783	2398.026473
403.710606	2396.614950
404.092367	2397.600496
404.474067	2396.294837
404.855705	2397.620660
405.237282	2399.889179
405.618797	2395.629404
406.000250	2397.086298
406.381642	2398.155022
406.762972	2397.131668
407.144240	2396.357851
407.525447	2400.932698
407.906593	2398.485218
408.287677	2400.133675
408.668700	2399.838768
409.049661	2396.183931
409.430560	2400.579818
409.811399	2398.462533
410.192176	2400.599982
410.572891	2400.141237
410.953545	2401.519993
411.334138	2400.791546
411.714669	2398.470095
412.095139	2403.191135
412.475547	2401.497307
412.855894	2401.744324
413.236180	2400.544529
413.616405	2402.729870
413.996568	2401.454458
414.376670	2400.421021
414.756711	2401.278017
415.136691	2401.560322
415.516609	2401.421690
415.896466	2404.685837
416.276262	2405.116856
416.655997	2399.347255
417.035670	2398.339025
417.415283	2402.913872
417.794834	2400.131155
418.174324	2405.568039
418.553753	2403.536454
418.933121	2400.637791
419.312428	2400.872204
419.691674	2401.625857
420.070859	2403.417987
420.449983	2403.478481
420.829045	2401.797256
421.208047	2404.804304
421.586988	2403.849006
421.965867	2406.351939
422.344686	2404.577453
422.723444	2401.346073
423.102141	2402.971845
423.480777	2405.099212
423.859352	2406.578791
424.237866	2404.378327
424.616319	2404.330436
424.994712	2402.697102
425.373044	2408.244892
425.751314	2402.412277
426.129524	2403.090312
426.507673	2405.910838
426.885762	2404.446382
427.263789	2406.301527
427.641756	2404.920251
428.019662	2405.396640
428.397508	2407.738256
428.775292	2407.418143
429.153016	2406.853533
429.530679	2407.090468
429.908282	2405.943605
430.285824	2406.896383
430.663305	2405.018553
431.040726	2406.336815
431.418086	2405.963770
431.795385	2406.669531
432.172624	2405.729356
432.549802	2405.633574
432.926920	2407.198852
433.303977	2407.650036
433.680974	2409.348905
434.057910	2404.955539
434.434786	2407.009809
434.811601	2409.288411
435.188355	2406.583832
435.565050	2407.856723
435.941683	2407.173647
436.318257	2407.254305
436.694770	2401.656104
437.071222	2404.466547
437.447614	2407.070303
437.823946	2406.588873
438.200218	2406.730025
438.576429	2409.699265
438.952580	2408.325550
439.328670	2406.319171
439.704700	2408.335633
440.080670	2406.150293
440.456580	2406.397309
440.832429	2409.487536
441.208218	2407.458472
441.583947	2410.437794
441.959616	2409.888308
442.335224	2410.962074
442.710773	2408.794378
443.086261	2407.342525
443.461689	2409.918555
443.837057	2409.369069
444.212365	2409.598442
444.587612	2411.083062
444.962800	2411.950140
445.337927	2409.051477
445.712995	2408.504511
446.088002	2409.406878
446.462949	2408.819583
446.837837	2410.218504
447.212664	2412.824780
447.587431	2411.443504
447.962139	2409.023750
448.336786	2412.824780
448.711374	2411.776220
449.085901	2409.820252
449.460369	2411.443504
449.834776	2412.073648
450.209124	2407.929820
450.583412	2411.682959
450.957640	2411.400654
451.331808	2413.028947
451.705917	2410.180695
452.079965	2412.277815
452.453954	2412.189595
452.827883	2412.610531
453.201752	2411.521642
453.575562	2410.808319
453.949311	2411.967784
454.323001	2415.930131
454.696632	2413.906108
455.070202	2413.643968
455.443713	2415.453742
455.817164	2409.719429
456.190556	2410.069790
456.563888	2410.175654
456.937160	2406.868657
457.310373	2416.436767
457.683526	2412.323185
458.056619	2414.818557
458.429653	2413.845614
458.802628	2415.385686
459.175542	2410.732701
459.548398	2414.301838
459.921194	2415.978022
460.293930	2418.871644
460.666607	2415.748649
461.039224	2418.271747
461.411782	2417.409710
461.784280	2419.017838
462.156719	2414.110274
462.529099	2416.918197
462.901419	2416.691345
463.273680	2418.541449
463.645882	2416.318300
464.018024	2415.168917
464.390106	2416.033475
464.762130	2419.854669
465.134094	2417.442477
465.505999	2420.172262
465.877845	2421.185534
466.249631	2424.225350
466.621358	2424.467325
466.993026	2422.448343
467.364634	2423.829619
467.736184	2422.433219
468.107674	2423.466656
468.479105	2423.128899
468.850477	2422.581933
469.221790	2422.279464
469.593043	2420.510019
469.964238	2421.732499
470.335373	2422.907088
470.706449	2421.505647
471.077467	2421.924063
471.448425	2425.435227
471.819324	2425.520926
472.190164	2425.369692
472.560945	2422.957499
472.931667	2425.674681
473.302330	2423.272572
473.672934	2423.469177
474.043479	2422.168559
474.413965	2422.786100
474.784393	2417.122364
475.154761	2420.527663
475.525070	2418.027251
475.895321	2420.789803
476.265513	2418.942220
476.635645	2427.431523
477.005719	2422.221491
477.375734	2425.029414
477.745691	2425.548652
478.115588	2426.556883
478.485427	2424.323652
478.855207	2427.837336
479.224928	2426.680392
479.594591	2428.250711
479.964194	2428.028900
480.333739	2428.185176
480.703226	2428.643921
481.072653	2429.637028
481.442022	2430.889755
481.811333	2431.955959
482.180584	2429.299271
482.549777	2431.058634
482.918912	2426.100659
483.287988	2426.934970
483.657005	2426.932449
484.025964	2428.689291
484.394864	2428.129723
484.763706	2429.707604
485.132489	2428.026380
485.501213	2427.519744
485.869879	2425.397418
486.238487	2430.753644
486.607036	2429.911771
486.975527	2427.965886
487.343959	2425.583941
487.712333	2429.352203
488.080648	2426.786256
488.448905	2426.491348
488.817104	2425.021852
489.185244	2429.604261
489.553326	2429.148036
489.921350	2430.083170
490.289315	2430.995619
490.657222	2430.806576
491.025070	2432.505445
491.392861	2432.865887
491.760593	2431.754313
492.128267	2429.042172
492.495883	2427.547470
492.863440	2431.371185
493.230939	2429.510999
493.598380	2428.701894
493.965763	2424.724424
494.333088	2425.520926
494.700354	2427.227357
495.067563	2430.307502
495.434713	2423.814496
495.801805	2430.733479
496.168839	2429.533685
496.535815	2429.019487
496.902733	2428.772470
497.269593	2431.015784
497.636395	2427.930598
498.003139	2429.483273
498.369825	2431.252718
498.736453	2427.149219
499.103023	2430.756164
499.469535	2429.216092
499.835989	2428.333890
500.202385	2426.352717
500.568723	2430.325146
500.935003	2427.340783
501.301226	2429.473191
501.667390	2428.590989
502.033497	2432.071906
502.399546	2430.332707
502.765537	2428.684250
503.131470	2430.594848
503.497345	2428.023859
503.863163	2431.572831
504.228923	2427.998653
504.594625	2430.700712
504.960269	2431.167018
505.325856	2432.729776
505.691385	2432.588624
506.056856	2430.985537
506.422270	2431.993768
506.787625	2432.210537
507.152924	2434.340425
507.518164	2434.544592
507.883347	2431.282965
508.248472	2435.414191
508.613540	2433.425455
508.978550	2439.056424
509.343503	2438.138934
509.708398	2439.908379
510.073236	2439.815118
510.438016	2436.750096
510.802738	2438.267484
511.167403	2441.274532
511.532010	2441.324943
511.896561	2442.045828
512.261053	2446.260233
512.625488	2442.232351
512.989866	2441.488781
513.354186	2445.128494
513.718449	2442.078596
514.082655	2447.490275
514.446803	2449.592436
514.810894	2450.509926
515.174927	2451.470266
515.538904	2452.481017
515.902822	2452.970009
516.266684	2455.258693
516.630488	2457.713735
516.994235	2456.438323
517.357925	2459.152984
517.721558	2461.696246
518.085133	2462.364199
518.448651	2463.443006
518.812112	2465.101546
519.175516	2469.280662
519.538863	2470.601444
519.902152	2470.379634
520.265385	2472.902731
520.628560	2475.594707
520.991678	2474.941878
521.354739	2476.832311
521.717743	2480.330871
522.080690	2482.528814
522.443580	2482.629637
522.806413	2485.029227
523.169189	2483.693321
523.531908	2489.835967
523.894569	2487.214567
524.257174	2493.745382
524.619722	2491.716317
524.982213	2496.248315
525.344647	2498.453819
525.707025	2499.767040
526.069345	2500.268635
526.431608	2502.711074
526.793815	2504.548574
527.155964	2504.848523
527.518057	2508.841117
527.880093	2509.864471
528.242072	2511.525531
528.603995	2516.682632
528.965860	2513.862106
529.327669	2517.096006
529.689421	2519.233456
530.051117	2518.857890
530.412755	2523.944414
530.774337	2520.339989
531.135862	2524.362830
531.497331	2521.300329
531.858743	2522.847963
532.220098	2528.955321
532.581396	2527.488345
532.942638	2530.941535
533.303824	2533.446989
533.664953	2534.777853
534.026025	2537.416898
534.387040	2540.844882
534.747999	2541.616179
535.108902	2543.471323
535.469748	2540.454193
535.830537	2544.776982
536.191270	2547.680687
536.551947	2548.512477
536.912567	2549.654298
537.273131	2551.675801
537.633638	2550.168496
537.994089	2550.768393
538.354483	2552.888199
538.714821	2558.257027
539.075103	2559.171997
539.435328	2558.927501
539.795497	2560.858263
540.155609	2559.913047
540.515665	2563.010836
540.875665	2565.722976
541.235609	2566.708522
541.595496	2566.491752
541.955328	2571.101887
542.315102	2570.068451
542.674821	2570.028122
543.034483	2570.554922
543.394090	2572.856209
543.753640	2573.342680
544.113134	2579.744946
544.472571	2577.267219
544.831953	2578.925758
545.191278	2582.212591
545.550548	2576.047259
545.909761	2582.401634
546.268918	2582.358784
546.628019	2584.748291
546.987064	2582.956161
547.346053	2582.320975
547.704986	2587.397417
548.063863	2583.651840
548.422684	2584.886923
548.781449	2588.561924
549.140158	2587.165524
549.498811	2588.816502
549.857408	2586.197623
550.215949	2589.960844
550.574434	2585.247365
550.932864	2587.989753
551.291237	2587.306677
551.649555	2591.337079
552.007817	2591.999991
552.366022	2592.741040
552.724173	2592.557038
553.082267	2595.415372
553.440305	2596.794128
553.798288	2594.109714
554.156215	2592.952769
554.514086	2596.915116
554.871902	2595.538881
555.229661	2595.732965
555.587365	2595.052409
555.945014	2593.724065
556.302606	2594.853284
556.660143	2596.259766
557.017625	2593.345979
557.375050	2593.136771
557.732421	2593.088880
558.089735	2592.899837
558.446994	2594.273551
558.804197	2597.890579
559.161345	2595.833788
559.518437	2591.863880
559.875474	2591.700042
560.232455	2592.816658
560.589381	2595.443099
560.946251	2594.376895
561.303065	2595.125506
561.659825	2592.045361
562.016528	2588.705597
562.373177	2593.744230
562.729770	2591.034610
563.086307	2590.848087
563.442789	2592.597367
563.799216	2588.627459
564.155587	2589.310535
564.511904	2588.040164
564.868164	2586.545462
565.224370	2587.662078
565.580520	2586.726944
565.936615	2585.338106
566.292654	2585.932962
566.648638	2584.314752
567.004567	2584.206367
567.360441	2586.011100
567.716260	2581.222004
568.072023	2583.220821
568.427732	2579.306365
568.783385	2578.887950
569.138982	2575.812846
569.494525	2579.240830
569.850013	2573.831672
570.205445	2580.027250
570.560823	2576.994996
570.916145	2578.867785
571.271412	2576.490881
571.626625	2577.373083
571.981782	2576.876529
572.336884	2573.231775
572.691931	2574.144224
573.046923	2570.610375
573.401860	2570.779254
573.756743	2572.417629
574.111570	2571.815211
574.466342	2571.212793
574.821059	2572.074830
575.175722	2569.619788
575.530330	2568.440158
575.884882	2568.122566
576.239380	2568.603996
576.593823	2570.252453
576.948211	2567.815055
577.302544	2566.607699
577.656823	2568.765313
578.011047	2568.089798
578.365216	2568.394788
578.719330	2566.799263
579.073389	2568.672051
579.427394	2569.460992
579.781344	2568.316650
580.135239	2569.115673
580.489080	2566.514437
580.842866	2567.066444
581.196597	2570.875036
581.550273	2570.885118
581.903895	2571.719429
582.257463	2575.313772
582.610975	2572.611713
582.964434	2573.859399
583.317837	2576.427867
583.671186	2580.753177
584.024481	2579.097157
584.377721	2579.162692
584.730906	2580.758218
585.084037	2582.441963
585.437113	2581.595049
585.790135	2585.121336
586.143103	2585.791810
586.496016	2591.122830
586.848874	2585.726275
587.201679	2589.945721
587.554428	2588.955134
587.907124	2592.594847
588.259765	2595.077615
588.612352	2602.722525
588.964884	2601.457195
589.317362	2605.308637
589.669786	2608.413988
590.022155	2609.918772
590.374470	2612.257867
590.726731	2613.039246
591.078937	2613.999586
591.431090	2619.121398
591.783188	2617.039402
592.135232	2619.441512
592.487222	2625.110289
592.839157	2630.340486
593.191038	2630.537091
593.542866	2632.724952
593.894639	2633.521454
594.246358	2637.919861
594.598022	2640.203504
594.949633	2643.480254
595.301190	2646.318423
595.652692	2647.127529
596.004141	2651.536018
596.355535	2653.043323
596.706876	2652.619866
597.058162	2654.245638
597.409395	2663.312153
597.760573	2664.801814
598.111698	2667.423214
598.462768	2670.679799
598.813785	2674.717764
599.164748	2676.088957
599.515657	2682.652540
599.866511	2682.607169
600.217312	2692.616380
600.568060	2692.049251
600.918753	2705.965356
601.269392	2708.538865
601.619978	2712.307127
601.970510	2717.013044
602.320988	2721.368601
602.671412	2729.535271
603.021783	2737.638925
603.372100	2738.251426
603.722363	2741.318968
604.072572	2749.561254
604.422728	2755.058632
604.772830	2756.686925
605.122878	2763.953748
605.472872	2773.670572
605.822813	2774.192332
606.172701	2789.212450
606.522534	2797.553039
606.872314	2806.491005
607.222041	2811.360759
607.571714	2822.839467
607.921333	2825.014724
608.270899	2834.887824
608.620411	2849.373580
608.969870	2857.802389
609.319276	2862.737679
609.668627	2873.187991
610.017926	2887.335989
610.367171	2898.005591
610.716362	2913.330699
611.065500	2921.530135
611.414585	2936.595624
611.763616	2951.545165
612.112594	2961.370374
612.461518	2972.443269
612.810389	2988.022955
613.159207	2998.750530
613.507971	3011.633199
613.856682	3034.701519
614.205340	3047.148128
614.553945	3072.164853
614.902496	3077.137952
615.250994	3097.597475
615.599439	3116.136318
615.947830	3136.832775
616.296169	3154.045795
616.644454	3174.918692
616.992686	3196.588092
617.340864	3229.332907
617.688990	3245.341091
618.037063	3278.423663
618.385082	3296.914615
618.733048	3325.044254
619.080961	3342.022860
619.428821	3361.635469
619.776628	3383.869478
620.124382	3396.850449
620.472083	3414.650763
620.819731	3429.819595
621.167326	3434.699432
621.514868	3445.671504
621.862357	3447.425825
622.209793	3459.156590
622.557176	3462.793783
622.904506	3462.483752
623.251783	3462.105665
623.599007	3473.705360
623.946179	3479.089313
624.293297	3494.162363
624.640363	3496.975326
624.987376	3511.261956
625.334336	3517.074407
625.681243	3527.993546
626.028097	3545.201525
626.374899	3560.645099
626.721647	3581.749890
627.068343	3599.517437
627.414987	3607.933643
627.761577	3621.433853
628.108115	3651.259840
628.454600	3658.965243
628.801032	3682.441897
629.147412	3705.583314
629.493739	3729.901840
629.840014	3741.602358
630.186236	3778.427987
630.532405	3794.960451
630.878521	3823.861386
631.224585	3845.263604
631.570597	3864.422510
631.916556	3895.844022
632.262462	3923.449380
632.608316	3946.230354
632.954117	3963.486224
633.299866	3986.695696
633.645562	4000.168180
633.991206	3999.101976
634.336797	3997.612315
634.682336	4015.977238
635.027823	4019.430429
635.373257	4026.016696
635.718639	4027.912170
636.063968	4042.581928
636.409245	4034.495917
636.754470	4049.463103
637.099642	4057.884350
637.444762	4057.914597
637.789829	4080.995520
638.134845	4088.721088
638.479808	4103.078294
638.824719	4120.881129
639.169577	4120.629072
639.514383	4145.199655
639.859137	4148.841889
640.203839	4182.645346
640.548489	4188.936706
640.893086	4210.901013
641.237632	4219.624730
641.582125	4246.521807
641.926566	4266.915794
642.270955	4290.727685
642.615292	4317.372703
642.959576	4337.370961
643.303809	4364.583109
643.647990	4393.201739
643.992118	4419.428342
644.336195	4442.400880
644.680219	4469.655879
645.024192	4523.107233
645.368112	4585.791460
645.711981	4620.983755
646.055797	4715.787695
646.399562	4755.123818
646.743274	4855.238613
647.086935	4929.358698
647.430544	4962.569819
647.774101	5003.395604
648.117606	5047.359507
648.461059	5094.093523
648.804460	5089.133028
649.147810	5062.296445
649.491108	5060.201846
649.834354	5056.118511
650.177548	5014.392881
650.520690	5001.268237
650.863781	5022.221793
651.206820	5039.424730
651.549807	5028.069531
651.892742	5013.359444
652.235626	5025.238923
652.578458	5040.596799
652.921238	5020.964025
653.263967	5068.308021
653.606644	5074.110389
653.949269	5097.786168
654.291843	5093.549079
654.634365	5157.082741
654.976836	5152.812883
655.319255	5175.614022
655.661622	5206.526377
656.003938	5208.545360
656.346203	5226.716199
656.688416	5270.864103
657.030577	5277.478097
657.372687	5290.287669
657.714746	5339.355740
658.056753	5380.521803
658.398708	5353.080282
658.740612	5388.728801
659.082465	5440.577068
659.424266	5460.063648
659.766016	5498.734340
660.107715	5527.136200
660.449362	5563.364452
660.790958	5593.510552
661.132503	5624.243947
661.473996	5660.071427
661.815438	5699.463003
662.156829	5749.234315
662.498168	5756.939719
662.839456	5791.045645
663.180693	5833.577860
663.521879	5889.421242
663.863013	5918.249080
664.204097	5945.962824
664.545129	6030.848293
664.886110	6063.023457
665.227040	6114.755778
665.567918	6157.081306
665.908746	6205.176434
666.249522	6260.331698
666.590248	6297.394261
666.930922	6353.290575
667.271545	6380.691767
667.612118	6423.702891
667.952639	6429.222955
668.293109	6469.738708
668.633528	6482.167673
668.973896	6508.999214
669.314213	6547.357354
669.654480	6545.948352
669.994695	6576.782569
670.334859	6595.931392
670.674973	6618.853518
671.015035	6671.841087
671.355047	6708.429781
671.695008	6731.752679
672.034918	6757.916268
672.374777	6808.610111
672.714585	6827.043090
673.054342	6897.001703
673.394049	6901.216107
673.733705	6977.307283
674.073310	6966.574667
674.412864	7010.667119
674.752368	6985.433623
675.091820	7061.413894
675.431223	7035.633433
675.770574	7021.722369
676.109875	7028.737135
676.449125	7018.914447
676.788324	7035.298197
677.127473	6991.228430
677.466571	7006.447673
677.805619	6994.583317
678.144616	7019.030393
678.483562	7038.083434
678.822458	7023.441403
679.161303	7048.236318
679.500098	7065.446817
679.838842	7078.458035
680.177535	7143.287274
680.516179	7225.561425
680.854771	7299.726880
681.193314	7498.814649
681.531805	7758.688650
681.870247	7949.317362
682.208638	8123.799258
682.546978	8200.515538
682.885268	8257.422603
683.223508	8200.250877
683.561697	8183.471397
683.899836	8189.760236
684.237925	8139.482288
684.575963	8160.123293
684.913951	8120.008311
685.251889	8191.010442
685.589776	8238.324192
685.927614	8283.092158
686.265401	8360.110907
686.603137	8429.537678
686.940824	8584.994259
687.278460	8712.966470
687.616046	8796.329511
687.953582	8962.891754
688.291068	8988.273964
688.628504	9089.296167
688.965889	9117.042677
689.303224	9082.508253
689.640510	9041.150627
689.977745	8926.582844
690.314930	8787.270557
690.652065	8700.610602
690.989150	8578.571829
691.326185	8421.791945
691.663170	8297.414076
692.000105	8167.891711
692.336990	8051.007517
692.673825	7982.790624
693.010610	7902.611072
693.347345	7808.023902
693.684030	7697.967952
694.020665	7666.327150
694.357251	7547.068573
694.693786	7561.488794
695.030272	7549.291722
695.366707	7458.586241
695.703093	7425.609533
696.039429	7451.218595
696.375716	7421.483349
696.711952	7442.436905
697.048139	7439.727284
697.384276	7433.725791
697.720363	7487.431723
698.056400	7476.888150
698.392388	7452.801517
698.728326	7473.077038
699.064214	7453.608102
699.400053	7466.899104
699.735842	7412.963799
700.071581	7370.106429
700.407270	7328.113618
700.742910	7303.900956
701.078501	7268.766634
701.414042	7221.069757
701.749533	7178.335896
702.084974	7116.929601
702.420366	7185.786721
702.755709	7105.758404
703.091002	7057.418780
703.426246	7085.712256
703.761440	7085.210661
704.096584	7036.180398
704.431679	7049.783952
704.766725	7060.728297
705.101721	7062.270890
705.436668	7114.769466
705.771565	7056.163532
706.106413	7164.581107
706.441212	7192.930036
706.775961	7249.585044
707.110661	7300.606562
707.445311	7427.696571
707.779913	7412.595794
708.114465	7506.653643
708.448967	7618.905016
708.783421	7834.200093
709.117825	7946.068338
709.452180	8035.778192
709.786485	8180.255140
710.120742	8432.428779
710.454949	8463.210065
710.789107	8627.957493
711.123216	8853.607101
711.457275	8913.818642
711.791286	9091.973019
712.125247	9137.688723
712.459159	9082.886339
712.793023	9299.093866
713.126837	9015.874281
713.460602	9112.067058
713.794318	9033.926653
714.127985	8950.500598
714.461602	8719.376297
714.795171	8725.541628
715.128691	8461.637225
715.462162	8327.779467
715.795584	8222.850370
716.128957	8170.986979
716.462281	8074.000220
716.795556	8021.972992
717.128782	7898.358858
717.461960	7750.824450
717.795088	7746.471414
718.128167	7647.337123
718.461198	7525.747013
718.794180	7498.549988
719.127113	7411.002790
719.459997	7369.367900
719.792833	7276.242665
720.125619	7291.529964
720.458357	7196.378185
720.791046	7167.459606
721.123686	7134.566077
721.456278	7083.431133
721.788821	7078.722696
722.121315	7015.005032
722.453761	7060.143523
722.786158	7053.012811
723.118506	7070.997127
723.450805	7051.674385
723.783056	7122.124510
724.115259	7104.384689
724.447412	7097.085099
724.779518	7205.721964
725.111574	7220.568162
725.443582	7311.429919
725.775542	7327.352403
726.107453	7505.892429
726.439315	7487.212433
726.771129	7642.134653
727.102895	7790.410111
727.434612	7880.157772
727.766281	7940.989376
728.097901	8049.164976
728.429473	8077.937361
728.760996	8095.946883
729.092471	8147.096951
729.423897	8135.857698
729.755276	8110.755273
730.086606	8176.680962
730.417887	8388.989157
730.749120	8597.597144
731.080305	8688.799179
731.411442	8831.965427
731.742530	8882.467707
732.073570	8948.249723
732.404562	9075.357376
732.735506	9026.246455
733.066401	8946.825597
733.397249	8785.511195
733.728048	8577.803053
734.058798	8293.915516
734.389501	8054.362405
734.720156	7900.836586
735.050762	7714.916311
735.381320	7594.268897
735.711831	7520.282402
736.042293	7399.791264
736.372707	7418.403204
736.703073	7351.834767
737.033391	7436.173271
737.363661	7438.310720
737.693883	7492.934143
738.024056	7574.895743
738.354182	7655.579410
738.684260	7779.700179
739.014290	7874.841876
739.344272	7956.596788
739.674207	8078.509532
740.004093	8141.231568
740.333931	8155.349320
740.663722	8193.523457
740.993464	8207.767238
741.323159	8158.789907
741.652806	8067.494611
741.982405	8001.168150
742.311956	7892.044813
742.641460	7863.088426
742.970915	7753.453412
743.300323	7635.550906
743.629683	7561.196407
743.958996	7463.597148
744.288260	7363.411777
744.617477	7253.897751
744.946647	7243.162614
745.275768	7143.647716
745.604842	7084.051195
745.933869	7021.762698
746.262847	7015.655341
746.591778	7001.693865
746.920662	6968.175233
747.249498	6981.801472
747.578286	7045.929990
747.907027	7111.676718
748.235720	7218.849129
748.564365	7241.413333
748.892963	7208.224897
749.221514	7251.616629
749.550017	7199.667538
749.878473	7200.544699
750.206881	7118.081504
750.535242	7088.003460
750.863555	7065.063689
751.191821	7040.646861
751.520039	7055.596403
751.848210	7023.385950
752.176334	7050.351082
752.504411	7023.708584
752.832440	6956.217616
753.160421	6993.176836
753.488356	6942.170441
753.816243	6917.814106
754.144082	6854.068716
754.471875	6834.395613
754.799620	6817.399363
755.127318	6819.904816
755.454969	6811.886861
755.782572	6795.866074
756.110129	6808.602549
756.437638	6777.317148
756.765100	6786.537419
757.092515	6791.389529
757.419882	6812.181768
757.747203	6818.636966
758.074477	6856.115424
758.401703	6848.606626
758.728882	6924.496156
759.056014	6952.257790
759.383099	7017.749940
759.710138	7076.471821
760.037129	7124.138451
760.364073	7138.301572
760.690970	7139.642519
761.017820	7159.582803
761.344623	7265.525172
761.671379	7448.203985
761.998088	7778.102133
762.324751	8546.565543
762.651366	9920.592518
762.977935	11662.348981
763.304456	12783.342800
763.630931	13092.478956
763.957359	12560.959859
764.283740	11663.669763
764.610074	10782.115628
764.936362	9759.081511
765.262602	9009.517386
765.588796	8279.034029
765.914943	7773.237420
766.241044	7340.224990
766.567097	7021.548449
766.893104	6746.354382
767.219064	6564.829993
767.544978	6375.806889
767.870845	6226.288786
768.196665	6134.600280
768.522438	6034.911463
768.848165	5960.798939
769.173846	5880.495879
769.499479	5826.704247
769.825066	5748.110138
770.150607	5659.166540
770.476101	5632.849197
770.801548	5582.994706
771.126949	5511.932080
771.452303	5477.564014
771.777611	5395.297424
772.102872	5389.129573
772.428087	5335.547148
772.753256	5274.844094
773.078378	5229.393051
773.403453	5159.978883
773.728482	5106.522488
774.053465	5078.382767
774.378401	5035.754770
774.703291	4984.718129
775.028135	4938.652065
775.352932	4924.831742
775.677683	4879.325246
776.002388	4838.224719
776.327046	4839.573227
776.651658	4799.790962
776.976224	4759.360908
777.300743	4752.772120
777.625216	4719.858426
777.949643	4696.477555
778.274024	4707.608422
778.598359	4671.024769
778.922647	4671.733051
779.246889	4652.062469
779.571086	4660.367770
779.895236	4668.179038
780.219339	4665.524870
780.543397	4663.616793
780.867409	4699.245148
781.191374	4703.131878
781.515294	4685.061862
781.839167	4719.845823
782.162995	4707.298392
782.486776	4685.190411
782.810511	4668.504192
783.134201	4628.845435
783.457844	4629.369715
783.781441	4603.097742
784.104993	4581.360286
784.428498	4567.832350
784.751958	4560.066452
785.075372	4556.023447
785.398739	4531.962020
785.722061	4555.196698
786.045337	4556.908169
786.368568	4622.705309
786.691752	4635.945900
787.014891	4779.013846
787.337983	4937.560655
787.661030	5189.749417
787.984031	5434.467190
788.306987	5592.222538
788.629897	5660.262991
788.952760	5624.266632
789.275579	5542.897368
789.598351	5377.688674
789.921078	5225.022371
790.243759	5066.659564
790.566395	4943.572231
790.888984	4832.714737
791.211529	4754.370166
791.534027	4661.988501
791.856480	4578.990944
792.178888	4542.538360
792.501249	4510.211961
792.823566	4442.668062
793.145836	4448.241057
793.468062	4437.286630
793.790241	4413.026077
794.112375	4439.353503
794.434464	4500.091845
794.756507	4518.247561
795.078505	4595.039457
795.400457	4716.944639
795.722364	4852.324826
796.044226	4972.175738
796.366042	5070.672323
796.687812	5045.879928
797.009538	5068.723917
797.331218	5020.238099
797.652852	4980.546574
797.974442	4914.474691
798.295986	4879.065627
798.617484	4804.164163
798.938938	4738.677054
799.260346	4705.370150
799.581709	4621.747490
799.903026	4590.535186
800.224299	4543.019791
800.545526	4473.414059
800.866708	4436.008697
801.187845	4402.958893
801.508936	4357.066749
801.829983	4339.780632
802.150984	4272.791259
802.471940	4259.207870
802.792851	4244.853185
803.113717	4235.494283
803.434538	4217.414184
803.755314	4199.311401
804.076045	4190.086089
804.396731	4168.663706
804.717372	4177.553781
805.037967	4180.568391
805.358518	4195.328889
805.679024	4229.822984
805.999485	4237.293974
806.319901	4248.369389
806.640272	4262.161986
806.960598	4293.371770
807.280879	4291.786327
807.601115	4315.578052
807.921306	4293.263385
808.241453	4292.943272
808.561554	4301.402328
808.881611	4285.542858
809.201623	4284.935399
809.521590	4256.357098
809.841513	4250.148917
810.161390	4260.700052
810.481223	4208.372875
810.801011	4206.636197
811.120755	4191.732026
811.440453	4154.069566
811.760107	4140.985251
812.079716	4125.634937
812.399281	4093.968929
812.718801	4097.754836
813.038276	4074.772216
813.357707	4058.847211
813.677093	4071.039241
813.996434	4033.654044
814.315731	4047.691137
814.634983	4047.673493
814.954191	4052.233217
815.273354	4099.282306
815.592473	4123.744505
815.911547	4177.868853
816.230577	4209.749110
816.549562	4269.713635
816.868502	4307.302998
817.187399	4351.551726
817.506250	4407.327053
817.825058	4432.174900
818.143821	4535.289181
818.462539	4654.583046
818.781213	4807.133402
819.099843	5049.837234
819.418429	5464.434329
819.736970	5873.360126
820.055466	6347.188258
820.373919	6971.693958
820.692327	7948.853576
821.010691	9631.409248
821.329011	13206.658570
821.647286	18421.328932
821.965517	24125.810404
822.283704	27309.331825
822.601847	28624.836045
822.919945	26349.652409
823.237999	23628.951760
823.556010	20667.402425
823.873976	17880.844143
824.191897	15333.334855
824.509775	13476.284684
824.827609	11787.808176
825.145398	10851.030722
825.463144	10402.236959
825.780845	10593.261402
826.098502	11354.757937
826.416116	12853.656813
826.733685	14277.134987
827.051210	14667.958000
827.368692	13837.690044
827.686129	12256.028025
828.003522	10677.068064
828.320872	9254.504860
828.638177	8166.641504
828.955439	7325.058678
829.272656	6624.066072
829.589830	6068.984622
829.906960	5585.111990
830.224046	5227.802567
830.541088	4953.218479
830.858086	4778.587869
831.175041	4643.154750
831.491952	4613.232981
831.808819	4644.062158
832.125642	4815.645391
832.442421	5198.394996
832.759157	5940.813285
833.075849	7100.687003
833.392497	8321.969537
833.709101	9071.047190
834.025662	8930.104090
834.342179	8253.014114
834.658653	7382.021196
834.975083	6637.959492
835.291469	6023.069792
835.607811	5518.926681
835.924110	5159.832690
836.240366	4827.151824
836.556578	4518.912993
836.872746	4273.539871
837.188871	4085.613217
837.504952	3934.955814
837.820990	3815.775375
838.136984	3731.643558
838.452935	3706.150443
838.768842	3723.071076
839.084706	3913.833379
839.400526	4411.523813
839.716303	5027.003327
840.032037	5418.668214
840.347727	5336.227704
840.663373	4933.373977
840.978977	4534.243142
841.294537	4228.083786
841.610054	3998.852439
841.925527	3834.944362
842.240957	3686.933565
842.556344	3556.110582
842.871687	3448.572688
843.186987	3339.668641
843.502244	3262.695263
843.817458	3196.850232
844.132629	3146.204280
844.447756	3111.148096
844.762840	3080.772624
845.077881	3052.307748
845.392879	3028.158101
845.707833	3010.912314
846.022745	2992.829695
846.337613	2982.538179
846.652438	2967.669296
846.967221	2963.885910
847.281960	2947.799588
847.596656	2941.130142
847.911309	2931.677978
848.225919	2921.532656
848.540485	2916.496543
848.855009	2909.527148
849.169490	2901.156312
849.483928	2896.926784
849.798323	2892.122564
850.112675	2886.509240
850.426984	2887.290618
850.741251	2882.352808
851.055474	2879.955740
851.369654	2878.801315
851.683792	2876.179915
851.997887	2879.527242
852.311938	2882.781306
852.625947	2883.222407
852.939914	2877.659494
853.253837	2882.614948
853.567718	2879.300390
853.881555	2874.927189
854.195350	2880.238044
854.509103	2877.246119
854.822812	2874.934750
855.136479	2873.752600
855.450103	2880.704351
855.763685	2871.587424
856.077224	2875.569936
856.390720	2879.673435
856.704173	2887.383880
857.017584	2890.045609
857.330953	2893.579458
857.644278	2898.340828
857.957561	2903.714698
858.270802	2902.908113
858.584000	2905.148906
858.897155	2895.452247
859.210268	2887.635938
859.523339	2884.018910
859.836367	2879.257540
860.149352	2876.860471
860.462295	2875.811911
860.775195	2866.707587
861.088054	2865.737165
861.400869	2864.718852
861.713642	2862.823378
862.026373	2869.699512
862.339062	2875.181767
862.651708	2877.011706
862.964312	2888.568551
863.276873	2897.975344
863.589392	2919.884199
863.901869	2939.338011
864.214303	2954.290074
864.526696	2967.860860
864.839045	2980.115905
865.151353	2990.873727
865.463619	2990.248624
865.775842	2994.198368
866.088023	2993.848008
866.400162	2994.135354
866.712258	2995.763646
867.024313	2993.192658
867.336325	2992.872545
867.648296	2991.100579
867.960224	2990.656958
868.272110	2994.810868
868.583954	2994.468070
868.895755	3000.837568
869.207515	2998.516116
869.519233	3013.412726
869.830909	3016.984383
870.142542	3026.686084
870.454134	3030.335879
870.765684	3038.898279
871.077191	3056.053326
871.388657	3062.374933
871.700081	3078.441090
872.011463	3092.253852
872.322803	3102.452106
872.634101	3115.012141
872.945357	3130.894296
873.256571	3151.638644
873.567744	3157.781290
873.878874	3164.523833
874.189963	3175.450534
874.501010	3179.501101
874.812015	3175.947088
875.122979	3187.317410
875.433900	3187.168696
875.744780	3190.553831
876.055618	3199.519523
876.366415	3201.591437
876.677169	3204.081767
876.987882	3217.728171
877.298554	3231.036817
877.609183	3260.179727
877.919771	3299.503248
878.230317	3347.520238
878.540822	3429.658278
878.851285	3543.885783
879.161707	3709.286041
879.472087	3994.310359
879.782425	4450.648208
880.092722	5284.298778
880.402977	6530.290528
880.713191	7935.935619
881.023363	9280.741546
881.333494	10068.633562
881.643583	10454.914497
881.953631	10361.476710
882.263637	9942.471126
882.573602	9351.388276
882.883526	8756.985826
883.193408	8138.403481
883.503248	7520.380705
883.813048	6955.592513
884.122806	6435.526918
884.432522	5917.805459
884.742197	5470.889526
885.051831	5089.228810
885.361424	4744.118979
885.670975	4473.255262
885.980485	4245.102722
886.289954	4051.093916
886.599382	3897.714290
886.908768	3772.023201
887.218113	3647.665497
887.527417	3552.112947
887.836680	3463.265131
888.145901	3387.582288
888.455082	3332.994153
888.764221	3281.536576
889.073319	3239.362282
889.382376	3214.912686
889.691392	3196.310829
890.000366	3189.936290
890.309300	3187.198943
890.618193	3188.779345
890.927044	3182.500588
891.235855	3191.627597
891.544625	3202.188814
891.853353	3220.699931
892.162041	3264.842795
892.470687	3337.410204
892.779293	3421.652926
893.087858	3550.124211
893.396381	3754.457300
893.704864	4053.609452
894.013306	4459.923931
894.321707	4873.505234
894.630068	5143.169156
894.938387	5181.444117
895.246665	5053.857554
895.554903	4831.310776
895.863100	4585.761213
896.171256	4383.371489
896.479371	4207.089901
896.787446	4042.917164
897.095480	3898.301584
897.403473	3787.227321
897.711425	3680.485929
898.019336	3586.899429
898.327207	3498.187724
898.635038	3421.897422
898.942827	3342.232068
899.250576	3279.036163
899.558284	3215.784806
899.865952	3178.903724
900.173579	3129.061836
900.481165	3096.697629
900.788711	3064.610684
901.096216	3040.282076
901.403681	3019.182327
901.711105	3011.953312
902.018489	3008.535410
902.325832	3033.289996
902.633135	3079.247675
902.940397	3206.730894
903.247619	3502.094618
903.554800	4039.958007
903.861941	4721.252305
904.169041	5227.893308
904.476101	5390.407505
904.783121	5204.945976
905.090100	4920.831586
905.397039	4622.186071
905.703938	4358.697562
906.010796	4124.039412
906.317614	3939.994447
906.624391	3765.157149
906.931129	3622.215232
907.237826	3487.379490
907.544483	3359.722351
907.851099	3236.309864
908.157675	3121.681587
908.464211	3014.804084
908.770707	2937.613937
909.077163	2879.060935
909.383578	2833.884635
909.689954	2800.711322
909.996289	2779.543517
910.302584	2763.870569
910.608839	2757.644744
910.915054	2745.593866
911.221229	2744.469689
911.527363	2742.720408
911.833458	2749.364649
912.139513	2758.937800
912.445527	2771.172681
912.751502	2797.152267
913.057436	2829.919767
913.363331	2873.624050
913.669186	2940.300872
913.975000	3027.535518
914.280775	3167.543484
914.586510	3370.601161
914.892205	3641.580824
915.197859	4007.971886
915.503475	4432.144653
915.809050	4793.855003
916.114585	5004.043392
916.420081	5065.164862
916.725536	5023.449314
917.030952	4845.297457
917.336328	4703.371333
917.641665	4543.518865
917.946961	4378.189183
918.252218	4226.450453
918.557435	4059.071542
918.862612	3912.898245
919.167750	3783.486785
919.472848	3640.098725
919.777906	3519.519366
920.082925	3402.728435
920.387904	3289.695683
920.692843	3203.696119
920.997743	3129.886065
921.302603	3059.952658
921.607423	3012.117149
921.912204	2962.315591
922.216946	2927.970209
922.521647	2889.980074
922.826310	2858.243490
923.130932	2829.224088
923.435516	2800.285344
923.740059	2779.420008
924.044564	2755.555186
924.349028	2737.323853
924.653454	2713.113712
924.957840	2694.857173
925.262186	2681.266222
925.566493	2662.170332
925.870761	2642.141828
926.174989	2636.500776
926.479178	2624.281019
926.783328	2610.853906
927.087438	2599.781012
927.391509	2590.971595
927.695541	2583.787951
927.999533	2576.420305
928.303486	2564.661813
928.607400	2565.354972
928.911275	2558.955227
929.215110	2553.601522
929.518906	2549.182951
929.822663	2548.026006
930.126381	2550.715461
930.430060	2552.749567
930.733699	2554.818961
931.037299	2559.799621
931.340861	2558.315001
931.644383	2562.516802
931.947866	2559.403890
932.251309	2557.878941
932.554714	2558.088149
932.858080	2557.190823
933.161407	2550.375183
933.464694	2548.255378
933.767943	2549.261088
934.071153	2543.587270
934.374323	2542.349667
934.677455	2537.590817
934.980548	2535.473533
935.283602	2535.718029
935.586617	2532.637884
935.889593	2536.905220
936.192530	2536.950591
936.495428	2541.472506
936.798287	2549.924000
937.101108	2558.055381
937.403890	2577.398289
937.706632	2600.086002
938.009336	2626.249590
938.312002	2650.018630
938.614628	2668.103770
938.917216	2683.065914
939.219765	2687.381142
939.522275	2697.370188
939.824747	2698.522092
940.127179	2692.886082
940.429573	2684.721933
940.731929	2685.924249
941.034246	2679.859741
941.336524	2678.148269
941.638763	2671.844306
941.940964	2670.710046
942.243126	2655.203457
942.545250	2647.326654
942.847335	2635.462299
943.149381	2626.292440
943.451389	2615.675770
943.753359	2603.193873
944.055290	2600.244798
944.357182	2591.760536
944.659036	2587.924218
944.960851	2585.322982
945.262628	2577.867116
945.564367	2583.195616
945.866067	2579.087075
946.167729	2580.095306
946.469352	2579.371900
946.770937	2573.715726
947.072484	2571.104408
947.373992	2575.122208
947.675462	2569.052658
947.976893	2565.523851
948.278286	2563.885476
948.579641	2557.064795
948.880958	2555.212171
949.182236	2560.500341
949.483476	2551.978270
949.784678	2551.398538
950.085841	2555.640669
950.386967	2560.023952
950.688054	2561.566545
950.989103	2569.869325
951.290114	2576.498443
951.591087	2586.495051
951.892021	2596.426124
952.192917	2603.488780
952.493776	2612.472117
952.794596	2614.024792
953.095378	2620.444701
953.396122	2615.297683
953.696828	2612.913217
953.997496	2609.563371
954.298126	2602.082298
954.598718	2593.376226
954.899272	2585.920359
955.199788	2576.619430
955.500266	2568.994685
955.800706	2553.059598
956.101108	2540.413863
956.401472	2533.207534
956.701798	2518.963754
957.002087	2509.879595
957.302337	2505.211486
957.602550	2494.884683
957.902724	2488.545432
958.202861	2481.381952
958.502960	2475.635037
958.803022	2469.792339
959.103045	2465.527523
959.403031	2458.056533
959.702979	2454.520164
960.002889	2454.913374
960.302762	2447.124791
960.602596	2445.380552
960.902393	2443.858123
961.202153	2441.060283
961.501875	2438.083482
961.801559	2436.056938
962.101205	2437.178594
962.400814	2433.039807
962.700385	2430.879673
962.999918	2432.558377
963.299414	2427.252563
963.598873	2429.831113
963.898293	2426.723241
964.197677	2424.651327
964.497022	2425.228539
964.796331	2424.558066
965.095601	2425.341965
965.394835	2423.620411
965.694030	2422.108065
965.993189	2425.067222
966.292309	2423.471697
966.591393	2422.357602
966.890439	2422.876841
967.189447	2422.153435
967.488419	2421.372057
967.787353	2420.867941
968.086249	2421.979516
968.385108	2422.211409
968.683930	2421.850966
968.982714	2424.636204
969.281462	2425.183169
969.580172	2426.234249
969.878844	2431.076278
970.177480	2429.533685
970.476078	2433.206165
970.774639	2439.187494
971.073162	2440.140272
971.371649	2439.457196
971.670098	2437.281938
971.968510	2439.963832
972.266885	2439.555498
972.565223	2443.782506
972.863524	2443.656477
973.161788	2447.502877
973.460014	2446.035902
973.758204	2447.901129
974.056356	2446.666046
974.354471	2448.576643
974.652550	2449.862138
974.950591	2449.655450
975.248595	2448.548917
975.546563	2449.325255
975.844493	2447.896087
976.142386	2447.583536
976.440243	2443.248144
976.738062	2439.197577
977.035845	2436.843358
977.333590	2437.271856
977.631299	2434.786567
977.928971	2435.668769
978.226606	2433.985023
978.524204	2433.264138
978.821765	2429.994950
979.119290	2430.862029
979.416777	2429.067378
979.714228	2430.025197
980.011642	2433.395208
980.309020	2432.765064
980.606360	2437.095415
980.903664	2445.327620
981.200931	2457.370936
981.498162	2469.651187
981.795356	2494.546925
982.092513	2524.163704
982.389633	2554.045143
982.686717	2586.915987
982.983764	2612.772065
983.280775	2624.709517
983.577749	2626.211781
983.874686	2618.332458
984.171587	2606.377362
984.468451	2596.310177
984.765279	2578.479616
985.062070	2566.895045
985.358824	2550.191181
985.655543	2533.988913
985.952224	2515.860924
986.248869	2494.741010
986.545478	2475.173771
986.842050	2461.839919
987.138586	2447.512960
987.435086	2436.949222
987.731549	2425.727613
988.027975	2426.811462
988.324366	2422.715524
988.620719	2421.258631
988.917037	2415.947775
989.213318	2413.185223
989.509563	2411.677918
989.805772	2410.762948
990.101944	2411.173802
990.398080	2409.505180
990.694180	2409.653894
990.990244	2408.423853
991.286271	2409.573236
991.582262	2409.540468
991.878217	2410.021899
992.174136	2411.609862
992.470019	2410.999882
992.765865	2411.196488
993.061676	2412.660943
993.357450	2416.083886
993.653188	2419.378280
993.948890	2424.127047
994.244556	2426.788776
994.540186	2435.439396
994.835780	2443.787547
995.131337	2454.706686
995.426859	2469.273100
995.722345	2480.219966
996.017795	2498.095897
996.313208	2505.864316
996.608586	2514.734226
996.903928	2516.342354
997.199234	2513.201715
997.494504	2516.541479
997.789738	2508.989831
998.084936	2503.484891
998.380099	2490.138436
998.675225	2484.996459
998.970316	2474.074799
999.265371	2465.199848
999.560390	2452.165945
999.855373	2447.785182
1000.150320	2439.222782
1000.445232	2431.199786
1000.740108	2423.607808
1001.034948	2417.853331
1001.329752	2415.544483
1001.624521	2414.969791
1001.919254	2407.355128
1002.213951	2407.428225
1002.508613	2406.440159
1002.803239	2406.614079
1003.097829	2401.542678
1003.392384	2404.663152
1003.686903	2402.485374
1003.981386	2402.702143
1004.275834	2401.290620
1004.570246	2400.766340
1004.864623	2399.596793
1005.158964	2400.126114
1005.453270	2398.258366
1005.747540	2400.975548
1006.041775	2398.497821
1006.335974	2399.518655
1006.630138	2399.992523
1006.924266	2399.871535
1007.218359	2397.315670
1007.512416	2398.933881
1007.806438	2399.652245
1008.100425	2396.531771
1008.394376	2396.627553
1008.688292	2396.115876
1008.982172	2396.181411
1009.276017	2397.895403
1009.569827	2396.350289
1009.863602	2396.829199
1010.157341	2397.159395
1010.451045	2395.016904
1010.744714	2396.156205
1011.038347	2395.052192
1011.331945	2396.630073
1011.625508	2394.457336
1011.919036	2396.496483
1012.212528	2395.659651
1012.505986	2394.860628
1012.799408	2396.695608
1013.092795	2394.815258
1013.386147	2396.037738
1013.679464	2395.279044
1013.972745	2391.765360
1014.265992	2393.723848
1014.559204	2395.135371
1014.852380	2394.359034
1015.145521	2395.876421
1015.438628	2393.234856
1015.731699	2394.913561
1016.024736	2397.242574
1016.317737	2395.669734
1016.610703	2395.919271
1016.903635	2392.186296
1017.196531	2390.134547
1017.489393	2393.202089
1017.782219	2393.862480
1018.075011	2397.124107
1018.367768	2396.304919
1018.660490	2395.725186
1018.953177	2395.725186
1019.245829	2395.725186
