Dividing Wavelength (nm)	Counts (n)	Blue Motor Position (mm): 43.000000	Red Motor Position (mm): 0.000000	
326.493990	1972.694241
326.888308	1972.694241
327.282561	1972.694241
327.676750	1947.024685
328.070874	1949.484768
328.464933	1957.311160
328.858929	1964.424228
329.252859	1977.556434
329.646726	1992.722745
330.040528	2007.422750
330.434265	2028.787160
330.827938	2047.227700
331.221547	2066.366441
331.615091	2087.130954
332.008571	2106.562081
332.401986	2127.283744
332.795338	2147.977681
333.188625	2165.362100
333.581847	2185.398166
333.975006	2202.704447
334.368100	2222.087683
334.761129	2239.877915
335.154095	2252.195975
335.546996	2298.040228
335.939833	2380.662219
336.332606	2396.524209
336.725315	2406.253636
337.117960	2414.916859
337.510540	2421.818199
337.903056	2435.333532
338.295508	2437.027360
338.687896	2444.049687
339.080220	2453.607715
339.472480	2457.542335
339.864676	2461.799590
340.256807	2467.052472
340.648875	2468.164047
341.040879	2468.562298
341.432818	2469.051290
341.824694	2474.798205
342.216506	2468.779067
342.608253	2470.140179
342.999937	2467.924592
343.391557	2468.370734
343.783113	2466.502986
344.174605	2462.838068
344.566033	2463.430403
344.957397	2460.985443
345.348697	2460.783797
345.739934	2458.782459
346.131106	2457.585185
346.522215	2455.518312
346.913260	2455.863631
347.304241	2450.136880
347.695159	2451.084617
348.086012	2451.762653
348.476802	2449.688218
348.867528	2446.855089
349.258191	2447.086982
349.648789	2444.710078
350.039324	2441.771086
350.429796	2444.687393
350.820203	2442.171857
351.210548	2441.077927
351.600828	2442.794440
351.991045	2440.936775
352.381198	2441.145983
352.771288	2440.437700
353.161314	2438.617844
353.551276	2440.011723
353.941175	2441.019954
354.331010	2440.140272
354.720782	2442.839810
355.110490	2442.633123
355.500135	2440.336877
355.889717	2441.665221
356.279235	2440.178081
356.668689	2443.258226
357.058080	2440.311672
357.447408	2441.672783
357.836672	2440.974583
358.225873	2442.532300
358.615010	2439.668924
359.004084	2449.269802
359.393095	2445.481375
359.782043	2447.270984
360.170927	2448.939606
360.559748	2448.503547
360.948505	2448.611931
361.337199	2452.574278
361.725830	2451.588733
362.114398	2452.415482
362.502903	2451.445060
362.891344	2454.820112
363.279722	2450.580502
363.668037	2454.704166
364.056289	2452.748198
364.444478	2457.905298
364.832603	2455.868672
365.220665	2456.647531
365.608665	2457.640638
365.996601	2460.655248
366.384474	2457.693570
366.772284	2459.878910
367.160031	2461.300516
367.547715	2457.746502
367.935336	2458.651389
368.322893	2463.203551
368.710388	2462.656586
369.097820	2465.041052
369.485189	2463.969807
369.872495	2466.717235
370.259738	2465.835033
370.646918	2468.569859
371.034035	2468.466516
371.421090	2470.094808
371.808081	2470.699747
372.195010	2470.430045
372.581875	2469.202524
372.968678	2473.200159
373.355418	2470.669500
373.742096	2473.016157
374.128710	2474.241157
374.515262	2474.493215
374.901751	2478.672332
375.288177	2477.112095
375.674540	2476.935654
376.060841	2480.794657
376.447079	2479.070583
376.833254	2482.291880
377.219367	2475.337608
377.605417	2484.641058
377.991404	2481.024030
378.377329	2485.724906
378.763191	2482.110399
379.148991	2490.801348
379.534727	2488.484938
379.920402	2491.343272
380.306013	2489.974599
380.691563	2493.281596
381.077049	2491.645741
381.462474	2494.604898
381.847835	2501.428100
382.233134	2499.865343
382.618371	2501.589417
383.003545	2504.780467
383.388657	2508.841117
383.773706	2514.948475
384.158693	2518.321007
384.543618	2525.103879
384.928480	2529.340969
385.313280	2537.497556
385.698017	2548.814946
386.082692	2559.908005
386.467305	2570.668348
386.851856	2589.552511
387.236344	2609.633947
387.620770	2630.123717
388.005133	2653.781852
388.389435	2683.459124
388.773674	2709.519369
389.157851	2745.177971
389.541965	2784.299845
389.926018	2816.439722
390.310008	2869.051724
390.693936	2924.461566
391.077802	2975.271356
391.461606	3034.517517
391.845348	3095.543204
392.229027	3164.296981
392.612645	3254.049684
392.996200	3330.423165
393.379694	3422.661157
393.763125	3534.478990
394.146494	3621.159110
394.529801	3718.105540
394.913047	3854.834235
395.296230	3921.180861
395.679351	4009.582535
396.062410	4173.969520
396.445408	4217.872929
396.828343	4345.895552
397.211217	4479.864215
397.594028	4520.780740
397.976778	4677.623639
398.359466	4843.185214
398.742092	4921.817132
399.124656	5075.542077
399.507158	5255.972535
399.889598	5361.413309
400.271977	5562.671294
400.654294	5674.688253
401.036549	5876.523450
401.418742	5988.928578
401.800874	6261.511328
402.182944	6413.844915
402.564952	6733.824594
402.946898	6735.639409
403.328783	6873.003290
403.710606	7101.848989
404.092367	7371.132304
404.474067	7729.081953
404.855705	7694.721449
405.237282	7762.920699
405.618797	8171.697782
406.000250	8452.351419
406.381642	8819.922111
406.762972	8893.401969
407.144240	8847.449331
407.525447	9137.494638
407.906593	9189.819295
408.287677	9490.211570
408.668700	9702.474394
409.049661	9779.614130
409.430560	10001.457667
409.811399	10064.353623
410.192176	10275.416652
410.572891	10427.198233
410.953545	10925.324727
411.334138	10542.940604
411.714669	11141.287757
412.095139	10615.883580
412.475547	11116.142482
412.855894	11040.827643
413.236180	11393.070707
413.616405	11166.967395
413.996568	11481.850467
414.376670	11506.297543
414.756711	11441.642224
415.136691	11740.451577
415.516609	11944.446909
415.896466	12047.425079
416.276262	12351.268024
416.655997	12814.098879
417.035670	12890.696691
417.415283	13545.494685
417.794834	13660.858970
418.174324	13441.525928
418.553753	13375.416237
418.933121	13869.323285
419.312428	13717.390469
419.691674	13644.976815
420.070859	14106.917907
420.449983	13791.422334
420.829045	14344.948588
421.208047	14097.349797
421.586988	14554.453901
421.965867	14815.391586
422.344686	14817.380321
422.723444	15385.256219
423.102141	14107.646353
423.480777	15282.086485
423.859352	14798.304595
424.237866	15885.837755
424.616319	15603.938953
424.994712	16243.467291
425.373044	16054.121553
425.751314	16712.592027
426.129524	15858.756677
426.507673	16927.531704
426.885762	16650.069117
427.263789	16825.292063
427.641756	16996.212384
428.019662	17059.940130
428.397508	17110.044158
428.775292	17393.959422
429.153016	17363.278960
429.530679	17438.571113
429.908282	17466.219321
430.285824	17194.400306
430.663305	17885.991161
431.040726	17493.852406
431.418086	17321.381930
431.795385	17962.420094
432.172624	18386.474394
432.549802	17937.463862
432.926920	18135.671949
433.303977	18017.224998
433.680974	18265.456455
434.057910	18558.652483
434.434786	18583.961596
434.811601	18499.058483
435.188355	19518.846097
435.565050	19170.182253
435.941683	19122.729872
436.318257	19992.732203
436.694770	19802.179108
437.071222	20392.929242
437.447614	19475.532504
437.823946	19500.755917
438.200218	19649.137239
438.576429	19424.815975
438.952580	19708.005313
439.328670	19665.941926
439.704700	20080.236552
440.080670	19648.859976
440.456580	20231.158615
440.832429	20405.746376
441.208218	19420.382281
441.583947	19848.807261
441.959616	19962.838161
442.335224	20197.219047
442.710773	20318.995680
443.086261	20843.739466
443.461689	20212.798733
443.837057	20348.698158
444.212365	20980.198460
444.587612	20979.777523
444.962800	20564.008360
445.337927	20974.007923
445.712995	19737.112936
446.088002	21548.833052
446.462949	21730.417934
446.837837	21901.265158
447.212664	21861.772759
447.587431	24639.841738
447.962139	27515.802363
448.336786	29878.427334
448.711374	28366.267703
449.085901	24742.061215
449.460369	24664.739997
449.834776	24573.921090
450.209124	27012.022216
450.583412	26586.576557
450.957640	27110.518800
451.331808	25782.613342
451.705917	24422.653707
452.079965	24451.269817
452.453954	24810.371370
452.827883	24691.241343
453.201752	24509.905998
453.575562	24665.221427
453.949311	25760.654076
454.323001	25814.796068
454.696632	25576.793113
455.070202	27112.600797
455.443713	27248.293535
455.817164	27829.828439
456.190556	28354.461320
456.563888	27804.675602
456.937160	28243.356810
457.310373	26604.949043
457.683526	27022.787600
458.056619	27006.174477
458.429653	26946.278008
458.802628	27521.027519
459.175542	27621.837993
459.548398	28925.014071
459.921194	30484.515178
460.293930	31157.889824
460.666607	33159.797551
461.039224	34907.368985
461.411782	35287.887880
461.784280	34085.106381
462.156719	33585.086934
462.529099	33012.608462
462.901419	31732.137741
463.273680	30686.305005
463.645882	30785.293102
464.018024	30745.717524
464.390106	31593.261514
464.762130	34257.090385
465.134094	38299.120307
465.505999	43586.693315
465.877845	48142.469745
466.249631	49279.222211
466.621358	47521.775157
466.993026	45388.399179
467.364634	43292.206751
467.736184	41341.804493
468.107674	40095.311148
468.479105	39334.248152
468.850477	38639.771237
469.221790	37224.406801
469.593043	35521.338673
469.964238	34657.211807
470.335373	34557.359153
470.706449	36219.470425
471.077467	38748.128318
471.448425	43296.219509
471.819324	46158.178330
472.190164	44354.967681
472.560945	40817.030459
472.931667	37729.013698
473.302330	36637.185474
473.672934	35811.114279
474.043479	36306.027037
474.413965	35520.494280
474.784393	35163.058828
475.154761	36052.661165
475.525070	36093.139110
475.895321	35623.238037
476.265513	36221.197021
476.635645	37183.502878
477.005719	36997.456575
477.375734	37449.746378
477.745691	38133.301633
478.115588	39444.117580
478.485427	41404.498802
478.855207	44736.194859
479.224928	47351.492542
479.594591	48982.361264
479.964194	47956.897310
480.333739	48082.175024
480.703226	48105.054301
481.072653	48749.790152
481.442022	49253.290516
481.811333	49521.074087
482.180584	48218.147547
482.549777	47712.958396
482.918912	47188.184363
483.287988	46871.199130
483.657005	46056.974646
484.025964	45440.721314
484.394864	45433.953565
484.763706	44989.623745
485.132489	44132.725893
485.501213	43964.401767
485.869879	44108.402326
486.238487	43714.605032
486.607036	43917.128346
486.975527	43375.161458
487.343959	43579.678549
487.712333	43656.669571
488.080648	43565.570880
488.448905	44005.585473
488.817104	43825.986805
489.185244	44766.272903
489.553326	46426.995338
489.921350	49140.325820
490.289315	52057.916293
490.657222	52703.743554
491.025070	52985.783508
491.392861	52063.718661
491.760593	50796.022224
492.128267	49101.425756
492.495883	47556.382678
492.863440	46185.793771
493.230939	44839.064644
493.598380	43759.226805
493.965763	43435.269656
494.333088	42618.441416
494.700354	42158.950325
495.067563	41877.263251
495.434713	41745.774835
495.801805	41825.054541
496.168839	41442.998094
496.535815	41117.142951
496.902733	41150.364155
497.269593	40744.924315
497.636395	40682.688751
498.003139	41068.813409
498.369825	40535.159383
498.736453	40847.731086
499.103023	40386.417618
499.469535	40258.508422
499.835989	40353.516528
500.202385	40019.509839
500.568723	40030.360922
500.935003	40227.754863
501.301226	40044.057737
501.667390	40638.316514
502.033497	40880.364996
502.399546	40317.903297
502.765537	39657.917956
503.131470	40022.917659
503.497345	40370.394311
503.863163	39054.055780
504.228923	39664.448770
504.594625	40066.692518
504.960269	39361.916525
505.325856	40047.279035
505.691385	39406.964276
506.056856	39544.494515
506.422270	39981.297892
506.787625	39564.674253
507.152924	39752.956308
507.518164	39859.811126
507.883347	39070.449613
508.248472	39317.892129
508.613540	39782.810022
508.978550	40080.510321
509.343503	39843.326553
509.708398	40029.450994
510.073236	40553.660418
510.438016	40548.359645
510.802738	40019.295590
511.167403	40628.602211
511.532010	40871.459797
511.896561	41150.669144
512.261053	41976.636996
512.625488	41526.986238
512.989866	41405.282702
513.354186	41260.624272
513.718449	41236.182237
514.082655	41919.404777
514.446803	41584.163005
514.810894	42108.342182
515.174927	42038.484392
515.538904	41940.867489
515.902822	42610.756177
516.266684	42061.197311
516.630488	42459.997951
516.994235	42322.568535
517.357925	42901.217379
517.721558	43057.636821
518.085133	43363.206362
518.448651	43502.231302
518.812112	43289.479487
519.175516	43387.169487
519.538863	43720.750198
519.902152	43687.463459
520.265385	44144.360877
520.628560	44186.383935
520.991678	43984.667205
521.354739	44219.915170
521.717743	44525.431778
522.080690	44435.583293
522.443580	44986.231048
522.806413	45031.200661
523.169189	44988.020658
523.531908	45164.158573
523.894569	45023.102048
524.257174	45191.668150
524.619722	45492.927504
524.982213	45494.432288
525.344647	45404.031797
525.707025	45469.831457
526.069345	45859.288318
526.431608	45780.061544
526.793815	46108.076822
527.155964	45633.716848
527.518057	45800.369833
527.880093	45605.413290
528.242072	46127.142466
528.603995	45820.789026
528.965860	45832.156828
529.327669	45931.376818
529.689421	45832.668505
530.051117	45792.606456
530.412755	45936.904443
530.774337	46015.914448
531.135862	45813.091184
531.497331	46018.873605
531.858743	45925.549244
532.220098	46271.853828
532.581396	45982.612585
532.942638	45647.317881
533.303824	45950.520600
533.664953	45914.952739
534.026025	45639.100801
534.387040	46091.274657
534.747999	46057.075469
535.108902	46228.691469
535.469748	45739.979330
535.830537	45878.497635
536.191270	46059.719554
536.551947	45715.514611
536.912567	46011.349683
537.273131	46133.224618
537.633638	45631.589481
537.994089	45987.308420
538.354483	45579.211893
538.714821	46133.701007
539.075103	46485.011457
539.435328	46253.524193
539.795497	46134.268137
540.155609	46120.016795
540.515665	46597.930783
540.875665	46057.534214
541.235609	46369.909312
541.595496	46338.817996
541.955328	46998.979777
542.315102	46386.051087
542.674821	46173.715166
543.034483	46189.549430
543.394090	46165.639238
543.753640	46135.863662
544.113134	47133.485323
544.472571	46151.642474
544.831953	47386.561329
545.191278	46601.348685
545.550548	46326.746953
545.909761	46768.851104
546.268918	46980.423290
546.628019	47268.689069
546.987064	46847.992178
547.346053	46131.576161
547.704986	47009.427568
548.063863	46566.105978
548.422684	46772.057278
548.781449	46619.075903
549.140158	47008.832712
549.498811	46857.991307
549.857408	46284.809594
550.215949	47115.919423
550.574434	47047.616829
550.932864	46821.609299
551.291237	47547.696770
551.649555	47130.440466
552.007817	47390.581649
552.366022	47035.001342
552.724173	47207.756643
553.082267	47606.209443
553.440305	47913.445085
553.798288	47209.561376
554.156215	47528.442083
554.514086	47729.153103
554.871902	47477.531470
555.229661	47507.760749
555.587365	47328.429263
555.945014	47419.195238
556.302606	47339.446705
556.660143	47579.645083
557.017625	47648.040937
557.375050	47442.099721
557.732421	47792.278431
558.089735	47778.415258
558.446994	47691.465437
558.804197	48158.871139
559.161345	48095.786140
559.518437	47341.427878
559.875474	47655.133841
560.232455	47811.694435
560.589381	47992.318978
560.946251	47695.967187
561.303065	48371.365856
561.659825	48177.258748
562.016528	47867.225266
562.373177	47570.830625
562.729770	48041.271102
563.086307	47569.630831
563.442789	48022.694450
563.799216	48066.212211
564.155587	47869.899598
564.511904	47891.117814
564.868164	47982.017380
565.224370	48220.713494
565.580520	47954.689285
565.936615	48156.559770
566.292654	47885.950632
566.648638	48126.141448
567.004567	48060.515707
567.360441	48118.559552
567.716260	47972.900453
568.072023	48259.971479
568.427732	48250.105941
568.783385	47824.161209
569.138982	48219.289368
569.494525	48168.845062
569.850013	47916.626053
570.205445	47884.155981
570.560823	47854.864356
570.916145	47731.595542
571.271412	47754.825179
571.626625	47506.490379
571.981782	47572.126202
572.336884	47251.987727
572.691931	47577.353878
573.046923	47188.512038
573.401860	47027.197636
573.756743	47012.316149
574.111570	47126.042060
574.466342	46994.500712
574.821059	47108.841643
575.175722	46618.085316
575.530330	46649.441293
575.884882	46373.430558
576.239380	46329.345667
576.593823	46306.889848
576.948211	46220.025726
577.302544	45747.263798
577.656823	45776.706657
578.011047	45993.438463
578.365216	45719.416464
578.719330	45511.531882
579.073389	45381.515483
579.427394	45453.281349
579.781344	45417.239620
580.135239	45057.386935
580.489080	45145.483619
580.842866	44645.438966
581.196597	45095.001504
581.550273	45051.919803
581.903895	44907.032001
582.257463	45315.551985
582.610975	44714.185181
582.964434	44995.630280
583.317837	44642.051311
583.671186	44482.251775
584.024481	44690.552252
584.377721	44243.706895
584.730906	44515.785530
585.084037	44537.560794
585.437113	44245.491464
585.790135	44277.858192
586.143103	43890.730344
586.496016	44020.222463
586.848874	44039.341039
587.201679	44057.000201
587.554428	43538.951067
587.907124	43741.711316
588.259765	43486.641534
588.612352	43739.319288
588.964884	43125.611740
589.317362	43407.954164
589.669786	43357.630846
590.022155	43133.962411
590.374470	43541.113722
590.726731	43067.131835
591.078937	42581.620828
591.431090	42671.638192
591.783188	42333.651512
592.135232	42006.097499
592.487222	42250.182607
592.839157	42338.717871
593.191038	42011.761236
593.542866	41790.101701
593.894639	41184.235667
594.246358	41463.939047
594.598022	41426.750455
594.949633	41041.770139
595.301190	41006.749243
595.652692	40846.982475
596.004141	41179.060923
596.355535	40184.138800
596.706876	40131.829267
597.058162	39963.076642
597.409395	40438.984250
597.760573	40512.852278
598.111698	40097.960275
598.462768	40117.857709
598.813785	40152.858440
599.164748	39607.355182
599.515657	39987.357359
599.866511	39458.552924
600.217312	40073.750133
600.568060	39043.560098
600.918753	39782.681472
601.269392	39752.986555
601.619978	39385.262109
601.970510	39618.433118
602.320988	39789.439139
602.671412	40087.424263
603.021783	39832.079739
603.372100	39474.891303
603.722363	39581.471378
604.072572	39668.955562
604.422728	39683.655567
604.772830	39498.098255
605.122878	39581.572201
605.472872	39515.712047
605.822813	39807.816665
606.172701	39639.207713
606.522534	39875.678158
606.872314	40147.512297
607.222041	39887.882791
607.571714	40273.034507
607.921333	39736.408721
608.270899	40014.851812
608.620411	40345.022184
608.969870	40154.574953
609.319276	40155.590746
609.668627	40189.850427
610.017926	40694.094361
610.367171	40841.452329
610.716362	40929.564137
611.065500	40868.079704
611.414585	41069.027658
611.763616	41364.313244
612.112594	41281.353496
612.461518	41501.513287
612.810389	41787.308902
613.159207	41663.354491
613.507971	41737.174627
613.856682	42202.659650
614.205340	42076.794641
614.553945	42781.482414
614.902496	42241.133736
615.250994	42711.279305
615.599439	42772.357925
615.947830	42983.254596
616.296169	43028.738407
616.644454	43151.639217
616.992686	43316.265658
617.340864	43843.847613
617.688990	43561.568204
618.037063	44170.572356
618.385082	44137.872912
618.733048	44437.312409
619.080961	44440.783243
619.428821	44457.098938
619.776628	44558.854628
620.124382	44385.358277
620.472083	44517.706210
620.819731	44651.720244
621.167326	44324.650182
621.514868	44285.734995
621.862357	43843.338457
622.209793	43864.458371
622.557176	43552.620156
622.904506	43302.674707
623.251783	42948.321921
623.599007	42745.055036
623.946179	42515.939635
624.293297	42470.163437
624.640363	41878.253838
624.987376	41862.674152
625.334336	41629.578760
625.681243	41272.886878
626.028097	41220.259753
626.374899	41074.686353
626.721647	41064.840980
627.068343	40942.214912
627.414987	40726.614845
627.761577	40481.622329
628.108115	40819.969452
628.454600	40271.396132
628.801032	40463.101130
629.147412	40404.245659
629.493739	40421.723339
629.840014	40077.183159
630.186236	40414.668245
630.532405	40014.138489
630.878521	40236.284495
631.224585	40119.637236
631.570597	39817.394858
631.916556	39982.747224
632.262462	39931.584554
632.608316	39948.409405
632.954117	39839.212971
633.299866	39842.724135
633.645562	39761.324624
633.991206	39259.288715
634.336797	38823.233949
634.682336	38830.904064
635.027823	38579.279911
635.373257	38395.386181
635.718639	38154.061105
636.063968	38022.744088
636.409245	37451.372150
636.754470	37486.604774
637.099642	37245.844307
637.444762	36775.492051
637.789829	36904.646412
638.134845	36556.635398
638.479808	36508.578078
638.824719	36422.036590
639.169577	36009.624835
639.514383	36083.301298
639.859137	35785.343900
640.203839	36026.353904
640.548489	35656.255074
640.893086	35726.203604
641.237632	35476.860573
641.582125	35585.550370
641.926566	35523.425711
642.270955	35478.899720
642.615292	35512.380543
642.959576	35481.828630
643.303809	35468.209953
643.647990	35601.069562
643.992118	35599.960509
644.336195	35579.785811
644.680219	35667.713616
645.024192	35961.834696
645.368112	36472.659857
645.711981	36499.841758
646.055797	37367.578090
646.399562	37281.949051
646.743274	38233.512210
647.086935	38685.814615
647.430544	38569.071575
647.774101	38689.789565
648.117606	38941.159140
648.461059	39236.411959
648.804460	38854.282415
649.147810	38238.697037
649.491108	37980.010227
649.834354	37625.536453
650.177548	36796.871584
650.520690	36347.614036
650.863781	36355.180808
651.206820	36207.694290
651.549807	35764.110560
651.892742	35273.266013
652.235626	35096.684476
652.578458	34963.235052
652.921238	34349.509859
653.263967	34676.101011
653.606644	34353.449521
653.949269	34296.413906
654.291843	33905.079215
654.634365	34308.545443
654.976836	33911.826800
655.319255	33895.238883
655.661622	33905.011160
656.003938	33682.930689
656.346203	33538.972979
656.688416	33758.754684
657.030577	33557.060639
657.372687	33399.706063
657.714746	33659.612832
658.056753	33783.262253
658.398708	33236.876793
658.740612	33295.356699
659.082465	33564.168666
659.424266	33379.049935
659.766016	33501.003008
660.107715	33377.013309
660.449362	33497.111237
660.790958	33485.884588
661.132503	33518.523538
661.473996	33536.530540
661.815438	33659.040661
662.156829	33848.421687
662.498168	33614.980976
662.839456	33664.149870
663.180693	33792.502688
663.521879	33954.129642
663.863013	33901.071498
664.204097	33890.616145
664.545129	34379.270311
664.886110	34315.537523
665.227040	34390.305396
665.567918	34513.402812
665.908746	34562.039864
666.249522	34740.393366
666.590248	34731.594032
666.930922	34853.693299
667.271545	34817.013864
667.612118	34899.819857
667.952639	34693.354360
668.293109	34744.237246
668.633528	34640.586082
668.973896	34539.815937
669.314213	34573.384981
669.654480	34329.173844
669.994695	34345.658417
670.334859	34236.197323
670.674973	34132.026920
671.015035	34306.302129
671.355047	34239.695884
671.695008	34193.186199
672.034918	34094.498050
672.374777	34166.987322
672.714585	33999.613453
673.054342	34228.449070
673.394049	33993.155735
673.733705	34274.920947
674.073310	33928.286167
674.412864	34001.672764
674.752368	33617.050370
675.091820	33905.169956
675.431223	33479.905779
675.770574	33203.995868
676.109875	33076.313523
676.449125	32798.901347
676.788324	32710.204766
677.127473	32175.597962
677.466571	32103.874946
677.805619	31741.136200
678.144616	31740.140572
678.483562	31662.095949
678.822458	31337.919510
679.161303	31265.387388
679.500098	31170.664108
679.838842	31049.394111
680.177535	31214.600284
680.516179	31480.314462
680.854771	31725.677502
681.193314	32573.309713
681.531805	33717.119794
681.870247	34495.720964
682.208638	35214.682764
682.546978	35456.040607
682.885268	35553.793622
683.223508	35024.643867
683.561697	34678.692164
683.899836	34490.959595
684.237925	33982.927233
684.575963	33821.995959
684.913951	33355.149824
685.251889	33511.612116
685.589776	33508.048021
685.927614	33486.194619
686.265401	33625.327944
686.603137	33727.736464
686.940824	34237.445009
687.278460	34606.830516
687.616046	34750.077423
687.953582	35354.536975
688.291068	35227.318416
688.628504	35510.490110
688.965889	35444.322445
689.303224	35060.690638
689.640510	34704.603695
689.977745	33968.721262
690.314930	33188.794268
690.652065	32664.627694
690.989150	31914.428384
691.326185	31016.135098
691.663170	30316.261628
692.000105	29553.363651
692.336990	28873.276709
692.673825	28403.179031
693.010610	27889.487975
693.347345	27303.489128
693.684030	26648.000496
694.020665	26365.784101
694.357251	25688.074063
694.693786	25645.292311
695.030272	25396.536575
695.366707	24837.999414
695.703093	24551.782863
696.039429	24554.341248
696.375716	24287.883500
696.711952	24244.776594
697.048139	24084.780453
697.384276	23895.996803
697.720363	24026.401371
698.056400	23826.133972
698.392388	23616.608495
698.728326	23579.722372
699.064214	23361.412685
699.400053	23309.665240
699.735842	22953.689203
700.071581	22663.233042
700.407270	22367.536601
700.742910	22190.400537
701.078501	21913.124473
701.414042	21624.538580
701.749533	21331.418169
702.084974	20991.099955
702.420366	21186.109430
702.755709	20740.325236
703.091002	20451.762028
703.426246	20461.166301
703.761440	20349.449290
704.096584	20089.809703
704.431679	20049.513239
704.766725	19953.877510
705.101721	19885.912674
705.436668	19976.005655
705.771565	19650.117744
706.106413	20004.697382
706.441212	19975.010027
706.775961	20108.938361
707.110661	20180.890750
707.445311	20539.561284
707.779913	20365.492763
708.114465	20610.417222
708.448967	20898.093187
708.783421	21588.864854
709.117825	21857.339064
709.452180	22075.588258
709.786485	22482.336277
710.120742	23293.662097
710.454949	23299.653509
710.789107	23758.766513
711.123216	24467.250275
711.457275	24600.460244
711.791286	25153.918443
712.125247	25209.436670
712.459159	24902.117849
712.793023	25572.354377
713.126837	24474.600277
713.460602	24742.467028
713.794318	24362.996693
714.127985	23971.659481
714.461602	23074.127409
714.795171	23037.763046
715.128691	22009.576869
715.462162	21461.064043
715.795584	21040.319260
716.128957	20782.378542
716.462281	20364.469408
716.795556	20132.082298
717.128782	19627.961872
717.461960	19082.448532
717.795088	19013.616618
718.128167	18600.612527
718.461198	18140.584554
718.794180	17997.904776
719.127113	17621.738918
719.459997	17426.222807
719.792833	17075.577789
720.125619	17037.708642
720.458357	16729.212711
720.791046	16556.568316
721.123686	16389.875002
721.456278	16159.529559
721.788821	16111.028618
722.121315	15845.662280
722.453761	15918.496870
722.786158	15831.365567
723.118506	15848.482805
723.450805	15707.398553
723.783056	15873.184459
724.115259	15762.107675
724.447412	15697.328848
724.779518	15938.787515
725.111574	15956.260154
725.443582	16164.119530
725.775542	16141.598175
726.107453	16615.471678
726.439315	16496.714696
726.771129	16900.493475
727.102895	17270.178931
727.434612	17469.521277
727.766281	17602.811905
728.097901	17869.990539
728.429473	17902.911794
728.760996	17895.362666
729.092471	17970.359912
729.423897	17846.909616
729.755276	17715.305253
730.086606	17828.590063
730.417887	18353.664044
730.749120	18866.689668
731.080305	19041.040495
731.411442	19381.033554
731.742530	19450.271282
732.073570	19556.750533
732.404562	19849.974288
732.735506	19664.618623
733.066401	19375.090034
733.397249	18863.181025
733.728048	18225.182677
734.058798	17384.161940
734.389501	16697.060232
734.720156	16227.338120
735.050762	15702.130547
735.381320	15328.671788
735.711831	15094.396766
736.042293	14732.547784
736.372707	14746.862140
736.703073	14535.289955
737.033391	14725.701897
737.363661	14678.546944
737.693883	14784.391010
738.024056	14958.313338
738.354182	15136.253466
738.684260	15427.617035
739.014290	15645.636857
739.344272	15831.446226
739.674207	16114.323012
740.004093	16231.474386
740.333931	16222.153293
740.663722	16263.430261
740.993464	16254.666215
741.323159	16084.890235
741.652806	15812.836806
741.982405	15595.056440
742.311956	15253.644295
742.641460	15142.882584
742.970915	14833.819524
743.300323	14494.423841
743.629683	14288.177634
743.958996	14005.557947
744.288260	13738.449890
744.617477	13435.272377
744.946647	13358.969472
745.275768	13083.299015
745.604842	12898.618865
745.933869	12727.557391
746.262847	12673.513701
746.591778	12603.729009
746.920662	12494.676248
747.249498	12498.956188
747.578286	12624.317081
747.907027	12755.883635
748.235720	12976.865134
748.564365	13010.998787
748.892963	12907.839135
749.221514	12968.363228
749.550017	12819.119868
749.878473	12789.210703
750.206881	12558.600599
750.535242	12462.581742
750.863555	12375.465562
751.191821	12275.890171
751.520039	12298.996300
751.848210	12206.052546
752.176334	12235.429870
752.504411	12139.322793
752.832440	11981.464101
753.160421	12045.068339
753.488356	11914.918350
753.816243	11821.467961
754.144082	11680.217350
754.471875	11624.404216
754.799620	11577.276989
755.127318	11545.245497
755.454969	11501.878971
755.782572	11454.015736
756.110129	11467.909156
756.437638	11392.425439
756.765100	11378.723583
757.092515	11373.528674
757.419882	11390.736653
757.747203	11395.067004
758.074477	11469.923097
758.401703	11420.519789
758.728882	11582.338307
759.056014	11629.987293
759.383099	11742.561300
759.710138	11848.173473
760.037129	11919.480594
760.364073	11941.119747
760.690970	11926.903693
761.017820	11925.156933
761.344623	12122.666821
761.671379	12445.184720
761.998088	13082.250455
762.324751	14627.996774
762.651366	17515.478956
762.977935	21184.713030
763.304456	23414.269183
763.630931	23913.610595
763.957359	22738.585689
764.283740	20824.552835
764.610074	18948.502554
764.936362	16799.085624
765.262602	15277.919972
765.588796	13789.027786
765.914943	12755.891196
766.241044	11893.143086
766.567097	11258.124059
766.893104	10703.700480
767.219064	10343.908289
767.544978	9949.208628
767.870845	9636.031986
768.196665	9448.962329
768.522438	9245.788705
768.848165	9080.842152
769.173846	8910.947705
769.499479	8790.091083
769.825066	8632.706260
770.150607	8445.336654
770.476101	8389.221050
770.801548	8276.203422
771.126949	8138.360631
771.452303	8048.590284
771.777611	7884.001652
772.102872	7857.770008
772.428087	7737.387254
772.753256	7614.002493
773.078378	7523.733072
773.403453	7381.297791
773.728482	7277.235772
774.053465	7213.954168
774.378401	7130.573484
774.703291	7033.372476
775.028135	6930.394306
775.352932	6896.616054
775.677683	6809.779659
776.002388	6724.417801
776.327046	6729.438790
776.651658	6637.442773
776.976224	6568.378966
777.300743	6541.350819
777.625216	6474.462269
777.949643	6434.984994
778.274024	6436.993893
778.598359	6365.878336
778.922647	6373.107351
779.246889	6331.875753
779.571086	6339.324058
779.895236	6345.557445
780.219339	6338.540159
780.543397	6340.997721
780.867409	6391.444548
781.191374	6387.520010
781.515294	6353.933322
781.839167	6407.616569
782.162995	6373.893771
782.486776	6327.931051
782.810511	6287.410256
783.134201	6214.547939
783.457844	6205.612494
783.781441	6153.882693
784.104993	6111.405931
784.428498	6081.136323
784.751958	6059.683693
785.075372	6037.235435
785.398739	5998.358056
785.722061	6025.345873
786.045337	6020.899576
786.368568	6131.399147
786.691752	6155.397560
787.014891	6401.756228
787.337983	6684.111255
787.661030	7116.264168
787.984031	7546.791310
788.306987	7810.788975
788.629897	7901.796925
788.952760	7819.016138
789.275579	7641.053325
789.598351	7341.820515
789.921078	7076.121460
790.243759	6792.697709
790.566395	6595.593635
790.888984	6397.831690
791.211529	6254.141161
791.534027	6090.031439
791.856480	5951.621519
792.178888	5891.440224
792.501249	5822.948588
792.823566	5721.878494
793.145836	5711.206371
793.468062	5689.501683
793.790241	5652.156816
794.112375	5698.663981
794.434464	5793.173012
794.756507	5819.540768
795.078505	5938.607780
795.400457	6154.401932
795.722364	6397.057873
796.044226	6594.542554
796.366042	6755.917450
796.687812	6698.342432
797.009538	6732.234110
797.331218	6636.129553
797.652852	6567.595066
797.974442	6448.323887
798.295986	6378.143463
798.617484	6247.990953
798.938938	6142.703935
799.260346	6074.570220
799.581709	5931.323313
799.903026	5880.468153
800.224299	5803.262882
800.545526	5688.823648
800.866708	5624.271673
801.187845	5572.990536
801.508936	5496.808619
801.829983	5464.451973
802.150984	5358.111353
802.471940	5328.610521
802.792851	5317.366227
803.113717	5293.115757
803.434538	5267.491572
803.755314	5230.035798
804.076045	5222.148913
804.396731	5187.201114
804.717372	5205.389597
805.037967	5205.084607
805.358518	5228.795675
805.679024	5287.167195
805.999485	5300.813598
806.319901	5320.579963
806.640272	5333.326520
806.960598	5381.688830
807.280879	5373.091142
807.601115	5409.959620
807.921306	5376.340165
808.241453	5368.458321
808.561554	5381.333428
808.881611	5346.289847
809.201623	5345.942008
809.521590	5296.659688
809.841513	5277.054640
810.161390	5295.212877
810.481223	5204.603177
810.801011	5192.390982
811.120755	5169.443650
811.440453	5115.455413
811.760107	5082.103139
812.079716	5060.461465
812.399281	5007.857025
812.718801	5002.100027
813.038276	4969.506447
813.357707	4934.921611
813.677093	4959.010765
813.996434	4896.407196
814.315731	4915.939146
814.634983	4914.441924
814.954191	4920.040125
815.273354	4978.527592
815.592473	5016.399260
815.911547	5092.341722
816.230577	5148.593438
816.549562	5234.459411
816.868502	5289.839007
817.187399	5347.686247
817.506250	5430.482158
817.825058	5457.147341
818.143821	5611.643583
818.462539	5782.687412
818.781213	6013.156363
819.099843	6376.825202
819.418429	7010.319279
819.736970	7635.871019
820.055466	8358.795166
820.373919	9286.687587
820.692327	10753.106308
821.010691	13482.896157
821.329011	19757.811913
821.647286	29399.439580
821.965517	39812.583076
822.283704	45326.549262
822.601847	46857.358642
822.919945	42272.928293
823.237999	37132.864488
823.556010	31916.860741
823.873976	27175.877360
824.191897	22903.628024
824.509775	19802.340425
824.827609	16987.793657
825.145398	15411.192956
825.463144	14640.110667
825.780845	14933.173104
826.098502	16197.968357
826.416116	18657.738883
826.733685	20952.812391
827.051210	21479.943164
827.368692	20035.813904
827.686129	17453.969318
828.003522	14972.242047
828.320872	12725.770302
828.638177	11051.104036
828.955439	9790.946644
829.272656	8716.643992
829.589830	7866.770988
829.906960	7124.370344
830.224046	6588.294044
830.541088	6169.636299
830.858086	5909.018728
831.175041	5702.669177
831.491952	5641.663654
831.808819	5676.205640
832.125642	5923.471716
832.442421	6478.429657
832.759157	7596.411387
833.075849	9376.765444
833.392497	11242.337686
833.709101	12371.780479
834.025662	12122.049279
834.342179	11055.724253
834.658653	9747.610365
834.975083	8633.575859
835.291469	7718.629121
835.607811	6966.249512
835.924110	6444.235511
836.240366	5949.219409
836.556578	5484.540971
836.872746	5129.467300
837.188871	4856.803891
837.504952	4628.474910
837.820990	4458.633396
838.136984	4344.325232
838.452935	4296.900578
838.768842	4326.592974
839.084706	4609.066468
839.400526	5356.866188
839.716303	6262.771617
840.032037	6843.767118
840.347727	6694.780857
840.663373	6088.861891
840.978977	5511.793449
841.294537	5060.340478
841.610054	4725.554930
841.925527	4482.503259
842.240957	4268.992750
842.556344	4089.565482
842.871687	3927.842746
843.186987	3773.328860
843.502244	3653.094820
843.817458	3563.566448
844.132629	3489.065756
844.447756	3443.186215
844.762840	3398.168711
845.077881	3357.146322
845.392879	3320.907987
845.707833	3296.286992
846.022745	3270.231788
846.337613	3255.806526
846.652438	3233.822054
846.967221	3226.648492
847.281960	3205.828527
847.596656	3189.210363
847.911309	3182.490505
848.225919	3168.433248
848.540485	3158.940755
848.855009	3149.554127
849.169490	3139.275214
849.483928	3130.891775
849.798323	3125.911115
850.112675	3116.131277
850.426984	3115.702779
850.741251	3110.918724
851.055474	3105.388578
851.369654	3108.274638
851.683792	3102.116869
851.997887	3107.289093
852.311938	3105.496963
852.625947	3109.086264
852.939914	3099.129985
853.253837	3106.157354
853.567718	3103.268773
853.881555	3097.156374
854.195350	3102.653752
854.509103	3101.128803
854.822812	3098.305757
855.136479	3094.673605
855.450103	3097.589913
855.763685	3093.032710
856.077224	3092.757967
856.390720	3099.079574
856.704173	3113.547685
857.017584	3119.017337
857.330953	3123.972792
857.644278	3129.477732
857.957561	3133.435037
858.270802	3130.160808
858.584000	3130.536374
858.897155	3126.256434
859.210268	3116.199332
859.523339	3102.782301
859.836367	3100.957404
860.149352	3095.470108
860.462295	3090.045826
860.775195	3080.449990
861.088054	3077.014443
861.400869	3079.759352
861.713642	3077.669793
862.026373	3087.777307
862.339062	3086.779158
862.651708	3096.276692
862.964312	3114.278653
863.276873	3123.466156
863.589392	3153.632420
863.901869	3181.129394
864.214303	3201.515820
864.526696	3219.895867
864.839045	3236.526633
865.151353	3249.066504
865.463619	3251.070362
865.775842	3251.488778
866.088023	3258.639655
866.400162	3248.879981
866.712258	3251.607245
867.024313	3249.174888
867.336325	3250.886360
867.648296	3251.761000
867.960224	3247.682707
868.272110	3248.829569
868.583954	3249.651278
868.895755	3260.517485
869.207515	3258.246445
869.519233	3274.904938
869.830909	3279.749487
870.142542	3292.117958
870.454134	3300.934936
870.765684	3314.165444
871.077191	3330.148422
871.388657	3344.430011
871.700081	3362.721838
872.011463	3384.930641
872.322803	3402.678023
872.634101	3420.478337
872.945357	3441.328550
873.256571	3474.637974
873.567744	3483.974191
873.878874	3490.507526
874.189963	3509.676513
874.501010	3510.193232
874.812015	3507.155937
875.122979	3522.022299
875.433900	3521.097247
875.744780	3522.360057
876.055618	3532.074360
876.366415	3532.802807
876.677169	3537.972510
876.987882	3555.238462
877.298554	3576.756627
877.609183	3611.432204
877.919771	3661.974812
878.230317	3734.920308
878.540822	3836.852439
878.851285	3997.619877
879.161707	4225.588415
879.472087	4604.352989
879.782425	5244.345114
880.092722	6452.760102
880.402977	8420.226666
880.713191	10822.119704
881.023363	13244.973860
881.333494	14610.403147
881.643583	15073.062603
881.953631	14681.372511
882.263637	13837.236340
882.573602	12798.355356
882.883526	11822.640029
883.193408	10847.756492
883.503248	9904.521320
883.813048	9068.491325
884.122806	8279.696941
884.432522	7502.643405
884.742197	6830.697927
885.051831	6249.601602
885.361424	5743.981433
885.670975	5337.140153
885.980485	5004.245038
886.289954	4725.643150
886.599382	4506.128627
886.908768	4321.035102
887.218113	4154.336747
887.527417	4019.518649
887.836680	3892.642889
888.145901	3794.191675
888.455082	3715.058162
888.764221	3636.529588
889.073319	3575.836617
889.382376	3547.654046
889.691392	3519.814274
890.000366	3511.939992
890.309300	3509.328674
890.618193	3512.121473
890.927044	3506.193076
891.235855	3515.746063
891.544625	3524.673946
891.853353	3557.817012
892.162041	3617.829428
892.470687	3711.645301
892.779293	3833.878158
893.087858	4013.343235
893.396381	4293.724651
893.704864	4717.877253
894.013306	5297.080624
894.321707	5876.011773
894.630068	6240.424182
894.938387	6281.736437
895.246665	6106.727740
895.554903	5778.646928
895.863100	5442.916164
896.171256	5165.163710
896.479371	4920.970218
896.787446	4686.634702
897.095480	4488.802181
897.403473	4333.028007
897.711425	4187.363866
898.019336	4061.400555
898.327207	3937.700722
898.635038	3830.644258
898.942827	3725.866396
899.250576	3634.283754
899.558284	3550.028429
899.865952	3493.045747
900.173579	3428.057712
900.481165	3380.106257
900.788711	3337.074968
901.096216	3304.163795
901.403681	3276.465175
901.711105	3263.635438
902.018489	3260.298194
902.325832	3292.254069
902.633135	3354.860158
902.940397	3529.147970
903.247619	3941.945373
903.554800	4709.307291
903.861941	5692.077713
904.169041	6420.617705
904.476101	6645.571634
904.783121	6362.241144
905.090100	5949.252177
905.397039	5527.592425
905.703938	5163.507691
906.010796	4828.422195
906.317614	4573.612033
906.624391	4324.306810
906.931129	4123.101757
907.237826	3935.512861
907.544483	3760.244545
907.851099	3586.541507
908.157675	3419.187802
908.464211	3275.585493
908.770707	3176.539423
909.077163	3091.411979
909.383578	3028.689943
909.689954	2983.667398
909.996289	2955.005918
910.302584	2932.524892
910.608839	2920.025351
910.915054	2905.965573
911.221229	2901.095818
911.527363	2906.787281
911.833458	2912.347674
912.139513	2924.184303
912.445527	2939.015378
912.751502	2973.595172
913.057436	3019.033613
913.363331	3082.035433
913.669186	3169.446520
913.975000	3291.888585
914.280775	3479.346411
914.586510	3760.771345
914.892205	4141.186897
915.197859	4656.496164
915.503475	5250.311319
915.809050	5754.527527
916.114585	6049.001488
916.420081	6116.031190
916.725536	6053.536006
917.030952	5807.852852
917.336328	5598.032467
917.641665	5384.138830
917.946961	5152.762472
918.252218	4948.497438
918.557435	4713.075554
918.862612	4506.635263
919.167750	4337.892720
919.472848	4140.700426
919.777906	3971.355465
920.082925	3802.892706
920.387904	3643.153664
920.692843	3534.995709
920.997743	3432.599792
921.302603	3331.963238
921.607423	3267.454112
921.912204	3196.192362
922.216946	3150.781648
922.521647	3095.742330
922.826310	3052.300187
923.130932	3013.478261
923.435516	2976.516521
923.740059	2947.406378
924.044564	2916.181471
924.349028	2889.264230
924.653454	2858.301463
924.957840	2832.868842
925.262186	2813.881336
925.566493	2790.261010
925.870761	2764.397370
926.174989	2749.972108
926.479178	2738.606827
926.783328	2718.172510
927.087438	2707.880994
927.391509	2696.107379
927.695541	2681.999710
927.999533	2674.019564
928.303486	2664.262411
928.607400	2658.883499
928.911275	2653.076090
929.215110	2645.597538
929.518906	2643.049235
929.822663	2643.210552
930.126381	2642.605614
930.430060	2646.623413
930.733699	2648.609628
931.037299	2650.023672
931.340861	2648.518887
931.644383	2653.998621
931.947866	2653.696152
932.251309	2651.016779
932.554714	2647.051911
932.858080	2649.370842
933.161407	2644.979997
933.464694	2643.064359
933.767943	2635.144706
934.071153	2632.200672
934.374323	2625.551390
934.677455	2626.173973
934.980548	2619.892695
935.283602	2619.406224
935.586617	2619.522170
935.889593	2623.676081
936.192530	2621.122737
936.495428	2627.434261
936.798287	2636.475571
937.101108	2649.857313
937.403890	2673.621313
937.706632	2700.583924
938.009336	2731.725652
938.312002	2762.764036
938.614628	2786.984260
938.917216	2810.244144
939.219765	2816.729588
939.522275	2827.351299
939.824747	2828.175528
940.127179	2822.027841
940.429573	2815.539876
940.731929	2814.839155
941.034246	2805.931437
941.336524	2803.554532
941.638763	2798.180662
941.940964	2790.777728
942.243126	2773.978083
942.545250	2765.070364
942.847335	2749.452869
943.149381	2737.137331
943.451389	2722.238200
943.753359	2709.882332
944.055290	2700.278934
944.357182	2689.248890
944.659036	2683.834690
944.960851	2680.371418
945.262628	2676.157013
945.564367	2678.216324
945.866067	2675.577280
946.167729	2672.484532
946.469352	2674.115346
946.770937	2673.187773
947.072484	2666.972031
947.373992	2666.198214
947.675462	2661.336021
947.976893	2658.197902
948.278286	2652.395534
948.579641	2649.297745
948.880958	2648.460914
949.182236	2645.345481
949.483476	2640.962197
949.784678	2640.894142
950.085841	2645.635347
950.386967	2645.710964
950.688054	2650.031233
950.989103	2661.588078
951.290114	2668.010508
951.591087	2679.413598
951.892021	2692.611339
952.192917	2705.277238
952.493776	2716.027499
952.794596	2720.708210
953.095378	2721.192161
953.396122	2718.391800
953.696828	2714.114381
953.997496	2710.353680
954.298126	2701.942515
954.598718	2694.544622
954.899272	2681.525842
955.199788	2672.693740
955.500266	2657.860145
955.800706	2644.223824
956.101108	2623.050978
956.401472	2614.347426
956.701798	2600.335539
957.002087	2583.818198
957.302337	2576.763103
957.602550	2566.453944
957.902724	2554.254351
958.202861	2544.908052
958.502960	2536.632998
958.803022	2525.912984
959.103045	2521.060874
959.403031	2515.331602
959.702979	2507.308606
960.002889	2504.167967
960.302762	2499.509941
960.602596	2494.806545
960.902393	2491.247490
961.202153	2487.814464
961.501875	2482.599391
961.801559	2482.445635
962.101205	2480.071252
962.400814	2478.400109
962.700385	2474.992289
962.999918	2475.209059
963.299414	2470.432566
963.598873	2469.628502
963.898293	2470.556074
964.197677	2466.984417
964.497022	2465.908130
964.796331	2464.630198
965.095601	2462.384364
965.394835	2464.947790
965.694030	2464.446196
965.993189	2461.204734
966.292309	2460.801441
966.591393	2459.644497
966.890439	2457.454115
967.189447	2464.383181
967.488419	2459.825978
967.787353	2460.617439
968.086249	2459.359671
968.385108	2462.911164
968.683930	2461.827316
968.982714	2464.418469
969.281462	2463.765640
969.580172	2467.919551
969.878844	2468.700929
970.177480	2472.196970
970.476078	2472.499439
970.774639	2478.437918
971.073162	2479.173927
971.371649	2480.124184
971.670098	2480.678711
971.968510	2480.875316
972.266885	2482.780872
972.565223	2487.486789
972.863524	2490.014928
973.161788	2490.241780
973.460014	2490.294712
973.758204	2493.170690
974.056356	2492.996770
974.354471	2493.150526
974.652550	2492.873262
974.950591	2494.821668
975.248595	2493.092552
975.546563	2490.352685
975.844493	2486.884371
976.142386	2485.961840
976.440243	2484.217601
976.738062	2482.049905
977.035845	2481.954123
977.333590	2477.850624
977.631299	2477.621251
977.928971	2474.982207
978.226606	2473.298462
978.524204	2471.181177
978.821765	2469.459623
979.119290	2470.828296
979.416777	2467.392750
979.714228	2470.246043
980.011642	2470.921558
980.309020	2475.146045
980.606360	2479.892291
980.903664	2489.717500
981.200931	2502.776609
981.498162	2522.507685
981.795356	2550.609597
982.092513	2591.677357
982.389633	2637.277114
982.686717	2682.345029
982.983764	2713.900132
983.280775	2734.034500
983.577749	2735.062896
983.874686	2727.924622
984.171587	2709.456355
984.468451	2692.898685
984.765279	2673.701971
985.062070	2655.001811
985.358824	2630.285034
985.655543	2611.287445
985.952224	2590.636359
986.248869	2561.344734
986.545478	2531.574200
986.842050	2510.696262
987.138586	2492.016266
987.435086	2480.255254
987.731549	2465.144395
988.027975	2461.764302
988.324366	2455.505709
988.620719	2448.679987
988.917037	2445.773762
989.213318	2443.180088
989.509563	2439.449634
989.805772	2438.428801
990.101944	2439.074068
990.398080	2437.251691
990.694180	2435.988882
990.990244	2437.307144
991.286271	2436.974428
991.582262	2439.278235
991.878217	2437.239088
992.174136	2435.643563
992.470019	2438.779161
992.765865	2441.014912
993.061676	2445.088165
993.357450	2447.180244
993.653188	2450.199895
993.948890	2455.853549
994.244556	2461.479477
994.540186	2473.295941
994.835780	2481.303814
995.131337	2497.468274
995.426859	2515.913856
995.722345	2536.007895
996.017795	2554.791234
996.313208	2571.704305
996.608586	2577.710840
996.903928	2582.255440
997.199234	2583.072107
997.494504	2579.823084
997.789738	2570.302865
998.084936	2565.168449
998.380099	2546.692621
998.675225	2536.310364
998.970316	2521.701100
999.265371	2510.524862
999.560390	2494.945176
999.855373	2484.096613
1000.150320	2474.374748
1000.445232	2464.173973
1000.740108	2456.002263
1001.034948	2449.579833
1001.329752	2446.449276
1001.624521	2441.516507
1001.919254	2432.492842
1002.213951	2434.627771
1002.508613	2430.506627
1002.803239	2430.889755
1003.097829	2424.253076
1003.392384	2429.160639
1003.686903	2423.499423
1003.981386	2424.018662
1004.275834	2424.179979
1004.570246	2422.604619
1004.864623	2421.367015
1005.158964	2423.580082
1005.453270	2420.532704
1005.747540	2419.499268
1006.041775	2420.820050
1006.335974	2417.064391
1006.630138	2416.754360
1006.924266	2421.049423
1007.218359	2416.779565
1007.512416	2415.037847
1007.806438	2417.152611
1008.100425	2415.531880
1008.394376	2414.115316
1008.688292	2415.312590
1008.982172	2415.741088
1009.276017	2416.401479
1009.569827	2413.603638
1009.863602	2414.914338
1010.157341	2414.939544
1010.451045	2415.163876
1010.744714	2413.023906
1011.038347	2411.851838
1011.331945	2413.074317
1011.625508	2412.862589
1011.919036	2414.294277
1012.212528	2413.454924
1012.505986	2410.828483
1012.799408	2411.662794
1013.092795	2411.322516
1013.386147	2410.894018
1013.679464	2412.164389
1013.972745	2410.364697
1014.265992	2411.325037
1014.559204	2411.388051
1014.852380	2410.140366
1015.145521	2411.924934
1015.438628	2410.949471
1015.731699	2411.035171
1016.024736	2409.081723
1016.317737	2411.340160
1016.610703	2413.759914
1016.903635	2410.319327
1017.196531	2409.732032
1017.489393	2409.825294
1017.782219	2407.713050
1018.075011	2412.388720
1018.367768	2411.877043
1018.660490	2414.412744
1018.953177	2414.412744
1019.245829	2414.412744
