Dividing Wavelength (nm)	Counts (n)	Blue Motor Position (mm): 23.800000	Red Motor Position (mm): 0.000000	
326.493990	1972.747173
326.888308	1972.747173
327.282561	1972.747173
327.676750	1946.669284
328.070874	1948.340427
328.464933	1957.190172
328.858929	1962.773250
329.252859	1976.162555
329.646726	1992.316932
330.040528	2007.962153
330.434265	2025.454957
330.827938	2046.325334
331.221547	2064.506255
331.615091	2086.037023
332.008571	2106.609972
332.401986	2129.297685
332.795338	2148.630510
333.188625	2169.747903
333.581847	2186.620645
333.975006	2202.041535
334.368100	2224.376367
334.761129	2238.017729
335.154095	2254.507344
335.546996	2290.279371
335.939833	2360.500124
336.332606	2372.079654
336.725315	2382.550131
337.117960	2394.338869
337.510540	2397.338356
337.903056	2412.131622
338.295508	2415.055491
338.687896	2423.852304
339.080220	2430.400763
339.472480	2437.289500
339.864676	2442.602876
340.256807	2442.844851
340.648875	2445.814091
341.040879	2444.568926
341.432818	2448.919442
341.824694	2449.337857
342.216506	2447.858279
342.608253	2448.357353
342.999937	2447.664194
343.391557	2445.667898
343.783113	2444.654626
344.174605	2442.358380
344.566033	2441.574481
344.957397	2437.687751
345.348697	2436.503080
345.739934	2436.155240
346.131106	2433.468305
346.522215	2432.689447
346.913260	2430.075609
347.304241	2430.211720
347.695159	2427.562593
348.086012	2425.467994
348.476802	2422.629824
348.867528	2425.135278
349.258191	2419.955492
349.648789	2419.234607
350.039324	2416.522467
350.429796	2421.583785
350.820203	2415.698238
351.210548	2416.938362
351.600828	2418.836356
351.991045	2416.651016
352.381198	2414.125398
352.771288	2416.686304
353.161314	2413.195305
353.551276	2415.131108
353.941175	2415.058011
354.331010	2415.564647
354.720782	2417.167734
355.110490	2417.664288
355.500135	2415.312590
355.889717	2415.655388
356.279235	2416.199833
356.668689	2418.574216
357.058080	2418.301994
357.447408	2418.909453
357.836672	2413.651529
358.225873	2417.901222
358.615010	2412.708834
359.004084	2418.276788
359.393095	2419.146387
359.782043	2420.215112
360.170927	2419.814340
360.559748	2420.449525
360.948505	2421.719896
361.337199	2423.391039
361.725830	2424.051430
362.114398	2423.577561
362.502903	2427.764240
362.891344	2424.321132
363.279722	2425.233580
363.668037	2425.752819
364.056289	2426.569486
364.444478	2427.607964
364.832603	2424.726944
365.220665	2426.438416
365.608665	2428.777512
365.996601	2429.379929
366.384474	2427.852460
366.772284	2429.939497
367.160031	2429.291709
367.547715	2430.005032
367.935336	2430.738520
368.322893	2429.326997
368.710388	2428.767429
369.097820	2430.221802
369.485189	2431.870259
369.872495	2432.611309
370.259738	2432.349169
370.646918	2433.417894
371.034035	2434.229519
371.421090	2430.478901
371.808081	2432.863367
372.195010	2436.898810
372.581875	2432.608788
372.968678	2433.470826
373.355418	2433.377564
373.742096	2435.885538
374.128710	2436.934098
374.515262	2437.725560
374.901751	2432.576021
375.288177	2439.522731
375.674540	2437.395364
376.060841	2440.039449
376.447079	2438.459047
376.833254	2437.231527
377.219367	2432.555856
377.605417	2436.492997
377.991404	2432.122317
378.377329	2434.426124
378.763191	2436.258584
379.148991	2437.765889
379.534727	2438.330498
379.920402	2441.082968
380.306013	2442.156734
380.691563	2441.690427
381.077049	2440.571291
381.462474	2440.788061
381.847835	2441.443411
382.233134	2442.065993
382.618371	2439.878132
383.003545	2441.831579
383.388657	2440.828390
383.773706	2444.458021
384.158693	2444.009358
384.543618	2442.497012
384.928480	2446.381221
385.313280	2444.563885
385.698017	2445.894749
386.082692	2444.102619
386.467305	2446.424071
386.851856	2446.925665
387.236344	2446.666046
387.620770	2447.966664
388.005133	2447.180244
388.389435	2445.851900
388.773674	2448.770728
389.157851	2451.888681
389.541965	2448.556479
389.926018	2450.557817
390.310008	2448.090172
390.693936	2447.724688
391.077802	2451.036726
391.461606	2450.585543
391.845348	2451.031685
392.229027	2451.813064
392.612645	2451.825667
392.996200	2451.800461
393.379694	2452.362550
393.763125	2452.178548
394.146494	2451.724844
394.529801	2452.627210
394.913047	2454.048816
395.296230	2454.147118
395.679351	2455.130143
396.062410	2452.783486
396.445408	2453.043106
396.828343	2453.209464
397.211217	2449.484051
397.594028	2451.457663
397.976778	2453.506892
398.359466	2456.541666
398.742092	2448.319544
399.124656	2454.174845
399.507158	2457.663323
399.889598	2457.315483
400.271977	2457.073508
400.654294	2457.486883
401.036549	2457.648200
401.418742	2460.282202
401.800874	2458.661472
402.182944	2456.897068
402.564952	2459.372274
402.946898	2459.979733
403.328783	2457.759105
403.710606	2459.364712
404.092367	2459.964610
404.474067	2460.879579
404.855705	2461.837398
405.237282	2460.672892
405.618797	2461.850001
406.000250	2459.314301
406.381642	2459.871348
406.762972	2461.555094
407.144240	2462.974179
407.525447	2466.865949
407.906593	2460.912347
408.287677	2463.301854
408.668700	2461.383695
409.049661	2465.003243
409.430560	2462.598613
409.811399	2465.222533
410.192176	2466.197997
410.572891	2466.041721
410.953545	2464.728500
411.334138	2467.516258
411.714669	2465.719087
412.095139	2465.691361
412.475547	2466.071968
412.855894	2467.997688
413.236180	2467.072637
413.616405	2470.399798
413.996568	2467.995168
414.376670	2466.543316
414.756711	2468.164047
415.136691	2471.362659
415.516609	2470.200673
415.896466	2470.500621
416.276262	2470.193111
416.655997	2468.688327
417.035670	2467.319653
417.415283	2471.831486
417.794834	2465.000723
418.174324	2473.313585
418.553753	2470.729994
418.933121	2473.290900
419.312428	2471.082875
419.691674	2472.990951
420.070859	2474.440283
420.449983	2476.880202
420.829045	2474.785602
421.208047	2476.088740
421.586988	2476.426498
421.965867	2480.270378
422.344686	2473.923565
422.723444	2475.221662
423.102141	2476.797022
423.480777	2475.604790
423.859352	2479.796509
424.237866	2479.897332
424.616319	2480.555203
424.994712	2480.499750
425.373044	2479.214256
425.751314	2483.000162
426.129524	2478.904225
426.507673	2483.005203
426.885762	2482.609473
427.263789	2483.758856
427.641756	2483.960502
428.019662	2485.498054
428.397508	2483.902529
428.775292	2480.676190
429.153016	2484.487303
429.530679	2485.787920
429.908282	2484.714155
430.285824	2486.720534
430.663305	2484.197436
431.040726	2486.498723
431.418086	2485.414875
431.795385	2487.277581
432.172624	2487.983343
432.549802	2488.147180
432.926920	2488.086687
433.303977	2486.929742
433.680974	2486.884371
434.057910	2490.224136
434.434786	2488.285812
434.811601	2491.060967
435.188355	2489.798158
435.565050	2492.890906
435.941683	2490.166163
436.318257	2492.326297
436.694770	2490.110710
437.071222	2493.820999
437.447614	2488.865545
437.823946	2493.042141
438.200218	2492.008704
438.576429	2493.783190
438.952580	2495.393839
439.328670	2494.337717
439.704700	2497.024652
440.080670	2495.703870
440.456580	2495.444251
440.832429	2496.631442
441.208218	2497.138078
441.583947	2500.301402
441.959616	2497.183449
442.335224	2503.109325
442.710773	2499.681340
443.086261	2504.402381
443.461689	2501.554129
443.837057	2506.318019
444.212365	2504.200735
444.587612	2509.231806
444.962800	2505.602176
445.337927	2508.775582
445.712995	2505.985303
446.088002	2510.345901
446.462949	2509.887156
446.837837	2513.219359
447.212664	2514.192302
447.587431	2519.639268
447.962139	2528.305012
448.336786	2533.041176
448.711374	2530.918850
449.085901	2526.167563
449.460369	2526.568334
449.834776	2529.799714
450.209124	2532.189221
450.583412	2538.757844
450.957640	2536.385982
451.331808	2534.460261
451.705917	2535.491177
452.079965	2533.751979
452.453954	2538.881353
452.827883	2536.713657
453.201752	2539.168698
453.575562	2543.390665
453.949311	2544.371169
454.323001	2547.572302
454.696632	2549.999617
455.070202	2557.226112
455.443713	2559.923129
455.817164	2564.387071
456.190556	2563.167111
456.563888	2567.822617
456.937160	2570.260015
457.310373	2572.163050
457.683526	2576.105233
458.056619	2580.259143
458.429653	2582.721747
458.802628	2587.563775
459.175542	2595.455702
459.548398	2605.482557
459.921194	2618.430760
460.293930	2629.533902
460.666607	2648.052580
461.039224	2665.915909
461.411782	2675.090809
461.784280	2676.502332
462.156719	2681.409895
462.529099	2684.560617
462.901419	2688.301153
463.273680	2691.935825
463.645882	2703.233050
464.018024	2718.003631
464.390106	2735.372927
464.762130	2780.584515
465.134094	2846.805112
465.505999	2932.411466
465.877845	3008.621109
466.249631	3041.224772
466.621358	3037.630429
466.993026	3039.523382
467.364634	3036.642363
467.736184	3042.573280
468.107674	3059.577092
468.479105	3081.249013
468.850477	3100.831375
469.221790	3111.165740
469.593043	3114.934003
469.964238	3136.774802
470.335373	3170.918537
470.706449	3253.452307
471.077467	3367.074874
471.448425	3537.347407
471.819324	3668.679547
472.190164	3670.837161
472.560945	3631.014566
472.931667	3597.241356
473.302330	3622.588277
473.672934	3659.514729
474.043479	3742.618150
474.413965	3779.390847
474.784393	3831.397911
475.154761	3933.985392
475.525070	4011.180580
475.895321	4063.490113
476.265513	4166.070032
476.635645	4297.288746
477.005719	4374.519223
477.375734	4496.192512
477.745691	4623.837048
478.115588	4800.620232
478.485427	5040.629566
478.855207	5398.659874
479.224928	5725.283793
479.594591	5976.885261
479.964194	6018.242888
480.333739	6147.971941
480.703226	6301.505322
481.072653	6531.591145
481.442022	6738.530511
481.811333	6922.741834
482.180584	6955.113603
482.549777	7066.490336
482.918912	7183.251021
483.287988	7319.906619
483.657005	7401.585914
484.025964	7488.908781
484.394864	7663.925040
484.763706	7786.296529
485.132489	7859.783949
485.501213	8019.218001
485.869879	8230.311278
486.238487	8362.938994
486.607036	8583.353364
486.975527	8704.633443
487.343959	8937.375954
487.712333	9160.883072
488.080648	9350.871557
488.448905	9640.498449
488.817104	9839.409777
489.185244	10240.516744
489.553326	10823.793368
489.921350	11669.641010
490.289315	12609.659926
490.657222	13080.677615
491.025070	13441.881329
491.392861	13495.940143
491.760593	13452.046816
492.128267	13311.456597
492.495883	13199.001058
492.863440	13121.513482
493.230939	13061.097774
493.598380	13053.415055
493.965763	13244.689035
494.333088	13311.834684
494.700354	13451.774594
495.067563	13646.589984
495.434713	13880.169327
495.801805	14181.532025
496.168839	14349.248692
496.535815	14532.318194
496.902733	14820.551207
497.269593	14975.097860
497.636395	15232.163939
498.003139	15659.094217
498.369825	15761.285967
498.736453	16149.704350
499.103023	16278.861233
499.469535	16520.919796
499.835989	16851.541351
500.202385	17021.410591
500.568723	17317.875808
500.935003	17718.163588
501.301226	17942.908308
501.667390	18505.276746
502.033497	18927.798535
502.399546	18983.044540
502.765537	18969.284711
503.131470	19437.010527
503.497345	19913.883516
503.863163	19591.441233
504.228923	20179.590132
504.594625	20688.310611
504.960269	20633.036879
505.325856	21277.465220
505.691385	21258.633989
506.056856	21623.366511
506.422270	22158.432060
506.787625	22231.070046
507.152924	22638.503661
507.518164	22989.141117
507.883347	22855.742104
508.248472	23278.266414
508.613540	23846.311191
508.978550	24320.928264
509.343503	24453.336690
509.708398	24864.415060
510.073236	25493.074671
510.438016	25778.288032
510.802738	25712.581633
511.167403	26398.561683
511.532010	26832.736100
511.896561	27304.131875
512.261053	28151.363314
512.625488	28130.278688
512.989866	28321.840014
513.354186	28490.017947
513.718449	28741.652182
514.082655	29493.673869
514.446803	29544.629852
514.810894	30167.214873
515.174927	30379.545752
515.538904	30564.558619
515.902822	31290.157098
516.266684	31146.436322
516.630488	31703.743442
516.994235	31844.953723
517.357925	32502.872191
517.721558	32878.433111
518.085133	33355.769886
518.448651	33686.300700
518.812112	33743.943774
519.175516	34048.321081
519.538863	34531.016603
519.902152	34711.875559
520.265385	35317.797046
520.628560	35554.340587
520.991678	35589.830310
521.354739	35983.201627
521.717743	36446.022400
522.080690	36563.859371
522.443580	37198.510393
522.806413	37434.837165
523.169189	37573.252126
523.531908	37917.333561
523.894569	37989.958944
524.257174	38289.312742
524.619722	38736.246318
524.982213	38899.148684
525.344647	39000.516206
525.707025	39197.083397
526.069345	39717.932892
526.431608	39791.674891
526.793815	40220.911497
527.155964	39962.096138
527.518057	40250.629098
527.880093	40208.303571
528.242072	40814.918216
528.603995	40690.752076
528.965860	40817.262352
529.327669	41037.888451
529.689421	41067.444736
530.051117	41147.856181
530.412755	41391.066648
530.774337	41564.880591
531.135862	41511.393949
531.497331	41794.366517
531.858743	41821.240908
532.220098	42233.299783
532.581396	42074.954620
532.942638	41840.848476
533.303824	42216.111969
533.664953	42268.189608
534.026025	42114.545322
534.387040	42622.784370
534.747999	42659.025225
535.108902	42888.876635
535.469748	42523.944987
535.830537	42715.183679
536.191270	42970.820590
536.551947	42703.926782
536.912567	43064.422214
537.273131	43247.005245
537.633638	42822.461953
537.994089	43227.737955
538.354483	42870.133625
538.714821	43484.408303
539.075103	43893.941559
539.435328	43720.276330
539.795497	43648.328982
540.155609	43705.707395
540.515665	44196.292323
540.875665	43705.062128
541.235609	44078.672121
541.595496	44085.956589
541.955328	44783.838804
542.315102	44225.636879
542.674821	44057.486672
543.034483	44136.295030
543.394090	44124.602074
543.753640	44120.581754
544.113134	45136.530530
544.472571	44206.883787
544.831953	45434.107321
545.191278	44727.198920
545.550548	44464.002798
545.909761	44951.341222
546.268918	45172.433627
546.628019	45500.826992
546.987064	45082.847282
547.346053	44418.108133
547.704986	45288.291946
548.063863	44883.598197
548.422684	45106.863339
548.781449	44974.265870
549.140158	45386.869188
549.498811	45253.686945
549.857408	44733.545732
550.215949	45547.384568
550.574434	45498.256003
550.932864	45306.142671
551.291237	46019.004675
551.649555	45640.857643
552.007817	45881.003088
552.366022	45563.647330
552.724173	45750.943840
553.082267	46143.309447
553.440305	46435.988757
553.798288	45794.033102
554.156215	46121.279604
554.514086	46331.531008
554.871902	46094.034688
555.229661	46119.583256
555.587365	45959.897146
555.945014	46068.647438
556.302606	45993.816550
556.660143	46217.084213
557.017625	46322.530028
557.375050	46124.208515
557.732421	46479.604820
558.089735	46468.872203
558.446994	46393.852272
558.804197	46841.274841
559.161345	46809.548339
559.518437	46086.664521
559.875474	46380.392391
560.232455	46570.577482
560.589381	46732.123777
560.946251	46433.881554
561.303065	47100.029706
561.659825	46915.571366
562.016528	46612.963503
562.373177	46341.774632
562.729770	46833.607246
563.086307	46367.073663
563.442789	46803.352761
563.799216	46858.049280
564.155587	46663.818663
564.511904	46691.476954
564.868164	46783.173022
565.224370	47015.300512
565.580520	46774.832433
565.936615	46987.301944
566.292654	46723.589104
566.648638	46952.437324
567.004567	46920.509176
567.360441	46959.174826
567.716260	46806.392577
568.072023	47111.962117
568.427732	47099.555837
568.783385	46662.611307
569.138982	47058.813232
569.494525	47024.326698
569.850013	46794.596277
570.205445	46762.605114
570.560823	46721.570122
570.916145	46613.883514
571.271412	46643.931312
571.626625	46403.067501
571.981782	46469.338510
572.336884	46148.196845
572.691931	46480.169429
573.046923	46092.401354
573.401860	45924.528411
573.756743	45922.277536
574.111570	46032.908177
574.466342	45894.291570
574.821059	46011.994951
575.175722	45547.689558
575.530330	45574.059834
575.884882	45286.837573
576.239380	45261.021824
576.593823	45226.799951
576.948211	45149.592159
577.302544	44689.596953
577.656823	44712.773658
578.011047	44940.827896
578.365216	44686.229462
578.719330	44468.363396
579.073389	44334.251060
579.427394	44412.754428
579.781344	44394.180297
580.135239	44060.075305
580.489080	44133.635822
580.842866	43628.958348
581.196597	44086.884161
581.550273	44019.604922
581.903895	43893.182866
582.257463	44319.319162
582.610975	43720.495620
582.964434	43994.918391
583.317837	43646.635154
583.671186	43485.555166
584.024481	43716.203077
584.377721	43257.682409
584.730906	43527.742062
585.084037	43560.806990
585.437113	43280.433136
585.790135	43321.876462
586.143103	42935.330867
586.496016	43066.012698
586.848874	43108.146662
587.201679	43103.334881
587.554428	42579.044799
587.907124	42777.116774
588.259765	42542.216649
588.612352	42794.985144
588.964884	42197.547920
589.317362	42488.125068
589.669786	42430.608024
590.022155	42219.403842
590.374470	42616.677012
590.726731	42149.712411
591.078937	41695.446476
591.431090	41791.172946
591.783188	41434.362598
592.135232	41125.871709
592.487222	41379.855122
592.839157	41467.364511
593.191038	41140.387711
593.542866	40911.045458
593.894639	40320.635602
594.246358	40596.921080
594.598022	40566.215412
594.949633	40204.716790
595.301190	40154.582515
595.652692	40000.081232
596.004141	40322.508391
596.355535	39343.314668
596.706876	39301.659613
597.058162	39142.129779
597.409395	39598.659192
597.760573	39673.767343
598.111698	39248.026777
598.462768	39277.391499
598.813785	39308.825613
599.164748	38772.421638
599.515657	39166.251700
599.866511	38651.680963
600.217312	39251.321172
600.568060	38239.332222
600.918753	38977.871343
601.269392	38936.095301
601.619978	38602.108776
601.970510	38817.439142
602.320988	38992.780555
602.671412	39280.123804
603.021783	39028.061071
603.372100	38685.872589
603.722363	38818.795213
604.072572	38876.481136
604.422728	38888.327848
604.772830	38706.324550
605.122878	38790.332858
605.472872	38746.444573
605.822813	39030.480824
606.172701	38862.507058
606.522534	39080.025284
606.872314	39331.614149
607.222041	39111.371179
607.571714	39494.098100
607.921333	38951.528793
608.270899	39229.717307
608.620411	39573.251777
608.969870	39370.899861
609.319276	39371.063699
609.668627	39417.505329
610.017926	39909.779043
610.367171	40059.881919
610.716362	40153.034881
611.065500	40112.579621
611.414585	40269.162901
611.763616	40576.300240
612.112594	40515.438389
612.461518	40709.522812
612.810389	41013.617815
613.159207	40876.251414
613.507971	40949.822013
613.856682	41424.083685
614.205340	41300.628348
614.553945	41996.184070
614.902496	41450.718621
615.250994	41912.074939
615.599439	41990.958914
615.947830	42209.808006
616.296169	42234.602921
616.644454	42385.056157
616.992686	42550.889954
617.340864	43077.929986
617.688990	42797.959425
618.037063	43385.349630
618.385082	43355.521123
618.733048	43646.557017
619.080961	43658.754088
619.428821	43670.562991
619.776628	43777.410247
620.124382	43593.035086
620.472083	43720.200713
620.819731	43843.300648
621.167326	43542.172364
621.514868	43513.107592
621.862357	43078.421499
622.209793	43097.998820
622.557176	42765.955660
622.904506	42525.283413
623.251783	42188.436034
623.599007	41967.593166
623.946179	41746.939342
624.293297	41692.822555
624.640363	41109.266148
624.987376	41093.542789
625.334336	40854.980266
625.681243	40521.855778
626.028097	40474.995733
626.374899	40338.072953
626.721647	40313.837606
627.068343	40196.265295
627.414987	39962.174275
627.761577	39747.988251
628.108115	40090.675807
628.454600	39530.643944
628.801032	39717.181760
629.147412	39692.197802
629.493739	39693.339623
629.840014	39344.630409
630.186236	39691.668481
630.532405	39304.477618
630.878521	39516.014516
631.224585	39395.306608
631.570597	39115.981314
631.916556	39269.618039
632.262462	39221.346471
632.608316	39243.600644
632.954117	39144.950305
633.299866	39125.408272
633.645562	39047.081344
633.991206	38553.648164
634.336797	38134.272055
634.682336	38124.199830
635.027823	37880.823005
635.373257	37699.613688
635.718639	37453.350803
636.063968	37317.416089
636.409245	36763.415967
636.754470	36807.379869
637.099642	36574.687769
637.444762	36100.252178
637.789829	36259.058607
638.134845	35902.586015
638.479808	35875.018465
638.824719	35754.280310
639.169577	35372.765787
639.514383	35439.311538
639.859137	35140.456815
640.203839	35388.287500
640.548489	35014.433010
640.893086	35082.332311
641.237632	34832.684290
641.582125	34955.784226
641.926566	34887.632867
642.270955	34856.188670
642.615292	34884.630860
642.959576	34844.752813
643.303809	34851.686920
643.647990	34996.453735
643.992118	34961.359742
644.336195	34958.841686
644.680219	35048.546498
645.024192	35352.865832
645.368112	35860.999017
645.711981	35869.664760
646.055797	36716.382001
646.399562	36665.010123
646.743274	37598.226002
647.086935	38035.934267
647.430544	37916.204343
647.774101	38053.164931
648.117606	38290.452043
648.461059	38595.668702
648.804460	38199.749082
649.147810	37584.962727
649.491108	37339.332505
649.834354	36987.386870
650.177548	36172.645668
650.520690	35727.468933
650.863781	35740.439822
651.206820	35586.558601
651.549807	35156.674207
651.892742	34705.304415
652.235626	34474.548118
652.578458	34351.843913
652.921238	33757.761576
653.263967	34078.401646
653.606644	33778.306799
653.949269	33718.874116
654.291843	33338.077957
654.634365	33736.248452
654.976836	33330.566638
655.319255	33329.553366
655.661622	33333.944211
656.003938	33103.243367
656.346203	32971.155054
656.688416	33202.385219
657.030577	32985.136694
657.372687	32831.048785
657.714746	33094.854887
658.056753	33222.000348
658.398708	32678.395085
658.740612	32726.517940
659.082465	32987.395131
659.424266	32826.733558
659.766016	32947.219655
660.107715	32833.453416
660.449362	32964.777994
660.790958	32953.485809
661.132503	32970.764364
661.473996	32989.749350
661.815438	33110.036322
662.156829	33292.541214
662.498168	33063.730803
662.839456	33098.522326
663.180693	33249.535131
663.521879	33402.526588
663.863013	33365.711042
664.204097	33348.462734
664.545129	33812.241326
664.886110	33783.063128
665.227040	33837.003474
665.567918	33958.643995
665.908746	34023.294273
666.249522	34197.493865
666.590248	34171.229453
666.930922	34285.277997
667.271545	34249.200980
667.612118	34339.452757
667.952639	34128.114985
668.293109	34192.684604
668.633528	34081.819548
668.973896	34003.376674
669.314213	34036.365985
669.654480	33780.474495
669.994695	33816.959846
670.334859	33698.621280
670.674973	33599.381125
671.015035	33763.979840
671.355047	33711.715677
671.695008	33648.597910
672.034918	33555.633992
672.374777	33642.896365
672.714585	33474.781446
673.054342	33715.425966
673.394049	33480.929133
673.733705	33744.210955
674.073310	33406.234357
674.412864	33485.486337
674.752368	33079.164295
675.091820	33385.404309
675.431223	32961.801193
675.770574	32683.710982
676.109875	32554.808678
676.449125	32276.607562
676.788324	32198.406663
677.127473	31676.422908
677.466571	31596.586155
677.805619	31237.351011
678.144616	31249.941293
678.483562	31158.164567
678.822458	30833.877222
679.161303	30795.239298
679.500098	30693.604596
679.838842	30573.027757
680.177535	30742.324827
680.516179	31001.818221
680.854771	31252.522364
681.193314	32093.094438
681.531805	33231.278592
681.870247	33992.797813
682.208638	34728.506326
682.546978	34965.518694
682.885268	35037.027462
683.223508	34501.198178
683.561697	34181.538613
683.899836	33988.548120
684.237925	33476.419821
684.575963	33328.167048
684.913951	32861.406614
685.251889	33035.971689
685.589776	33019.053577
685.927614	33013.717516
686.265401	33165.141174
686.603137	33246.187805
686.940824	33760.725775
687.278460	34143.861029
687.616046	34281.900424
687.953582	34889.924072
688.291068	34759.494298
688.628504	35031.666194
688.965889	34969.753263
689.303224	34589.257053
689.640510	34240.416769
689.977745	33503.349665
690.314930	32708.155537
690.652065	32188.702442
690.989150	31438.576229
691.326185	30553.425231
691.663170	29849.032366
692.000105	29098.054198
692.336990	28418.325178
692.673825	27984.365011
693.010610	27461.357902
693.347345	26886.472279
693.684030	26237.506900
694.020665	25966.076054
694.357251	25296.620905
694.693786	25243.577885
695.030272	25021.295767
695.366707	24472.397293
695.703093	24193.346742
696.039429	24179.506254
696.375716	23915.765688
696.711952	23878.617425
697.048139	23729.840372
697.384276	23555.413929
697.720363	23678.904554
698.056400	23479.466425
698.392388	23248.846240
698.728326	23222.291962
699.064214	23018.493235
699.400053	22961.447538
699.735842	22609.065843
700.071581	22326.166372
700.407270	22037.847660
700.742910	21854.720185
701.078501	21589.308476
701.414042	21308.095270
701.749533	21015.186588
702.084974	20663.508134
702.420366	20868.448682
702.755709	20424.466701
703.091002	20136.765530
703.426246	20156.360495
703.761440	20050.224042
704.096584	19785.939031
704.431679	19744.147866
704.766725	19649.021293
705.101721	19589.250852
705.436668	19682.499595
705.771565	19362.335915
706.106413	19695.732624
706.441212	19691.795483
706.775961	19813.819132
707.110661	19887.684639
707.445311	20241.563557
707.779913	20081.910215
708.114465	20320.908798
708.448967	20616.789241
708.783421	21294.973147
709.117825	21570.779715
709.452180	21793.354219
709.786485	22201.712886
710.120742	22986.595334
710.454949	23009.341021
710.789107	23470.266320
711.123216	24179.518857
711.457275	24296.967659
711.791286	24835.004968
712.125247	24901.296141
712.459159	24593.891621
712.793023	25245.846404
713.126837	24154.880218
713.460602	24400.749894
713.794318	24025.715774
714.127985	23630.345639
714.461602	22752.390888
714.795171	22699.463814
715.128691	21701.363244
715.462162	21152.563071
715.795584	20744.159034
716.128957	20480.569702
716.462281	20072.148020
716.795556	19826.031328
717.128782	19345.848821
717.461960	18803.455955
717.795088	18725.723883
718.128167	18325.282348
718.461198	17873.209315
718.794180	17724.212972
719.127113	17374.182976
719.459997	17164.297056
719.792833	16817.203531
720.125619	16790.886188
720.458357	16474.518496
720.791046	16311.485060
721.123686	16157.019065
721.456278	15923.585915
721.788821	15874.449789
722.121315	15627.803775
722.453761	15696.933118
722.786158	15614.956394
723.118506	15618.611231
723.450805	15494.014073
723.783056	15654.416026
724.115259	15558.555965
724.447412	15487.788248
724.779518	15728.450412
725.111574	15757.462252
725.443582	15948.164061
725.775542	15923.913590
726.107453	16401.615849
726.439315	16284.560257
726.771129	16670.828588
727.102895	17041.963375
727.434612	17245.958707
727.766281	17378.034417
728.097901	17633.865413
728.429473	17664.341709
728.760996	17645.530643
729.092471	17736.485661
729.423897	17610.630735
729.755276	17473.891957
730.086606	17594.564578
730.417887	18114.763764
730.749120	18631.603021
731.080305	18795.853895
731.411442	19124.222054
731.742530	19199.244505
732.073570	19301.595052
732.404562	19595.622871
732.735506	19403.932996
733.066401	19118.623853
733.397249	18591.694726
733.728048	17960.542265
734.058798	17138.766132
734.389501	16457.350846
734.720156	16002.507699
735.050762	15473.546988
735.381320	15124.595798
735.711831	14892.750612
736.042293	14542.345049
736.372707	14543.696079
736.703073	14336.504656
737.033391	14530.463050
737.363661	14496.788142
737.693883	14600.227578
738.024056	14767.757723
738.354182	14955.583554
738.684260	15238.664507
739.014290	15456.548217
739.344272	15654.746222
739.674207	15923.969043
740.004093	16036.406938
740.333931	16028.986360
740.663722	16067.369705
740.993464	16056.737912
741.323159	15877.734100
741.652806	15609.842144
741.982405	15393.591767
742.311956	15061.354523
742.641460	14936.248208
742.970915	14640.536644
743.300323	14312.838959
743.629683	14092.492645
743.958996	13813.996621
744.288260	13551.508782
744.617477	13249.735230
744.946647	13175.761338
745.275768	12899.196077
745.604842	12716.668499
745.933869	12545.057540
746.262847	12504.871982
746.591778	12426.897935
746.920662	12327.667862
747.249498	12334.145745
747.578286	12449.411728
747.907027	12594.339860
748.235720	12801.843834
748.564365	12837.396572
748.892963	12746.827202
749.221514	12801.942137
749.550017	12659.098522
749.878473	12614.907767
750.206881	12401.936661
750.535242	12311.586582
750.863555	12219.779608
751.191821	12128.811987
751.520039	12144.744554
751.848210	12057.545195
752.176334	12084.800193
752.504411	11986.207827
752.832440	11837.249293
753.160421	11906.081207
753.488356	11782.169646
753.816243	11681.049141
754.144082	11544.872452
754.471875	11490.228865
754.799620	11429.591346
755.127318	11407.450598
755.454969	11368.401820
755.782572	11317.090436
756.110129	11327.132414
756.437638	11246.841957
756.765100	11233.694628
757.092515	11244.311298
757.419882	11256.841086
757.747203	11260.939544
758.074477	11340.315032
758.401703	11296.424226
758.728882	11459.208125
759.056014	11495.272539
759.383099	11613.464912
759.710138	11713.118441
760.037129	11785.978237
760.364073	11817.457723
760.690970	11804.020527
761.017820	11802.288891
761.344623	11980.690284
761.671379	12294.373562
761.998088	12930.257146
762.324751	14470.647239
762.651366	17316.073595
762.977935	20971.636060
763.304456	23180.256301
763.630931	23654.028980
763.957359	22477.375782
764.283740	20570.952549
764.610074	18713.869610
764.936362	16582.646204
765.262602	15073.644856
765.588796	13609.310652
765.914943	12594.052514
766.241044	11742.770508
766.567097	11115.535023
766.893104	10565.852649
767.219064	10209.881652
767.544978	9827.873096
767.870845	9516.881795
768.196665	9331.808434
768.522438	9133.960790
768.848165	8969.165470
769.173846	8807.314185
769.499479	8687.662398
769.825066	8529.470991
770.150607	8346.988783
770.476101	8287.130123
770.801548	8174.800612
771.126949	8036.302472
771.452303	7951.908515
771.777611	7781.983822
772.102872	7762.971110
772.428087	7648.494068
772.753256	7526.137703
773.078378	7436.894156
773.403453	7297.072713
773.728482	7192.272166
774.053465	7128.385623
774.378401	7044.382356
774.703291	6949.033972
775.028135	6854.842533
775.352932	6816.466749
775.677683	6735.069759
776.002388	6653.098077
776.327046	6649.334855
776.651658	6563.143727
776.976224	6487.970041
777.300743	6466.456917
777.625216	6404.057515
777.949643	6357.767120
778.274024	6366.881526
778.598359	6297.575743
778.922647	6302.480785
779.246889	6263.689107
779.571086	6270.018275
779.895236	6281.517147
780.219339	6277.088493
780.543397	6276.748216
780.867409	6323.809907
781.191374	6318.526778
781.515294	6285.797087
781.839167	6339.238359
782.162995	6307.673174
782.486776	6264.672132
782.810511	6217.297888
783.134201	6145.214429
783.457844	6135.253109
783.781441	6082.910809
784.104993	6043.269696
784.428498	6010.411455
784.751958	5995.058621
785.075372	5972.713707
785.398739	5931.167037
785.722061	5961.308096
786.045337	5953.017918
786.368568	6065.531431
786.691752	6091.183343
787.014891	6329.554302
787.337983	6605.378514
787.661030	7045.980402
787.984031	7470.594269
788.306987	7730.977427
788.629897	7815.210067
788.952760	7733.772747
789.275579	7549.364819
789.598351	7261.305726
789.921078	6996.687999
790.243759	6714.179217
790.566395	6514.756212
790.888984	6321.349824
791.211529	6187.242529
791.534027	6025.028281
791.856480	5883.208020
792.178888	5823.445141
792.501249	5757.877374
792.823566	5657.717208
793.145836	5650.049613
793.468062	5634.737109
793.790241	5589.651549
794.112375	5635.906656
794.434464	5730.985338
794.756507	5760.518938
795.078505	5884.624584
795.400457	6092.738538
795.722364	6333.614952
796.044226	6523.495052
796.366042	6680.950452
796.687812	6631.040508
797.009538	6660.642163
797.331218	6567.083389
797.652852	6500.986300
797.974442	6375.315376
798.295986	6307.849614
798.617484	6181.336817
798.938938	6071.238017
799.260346	6003.774776
799.581709	5867.857707
799.903026	5818.192259
800.224299	5742.574951
800.545526	5628.085306
800.866708	5562.923352
801.187845	5513.043655
801.508936	5434.079021
801.829983	5407.693622
802.150984	5304.107993
802.471940	5276.263179
802.792851	5261.353967
803.113717	5240.173559
803.434538	5214.070464
803.755314	5181.502090
804.076045	5165.592208
804.396731	5132.991066
804.717372	5144.021111
805.037967	5153.211134
805.358518	5178.976472
805.679024	5237.471500
805.999485	5248.758644
806.319901	5270.075163
806.640272	5281.561432
806.960598	5333.248382
807.280879	5324.186908
807.601115	5359.084296
807.921306	5321.880580
808.241453	5321.137010
808.561554	5328.910469
808.881611	5290.784223
809.201623	5291.245488
809.521590	5243.442747
809.841513	5225.871805
810.161390	5239.918981
810.481223	5150.844313
810.801011	5143.948014
811.120755	5116.632522
811.440453	5059.102874
811.760107	5030.683370
812.079716	5010.291902
812.399281	4957.954643
812.718801	4947.879897
813.038276	4921.706226
813.357707	4879.262232
813.677093	4902.118823
813.996434	4841.388043
814.315731	4863.659860
814.634983	4861.416547
814.954191	4867.536508
815.273354	4927.243934
815.592473	4968.120130
815.911547	5039.482704
816.230577	5092.344243
816.549562	5178.338766
816.868502	5232.679884
817.187399	5287.325991
817.506250	5365.902456
817.825058	5395.375562
818.143821	5545.642276
818.462539	5713.096804
818.781213	5942.265137
819.099843	6303.007586
819.418429	6925.151506
819.736970	7543.428860
820.055466	8254.453363
820.373919	9154.327051
820.692327	10595.666032
821.010691	13273.975618
821.329011	19463.174115
821.647286	28985.913730
821.965517	39291.690732
822.283704	44779.359738
822.601847	46270.117151
822.919945	41698.834131
823.237999	36589.846519
823.556010	31408.654460
823.873976	26713.870733
824.191897	22524.384541
824.509775	19455.559452
824.827609	16698.794389
825.145398	15141.440814
825.463144	14397.147216
825.780845	14688.152863
826.098502	15928.107830
826.416116	18376.382004
826.733685	20653.735857
827.051210	21192.436078
827.368692	19764.405742
827.686129	17212.929067
828.003522	14740.555657
828.320872	12531.517000
828.638177	10890.472709
828.955439	9647.989603
829.272656	8592.213192
829.589830	7756.291581
829.906960	7027.658328
830.224046	6493.613613
830.541088	6083.941725
830.858086	5829.497046
831.175041	5627.800481
831.491952	5568.337551
831.808819	5601.147901
832.125642	5849.772567
832.442421	6388.722325
832.759157	7491.963721
833.075849	9249.221731
833.392497	11097.797723
833.709101	12208.976416
834.025662	11963.119343
834.342179	10912.532799
834.658653	9609.339077
834.975083	8512.391562
835.291469	7606.201308
835.607811	6877.880606
835.924110	6361.651329
836.240366	5871.038675
836.556578	5420.727525
836.872746	5069.137291
837.188871	4798.369356
837.504952	4572.908792
837.820990	4412.189245
838.136984	4294.160710
838.452935	4245.785798
838.768842	4274.595992
839.084706	4557.581163
839.400526	5294.035767
839.716303	6192.876018
840.032037	6755.743531
840.347727	6612.625173
840.663373	6021.461664
840.978977	5442.578406
841.294537	5001.119523
841.610054	4674.999719
841.925527	4431.791772
842.240957	4226.452973
842.556344	4044.205179
842.871687	3886.162486
843.186987	3735.235381
843.502244	3620.654995
843.817458	3534.819268
844.132629	3464.565748
844.447756	3414.411309
844.762840	3367.894062
845.077881	3329.548525
845.392879	3296.866724
845.707833	3270.418311
846.022745	3243.014598
846.337613	3231.992116
846.652438	3211.225082
846.967221	3201.432641
847.281960	3181.986390
847.596656	3171.117662
847.911309	3161.771363
848.225919	3144.858292
848.540485	3138.758496
848.855009	3131.605098
849.169490	3118.717389
849.483928	3113.275463
849.798323	3103.656942
850.112675	3091.994232
850.426984	3097.373143
850.741251	3089.027513
851.055474	3082.746235
851.369654	3084.787903
851.683792	3082.844538
851.997887	3086.093562
852.311938	3084.364446
852.625947	3088.709920
852.939914	3083.116760
853.253837	3088.599015
853.567718	3085.604570
853.881555	3079.966039
854.195350	3085.723037
854.509103	3081.047367
854.822812	3076.754824
855.136479	3073.717529
855.450103	3078.032757
855.763685	3070.723083
856.077224	3073.851119
856.390720	3079.096440
856.704173	3094.648400
857.017584	3096.180910
857.330953	3105.181891
857.644278	3112.287397
857.957561	3110.621296
858.270802	3111.831172
858.584000	3111.105246
858.897155	3108.027622
859.210268	3091.719489
859.523339	3081.115422
859.836367	3078.856985
860.149352	3071.958166
860.462295	3067.693350
860.775195	3061.528019
861.088054	3058.505847
861.400869	3057.575754
861.713642	3055.019889
862.026373	3064.409038
862.339062	3070.218968
862.651708	3079.310689
862.964312	3093.204109
863.276873	3100.556632
863.589392	3133.349338
863.901869	3156.949499
864.214303	3179.927079
864.526696	3197.251004
864.839045	3213.435628
865.151353	3229.247207
865.463619	3229.224522
865.775842	3230.666292
866.088023	3232.491190
866.400162	3227.966754
866.712258	3229.910119
867.024313	3226.081363
867.336325	3224.596743
867.648296	3227.651682
867.960224	3223.069273
868.272110	3228.087742
868.583954	3229.927763
868.895755	3235.921695
869.207515	3232.130747
869.519233	3249.631113
869.830909	3256.600508
870.142542	3268.406890
870.454134	3272.210441
870.765684	3287.553193
871.077191	3306.081954
871.388657	3318.762976
871.700081	3335.665965
872.011463	3358.394007
872.322803	3374.989486
872.634101	3389.187895
872.945357	3411.931061
873.256571	3441.114301
873.567744	3458.478555
873.878874	3461.798155
874.189963	3478.761638
874.501010	3480.992348
874.812015	3476.422542
875.122979	3494.212774
875.433900	3488.370077
875.744780	3495.583968
876.055618	3501.615708
876.366415	3500.010101
876.677169	3506.465298
876.987882	3521.437525
877.298554	3541.284548
877.609183	3578.316864
877.919771	3629.794607
878.230317	3694.044112
878.540822	3795.973723
878.851285	3947.283955
879.161707	4167.267306
879.472087	4539.438051
879.782425	5169.254607
880.092722	6346.384194
880.402977	8272.276363
880.713191	10640.741510
881.023363	13014.983819
881.333494	14361.647410
881.643583	14823.316280
881.953631	14423.754426
882.263637	13578.148759
882.573602	12543.827498
882.883526	11590.941036
883.193408	10640.348300
883.503248	9722.739832
883.813048	8893.603615
884.122806	8129.795711
884.432522	7365.423197
884.742197	6709.072528
885.051831	6142.104038
885.361424	5647.614736
885.670975	5252.249643
885.980485	4926.074386
886.289954	4659.664529
886.599382	4442.103452
886.908768	4265.821864
887.218113	4098.382460
887.527417	3969.318839
887.836680	3846.208821
888.145901	3746.227617
888.455082	3670.902696
888.764221	3601.848970
889.073319	3543.636246
889.382376	3509.752131
889.691392	3486.373780
890.000366	3479.527893
890.309300	3472.550936
890.618193	3472.818117
890.927044	3470.055565
891.235855	3475.807521
891.544625	3492.549193
891.853353	3520.116743
892.162041	3582.959767
892.470687	3671.023683
892.779293	3792.160090
893.087858	3961.449598
893.396381	4239.612905
893.704864	4652.105319
894.013306	5215.945773
894.321707	5787.093381
894.630068	6150.875645
894.938387	6186.236819
895.246665	6008.616804
895.554903	5694.063928
895.863100	5361.395665
896.171256	5088.903655
896.479371	4848.624619
896.787446	4623.574908
897.095480	4426.886729
897.403473	4279.475829
897.711425	4135.349241
898.019336	4012.758462
898.327207	3887.329513
898.635038	3788.212866
898.942827	3678.693799
899.250576	3596.437292
899.558284	3513.127183
899.865952	3457.853452
900.173579	3396.595871
900.481165	3348.364632
900.788711	3308.050524
901.096216	3271.287910
901.403681	3246.432501
901.711105	3235.180645
902.018489	3231.077146
902.325832	3264.532764
902.633135	3322.425374
902.940397	3491.840911
903.247619	3894.732447
903.554800	4643.263135
903.861941	5605.422799
904.169041	6313.024359
904.476101	6524.316760
904.783121	6249.036993
905.090100	5848.045972
905.397039	5438.046409
905.703938	5077.170370
906.010796	4756.114405
906.317614	4497.662009
906.624391	4261.083179
906.931129	4068.609405
907.237826	3887.609297
907.544483	3718.294583
907.851099	3545.120866
908.157675	3387.196640
908.464211	3243.710278
908.770707	3145.460710
909.077163	3065.835685
909.383578	3008.870646
909.689954	2960.982205
909.996289	2930.412648
910.302584	2910.409350
910.608839	2898.277813
910.915054	2887.018396
911.221229	2881.616800
911.527363	2885.485885
911.833458	2893.045096
912.139513	2904.347363
912.445527	2918.258427
912.751502	2955.585650
913.057436	2995.209119
913.363331	3052.953016
913.669186	3140.147334
913.975000	3255.937596
914.280775	3442.974486
914.586510	3707.854353
914.892205	4084.315120
915.197859	4580.725101
915.503475	5163.061549
915.809050	5659.781561
916.114585	5951.165294
916.420081	6015.626529
916.725536	5948.483401
917.030952	5709.845260
917.336328	5509.882851
917.641665	5297.965347
917.946961	5067.768618
918.252218	4869.978947
918.557435	4639.865397
918.862612	4447.563022
919.167750	4269.837143
919.472848	4084.035336
919.777906	3916.174995
920.082925	3753.522166
920.387904	3602.484156
920.692843	3493.403669
920.997743	3392.547824
921.302603	3300.400573
921.607423	3234.076633
921.912204	3169.658248
922.216946	3120.733850
922.521647	3072.149730
922.826310	3030.608102
923.130932	2994.410097
923.435516	2953.233952
923.740059	2927.231680
924.044564	2895.976527
924.349028	2869.240767
924.653454	2840.881756
924.957840	2814.410657
925.262186	2795.584468
925.566493	2772.551436
925.870761	2749.644433
926.174989	2735.509038
926.479178	2723.044785
926.783328	2706.681200
927.087438	2694.179138
927.391509	2681.576253
927.695541	2669.081754
927.999533	2662.351813
928.303486	2652.297232
928.607400	2647.180461
928.911275	2642.048566
929.215110	2635.081692
929.518906	2629.576752
929.822663	2630.138840
930.126381	2632.959366
930.430060	2632.498100
930.733699	2635.863070
931.037299	2641.037815
931.340861	2636.185704
931.644383	2644.105357
931.947866	2640.158133
932.251309	2639.459934
932.554714	2636.778040
932.858080	2636.462968
933.161407	2633.022380
933.464694	2626.897378
933.767943	2625.586678
934.071153	2620.543004
934.374323	2615.176696
934.677455	2613.921448
934.980548	2611.186622
935.283602	2609.298710
935.586617	2607.372989
935.889593	2611.847013
936.192530	2610.420367
936.495428	2614.768362
936.798287	2626.723458
937.101108	2640.473206
937.403890	2660.567245
937.706632	2686.599763
938.009336	2721.242572
938.312002	2751.663415
938.614628	2771.840634
938.917216	2790.422327
939.219765	2801.331384
939.522275	2814.007365
939.824747	2814.385452
940.127179	2807.176602
940.429573	2799.617391
940.731929	2797.545477
941.034246	2787.072480
941.336524	2792.027934
941.638763	2782.787499
941.940964	2776.002106
942.243126	2759.754467
942.545250	2750.650143
942.847335	2734.611712
943.149381	2724.365567
943.451389	2708.148175
943.753359	2698.053265
944.055290	2685.019362
944.357182	2679.864782
944.659036	2672.169460
944.960851	2670.140396
945.262628	2664.340548
945.564367	2667.249294
945.866067	2661.514982
946.167729	2659.816113
946.469352	2661.590599
946.770937	2658.933911
947.072484	2653.398724
947.373992	2653.928045
947.675462	2650.850421
947.976893	2643.321457
948.278286	2639.318781
948.579641	2639.376755
948.880958	2635.868112
949.182236	2632.228398
949.483476	2632.215796
949.784678	2631.230250
950.085841	2629.445682
950.386967	2633.776033
950.688054	2641.408340
950.989103	2647.903866
951.290114	2655.687408
951.591087	2665.447082
951.892021	2678.543999
952.192917	2693.533870
952.493776	2703.006198
952.794596	2704.707588
953.095378	2707.696992
953.396122	2705.516693
953.696828	2702.013091
953.997496	2697.869263
954.298126	2688.389373
954.598718	2680.583146
954.899272	2669.558143
955.199788	2659.067502
955.500266	2645.625265
955.800706	2630.451392
956.101108	2613.341716
956.401472	2605.253184
956.701798	2586.540421
957.002087	2575.517938
957.302337	2566.466547
957.602550	2553.684701
957.902724	2545.623896
958.202861	2533.273069
958.502960	2527.206040
958.803022	2521.370905
959.103045	2508.586539
959.403031	2505.740807
959.702979	2499.109169
960.002889	2497.891731
960.302762	2492.389311
960.602596	2486.203816
960.902393	2482.942189
961.202153	2482.228866
961.501875	2480.051087
961.801559	2478.697537
962.101205	2474.145376
962.400814	2470.601444
962.700385	2470.188070
962.999918	2467.717904
963.299414	2467.123048
963.598873	2468.577421
963.898293	2463.183387
964.197677	2464.965434
964.497022	2458.742130
964.796331	2459.848663
965.095601	2460.710701
965.394835	2459.765484
965.694030	2461.938222
965.993189	2457.547377
966.292309	2454.477314
966.591393	2455.241049
966.890439	2455.825822
967.189447	2456.786162
967.488419	2457.040741
967.787353	2456.435802
968.086249	2456.829012
968.385108	2457.945628
968.683930	2460.841771
968.982714	2458.986626
969.281462	2461.807152
969.580172	2461.318160
969.878844	2462.497790
970.177480	2466.195476
970.476078	2469.860395
970.774639	2470.044397
971.073162	2477.001189
971.371649	2473.948771
971.670098	2476.577732
971.968510	2479.688124
972.266885	2478.132928
972.565223	2486.662561
972.863524	2484.663743
973.161788	2487.191882
973.460014	2483.476551
973.758204	2489.488127
974.056356	2485.787920
974.354471	2489.367140
974.652550	2489.904023
974.950591	2486.607108
975.248595	2486.498723
975.546563	2485.122488
975.844493	2483.710965
976.142386	2481.293732
976.440243	2480.431694
976.738062	2478.228710
977.035845	2475.143524
977.333590	2475.877012
977.631299	2468.322843
977.928971	2472.751497
978.226606	2467.347380
978.524204	2467.911989
978.821765	2464.549539
979.119290	2464.728500
979.416777	2464.978037
979.714228	2464.554580
980.011642	2464.438634
980.309020	2471.642443
980.606360	2474.175622
980.903664	2481.888588
981.200931	2496.276041
981.498162	2514.882940
981.795356	2545.283618
982.092513	2582.978846
982.389633	2629.342338
982.686717	2667.579490
982.983764	2699.464788
983.280775	2718.369115
983.577749	2719.142932
983.874686	2712.975080
984.171587	2695.162163
984.468451	2678.901921
984.765279	2660.484066
985.062070	2642.792136
985.358824	2622.115844
985.655543	2598.253542
985.952224	2579.387024
986.248869	2551.322920
986.545478	2521.915349
986.842050	2506.325581
987.138586	2484.807416
987.435086	2473.106898
987.731549	2458.437140
988.027975	2459.563838
988.324366	2449.499174
988.620719	2445.272167
988.917037	2443.275870
989.213318	2442.683534
989.509563	2436.576177
989.805772	2437.428132
990.101944	2436.271187
990.398080	2436.349325
990.694180	2431.330856
990.990244	2435.520055
991.286271	2433.876639
991.582262	2434.017791
991.878217	2434.032914
992.174136	2436.372010
992.470019	2436.855961
992.765865	2437.050045
993.061676	2438.189346
993.357450	2440.357042
993.653188	2447.114709
993.948890	2452.173507
994.244556	2458.018724
994.540186	2466.790332
994.835780	2476.618062
995.131337	2491.290340
995.426859	2508.689882
995.722345	2530.049251
996.017795	2546.790923
996.313208	2559.454302
996.608586	2569.798749
996.903928	2573.856878
997.199234	2572.916703
997.494504	2568.805642
997.789738	2562.698284
998.084936	2551.645554
998.380099	2540.459234
998.675225	2527.770650
998.970316	2515.394617
999.265371	2502.945488
999.560390	2489.500730
999.855373	2479.907414
1000.150320	2470.616568
1000.445232	2459.594085
1000.740108	2452.589402
1001.034948	2446.572785
1001.329752	2443.054059
1001.624521	2439.772268
1001.919254	2429.823551
1002.213951	2433.067533
1002.508613	2427.348344
1002.803239	2424.679053
1003.097829	2420.963723
1003.392384	2423.902716
1003.686903	2423.476738
1003.981386	2421.992118
1004.275834	2419.448856
1004.570246	2418.753177
1004.864623	2416.482137
1005.158964	2418.637231
1005.453270	2414.732857
1005.747540	2417.205543
1006.041775	2413.253278
1006.335974	2416.721592
1006.630138	2414.193453
1006.924266	2415.315110
1007.218359	2415.075655
1007.512416	2415.305028
1007.806438	2416.749318
1008.100425	2415.642785
1008.394376	2414.599266
1008.688292	2415.040367
1008.982172	2414.175809
1009.276017	2411.398134
1009.569827	2412.126580
1009.863602	2413.021385
1010.157341	2411.665315
1010.451045	2411.501477
1010.744714	2409.800088
1011.038347	2412.726478
1011.331945	2412.202198
1011.625508	2412.434091
1011.919036	2412.597928
1012.212528	2410.828483
1012.505986	2409.817732
1012.799408	2409.931158
1013.092795	2411.635068
1013.386147	2409.323699
1013.679464	2409.548030
1013.972745	2408.968298
1014.265992	2409.830335
1014.559204	2407.617268
1014.852380	2408.779254
1015.145521	2407.634912
1015.438628	2409.681621
1015.731699	2409.495098
1016.024736	2409.369069
1016.317737	2410.745304
1016.610703	2412.136663
1016.903635	2408.375962
1017.196531	2406.248595
1017.489393	2407.163564
1017.782219	2406.878739
1018.075011	2413.091961
1018.367768	2411.302352
1018.660490	2413.112126
1018.953177	2413.112126
1019.245829	2413.112126
