Dividing Wavelength (nm)	Counts (n)	Blue Motor Position (mm): 9.400000	Red Motor Position (mm): 0.000000	
326.493990	1975.492081
326.888308	1975.492081
327.282561	1975.492081
327.676750	1951.826384
328.070874	1953.374019
328.464933	1960.645883
328.858929	1969.067131
329.252859	1980.644140
329.646726	1994.875318
330.040528	2009.764366
330.434265	2032.933509
330.827938	2050.393545
331.221547	2069.423901
331.615091	2087.942579
332.008571	2110.085848
332.401986	2130.946142
332.795338	2151.574544
333.188625	2170.804025
333.581847	2190.646007
333.975006	2207.445652
334.368100	2225.455174
334.761129	2241.778430
335.154095	2255.921387
335.546996	2282.216046
335.939833	2320.327169
336.332606	2334.313850
336.725315	2345.752228
337.117960	2352.378825
337.510540	2359.960720
337.903056	2372.465303
338.295508	2376.843545
338.687896	2381.128525
339.080220	2392.156049
339.472480	2395.889024
339.864676	2397.807183
340.256807	2401.000754
340.648875	2406.843451
341.040879	2401.681310
341.432818	2406.115004
341.824694	2408.312948
342.216506	2404.648029
342.608253	2406.283883
342.999937	2405.689027
343.391557	2405.991496
343.783113	2401.913203
344.174605	2401.149468
344.566033	2399.732904
344.957397	2400.852040
345.348697	2397.938253
345.739934	2394.290978
346.131106	2391.485576
346.522215	2389.597664
346.913260	2390.318549
347.304241	2386.618342
347.695159	2385.932745
348.086012	2384.566592
348.476802	2381.519215
348.867528	2385.476521
349.258191	2380.573998
349.648789	2378.595346
350.039324	2376.246168
350.429796	2380.536190
350.820203	2377.466127
351.210548	2375.121991
351.600828	2375.489995
351.991045	2376.508308
352.381198	2374.721219
352.771288	2375.852958
353.161314	2374.264994
353.551276	2372.419932
353.941175	2372.200642
354.331010	2372.591331
354.720782	2374.781713
355.110490	2377.360263
355.500135	2374.075951
355.889717	2376.301621
356.279235	2373.995293
356.668689	2376.082330
357.058080	2375.137114
357.447408	2372.465303
357.836672	2372.019160
358.225873	2376.440252
358.615010	2374.635519
359.004084	2377.960160
359.393095	2375.724408
359.782043	2380.165665
360.170927	2377.307331
360.559748	2381.486447
360.948505	2380.924359
361.337199	2382.766900
361.725830	2382.933258
362.114398	2381.957795
362.502903	2381.216746
362.891344	2381.375542
363.279722	2378.499564
363.668037	2384.584236
364.056289	2383.273536
364.444478	2384.498537
364.832603	2382.149359
365.220665	2383.790255
365.608665	2384.183465
365.996601	2386.918291
366.384474	2387.515667
366.772284	2386.681356
367.160031	2386.212529
367.547715	2384.725389
367.935336	2387.051881
368.322893	2385.862169
368.710388	2388.596995
369.097820	2386.966182
369.485189	2386.958620
369.872495	2388.433157
370.259738	2386.855276
370.646918	2387.959289
371.034035	2388.012221
371.421090	2388.942314
371.808081	2390.510113
372.195010	2387.319062
372.581875	2390.033724
372.968678	2388.478528
373.355418	2391.770401
373.742096	2391.379712
374.128710	2391.863663
374.515262	2390.696635
374.901751	2391.074722
375.288177	2392.519013
375.674540	2391.906512
376.060841	2389.333003
376.447079	2393.033210
376.833254	2392.569424
377.219367	2389.275030
377.605417	2391.215874
377.991404	2386.565410
378.377329	2391.803169
378.763191	2389.869886
379.148991	2394.167470
379.534727	2393.113869
379.920402	2393.706204
380.306013	2396.050341
380.691563	2394.419528
381.077049	2394.021276
381.462474	2395.001781
381.847835	2393.025648
382.233134	2397.245094
382.618371	2397.650907
383.003545	2395.919271
383.388657	2393.350803
383.773706	2395.208468
384.158693	2395.939435
384.543618	2399.722821
384.928480	2396.206617
385.313280	2395.982285
385.698017	2397.121586
386.082692	2395.619322
386.467305	2399.533778
386.851856	2397.660989
387.236344	2398.046638
387.620770	2400.768861
388.005133	2397.683675
388.389435	2401.832544
388.773674	2398.220558
389.157851	2399.876577
389.541965	2399.833727
389.926018	2402.578635
390.310008	2398.255846
390.693936	2399.874056
391.077802	2399.536299
391.461606	2401.232647
391.845348	2399.299364
392.229027	2399.853891
392.612645	2401.126783
392.996200	2402.780281
393.379694	2402.129972
393.763125	2402.213151
394.146494	2401.388923
394.529801	2405.212638
394.913047	2403.821279
395.296230	2401.449417
395.679351	2400.529406
396.062410	2401.857750
396.445408	2405.862947
396.828343	2401.827503
397.211217	2399.012019
397.594028	2401.031001
397.976778	2401.714077
398.359466	2400.151319
398.742092	2400.862122
399.124656	2404.716084
399.507158	2402.893707
399.889598	2406.014181
400.271977	2407.302196
400.654294	2405.996537
401.036549	2404.408574
401.418742	2404.617782
401.800874	2407.123235
402.182944	2408.403688
402.564952	2403.677607
402.946898	2407.879408
403.328783	2406.188101
403.710606	2405.331105
404.092367	2404.474109
404.474067	2406.568708
404.855705	2405.545354
405.237282	2408.872516
405.618797	2407.309758
406.000250	2406.624161
406.381642	2406.866136
406.762972	2410.094995
407.144240	2409.719429
407.525447	2409.043915
407.906593	2407.634912
408.287677	2408.723802
408.668700	2412.459297
409.049661	2409.537948
409.430560	2411.171282
409.811399	2410.470561
410.192176	2412.164389
410.572891	2411.277146
410.953545	2410.092475
411.334138	2407.009809
411.714669	2411.357804
412.095139	2411.667835
412.475547	2409.603483
412.855894	2408.484347
413.236180	2410.626837
413.616405	2411.035171
413.996568	2408.713719
414.376670	2411.526683
414.756711	2408.622978
415.136691	2412.890315
415.516609	2413.336457
415.896466	2409.611045
416.276262	2410.548699
416.655997	2408.544841
417.035670	2408.358318
417.415283	2411.483833
417.794834	2408.121384
418.174324	2411.554409
418.553753	2411.138514
418.933121	2414.168248
419.312428	2412.358473
419.691674	2415.536921
420.070859	2411.017527
420.449983	2413.137332
420.829045	2410.717578
421.208047	2413.744791
421.586988	2410.929306
421.965867	2413.946437
422.344686	2413.475089
422.723444	2414.377456
423.102141	2412.890315
423.480777	2414.074986
423.859352	2414.193453
424.237866	2415.010120
424.616319	2413.268402
424.994712	2415.547003
425.373044	2412.224883
425.751314	2411.161199
426.129524	2413.890984
426.507673	2415.090779
426.885762	2413.580953
427.263789	2414.120357
427.641756	2414.790830
428.019662	2413.333937
428.397508	2412.141704
428.775292	2418.531366
429.153016	2413.623803
429.530679	2416.708989
429.908282	2415.267219
430.285824	2414.579102
430.663305	2414.337126
431.040726	2414.758063
431.418086	2414.765624
431.795385	2415.927610
432.172624	2414.967271
432.549802	2417.220666
432.926920	2418.760739
433.303977	2418.092786
433.680974	2417.346695
434.057910	2418.251582
434.434786	2416.847621
434.811601	2416.736716
435.188355	2416.779565
435.565050	2416.464493
435.941683	2417.220666
436.318257	2416.169586
436.694770	2414.382497
437.071222	2413.487692
437.447614	2416.071283
437.823946	2416.305697
438.200218	2419.171593
438.576429	2416.777045
438.952580	2416.590522
439.328670	2419.335430
439.704700	2417.515574
440.080670	2415.788979
440.456580	2418.707807
440.832429	2420.726789
441.208218	2420.474731
441.583947	2418.871644
441.959616	2417.157652
442.335224	2418.518763
442.710773	2418.075142
443.086261	2418.896850
443.461689	2415.912487
443.837057	2418.236459
444.212365	2420.293250
444.587612	2417.858372
444.962800	2420.278126
445.337927	2419.872313
445.712995	2417.951634
446.088002	2418.904412
446.462949	2420.573034
446.837837	2420.555390
447.212664	2418.264185
447.587431	2420.915832
447.962139	2421.722417
448.336786	2418.569175
448.711374	2421.409865
449.085901	2421.906419
449.460369	2424.464804
449.834776	2419.378280
450.209124	2425.914136
450.583412	2423.207037
450.957640	2421.220822
451.331808	2424.442119
451.705917	2421.019176
452.079965	2423.338107
452.453954	2424.311049
452.827883	2422.667633
453.201752	2421.145205
453.575562	2422.821388
453.949311	2421.500606
454.323001	2424.202664
454.696632	2421.624114
455.070202	2426.340114
455.443713	2424.280802
455.817164	2421.311563
456.190556	2417.538259
456.563888	2423.093611
456.937160	2418.896850
457.310373	2424.474887
457.683526	2424.041348
458.056619	2423.333065
458.429653	2423.575041
458.802628	2424.923549
459.175542	2426.103179
459.548398	2425.964548
459.921194	2426.534198
460.293930	2426.670309
460.666607	2429.942018
461.039224	2429.669796
461.411782	2429.846236
461.784280	2429.873963
462.156719	2430.241967
462.529099	2427.973447
462.901419	2428.608633
463.273680	2428.470001
463.645882	2428.568304
464.018024	2430.541915
464.390106	2429.977306
464.762130	2431.895465
465.134094	2432.901175
465.505999	2435.593152
465.877845	2436.122473
466.249631	2437.569284
466.621358	2436.225816
466.993026	2438.572473
467.364634	2439.789912
467.736184	2434.549633
468.107674	2436.084664
468.479105	2436.245981
468.850477	2437.554160
469.221790	2436.122473
469.593043	2433.677513
469.964238	2431.426638
470.335373	2432.979313
470.706449	2437.022319
471.077467	2436.460230
471.448425	2438.459047
471.819324	2440.316713
472.190164	2438.958122
472.560945	2438.365786
472.931667	2436.949222
473.302330	2435.104160
473.672934	2437.932247
474.043479	2435.409149
474.413965	2434.151382
474.784393	2431.739189
475.154761	2437.508790
475.525070	2432.616350
475.895321	2433.735486
476.265513	2430.962852
476.635645	2437.443255
477.005719	2438.184305
477.375734	2437.959973
477.745691	2437.249171
478.115588	2436.245981
478.485427	2437.783533
478.855207	2441.266970
479.224928	2442.305448
479.594591	2441.390478
479.964194	2443.021292
480.333739	2441.342587
480.703226	2443.409461
481.072653	2444.309307
481.442022	2443.767382
481.811333	2445.438525
482.180584	2442.532300
482.549777	2444.072372
482.918912	2444.427774
483.287988	2443.812753
483.657005	2441.529110
484.025964	2441.385437
484.394864	2441.458534
484.763706	2441.987855
485.132489	2441.584563
485.501213	2441.400561
485.869879	2442.502053
486.238487	2444.120263
486.607036	2442.832248
486.975527	2442.514656
487.343959	2439.142124
487.712333	2441.796291
488.080648	2441.032557
488.448905	2441.632454
488.817104	2445.002465
489.185244	2443.515325
489.553326	2446.945830
489.921350	2447.664194
490.289315	2446.781993
490.657222	2449.075717
491.025070	2448.112857
491.392861	2451.024123
491.760593	2447.240738
492.128267	2446.938268
492.495883	2447.505398
492.863440	2444.158072
493.230939	2444.725202
493.598380	2441.776127
493.965763	2438.779161
494.333088	2440.689758
494.700354	2441.571960
495.067563	2441.725715
495.434713	2441.866868
495.801805	2444.563885
496.168839	2442.444080
496.535815	2441.924841
496.902733	2443.951385
497.269593	2447.044133
497.636395	2442.726384
498.003139	2444.218566
498.369825	2445.564554
498.736453	2445.788885
499.103023	2443.406940
499.469535	2443.061621
499.835989	2444.601693
500.202385	2447.344081
500.568723	2444.737805
500.935003	2447.291149
501.301226	2447.318875
501.667390	2445.723350
502.033497	2452.647375
502.399546	2449.524380
502.765537	2449.337857
503.131470	2450.033537
503.497345	2448.294339
503.863163	2452.891871
504.228923	2451.802982
504.594625	2451.959257
504.960269	2452.367591
505.325856	2453.592591
505.691385	2453.806840
506.056856	2454.673919
506.422270	2455.961934
506.787625	2456.934876
507.152924	2457.794393
507.518164	2457.922942
507.883347	2458.951338
508.248472	2461.398818
508.613540	2463.916874
508.978550	2463.891669
509.343503	2463.687502
509.708398	2466.719756
510.073236	2468.126238
510.438016	2470.631691
510.802738	2469.711681
511.167403	2471.796198
511.532010	2476.814667
511.896561	2476.048411
512.261053	2480.852631
512.625488	2475.161168
512.989866	2476.456745
513.354186	2480.247692
513.718449	2480.557723
514.082655	2487.338075
514.446803	2490.445947
514.810894	2491.456698
515.174927	2495.809734
515.538904	2494.095742
515.902822	2497.861484
516.266684	2498.320229
516.630488	2501.501197
516.994235	2501.299551
517.357925	2504.994717
517.721558	2507.106960
518.085133	2511.795233
518.448651	2515.508043
518.812112	2516.324710
519.175516	2516.584329
519.538863	2519.026768
519.902152	2523.954496
520.265385	2524.798889
520.628560	2526.737213
520.991678	2528.335259
521.354739	2530.755013
521.717743	2530.565969
522.080690	2537.432021
522.443580	2543.136087
522.806413	2543.650284
523.169189	2544.459389
523.531908	2548.152035
523.894569	2548.265461
524.257174	2550.970040
524.619722	2556.474980
524.982213	2558.350289
525.344647	2562.277348
525.707025	2560.023952
526.069345	2564.107287
526.431608	2567.991496
526.793815	2572.014336
527.155964	2571.109449
527.518057	2573.619944
527.880093	2575.129769
528.242072	2576.944585
528.603995	2578.966088
528.965860	2583.530852
529.327669	2584.355081
529.689421	2584.995307
530.051117	2587.465473
530.412755	2585.224680
530.774337	2592.173911
531.135862	2590.996801
531.497331	2592.746082
531.858743	2590.041502
532.220098	2597.794797
532.581396	2597.328490
532.942638	2598.777822
533.303824	2604.159254
533.664953	2605.389295
534.026025	2608.025819
534.387040	2611.436159
534.747999	2611.915069
535.108902	2614.302055
535.469748	2613.220728
535.830537	2615.874895
536.191270	2619.708693
536.551947	2619.421347
536.912567	2620.575771
537.273131	2624.888478
537.633638	2624.757408
537.994089	2622.627521
538.354483	2625.632049
538.714821	2631.946094
539.075103	2633.334932
539.435328	2635.399284
539.795497	2633.075312
540.155609	2635.502628
540.515665	2638.670993
540.875665	2636.745272
541.235609	2640.145531
541.595496	2640.637043
541.955328	2645.771458
542.315102	2646.129380
542.674821	2641.925058
543.034483	2646.197436
543.394090	2644.019657
543.753640	2647.329175
544.113134	2653.882675
544.472571	2650.714310
544.831953	2654.744712
545.191278	2655.047181
545.550548	2654.326296
545.909761	2658.926349
546.268918	2656.957779
546.628019	2662.687050
546.987064	2659.445588
547.346053	2658.858294
547.704986	2662.354334
548.063863	2659.158242
548.422684	2661.593120
548.781449	2660.887358
549.140158	2664.693429
549.498811	2662.566062
549.857408	2660.476504
550.215949	2662.873573
550.574434	2663.430620
550.932864	2662.613953
551.291237	2664.025476
551.649555	2668.015550
552.007817	2668.285251
552.366022	2665.898265
552.724173	2666.230981
553.082267	2670.581497
553.440305	2671.733401
553.798288	2667.387926
554.156215	2669.306085
554.514086	2673.396981
554.871902	2668.464212
555.229661	2671.831703
555.587365	2668.312978
555.945014	2669.331291
556.302606	2668.955725
556.660143	2670.929337
557.017625	2670.354645
557.375050	2669.719460
557.732421	2668.617968
558.089735	2670.868843
558.446994	2671.748524
558.804197	2672.209790
559.161345	2670.397495
559.518437	2665.633604
559.875474	2669.784995
560.232455	2671.849347
560.589381	2667.985303
560.946251	2670.760458
561.303065	2673.139882
561.659825	2672.862619
562.016528	2668.368430
562.373177	2666.084788
562.729770	2670.916734
563.086307	2670.576456
563.442789	2671.859429
563.799216	2672.582835
564.155587	2670.337001
564.511904	2668.217196
564.868164	2668.817093
565.224370	2669.686692
565.580520	2669.933709
565.936615	2670.576456
566.292654	2667.483708
566.648638	2670.705005
567.004567	2671.274656
567.360441	2669.900941
567.716260	2670.793225
568.072023	2672.295489
568.427732	2670.155519
568.783385	2674.289266
569.138982	2672.552588
569.494525	2676.351097
569.850013	2672.096364
570.205445	2677.576098
570.560823	2675.743638
570.916145	2679.574915
571.271412	2678.317147
571.626625	2679.889987
571.981782	2680.575584
572.336884	2682.521470
572.691931	2685.034485
573.046923	2685.553724
573.401860	2687.295442
573.756743	2687.983560
574.111570	2691.043540
574.466342	2693.271730
574.821059	2694.453881
575.175722	2693.692667
575.530330	2694.882379
575.884882	2697.085363
576.239380	2700.896476
576.593823	2702.590303
576.948211	2708.269163
577.302544	2707.356714
577.656823	2708.516180
578.011047	2715.767879
578.365216	2714.764690
578.719330	2719.629403
579.073389	2719.339537
579.427394	2728.184241
579.781344	2731.803790
580.135239	2731.453430
580.489080	2738.569018
580.842866	2739.375603
581.196597	2748.311048
581.550273	2755.086359
581.903895	2761.120620
582.257463	2772.758124
582.610975	2773.025305
582.964434	2780.965122
583.317837	2787.816050
583.671186	2793.071453
584.024481	2803.007567
584.377721	2805.276087
584.730906	2812.991572
585.084037	2821.097748
585.437113	2822.973057
585.790135	2830.363389
586.143103	2837.108452
586.496016	2846.837879
586.848874	2849.696214
587.201679	2861.973944
587.554428	2868.542567
587.907124	2878.781151
588.259765	2886.675598
588.612352	2902.761920
588.964884	2908.554205
589.317362	2921.154569
589.669786	2933.172680
590.022155	2937.966817
590.374470	2954.108592
590.726731	2959.018676
591.078937	2963.119655
591.431090	2974.464771
591.783188	2981.910556
592.135232	2987.894405
592.487222	2999.221878
592.839157	3017.279291
593.191038	3021.952441
593.542866	3034.764533
593.894639	3038.247970
594.246358	3054.203222
594.598022	3064.633370
594.949633	3072.731983
595.301190	3082.058118
595.652692	3093.693101
596.004141	3110.250771
596.355535	3107.629371
596.706876	3117.268057
597.058162	3125.401959
597.409395	3144.775113
597.760573	3162.277999
598.111698	3166.646159
598.462768	3182.253571
598.813785	3197.863504
599.164748	3202.579503
599.515657	3226.267885
599.866511	3230.293247
600.217312	3254.306783
600.568060	3251.725712
600.918753	3287.180147
601.269392	3300.733289
601.619978	3309.570432
601.970510	3332.321159
602.320988	3351.999303
602.671412	3379.345043
603.021783	3389.376939
603.372100	3400.144843
603.722363	3418.666043
604.072572	3440.428704
604.422728	3462.816468
604.772830	3471.638487
605.122878	3491.747650
605.472872	3513.570805
605.822813	3540.334291
606.172701	3558.376580
606.522534	3586.291970
606.872314	3617.350518
607.222041	3633.618322
607.571714	3662.302487
607.921333	3672.989733
608.270899	3705.490052
608.620411	3739.359044
608.969870	3760.511726
609.319276	3784.719347
609.668627	3810.887976
610.017926	3854.211652
610.367171	3888.367990
610.716362	3919.265222
611.065500	3945.582566
611.414585	3983.741580
611.763616	4022.518135
612.112594	4052.926375
612.461518	4090.719906
612.810389	4132.677429
613.159207	4158.175585
613.507971	4196.417778
613.856682	4248.175305
614.205340	4277.109008
614.553945	4344.110983
614.902496	4354.072303
615.250994	4412.748813
615.599439	4455.754897
615.947830	4503.882793
616.296169	4550.853744
616.644454	4601.058595
616.992686	4653.476512
617.340864	4727.977205
617.688990	4759.151700
618.037063	4840.911654
618.385082	4885.994692
618.733048	4945.291265
619.080961	4994.608873
619.428821	5038.189648
619.776628	5085.377368
620.124382	5110.550370
620.472083	5147.537316
620.819731	5190.044325
621.167326	5202.677457
621.514868	5226.794337
621.862357	5232.175768
622.209793	5257.386579
622.557176	5266.843783
622.904506	5272.278147
623.251783	5279.003046
623.599007	5293.541734
623.946179	5308.120751
624.293297	5335.514381
624.640363	5330.901725
624.987376	5362.338361
625.334336	5384.015322
625.681243	5393.893463
626.028097	5429.688176
626.374899	5456.907886
626.721647	5494.451879
627.068343	5529.921438
627.414987	5548.523296
627.761577	5575.783335
628.108115	5643.969982
628.454600	5646.084746
628.801032	5701.958375
629.147412	5742.711062
629.493739	5795.403723
629.840014	5810.779242
630.186236	5890.520214
630.532405	5899.440535
630.878521	5971.544159
631.224585	6011.066805
631.570597	6031.140680
631.916556	6090.555719
632.262462	6137.322503
632.608316	6190.037849
632.954117	6226.792902
633.299866	6265.889570
633.645562	6292.615247
633.991206	6284.531757
634.336797	6269.292349
634.682336	6305.979346
635.027823	6310.413041
635.373257	6324.165309
635.718639	6332.815929
636.063968	6355.725452
636.409245	6321.778322
636.754470	6364.113932
637.099642	6376.212702
637.444762	6362.236102
637.789829	6410.495068
638.134845	6409.350726
638.479808	6444.835408
638.824719	6470.731816
639.169577	6467.381969
639.514383	6513.463156
639.859137	6520.757706
640.203839	6593.138593
640.548489	6590.486946
640.893086	6634.584439
641.237632	6645.642210
641.582125	6698.607093
641.926566	6731.669500
642.270955	6774.705831
642.615292	6824.683830
642.959576	6863.067175
643.303809	6905.637199
643.647990	6970.436191
643.992118	7010.896491
644.336195	7056.982720
644.680219	7121.370857
645.024192	7211.418468
645.368112	7336.958322
645.711981	7407.806698
646.055797	7600.109073
646.399562	7656.837178
646.743274	7869.097481
647.086935	8008.787854
647.430544	8060.575627
647.774101	8133.135475
648.117606	8227.142912
648.461059	8321.520874
648.804460	8305.215262
649.147810	8245.162517
649.491108	8238.145231
649.834354	8220.377684
650.177548	8129.140361
650.520690	8085.279802
650.863781	8133.964745
651.206820	8152.763208
651.549807	8120.666181
651.892742	8086.464473
652.235626	8100.531813
652.578458	8120.648537
652.921238	8073.019716
653.263967	8169.716608
653.606644	8168.592431
653.949269	8210.081127
654.291843	8189.969444
654.634365	8306.851116
654.976836	8284.866644
655.319255	8334.365734
655.661622	8382.241572
656.003938	8392.023931
656.346203	8407.757372
656.688416	8499.932350
657.030577	8501.926126
657.372687	8520.775000
657.714746	8625.268037
658.056753	8696.320580
658.398708	8637.097105
658.740612	8693.731948
659.082465	8800.934605
659.424266	8812.861975
659.766016	8892.827278
660.107715	8921.937421
660.449362	9000.899534
660.790958	9050.665805
661.132503	9099.688505
661.473996	9164.169904
661.815438	9233.863856
662.156829	9325.524636
662.498168	9333.293054
662.839456	9394.560717
663.180693	9479.088264
663.521879	9566.403569
663.863013	9613.069531
664.204097	9670.616822
664.545129	9825.153393
664.886110	9880.898473
665.227040	9954.804309
665.567918	10035.306494
665.908746	10109.855078
666.249522	10213.549092
666.590248	10272.581003
666.930922	10356.148210
667.271545	10401.634542
667.612118	10478.260080
667.952639	10482.724022
668.293109	10547.283558
668.633528	10573.941180
668.973896	10613.345359
669.314213	10667.920891
669.654480	10656.734570
669.994695	10713.301357
670.334859	10740.793290
670.674973	10778.551532
671.015035	10867.177538
671.355047	10912.157233
671.695008	10956.973090
672.034918	10982.463685
672.374777	11068.264123
672.714585	11092.517114
673.054342	11211.024559
673.394049	11200.629700
673.733705	11335.404948
674.073310	11297.868516
674.412864	11378.022863
674.752368	11317.713018
675.091820	11445.849067
675.431223	11385.640046
675.770574	11356.721467
676.109875	11363.708506
676.449125	11334.187509
676.788324	11360.681293
677.127473	11257.297310
677.466571	11278.639035
677.805619	11233.619011
678.144616	11279.765733
678.483562	11305.941924
678.822458	11262.961047
679.161303	11301.198198
679.500098	11319.306023
679.838842	11330.232724
680.177535	11438.093252
680.516179	11580.836043
680.854771	11719.119935
681.193314	12051.236191
681.531805	12483.631080
681.870247	12823.167915
682.208638	13134.567550
682.546978	13266.277776
682.885268	13358.603988
683.223508	13237.974218
683.561697	13173.129856
683.899836	13169.336388
684.237925	13056.722052
684.575963	13063.487281
684.913951	12962.828041
685.251889	13080.912029
685.589776	13137.766162
685.927614	13207.586143
686.265401	13308.855362
686.603137	13408.725661
686.940824	13640.696875
687.278460	13842.330426
687.616046	13948.552579
687.953582	14230.315270
688.291068	14245.879833
688.628504	14397.260642
688.965889	14429.370271
689.303224	14353.208519
689.640510	14266.493111
689.977745	14060.567018
690.314930	13810.624089
690.652065	13659.165142
690.989150	13429.354062
691.326185	13138.786996
691.663170	12914.319538
692.000105	12669.823577
692.336990	12452.544805
692.673825	12332.787154
693.010610	12175.931652
693.347345	12000.839776
693.684030	11801.726802
694.020665	11736.559806
694.357251	11515.487566
694.693786	11547.745910
695.030272	11492.434370
695.366707	11323.298617
695.703093	11242.811555
696.039429	11283.856629
696.375716	11225.112063
696.711952	11243.933211
697.048139	11221.411857
697.384276	11186.252329
697.720363	11270.426995
698.056400	11231.746222
698.392388	11178.466267
698.728326	11200.599453
699.064214	11153.215127
699.400053	11175.834785
699.735842	11065.393186
700.071581	10984.452420
700.407270	10899.287167
700.742910	10860.467762
701.078501	10784.237954
701.414042	10698.850890
701.749533	10603.900757
702.084974	10500.670529
702.420366	10613.829310
702.755709	10465.546290
703.091002	10366.921156
703.426246	10414.323126
703.761440	10397.152956
704.096584	10317.742180
704.431679	10324.504888
704.766725	10318.281583
705.101721	10325.762656
705.436668	10399.073635
705.771565	10288.160689
706.106413	10477.692950
706.441212	10496.977884
706.775961	10582.163302
707.110661	10652.868005
707.445311	10846.188693
707.779913	10808.596809
708.114465	10943.026738
708.448967	11102.995153
708.783421	11456.117897
709.117825	11611.261928
709.452180	11743.083059
709.786485	11954.171294
710.120742	12355.424455
710.454949	12382.608878
710.789107	12630.663894
711.123216	12995.817352
711.457275	13073.811564
711.791286	13360.091129
712.125247	13417.487186
712.459159	13303.967963
712.793023	13661.042972
713.126837	13161.938495
713.460602	13322.922702
713.794318	13190.491590
714.127985	13042.309393
714.461602	12645.759629
714.795171	12669.977332
715.128691	12209.462887
715.462162	11983.331849
715.795584	11813.016466
716.128957	11731.138045
716.462281	11568.666698
716.795556	11475.206226
717.128782	11269.411203
717.461960	11021.825014
717.795088	11015.848726
718.128167	10848.668941
718.461198	10634.556014
718.794180	10590.526576
719.127113	10441.633577
719.459997	10360.919663
719.792833	10210.355521
720.125619	10219.527900
720.458357	10075.025746
720.791046	10008.560653
721.123686	9947.320716
721.456278	9845.018060
721.788821	9837.544550
722.121315	9726.397190
722.453761	9784.614955
722.786158	9770.159446
723.118506	9787.349781
723.450805	9739.539478
723.783056	9843.392288
724.115259	9809.775354
724.447412	9786.323906
724.779518	9935.637842
725.111574	9974.706784
725.443582	10097.327810
725.775542	10100.634807
726.107453	10374.815603
726.439315	10330.340023
726.771129	10565.272916
727.102895	10779.320308
727.434612	10891.833821
727.766281	10978.075360
728.097901	11136.990174
728.429473	11182.473984
728.760996	11203.339320
729.092471	11262.431725
729.423897	11237.437685
729.755276	11190.575118
730.086606	11284.138934
730.417887	11596.211563
730.749120	11907.142370
731.080305	12034.388655
731.411442	12248.226839
731.742530	12323.708036
732.073570	12408.036457
732.404562	12599.179367
732.735506	12513.303312
733.066401	12372.433308
733.397249	12111.218360
733.728048	11784.473453
734.058798	11338.205309
734.389501	10973.767694
734.720156	10727.459438
735.050762	10444.431417
735.381320	10257.397048
735.711831	10133.230908
736.042293	9936.522564
736.372707	9961.554414
736.703073	9850.691879
737.033391	9977.391198
737.363661	9965.236977
737.693883	10040.057782
738.024056	10147.255398
738.354182	10260.890567
738.684260	10433.235014
739.014290	10571.032434
739.344272	10680.110401
739.674207	10857.528769
740.004093	10941.811820
740.333931	10944.912130
740.663722	10988.724798
740.993464	11007.792962
741.323159	10932.785634
741.652806	10787.096288
741.982405	10678.908085
742.311956	10497.711372
742.641460	10446.931829
742.970915	10281.970152
743.300323	10100.458367
743.629683	9988.257406
743.958996	9831.396862
744.288260	9685.659625
744.617477	9505.395526
744.946647	9486.418102
745.275768	9330.432199
745.604842	9232.379236
745.933869	9144.161564
746.262847	9121.768759
746.591778	9091.980581
746.920662	9042.836893
747.249498	9049.619765
747.578286	9135.276531
747.907027	9231.955779
748.235720	9367.504844
748.564365	9396.446109
748.892963	9352.668729
749.221514	9395.541222
749.550017	9324.468514
749.878473	9299.388774
750.206881	9180.417543
750.535242	9129.529615
750.863555	9094.962423
751.191821	9037.054689
751.520039	9066.583248
751.848210	9012.610134
752.176334	9036.573259
752.504411	8987.048964
752.832440	8890.722596
753.160421	8933.219523
753.488356	8864.410293
753.816243	8812.075555
754.144082	8719.605670
754.471875	8688.267337
754.799620	8654.262234
755.127318	8649.495823
755.454969	8627.087894
755.782572	8603.941436
756.110129	8620.481462
756.437638	8569.112104
756.765100	8570.188390
757.092515	8578.002179
757.419882	8594.080939
757.747203	8601.188966
758.074477	8654.912542
758.401703	8624.897512
758.728882	8742.497549
759.056014	8768.265407
759.383099	8855.721865
759.710138	8938.046428
760.037129	8993.239501
760.364073	9022.415178
760.690970	9014.800516
761.017820	9030.405407
761.344623	9170.690637
761.671379	9416.860261
761.998088	9856.353095
762.324751	10933.579616
762.651366	12877.693035
762.977935	15355.878895
763.304456	16904.170997
763.630931	17296.221531
763.957359	16528.756270
764.283740	15251.353091
764.610074	13988.486079
764.936362	12529.810570
765.262602	11473.855197
765.588796	10453.523138
765.914943	9757.244010
766.241044	9164.230398
766.567097	8719.335968
766.893104	8335.711722
767.219064	8083.648989
767.544978	7813.664953
767.870845	7592.620439
768.196665	7463.879453
768.522438	7330.296437
768.848165	7213.762604
769.173846	7105.380317
769.499479	7021.372009
769.825066	6916.014414
770.150607	6785.882069
770.476101	6746.682057
770.801548	6674.177661
771.126949	6575.209729
771.452303	6517.672520
771.777611	6402.620786
772.102872	6393.387913
772.428087	6320.306305
772.753256	6232.529735
773.078378	6168.832235
773.403453	6066.867337
773.728482	6001.120608
774.053465	5955.636798
774.378401	5896.088168
774.703291	5824.294576
775.028135	5761.353249
775.352932	5736.399538
775.677683	5677.647410
776.002388	5614.403615
776.327046	5618.439058
776.651658	5555.636364
776.976224	5501.020503
777.300743	5489.922403
777.625216	5443.717707
777.949643	5413.022121
778.274024	5424.132824
778.598359	5371.591398
778.922647	5375.271441
779.246889	5345.546277
779.571086	5349.732955
779.895236	5364.349781
780.219339	5358.446590
780.543397	5358.660839
780.867409	5400.366305
781.191374	5398.732971
781.515294	5377.050968
781.839167	5418.481691
782.162995	5399.335389
782.486776	5371.329258
782.810511	5335.219473
783.134201	5288.195590
783.457844	5280.858191
783.781441	5250.608747
784.104993	5218.796546
784.428498	5198.505902
784.751958	5185.895455
785.075372	5170.046068
785.398739	5146.133354
785.722061	5169.655378
786.045337	5168.163197
786.368568	5255.443214
786.691752	5271.453918
787.014891	5461.427281
787.337983	5667.441594
787.661030	5989.863712
787.984031	6311.133926
788.306987	6515.880389
788.629897	6596.753100
788.952760	6546.157559
789.275579	6424.680875
789.598351	6205.983018
789.921078	6010.479511
790.243759	5800.480165
790.566395	5641.441843
790.888984	5495.472713
791.211529	5390.412546
791.534027	5262.788175
791.856480	5159.958719
792.178888	5113.995999
792.501249	5065.507660
792.823566	4982.870546
793.145836	4981.902644
793.468062	4971.301098
793.790241	4938.876396
794.112375	4973.456191
794.434464	5047.641811
794.756507	5074.249021
795.078505	5163.795037
795.400457	5320.895035
795.722364	5506.089383
796.044226	5651.622453
796.366042	5777.510147
796.687812	5739.797275
797.009538	5774.344303
797.331218	5697.224731
797.652852	5651.791332
797.974442	5563.646757
798.295986	5515.904510
798.617484	5412.845681
798.938938	5333.646633
799.260346	5283.754334
799.581709	5173.600081
799.903026	5134.200943
800.224299	5076.119289
800.545526	4986.636288
800.866708	4934.578813
801.187845	4904.460439
801.508936	4837.211447
801.829983	4818.574301
802.150984	4736.607660
802.471940	4711.348959
802.792851	4700.356723
803.113717	4686.115463
803.434538	4662.732071
803.755314	4634.080673
804.076045	4627.905260
804.396731	4600.360395
804.717372	4608.277527
805.037967	4611.629894
805.358518	4631.721413
805.679024	4679.748486
805.999485	4688.235268
806.319901	4700.835632
806.640272	4712.377354
806.960598	4750.186008
807.280879	4747.884721
807.601115	4778.824803
807.921306	4749.702057
808.241453	4748.270369
808.561554	4759.867544
808.881611	4733.711517
809.201623	4733.721599
809.521590	4696.515363
809.841513	4683.451213
810.161390	4700.099624
810.481223	4630.980363
810.801011	4617.686841
811.120755	4603.783338
811.440453	4561.853541
811.760107	4541.255387
812.079716	4521.559599
812.399281	4474.472701
812.718801	4479.808762
813.038276	4453.375472
813.357707	4425.926390
813.677093	4445.085295
813.996434	4394.318355
814.315731	4416.121345
814.634983	4417.795008
814.954191	4421.510339
815.273354	4469.822237
815.592473	4506.501672
815.911547	4565.092483
816.230577	4608.809369
816.549562	4680.257642
816.868502	4730.301177
817.187399	4773.289616
817.506250	4846.393908
817.825058	4871.259400
818.143821	4996.882433
818.462539	5140.729238
818.781213	5323.713040
819.099843	5622.552640
819.418429	6129.385206
819.736970	6631.199304
820.055466	7217.210754
820.373919	7985.717013
820.692327	9179.079117
821.010691	11294.150665
821.329011	15945.043587
821.647286	22920.475561
821.965517	30507.480155
822.283704	34659.820604
822.601847	36177.762439
822.919945	33001.404497
823.237999	29318.859257
823.556010	25395.077161
823.873976	21798.453346
824.191897	18539.521304
824.509775	16125.773993
824.827609	14003.959901
825.145398	12797.642032
825.463144	12195.390506
825.780845	12450.147736
826.098502	13439.809415
826.416116	15329.518702
826.733685	17135.373436
827.051210	17603.184951
827.368692	16512.322108
827.686129	14530.001784
828.003522	12523.378058
828.320872	10745.526933
828.638177	9410.425228
828.955439	8387.925473
829.272656	7518.454984
829.589830	6838.451221
829.906960	6244.880562
830.224046	5809.380322
830.541088	5471.431450
830.858086	5258.795581
831.175041	5096.465386
831.491952	5049.207089
831.808819	5082.629939
832.125642	5291.124501
832.442421	5747.124592
832.759157	6661.519324
833.075849	8102.167667
833.392497	9597.467159
833.709101	10512.275266
834.025662	10327.688376
834.342179	9484.106733
834.658653	8413.355574
834.975083	7497.569484
835.291469	6752.612974
835.607811	6146.504965
835.924110	5715.113266
836.240366	5308.065298
836.556578	4932.227114
836.872746	4637.538905
837.188871	4411.904420
837.504952	4224.255030
837.820990	4086.167744
838.136984	3992.896315
838.452935	3951.924337
838.768842	3977.503152
839.084706	4204.831464
839.400526	4815.511800
839.716303	5559.530655
840.032037	6032.799219
840.347727	5924.737045
840.663373	5428.647178
840.978977	4949.246050
841.294537	4580.074792
841.610054	4299.700938
841.925527	4100.444292
842.240957	3929.443312
842.556344	3774.004374
842.871687	3641.573263
843.186987	3514.142976
843.502244	3416.465579
843.817458	3342.534537
844.132629	3283.646298
844.447756	3242.195411
844.762840	3203.980944
845.077881	3170.636232
845.392879	3143.852582
845.707833	3125.119654
846.022745	3099.321549
846.337613	3092.079932
846.652438	3070.120666
846.967221	3063.242011
847.281960	3043.510935
847.596656	3036.412990
847.911309	3029.786394
848.225919	3017.745598
848.540485	3008.026253
848.855009	3004.646159
849.169490	2994.515961
849.483928	2986.651761
849.798323	2982.356698
850.112675	2972.314719
850.426984	2975.616675
850.741251	2967.129893
851.055474	2964.223667
851.369654	2966.076291
851.683792	2964.387505
851.997887	2966.575366
852.311938	2964.889100
852.625947	2970.371354
852.939914	2962.658389
853.253837	2963.401959
853.567718	2964.430355
853.881555	2959.979016
854.195350	2966.419090
854.509103	2960.843574
854.822812	2959.114458
855.136479	2957.735702
855.450103	2962.776856
855.763685	2956.147739
856.077224	2953.596915
856.390720	2965.211733
856.704173	2974.006026
857.017584	2974.890749
857.330953	2979.624392
857.644278	2988.494303
857.957561	2988.723675
858.270802	2989.200064
858.584000	2990.578820
858.897155	2985.232676
859.210268	2975.820842
859.523339	2965.998153
859.836367	2965.120993
860.149352	2960.251238
860.462295	2955.908284
860.775195	2950.418468
861.088054	2945.039556
861.400869	2945.200873
861.713642	2942.604679
862.026373	2952.046760
862.339062	2953.367543
862.651708	2958.111268
862.964312	2976.317395
863.276873	2983.213694
863.589392	3008.966428
863.901869	3031.018956
864.214303	3047.523693
864.526696	3064.976168
864.839045	3080.195412
865.151353	3091.222936
865.463619	3092.473142
865.775842	3090.950713
866.088023	3095.414655
866.400162	3094.335848
866.712258	3095.588575
867.024313	3092.800817
867.336325	3093.904829
867.648296	3093.118409
867.960224	3091.106989
868.272110	3092.521033
868.583954	3096.004470
868.895755	3099.613936
869.207515	3098.293154
869.519233	3113.068776
869.830909	3117.779734
870.142542	3130.669964
870.454134	3135.733803
870.765684	3144.828045
871.077191	3164.029800
871.388657	3169.728824
871.700081	3188.711289
872.011463	3205.415152
872.322803	3222.176989
872.634101	3231.064543
872.945357	3249.898294
873.256571	3274.756224
873.567744	3283.837862
873.878874	3292.778349
874.189963	3308.295020
874.501010	3306.855771
874.812015	3306.664207
875.122979	3320.998728
875.433900	3317.600990
875.744780	3322.359839
876.055618	3325.492917
876.366415	3329.001560
876.677169	3332.759740
876.987882	3346.607789
877.298554	3365.948176
877.609183	3399.706263
877.919771	3441.376441
878.230317	3498.795183
878.540822	3588.908328
878.851285	3718.760890
879.161707	3909.636618
879.472087	4240.243049
879.782425	4775.016211
880.092722	5772.675681
880.402977	7333.832807
880.713191	9167.277775
881.023363	10956.897473
881.333494	11973.199130
881.643583	12412.059298
881.953631	12192.217100
882.263637	11594.031264
882.573602	10810.751903
882.883526	10057.109485
883.193408	9278.800701
883.503248	8527.535188
883.813048	7836.506421
884.122806	7197.376334
884.432522	6569.782927
884.742197	6029.109095
885.051831	5564.786058
885.361424	5148.190145
885.670975	4818.128159
885.980485	4550.052200
886.289954	4320.084844
886.599382	4137.050630
886.908768	3987.088906
887.218113	3845.538347
887.527417	3732.747571
887.836680	3627.558855
888.145901	3543.122049
888.455082	3476.296513
888.764221	3419.525559
889.073319	3367.236191
889.382376	3339.028415
889.691392	3319.365394
890.000366	3314.367090
890.309300	3307.649753
890.618193	3312.769044
890.927044	3304.176398
891.235855	3309.658652
891.544625	3325.288750
891.853353	3349.360259
892.162041	3400.845564
892.470687	3479.827842
892.779293	3581.578491
893.087858	3733.513827
893.396381	3972.386381
893.704864	4322.005524
894.013306	4804.121313
894.321707	5297.080624
894.630068	5610.567297
894.938387	5645.560466
895.246665	5495.787785
895.554903	5221.158327
895.863100	4934.876241
896.171256	4700.581054
896.479371	4490.657326
896.787446	4300.731854
897.095480	4131.273468
897.403473	4003.092049
897.711425	3880.208883
898.019336	3774.500928
898.327207	3666.922705
898.635038	3576.980958
898.942827	3487.654233
899.250576	3412.379724
899.558284	3338.118486
899.865952	3293.257258
900.173579	3240.375554
900.481165	3199.874924
900.788711	3161.305056
901.096216	3135.012918
901.403681	3107.087447
901.711105	3099.084615
902.018489	3095.626383
902.325832	3124.618059
902.633135	3175.526151
902.940397	3324.560303
903.247619	3672.956966
903.554800	4309.034635
903.861941	5125.860354
904.169041	5728.242951
904.476101	5913.747330
904.783121	5686.502197
905.090100	5340.305998
905.397039	4986.545547
905.703938	4679.662786
906.010796	4405.030807
906.317614	4185.339843
906.624391	3981.644460
906.931129	3817.212104
907.237826	3659.257630
907.544483	3509.641225
907.851099	3364.100593
908.157675	3226.605643
908.464211	3105.328084
908.770707	3019.993952
909.077163	2952.692028
909.383578	2898.766805
909.689954	2864.060982
909.996289	2834.567711
910.302584	2815.202118
910.608839	2806.354893
910.915054	2796.970786
911.221229	2791.637245
911.527363	2796.600261
911.833458	2802.069913
912.139513	2813.006696
912.445527	2823.131853
912.751502	2854.215608
913.057436	2895.220353
913.363331	2942.098043
913.669186	3020.538397
913.975000	3117.628499
914.280775	3278.015330
914.586510	3512.169364
914.892205	3834.372192
915.197859	4262.081328
915.503475	4763.373666
915.809050	5190.409809
916.114585	5439.949445
916.420081	5500.634855
916.725536	5442.989260
917.030952	5242.232870
917.336328	5064.227207
917.641665	4882.281883
917.946961	4682.916851
918.252218	4512.694730
918.557435	4313.415398
918.862612	4143.495745
919.167750	3994.443950
919.472848	3831.569310
919.777906	3687.677135
920.082925	3553.675704
920.387904	3417.776279
920.692843	3320.938234
920.997743	3237.887745
921.302603	3155.774911
921.607423	3098.058740
921.912204	3042.913558
922.216946	3001.991992
922.521647	2961.045220
922.826310	2920.635331
923.130932	2890.474107
923.435516	2856.476566
923.740059	2829.037565
924.044564	2806.349852
924.349028	2783.604166
924.653454	2758.947883
924.957840	2736.464337
925.262186	2719.619321
925.566493	2702.620550
925.870761	2677.891170
926.174989	2668.038235
926.479178	2658.555824
926.783328	2643.470172
927.087438	2635.434572
927.391509	2620.250617
927.695541	2609.049173
927.999533	2601.000971
928.303486	2595.412852
928.607400	2590.953951
928.911275	2582.081521
929.215110	2577.501632
929.518906	2576.105233
929.822663	2575.679255
930.126381	2573.836713
930.430060	2575.545665
930.733699	2579.051787
931.037299	2588.690473
931.340861	2582.232755
931.644383	2583.974474
931.947866	2584.128229
932.251309	2584.692838
932.554714	2582.033630
932.858080	2581.932807
933.161407	2574.950808
933.464694	2572.657083
933.767943	2570.386044
934.071153	2567.099211
934.374323	2561.364899
934.677455	2560.616288
934.980548	2556.989177
935.283602	2557.793241
935.586617	2555.789383
935.889593	2559.358520
936.192530	2558.045299
936.495428	2562.791545
936.798287	2571.064079
937.101108	2586.237952
937.403890	2601.729418
937.706632	2628.253449
938.009336	2657.739157
938.312002	2682.617252
938.614628	2705.204142
938.917216	2718.860627
939.219765	2729.280692
939.522275	2740.066241
939.824747	2735.851836
940.127179	2733.999212
940.429573	2728.698439
940.731929	2722.689384
941.034246	2716.748384
941.336524	2715.518342
941.638763	2710.101622
941.940964	2702.615509
942.243126	2690.854497
942.545250	2683.159176
942.847335	2671.125942
943.149381	2659.208654
943.451389	2648.712972
943.753359	2635.522792
944.055290	2626.350413
944.357182	2617.480503
944.659036	2615.842128
944.960851	2608.991200
945.262628	2607.448607
945.564367	2605.159923
945.866067	2603.657659
946.167729	2606.964656
946.469352	2605.769902
946.770937	2604.345777
947.072484	2598.457709
947.373992	2595.170877
947.675462	2595.886720
947.976893	2591.352203
948.278286	2588.662747
948.579641	2584.702921
948.880958	2577.524317
949.182236	2581.814339
949.483476	2576.647157
949.784678	2570.930488
950.085841	2575.853175
950.386967	2580.710327
950.688054	2584.725606
950.989103	2593.035948
951.290114	2600.963162
951.591087	2612.585542
951.892021	2621.107613
952.192917	2634.456588
952.493776	2641.715850
952.794596	2646.731798
953.095378	2648.027375
953.396122	2643.543268
953.696828	2643.255922
953.997496	2640.039666
954.298126	2631.068933
954.598718	2626.529374
954.899272	2614.700307
955.199788	2602.311671
955.500266	2594.923860
955.800706	2577.912486
956.101108	2563.411607
956.401472	2554.730740
956.701798	2541.777496
957.002087	2527.296781
957.302337	2520.604649
957.602550	2512.503515
957.902724	2503.938595
958.202861	2494.935094
958.502960	2488.184989
958.803022	2483.635348
959.103045	2476.040849
959.403031	2472.529686
959.702979	2468.400981
960.002889	2458.059054
960.302762	2455.372119
960.602596	2454.873044
960.902393	2450.905656
961.202153	2450.368773
961.501875	2448.027157
961.801559	2446.076231
962.101205	2444.311827
962.400814	2440.616661
962.700385	2441.513987
962.999918	2438.007864
963.299414	2435.472164
963.598873	2437.755807
963.898293	2432.853284
964.197677	2438.259922
964.497022	2431.850095
964.796331	2430.849426
965.095601	2432.008891
965.394835	2431.945877
965.694030	2429.770619
965.993189	2429.334559
966.292309	2429.604261
966.591393	2428.207861
966.890439	2428.285999
967.189447	2427.862542
967.488419	2429.221133
967.787353	2430.594847
968.086249	2427.764240
968.385108	2432.139961
968.683930	2432.621391
968.982714	2434.821855
969.281462	2433.274221
969.580172	2434.627771
969.878844	2435.257915
970.177480	2440.566250
970.476078	2442.663370
970.774639	2443.648915
971.073162	2445.289811
971.371649	2447.185285
971.670098	2443.885850
971.968510	2450.706531
972.266885	2446.774431
972.565223	2452.634772
972.863524	2452.044957
973.161788	2459.342027
973.460014	2455.314145
973.758204	2455.684670
974.056356	2456.539146
974.354471	2456.927315
974.652550	2458.270782
974.950591	2457.391101
975.248595	2454.931018
975.546563	2456.282047
975.844493	2455.354475
976.142386	2452.970009
976.440243	2452.302056
976.738062	2450.633434
977.035845	2446.350974
977.333590	2446.585388
977.631299	2442.832248
977.928971	2439.711774
978.226606	2441.370314
978.524204	2439.492484
978.821765	2437.944850
979.119290	2437.697833
979.416777	2439.416867
979.714228	2437.276897
980.011642	2440.616661
980.309020	2440.896445
980.606360	2446.572785
980.903664	2453.998404
981.200931	2465.683799
981.498162	2481.250882
981.795356	2508.599142
982.092513	2541.212886
982.389633	2578.671180
982.686717	2615.688373
982.983764	2643.971766
983.280775	2659.226298
983.577749	2661.910712
983.874686	2652.221615
984.171587	2637.599748
984.468451	2622.993005
984.765279	2608.623196
985.062070	2591.150556
985.358824	2576.783268
985.655543	2554.299722
985.952224	2538.215920
986.248869	2512.921931
986.545478	2486.644917
986.842050	2471.392906
987.138586	2457.189455
987.435086	2447.659153
987.731549	2435.426793
988.027975	2433.117945
988.324366	2427.663417
988.620719	2422.997829
988.917037	2420.641089
989.213318	2419.340472
989.509563	2418.377611
989.805772	2415.824267
990.101944	2413.039029
990.398080	2411.801426
990.694180	2414.500964
990.990244	2416.255285
991.286271	2414.281674
991.582262	2416.099010
991.878217	2416.681263
992.174136	2415.952816
992.470019	2414.468196
992.765865	2415.131108
993.061676	2419.504309
993.357450	2423.562438
993.653188	2422.725606
993.948890	2428.981678
994.244556	2434.602565
994.540186	2443.618668
994.835780	2451.782817
995.131337	2464.627677
995.426859	2479.254585
995.722345	2495.179590
996.017795	2513.587363
996.313208	2526.074301
996.608586	2530.654190
996.903928	2534.921526
997.199234	2537.467309
997.494504	2530.870959
997.789738	2528.889786
998.084936	2515.601304
998.380099	2508.001765
998.675225	2497.843840
998.970316	2485.059474
999.265371	2473.439614
999.560390	2462.459981
999.855373	2452.884309
1000.150320	2444.200922
1000.445232	2436.601382
1000.740108	2431.373706
1001.034948	2429.153078
1001.329752	2422.778538
1001.624521	2417.218146
1001.919254	2412.555078
1002.213951	2413.833011
1002.508613	2409.812691
1002.803239	2410.445356
1003.097829	2402.472771
1003.392384	2409.379152
1003.686903	2406.001578
1003.981386	2407.851682
1004.275834	2400.937739
1004.570246	2407.597104
1004.864623	2405.802453
1005.158964	2402.873543
1005.453270	2403.811197
1005.747540	2401.726680
1006.041775	2405.038718
1006.335974	2400.846999
1006.630138	2400.400857
1006.924266	2399.299364
1007.218359	2399.029663
1007.512416	2399.034704
1007.806438	2401.540157
1008.100425	2401.847668
1008.394376	2399.788356
1008.688292	2400.650394
1008.982172	2398.495300
1009.276017	2400.070661
1009.569827	2399.984961
1009.863602	2400.340363
1010.157341	2396.688047
1010.451045	2399.453120
1010.744714	2400.529406
1011.038347	2398.538150
1011.331945	2397.585372
1011.625508	2400.113511
1011.919036	2395.233674
1012.212528	2397.857594
1012.505986	2398.391957
1012.799408	2399.448078
1013.092795	2396.534292
1013.386147	2397.716442
1013.679464	2397.020763
1013.972745	2397.290465
1014.265992	2395.558828
1014.559204	2393.998591
1014.852380	2398.281051
1015.145521	2397.081257
1015.438628	2397.396329
1015.731699	2396.786349
1016.024736	2394.346431
1016.317737	2398.066802
1016.610703	2397.613098
1016.903635	2396.153684
1017.196531	2394.974054
1017.489393	2395.233674
1017.782219	2395.543705
1018.075011	2403.493604
1018.367768	2398.497821
1018.660490	2398.288613
1018.953177	2398.288613
1019.245829	2398.288613
