Dividing Wavelength (nm)	Counts (n)	Blue Motor Position (mm): 18.600000	Red Motor Position (mm): 0.000000	
326.493990	1973.498305
326.888308	1973.498305
327.282561	1973.498305
327.676750	1949.958637
328.070874	1953.305963
328.464933	1958.621860
328.858929	1965.934053
329.252859	1979.635910
329.646726	1994.540081
330.040528	2009.222442
330.434265	2028.046110
330.827938	2048.636703
331.221547	2067.909034
331.615091	2087.274627
332.008571	2109.251537
332.401986	2129.811883
332.795338	2148.965747
333.188625	2168.306133
333.581847	2188.387570
333.975006	2208.791640
334.368100	2222.843856
334.761129	2240.482854
335.154095	2256.430544
335.546996	2291.385905
335.939833	2351.589884
336.332606	2365.009436
336.725315	2377.327495
337.117960	2382.885368
337.510540	2390.999105
337.903056	2401.459499
338.295508	2406.510735
338.687896	2417.364339
339.080220	2423.292736
339.472480	2426.977820
339.864676	2430.388160
340.256807	2437.246650
340.648875	2436.702205
341.040879	2435.993923
341.432818	2441.579522
341.824694	2439.431990
342.216506	2440.415015
342.608253	2441.362752
342.999937	2441.266970
343.391557	2438.123811
343.783113	2437.065168
344.174605	2435.671289
344.566033	2433.203645
344.957397	2431.169539
345.348697	2426.987902
345.739934	2424.633683
346.131106	2427.842378
346.522215	2424.784918
346.913260	2419.615214
347.304241	2420.651172
347.695159	2419.264854
348.086012	2416.608166
348.476802	2416.903074
348.867528	2411.879564
349.258191	2411.385531
349.648789	2411.859399
350.039324	2410.984759
350.429796	2410.052146
350.820203	2412.207239
351.210548	2409.842938
351.600828	2409.016188
351.991045	2409.109450
352.381198	2404.622823
352.771288	2407.387896
353.161314	2404.721125
353.551276	2406.639284
353.941175	2402.445044
354.331010	2407.892011
354.720782	2408.819583
355.110490	2409.661456
355.500135	2408.121384
355.889717	2407.118194
356.279235	2407.902093
356.668689	2407.884449
357.058080	2410.783113
357.447408	2406.051990
357.836672	2404.408574
358.225873	2407.254305
358.615010	2406.563667
359.004084	2411.539286
359.393095	2411.335119
359.782043	2412.093813
360.170927	2409.245561
360.559748	2412.880233
360.948505	2412.310582
361.337199	2414.778227
361.725830	2415.521797
362.114398	2413.407033
362.502903	2413.177661
362.891344	2416.517425
363.279722	2414.241344
363.668037	2417.755029
364.056289	2418.491037
364.444478	2417.134967
364.832603	2420.363826
365.220665	2417.712179
365.608665	2417.122364
365.996601	2419.325348
366.384474	2417.911304
366.772284	2419.799217
367.160031	2418.501119
367.547715	2418.475914
367.935336	2417.210584
368.322893	2420.918353
368.710388	2419.597570
369.097820	2423.648138
369.485189	2423.716193
369.872495	2424.036306
370.259738	2421.175452
370.646918	2423.527150
371.034035	2420.482293
371.421090	2422.387849
371.808081	2423.249886
372.195010	2424.386667
372.581875	2422.579413
372.968678	2424.583272
373.355418	2422.211409
373.742096	2423.643096
374.128710	2426.380443
374.515262	2425.505803
374.901751	2427.464291
375.288177	2426.458581
375.674540	2425.962027
376.060841	2427.426482
376.447079	2426.314908
376.833254	2423.824578
377.219367	2422.670154
377.605417	2426.892120
377.991404	2422.319793
378.377329	2424.973961
378.763191	2420.845256
379.148991	2427.786925
379.534727	2431.131730
379.920402	2429.571493
380.306013	2430.042841
380.691563	2429.939498
381.077049	2429.513520
381.462474	2429.521082
381.847835	2431.451844
382.233134	2431.061154
382.618371	2428.890938
383.003545	2433.896803
383.388657	2432.820517
383.773706	2434.421083
384.158693	2431.411514
384.543618	2434.189190
384.928480	2433.236412
385.313280	2433.853953
385.698017	2434.426124
386.082692	2433.241453
386.467305	2433.004519
386.851856	2434.191711
387.236344	2435.404108
387.620770	2437.566763
388.005133	2436.155240
388.389435	2436.127514
388.773674	2435.066351
389.157851	2439.694130
389.541965	2436.417380
389.926018	2437.617175
390.310008	2435.562905
390.693936	2436.964345
391.077802	2436.359407
391.461606	2440.876281
391.845348	2436.324119
392.229027	2440.583894
392.612645	2437.332350
392.996200	2437.854109
393.379694	2441.183791
393.763125	2438.993410
394.146494	2440.472988
394.529801	2442.938113
394.913047	2438.771599
395.296230	2439.986517
395.679351	2439.570622
396.062410	2441.027515
396.445408	2439.351332
396.828343	2441.584563
397.211217	2433.813624
397.594028	2440.568770
397.976778	2437.894438
398.359466	2440.745211
398.742092	2438.761517
399.124656	2442.542382
399.507158	2442.471806
399.889598	2443.432146
400.271977	2440.588935
400.654294	2443.714450
401.036549	2443.013730
401.418742	2444.947012
401.800874	2443.749738
402.182944	2443.490119
402.564952	2442.078596
402.946898	2445.509101
403.328783	2446.456838
403.710606	2447.835594
404.092367	2445.478854
404.474067	2444.417691
404.855705	2446.280398
405.237282	2447.039091
405.618797	2448.216201
406.000250	2445.466251
406.381642	2447.505398
406.762972	2449.446242
407.144240	2448.364915
407.525447	2447.812908
407.906593	2445.511622
408.287677	2446.792075
408.668700	2448.974894
409.049661	2446.494647
409.430560	2449.975563
409.811399	2450.315841
410.192176	2450.913218
410.572891	2450.935903
410.953545	2451.976902
411.334138	2450.111675
411.714669	2450.502364
412.095139	2451.034206
412.475547	2450.388938
412.855894	2451.923969
413.236180	2450.502364
413.616405	2449.559668
413.996568	2452.337344
414.376670	2450.577981
414.756711	2450.053701
415.136691	2451.114864
415.516609	2453.554783
415.896466	2451.477827
416.276262	2451.913887
416.655997	2451.225770
417.035670	2448.501026
417.415283	2453.101079
417.794834	2446.560182
418.174324	2455.339351
418.553753	2453.375822
418.933121	2452.085286
419.312428	2452.700307
419.691674	2453.343054
420.070859	2456.685339
420.449983	2457.592747
420.829045	2454.144598
421.208047	2455.213322
421.586988	2455.523353
421.965867	2456.491255
422.344686	2455.954372
422.723444	2457.451595
423.102141	2454.658795
423.480777	2455.276337
423.859352	2456.087963
424.237866	2458.517799
424.616319	2457.600309
424.994712	2459.014352
425.373044	2459.621811
425.751314	2458.795062
426.129524	2457.635597
426.507673	2454.923456
426.885762	2460.473766
427.263789	2458.898406
427.641756	2460.251956
428.019662	2461.214816
428.397508	2460.544343
428.775292	2459.833540
429.153016	2458.747171
429.530679	2465.971145
429.908282	2463.841257
430.285824	2461.174487
430.663305	2462.467543
431.040726	2467.475929
431.418086	2460.216667
431.795385	2463.206072
432.172624	2463.644652
432.549802	2464.148767
432.926920	2463.450568
433.303977	2464.476443
433.680974	2465.013325
434.057910	2463.248922
434.434786	2463.790846
434.811601	2465.199848
435.188355	2467.680096
435.565050	2467.470888
435.941683	2463.541308
436.318257	2465.698922
436.694770	2463.034673
437.071222	2466.087091
437.447614	2462.928808
437.823946	2463.276648
438.200218	2465.598099
438.576429	2466.603809
438.952580	2467.281845
439.328670	2465.945939
439.704700	2468.285034
440.080670	2466.215641
440.456580	2470.719912
440.832429	2467.206227
441.208218	2468.771506
441.583947	2473.003554
441.959616	2469.527679
442.335224	2469.862915
442.710773	2469.429376
443.086261	2473.038842
443.461689	2467.680096
443.837057	2473.966415
444.212365	2472.403657
444.587612	2476.108905
444.962800	2471.607155
445.337927	2471.617237
445.712995	2471.201342
446.088002	2476.048411
446.462949	2475.352732
446.837837	2475.231744
447.212664	2474.488174
447.587431	2479.748618
447.962139	2482.548979
448.336786	2484.046202
448.711374	2485.989567
449.085901	2478.654688
449.460369	2481.099647
449.834776	2482.178454
450.209124	2482.639720
450.583412	2485.740029
450.957640	2484.789772
451.331808	2485.815647
451.705917	2482.485965
452.079965	2482.324648
452.453954	2483.882364
452.827883	2483.595018
453.201752	2484.411685
453.575562	2484.618373
453.949311	2486.249186
454.323001	2489.498210
454.696632	2487.869917
455.070202	2487.549804
455.443713	2490.841677
455.817164	2487.572489
456.190556	2486.939824
456.563888	2490.657675
456.937160	2489.029382
457.310373	2491.970896
457.683526	2491.290340
458.056619	2492.210350
458.429653	2489.379743
458.802628	2493.982316
459.175542	2494.211688
459.548398	2496.364261
459.921194	2500.601351
460.293930	2502.645539
460.666607	2509.504029
461.039224	2510.050994
461.411782	2512.889163
461.784280	2510.081241
462.156719	2514.358660
462.529099	2509.940088
462.901419	2507.545540
463.273680	2509.199039
463.645882	2509.352794
464.018024	2510.292969
464.390106	2515.676922
464.762130	2521.597757
465.134094	2528.990609
465.505999	2539.229192
465.877845	2549.102292
466.249631	2554.569423
466.621358	2550.380225
466.993026	2552.043805
467.364634	2550.430636
467.736184	2545.946530
468.107674	2542.430325
468.479105	2543.584749
468.850477	2541.984183
469.221790	2542.679862
469.593043	2540.222300
469.964238	2537.270704
470.335373	2539.529141
470.706449	2545.202960
471.077467	2553.102448
471.448425	2564.326577
471.819324	2576.006930
472.190164	2572.132803
472.560945	2567.066444
472.931667	2558.093190
473.302330	2557.624363
473.672934	2558.088149
474.043479	2560.437327
474.413965	2556.842984
474.784393	2556.021276
475.154761	2563.404046
475.525070	2560.906154
475.895321	2565.697771
476.265513	2563.663665
476.635645	2574.965932
477.005719	2575.833010
477.375734	2577.751169
477.745691	2583.374577
478.115588	2587.962027
478.485427	2598.346803
478.855207	2611.715943
479.224928	2622.526698
479.594591	2630.831999
479.964194	2629.730507
480.333739	2631.557925
480.703226	2637.352731
481.072653	2641.980511
481.442022	2643.510501
481.811333	2649.675832
482.180584	2649.327992
482.549777	2647.644247
482.918912	2649.635503
483.287988	2653.862510
483.657005	2652.876965
484.025964	2653.076090
484.394864	2656.252017
484.763706	2657.605567
485.132489	2658.167656
485.501213	2658.616318
485.869879	2666.709891
486.238487	2668.318019
486.607036	2672.252639
486.975527	2674.558967
487.343959	2675.388237
487.712333	2682.322344
488.080648	2685.384845
488.448905	2690.415917
488.817104	2700.513348
489.185244	2710.325954
489.553326	2724.557131
489.921350	2749.599063
490.289315	2772.158226
490.657222	2787.874023
491.025070	2799.297278
491.392861	2797.207720
491.760593	2797.926084
492.128267	2796.708646
492.495883	2791.559107
492.863440	2792.572379
493.230939	2793.530198
493.598380	2794.704787
493.965763	2799.453554
494.333088	2803.020170
494.700354	2811.310348
495.067563	2821.185968
495.434713	2826.254848
495.801805	2847.528517
496.168839	2857.489838
496.535815	2870.140613
496.902733	2882.004969
497.269593	2896.825961
497.636395	2908.995306
498.003139	2931.451126
498.369825	2943.890173
498.736453	2962.373564
499.103023	2977.887715
499.469535	3002.743124
499.835989	3021.410517
500.202385	3039.677138
500.568723	3066.017166
500.935003	3094.300560
501.301226	3116.262347
501.667390	3153.302225
502.033497	3185.772297
502.399546	3204.457333
502.765537	3222.855024
503.131470	3262.806168
503.497345	3303.851243
503.863163	3312.665701
504.228923	3357.436188
504.594625	3410.126328
504.960269	3428.614760
505.325856	3487.510560
505.691385	3515.909900
506.056856	3566.296233
506.422270	3622.734471
506.787625	3658.685459
507.152924	3715.458934
507.518164	3766.525822
507.883347	3799.386584
508.248472	3860.263558
508.613540	3934.950772
508.978550	4006.129344
509.343503	4059.494999
509.708398	4134.061226
510.073236	4223.030030
510.438016	4288.101243
510.802738	4338.033872
511.167403	4442.975572
511.532010	4532.766084
511.896561	4619.947798
512.261053	4752.373869
512.625488	4809.782529
512.989866	4886.392944
513.354186	4963.396569
513.718449	5054.961567
514.082655	5191.387793
514.446803	5265.984267
514.810894	5402.216408
515.174927	5497.952961
515.538904	5592.774544
515.902822	5749.362865
516.266684	5818.835006
516.630488	5956.153516
516.994235	6053.190687
517.357925	6217.330656
517.721558	6352.756213
518.085133	6501.198029
518.448651	6635.988400
518.812112	6742.722230
519.175516	6876.789196
519.538863	7040.714916
519.902152	7167.600759
520.265385	7352.611105
520.628560	7496.992272
520.991678	7614.320086
521.354739	7779.059953
521.717743	7969.865105
522.080690	8101.013243
522.443580	8321.606574
522.806413	8482.129515
523.169189	8626.067060
523.531908	8805.053227
523.894569	8942.318806
524.257174	9119.464952
524.619722	9338.276234
524.982213	9497.047375
525.344647	9645.912648
525.707025	9816.482609
526.069345	10057.842973
526.431608	10218.847344
526.793815	10446.604154
527.155964	10533.929542
527.518057	10736.062167
527.880093	10878.477284
528.242072	11158.692341
528.603995	11274.296081
528.965860	11453.327619
529.327669	11657.161633
529.689421	11817.707260
530.051117	11997.341215
530.412755	12209.853576
530.774337	12416.964341
531.135862	12579.249166
531.497331	12826.071620
531.858743	13003.497550
532.220098	13289.893062
532.581396	13414.132298
532.942638	13525.698074
533.303824	13802.628819
533.664953	13995.400022
534.026025	14128.063026
534.387040	14459.770949
534.747999	14647.458148
535.108902	14909.998920
535.469748	14978.777902
535.830537	15218.590632
536.191270	15494.341747
536.551947	15591.139463
536.912567	15901.137657
537.273131	16161.934190
537.633638	16209.633587
537.994089	16538.485697
538.354483	16623.860158
538.714821	17045.562759
539.075103	17399.207263
539.435328	17547.059264
539.795497	17735.716885
540.155609	17955.730483
540.515665	18372.041571
540.875665	18375.709010
541.235609	18732.685717
541.595496	18958.698288
541.955328	19455.050296
542.315102	19442.981773
542.674821	19581.474872
543.034483	19830.132306
543.394090	20049.364525
543.753640	20254.796586
544.113134	20925.943041
544.472571	20732.166129
544.831953	21512.519100
545.191278	21405.714694
545.550548	21506.812514
545.909761	21952.586625
546.268918	22287.793109
546.628019	22675.563704
546.987064	22700.764432
547.346053	22580.490063
547.704986	23246.429007
548.063863	23257.816973
548.422684	23589.638322
548.781449	23750.975410
549.140158	24191.930178
549.498811	24341.733106
549.857408	24273.881695
550.215949	24947.175683
550.574434	25141.648274
550.932864	25245.866568
551.291237	25875.075665
551.649555	25879.469031
552.007817	26238.268115
552.366022	26272.061489
552.724173	26598.791273
553.082267	27053.180716
553.440305	27462.267830
553.798288	27283.344677
554.156215	27692.245269
554.514086	28040.183187
554.871902	28110.466953
555.229661	28348.442183
555.587365	28453.522514
555.945014	28743.761905
556.302606	28912.086032
556.660143	29269.007286
557.017625	29537.509222
557.375050	29625.263108
557.732421	30066.265767
558.089735	30269.648598
558.446994	30408.965926
558.804197	30937.777923
559.161345	31101.696082
559.518437	30806.952419
559.875474	31222.149412
560.232455	31547.722251
560.589381	31860.914016
560.946251	31855.106607
561.303065	32533.504762
561.659825	32582.086362
562.016528	32559.978381
562.373177	32562.735892
562.729770	33105.463995
563.086307	32952.394400
563.442789	33459.544559
563.799216	33683.185267
564.155587	33733.836260
564.511904	33936.319246
564.868164	34176.585679
565.224370	34542.757450
565.580520	34532.226480
565.936615	34884.706477
566.292654	34823.529555
566.648638	35187.755441
567.004567	35331.541752
567.360441	35517.734248
567.716260	35594.977328
568.072023	35977.167366
568.427732	36133.501108
568.783385	35941.874248
569.138982	36424.408453
569.494525	36548.173821
569.850013	36520.762547
570.205445	36648.822978
570.560823	36753.247959
570.916145	36821.865625
571.271412	36985.531726
571.626625	36951.395552
571.981782	37135.072513
572.336884	37026.027314
572.691931	37425.059847
573.046923	37231.600527
573.401860	37256.246728
573.756743	37375.699389
574.111570	37601.099460
574.466342	37593.711649
574.821059	37840.970163
575.175722	37586.447346
575.530330	37710.908394
575.884882	37622.151318
576.239380	37700.304327
576.593823	37789.104252
576.948211	37838.053855
577.302544	37556.008859
577.656823	37711.452838
578.011047	38018.877523
578.365216	37890.502020
578.719330	37826.973399
579.073389	37804.701582
579.427394	37984.872420
579.781344	38085.609797
580.135239	37880.727223
580.489080	38058.057371
580.842866	37705.169040
581.196597	38200.558187
581.550273	38246.218438
581.903895	38227.319152
582.257463	38689.061118
582.610975	38245.578212
582.964434	38575.864529
583.317837	38357.191878
583.671186	38317.097061
584.024481	38605.587172
584.377721	38277.176164
584.730906	38617.527145
585.084037	38718.720747
585.437113	38557.625635
585.790135	38681.154069
586.143103	38404.858509
586.496016	38606.615568
586.848874	38696.201913
587.201679	38789.022158
587.554428	38391.335613
587.907124	38646.584356
588.259765	38501.134465
588.612352	38797.829054
588.964884	38329.581479
589.317362	38665.917181
589.669786	38678.658697
590.022155	38552.284532
590.374470	38992.079835
590.726731	38631.778487
591.078937	38253.616332
591.431090	38405.047552
591.783188	38164.881942
592.135232	37924.325642
592.487222	38215.210301
592.839157	38370.364413
593.191038	38118.578943
593.542866	37951.194992
593.894639	37457.159394
594.246358	37767.286138
594.598022	37807.081006
594.949633	37493.554004
595.301190	37535.677886
595.652692	37423.940711
596.004141	37784.297511
596.355535	36923.795235
596.706876	36936.408202
597.058162	36828.772006
597.409395	37300.089643
597.760573	37419.325535
598.111698	37078.150325
598.462768	37135.435476
598.813785	37206.840900
599.164748	36749.487258
599.515657	37180.490789
599.866511	36724.994813
600.217312	37343.761159
600.568060	36427.150840
600.918753	37135.863974
601.269392	37156.056316
601.619978	36873.353450
601.970510	37100.270908
602.320988	37307.318658
602.671412	37623.454457
603.021783	37427.509848
603.372100	37132.551936
603.722363	37277.628782
604.072572	37385.340596
604.422728	37428.855836
604.772830	37283.531973
605.122878	37414.901922
605.472872	37382.121819
605.822813	37680.767335
606.172701	37532.171763
606.522534	37804.867940
606.872314	38075.875329
607.222041	37872.800008
607.571714	38277.579456
607.921333	37774.341233
608.270899	38077.634692
608.620411	38440.814538
608.969870	38262.466077
609.319276	38284.836197
609.668627	38369.146975
610.017926	38847.980973
610.367171	39047.958505
610.716362	39156.550000
611.065500	39126.900453
611.414585	39336.015077
611.763616	39647.097119
612.112594	39586.623437
612.461518	39824.843162
612.810389	40135.010235
613.159207	40031.250686
613.507971	40113.910486
613.856682	40602.569692
614.205340	40492.231438
614.553945	41195.172451
614.902496	40668.356750
615.250994	41147.906592
615.599439	41221.542726
615.947830	41453.274486
616.296169	41531.185519
616.644454	41673.514936
616.992686	41855.298944
617.340864	42375.246072
617.688990	42137.820329
618.037063	42715.932290
618.385082	42692.705174
618.733048	43004.251002
619.080961	43037.157134
619.428821	43039.700396
619.776628	43175.622507
620.124382	42999.703881
620.472083	43140.712516
620.819731	43281.453970
621.167326	42976.086076
621.514868	42983.541942
621.862357	42555.200141
622.209793	42591.226747
622.557176	42275.751339
622.904506	42036.651933
623.251783	41705.203629
623.599007	41511.935873
623.946179	41305.747640
624.293297	41259.033788
624.640363	40694.600997
624.987376	40688.206293
625.334336	40461.495523
625.681243	40120.761414
626.028097	40102.527560
626.374899	39960.059511
626.721647	39942.899424
627.068343	39854.185198
627.414987	39618.607038
627.761577	39416.532386
628.108115	39750.216441
628.454600	39199.535919
628.801032	39394.752081
629.147412	39376.510666
629.493739	39386.343436
629.840014	39059.462418
630.186236	39407.624667
630.532405	39025.366574
630.878521	39260.037327
631.224585	39127.066812
631.570597	38844.391671
631.916556	39011.142958
632.262462	38974.967638
632.608316	38995.931277
632.954117	38882.533041
633.299866	38879.490705
633.645562	38804.561515
633.991206	38334.211779
634.336797	37907.077334
634.682336	37906.674042
635.027823	37666.760489
635.373257	37489.226174
635.718639	37271.034953
636.063968	37139.012175
636.409245	36559.710501
636.754470	36624.113762
637.099642	36408.148211
637.444762	35931.708761
637.789829	36074.542293
638.134845	35739.068628
638.479808	35687.263211
638.824719	35603.564934
639.169577	35220.301130
639.514383	35302.774407
639.859137	34991.881408
640.203839	35240.294346
640.548489	34875.897061
640.893086	34964.124815
641.237632	34712.535950
641.582125	34833.909291
641.926566	34755.968011
642.270955	34727.200667
642.615292	34755.022795
642.959576	34730.570678
643.303809	34741.031072
643.647990	34888.192435
643.992118	34857.070872
644.336195	34861.610431
644.680219	34949.505469
645.024192	35240.841312
645.368112	35756.390033
645.711981	35775.705214
646.055797	36644.661505
646.399562	36572.136946
646.743274	37508.410285
647.086935	37941.987324
647.430544	37836.647373
647.774101	37958.234963
648.117606	38187.504119
648.461059	38491.347065
648.804460	38105.361038
649.147810	37510.197374
649.491108	37285.359392
649.834354	36919.086797
650.177548	36096.998113
650.520690	35635.079707
650.863781	35668.399213
651.206820	35507.339389
651.549807	35099.106751
651.892742	34629.283815
652.235626	34427.887198
652.578458	34292.108761
652.921238	33716.300607
653.263967	34038.758012
653.606644	33719.552151
653.949269	33676.251160
654.291843	33287.454690
654.634365	33698.495251
654.976836	33286.721202
655.319255	33290.305463
655.661622	33292.594146
656.003938	33060.355750
656.346203	32933.479990
656.688416	33159.457273
657.030577	32959.207519
657.372687	32803.539209
657.714746	33068.963521
658.056753	33190.682180
658.398708	32641.912255
658.740612	32708.422718
659.082465	32964.147850
659.424266	32802.876297
659.766016	32923.402724
660.107715	32797.721717
660.449362	32939.746145
660.790958	32928.834567
661.132503	32935.695577
661.473996	32963.643734
661.815438	33078.997937
662.156829	33272.517751
662.498168	33050.207908
662.839456	33086.068156
663.180693	33233.945362
663.521879	33388.638209
663.863013	33361.904971
664.204097	33348.644215
664.545129	33802.602640
664.886110	33764.912453
665.227040	33833.517516
665.567918	33948.223930
665.908746	34011.492932
666.249522	34169.790204
666.590248	34186.010116
666.930922	34293.820232
667.271545	34264.853762
667.612118	34332.861448
667.952639	34122.821773
668.293109	34176.923436
668.633528	34075.258487
668.973896	34003.099411
669.314213	34052.124632
669.654480	33773.399236
669.994695	33805.970131
670.334859	33695.427709
670.674973	33609.476036
671.015035	33761.446660
671.355047	33714.964701
671.695008	33661.228521
672.034918	33555.679363
672.374777	33649.326357
672.714585	33497.882534
673.054342	33729.979777
673.394049	33480.034329
673.733705	33747.235647
674.073310	33421.826646
674.412864	33496.735671
674.752368	33094.375977
675.091820	33400.726896
675.431223	32970.731597
675.770574	32696.477704
676.109875	32566.191603
676.449125	32295.421148
676.788324	32232.104256
677.127473	31697.414273
677.466571	31598.108583
677.805619	31261.258683
678.144616	31274.693358
678.483562	31193.097242
678.822458	30866.443076
679.161303	30806.773458
679.500098	30699.268332
679.838842	30600.915421
680.177535	30759.742014
680.516179	31027.825534
680.854771	31270.312596
681.193314	32129.902423
681.531805	33246.452465
681.870247	34024.526835
682.208638	34758.478506
682.546978	34985.302703
682.885268	35073.792597
683.223508	34540.246956
683.561697	34189.183522
683.899836	34015.692213
684.237925	33492.465814
684.575963	33367.059550
684.913951	32908.632143
685.251889	33066.082501
685.589776	33047.500808
685.927614	33039.545867
686.265401	33188.569937
686.603137	33289.980308
686.940824	33799.124244
687.278460	34172.404042
687.616046	34315.807225
687.953582	34926.051501
688.291068	34779.744613
688.628504	35058.563271
688.965889	34987.654401
689.303224	34612.910147
689.640510	34275.094866
689.977745	33536.039027
690.314930	32729.545153
690.652065	32205.507128
690.989150	31454.188682
691.326185	30566.272611
691.663170	29850.201913
692.000105	29111.940056
692.336990	28433.370501
692.673825	27995.823553
693.010610	27475.034552
693.347345	26891.435295
693.684030	26235.185449
694.020665	25984.824105
694.357251	25308.303779
694.693786	25280.920232
695.030272	25029.951429
695.366707	24493.744059
695.703093	24205.289236
696.039429	24192.605693
696.375716	23938.266878
696.711952	23902.078955
697.048139	23739.083328
697.384276	23588.859464
697.720363	23693.619682
698.056400	23503.903419
698.392388	23276.585189
698.728326	23232.860741
699.064214	23028.941027
699.400053	22975.398932
699.735842	22619.551443
700.071581	22337.236746
700.407270	22050.649670
700.742910	21869.611753
701.078501	21599.973037
701.414042	21316.624903
701.749533	21018.347391
702.084974	20674.134886
702.420366	20879.035105
702.755709	20432.623288
703.091002	20156.206740
703.426246	20175.216931
703.761440	20069.677855
704.096584	19810.620520
704.431679	19756.191182
704.766725	19667.633233
705.101721	19622.099011
705.436668	19698.354024
705.771565	19384.965654
706.106413	19709.603359
706.441212	19707.302072
706.775961	19824.471091
707.110661	19903.501259
707.445311	20259.870507
707.779913	20106.944585
708.114465	20347.243786
708.448967	20631.285078
708.783421	21323.367446
709.117825	21600.729210
709.452180	21817.266932
709.786485	22210.151778
710.120742	23012.960569
710.454949	23038.531822
710.789107	23500.898891
711.123216	24199.915366
711.457275	24319.448685
711.791286	24862.597724
712.125247	24924.495531
712.459159	24609.579692
712.793023	25284.038185
713.126837	24166.575695
713.460602	24417.347893
713.794318	24032.143245
714.127985	23643.024141
714.461602	22755.531527
714.795171	22718.400909
715.128691	21706.414480
715.462162	21160.117240
715.795584	20746.815722
716.128957	20486.687142
716.462281	20076.004503
716.795556	19840.469192
717.128782	19356.926757
717.461960	18811.501637
717.795088	18731.833762
718.128167	18332.332402
718.461198	17876.692753
718.794180	17729.279332
719.127113	17371.601905
719.459997	17186.523503
719.792833	16832.878999
720.125619	16807.842108
720.458357	16489.122718
720.791046	16322.946123
721.123686	16164.081721
721.456278	15926.419044
721.788821	15875.042124
722.121315	15621.887981
722.453761	15703.537029
722.786158	15619.374966
723.118506	15631.982892
723.450805	15504.335835
723.783056	15658.254865
724.115259	15564.025617
724.447412	15497.764691
724.779518	15735.911319
725.111574	15755.516367
725.443582	15951.486181
725.775542	15941.265242
726.107453	16399.191054
726.439315	16284.517407
726.771129	16685.579004
727.102895	17056.922999
727.434612	17255.655366
727.766281	17380.388636
728.097901	17631.894322
728.429473	17676.387546
728.760996	17652.008526
729.092471	17733.571874
729.423897	17621.295296
729.755276	17480.526116
730.086606	17594.327643
730.417887	18115.560266
730.749120	18629.412639
731.080305	18804.262540
731.411442	19129.033835
731.742530	19206.208859
732.073570	19290.875038
732.404562	19588.555173
732.735506	19394.879083
733.066401	19107.608931
733.397249	18586.996371
733.728048	17952.373075
734.058798	17123.214173
734.389501	16454.237934
734.720156	15999.170455
735.050762	15472.306864
735.381320	15127.466735
735.711831	14881.967584
736.042293	14533.719635
736.372707	14546.403178
736.703073	14342.614534
737.033391	14519.967368
737.363661	14498.466846
737.693883	14609.011788
738.024056	14765.733700
738.354182	14951.293532
738.684260	15237.905813
739.014290	15457.415296
739.344272	15646.440921
739.674207	15922.197077
740.004093	16032.144643
740.333931	16021.245668
740.663722	16060.130608
740.993464	16046.582507
741.323159	15882.150151
741.652806	15606.996413
741.982405	15391.275357
742.311956	15046.241144
742.641460	14934.841726
742.970915	14628.316887
743.300323	14295.971258
743.629683	14079.110902
743.958996	13800.062872
744.288260	13539.097461
744.617477	13234.490781
744.946647	13172.285463
745.275768	12888.163512
745.604842	12715.821585
745.933869	12544.180379
746.262847	12497.252278
746.591778	12423.190166
746.920662	12324.809528
747.249498	12319.700319
747.578286	12437.186930
747.907027	12583.942480
748.235720	12803.366263
748.564365	12833.567815
748.892963	12735.396385
749.221514	12785.971761
749.550017	12644.408600
749.878473	12603.219852
750.206881	12391.720763
750.535242	12295.959005
750.863555	12214.332642
751.191821	12118.180194
751.520039	12137.490333
751.848210	12045.529605
752.176334	12073.949110
752.504411	11977.479069
752.832440	11829.717809
753.160421	11886.841644
753.488356	11765.826225
753.816243	11670.213181
754.144082	11528.685307
754.471875	11473.063736
754.799620	11423.363000
755.127318	11391.815459
755.454969	11353.018739
755.782572	11303.290277
756.110129	11315.179839
756.437638	11231.930224
756.765100	11230.410316
757.092515	11233.568599
757.419882	11248.041752
757.747203	11250.176680
758.074477	11323.245685
758.401703	11281.792277
758.728882	11441.443098
759.056014	11484.610499
759.383099	11594.462282
759.710138	11706.471680
760.037129	11773.453491
760.364073	11796.436111
760.690970	11780.591765
761.017820	11784.768361
761.344623	11961.738066
761.671379	12285.702777
761.998088	12907.456007
762.324751	14459.770949
762.651366	17308.685784
762.977935	20950.816094
763.304456	23157.185460
763.630931	23613.389718
763.957359	22441.457560
764.283740	20535.402332
764.610074	18668.431170
764.936362	16559.066207
765.262602	15043.776020
765.588796	13583.338627
765.914943	12564.289542
766.241044	11723.185625
766.567097	11091.947464
766.893104	10540.054544
767.219064	10192.567809
767.544978	9813.528493
767.870845	9501.662551
768.196665	9316.367380
768.522438	9123.361764
768.848165	8957.669119
769.173846	8792.243656
769.499479	8669.826796
769.825066	8517.828446
770.150607	8334.184253
770.476101	8276.513453
770.801548	8159.762850
771.126949	8012.694748
771.452303	7928.772140
771.777611	7770.031246
772.102872	7745.420333
772.428087	7629.650235
772.753256	7505.915114
773.078378	7419.943276
773.403453	7280.709128
773.728482	7178.373704
774.053465	7112.730320
774.378401	7026.312340
774.703291	6930.202742
775.028135	6834.337640
775.352932	6801.244985
775.677683	6721.156174
776.002388	6630.082689
776.327046	6629.218131
776.651658	6546.833074
776.976224	6473.431353
777.300743	6447.484535
777.625216	6388.969341
777.949643	6345.050809
778.274024	6354.757551
778.598359	6280.614781
778.922647	6285.219875
779.246889	6246.158494
779.571086	6255.184680
779.895236	6267.132215
780.219339	6260.508138
780.543397	6257.002016
780.867409	6307.837011
781.191374	6305.812988
781.515294	6268.755466
781.839167	6320.921326
782.162995	6288.693230
782.486776	6247.890130
782.810511	6201.572009
783.134201	6130.090968
783.457844	6116.212671
783.781441	6068.157872
784.104993	6026.873343
784.428498	5997.435525
784.751958	5981.495397
785.075372	5952.788546
785.398739	5916.525006
785.722061	5943.167504
786.045337	5939.469818
786.368568	6045.712135
786.691752	6069.743315
787.014891	6317.614329
787.337983	6593.564570
787.661030	7032.563371
787.984031	7452.047864
788.306987	7715.415385
788.629897	7799.877398
788.952760	7713.986218
789.275579	7535.390740
789.598351	7237.302272
789.921078	6976.735112
790.243759	6698.017278
790.566395	6492.267625
790.888984	6303.599922
791.211529	6166.843500
791.534027	6002.837121
791.856480	5872.152770
792.178888	5806.854704
792.501249	5741.566720
792.823566	5643.324714
793.145836	5633.736440
793.468062	5619.064161
793.790241	5574.202933
794.112375	5616.125169
794.434464	5715.216609
794.756507	5743.179890
795.078505	5865.894177
795.400457	6078.857721
795.722364	6318.108362
796.044226	6506.390417
796.366042	6662.666187
796.687812	6609.358505
797.009538	6640.225490
797.331218	6547.886675
797.652852	6479.503423
797.974442	6358.482963
798.295986	6284.859432
798.617484	6161.046173
798.938938	6051.184307
799.260346	5984.862887
799.581709	5849.253328
799.903026	5796.308610
800.224299	5727.038115
800.545526	5606.920022
800.866708	5542.771339
801.187845	5493.085727
801.508936	5417.680147
801.829983	5393.376745
802.150984	5287.888080
802.471940	5254.492956
802.792851	5242.184979
803.113717	5223.706630
803.434538	5195.082958
803.755314	5161.907125
804.076045	5152.772554
804.396731	5118.956494
804.717372	5131.067866
805.037967	5137.422241
805.358518	5167.162528
805.679024	5219.401484
805.999485	5231.245675
806.319901	5252.436166
806.640272	5267.322693
806.960598	5315.795908
807.280879	5305.723682
807.601115	5340.815154
807.921306	5307.344413
808.241453	5298.416530
808.561554	5313.446730
808.881611	5274.619763
809.201623	5277.596564
809.521590	5217.417790
809.841513	5204.857756
810.161390	5221.574222
810.481223	5137.878465
810.801011	5121.527483
811.120755	5099.384214
811.440453	5039.979257
811.760107	5017.452861
812.079716	4991.468234
812.399281	4937.263227
812.718801	4934.379687
813.038276	4900.704779
813.357707	4865.300756
813.677093	4886.960073
813.996434	4824.212832
814.315731	4847.571018
814.634983	4841.274617
814.954191	4850.580587
815.273354	4907.817847
815.592473	4946.914516
815.911547	5023.230024
816.230577	5073.694494
816.549562	5162.580119
816.868502	5208.678950
817.187399	5267.355460
817.506250	5350.242112
817.825058	5372.372777
818.143821	5524.693761
818.462539	5686.502197
818.781213	5915.320170
819.099843	6276.609584
819.418429	6901.442959
819.736970	7510.704210
820.055466	8215.722178
820.373919	9115.167368
820.692327	10541.090501
821.010691	13218.815313
821.329011	19367.059476
821.647286	28838.739764
821.965517	39070.638656
822.283704	44476.078882
822.601847	45934.174659
822.919945	41397.809191
823.237999	36324.243246
823.556010	31171.329540
823.873976	26520.718923
824.191897	22351.472964
824.509775	19315.140632
824.827609	16573.899803
825.145398	15041.686461
825.463144	14295.799859
825.780845	14588.292646
826.098502	15829.880947
826.416116	18265.403523
826.733685	20521.503871
827.051210	21046.401412
827.368692	19636.037801
827.686129	17095.291221
828.003522	14642.575791
828.320872	12453.641256
828.638177	10814.605865
828.955439	9578.222555
829.272656	8540.168319
829.589830	7708.120836
829.906960	6982.716441
830.224046	6455.230267
830.541088	6051.847219
830.858086	5795.925482
831.175041	5597.835862
831.491952	5542.012645
831.808819	5569.015586
832.125642	5814.025745
832.442421	6354.838209
832.759157	7451.473173
833.075849	9208.393426
833.392497	11029.573268
833.709101	12131.057821
834.025662	11884.399205
834.342179	10840.814823
834.658653	9549.803050
834.975083	8455.827295
835.291469	7552.139974
835.607811	6838.851993
835.924110	6318.400749
836.240366	5838.916442
836.556578	5392.340788
836.872746	5041.080749
837.188871	4773.254328
837.504952	4554.851379
837.820990	4389.315010
838.136984	4279.127990
838.452935	4229.661668
838.768842	4257.624948
839.084706	4535.027041
839.400526	5266.785810
839.716303	6162.447614
840.032037	6720.868828
840.347727	6572.961374
840.663373	5983.332897
840.978977	5413.579169
841.294537	4974.391325
841.610054	4648.752951
841.925527	4413.250408
842.240957	4206.724418
842.556344	4025.265564
842.871687	3872.027090
843.186987	3720.484964
843.502244	3609.433386
843.817458	3517.235724
844.132629	3449.573357
844.447756	3401.838671
844.762840	3355.795292
845.077881	3319.415806
845.392879	3285.768624
845.707833	3260.159563
846.022745	3235.553691
846.337613	3223.835529
846.652438	3198.110521
846.967221	3191.693132
847.281960	3171.629339
847.596656	3162.489727
847.911309	3149.629744
848.225919	3138.506438
848.540485	3126.236270
848.855009	3121.152266
849.169490	3110.694392
849.483928	3102.510079
849.798323	3098.888010
850.112675	3085.760845
850.426984	3087.285794
850.741251	3081.485947
851.055474	3077.064855
851.369654	3076.686768
851.683792	3077.253898
851.997887	3077.352201
852.311938	3078.176429
852.625947	3077.574012
852.939914	3073.210893
853.253837	3078.105853
853.567718	3075.605441
853.881555	3067.645459
854.195350	3075.829772
854.509103	3071.343145
854.822812	3067.975655
855.136479	3065.472722
855.450103	3069.399781
855.763685	3063.731003
856.077224	3062.697567
856.390720	3072.384144
856.704173	3084.109868
857.017584	3088.160435
857.330953	3093.307453
857.644278	3100.420521
857.957561	3103.964452
858.270802	3101.643001
858.584000	3102.605861
858.897155	3096.720314
859.210268	3085.894436
859.523339	3073.014288
859.836367	3070.705439
860.149352	3065.036662
860.462295	3061.833009
860.775195	3055.130795
861.088054	3048.912531
861.400869	3051.528890
861.713642	3046.195349
862.026373	3055.082904
862.339062	3059.932494
862.651708	3067.839543
862.964312	3085.017275
863.276873	3090.907863
863.589392	3121.661422
863.901869	3147.701503
864.214303	3169.567507
864.526696	3184.020496
864.839045	3203.597817
865.151353	3221.163717
865.463619	3220.084910
865.775842	3219.331258
866.088023	3225.088255
866.400162	3214.905125
866.712258	3217.317317
867.024313	3217.196329
867.336325	3215.948643
867.648296	3217.629868
867.960224	3216.646843
868.272110	3218.302862
868.583954	3219.691700
868.895755	3222.572720
869.207515	3220.228583
869.519233	3240.914958
869.830909	3245.383941
870.142542	3255.746032
870.454134	3265.425048
870.765684	3273.314454
871.077191	3293.539563
871.388657	3304.511634
871.700081	3323.355467
872.011463	3344.014116
872.322803	3363.528422
872.634101	3381.212790
872.945357	3399.096283
873.256571	3427.684667
873.567744	3440.156481
873.878874	3449.754838
874.189963	3465.647076
874.501010	3469.135554
874.812015	3459.648103
875.122979	3478.567553
875.433900	3474.897593
875.744780	3479.790033
876.055618	3486.255313
876.366415	3483.497802
876.677169	3489.713544
876.987882	3506.089733
877.298554	3523.958102
877.609183	3565.494689
877.919771	3608.336935
878.230317	3675.291020
878.540822	3777.913789
878.851285	3926.753856
879.161707	4147.311899
879.472087	4511.137013
879.782425	5127.400427
880.092722	6293.303365
880.402977	8198.496556
880.713191	10540.296519
881.023363	12885.958007
881.333494	14214.206263
881.643583	14670.299616
881.953631	14262.750054
882.263637	13435.184157
882.573602	12405.435222
882.883526	11469.552572
883.193408	10524.058963
883.503248	9617.863668
883.813048	8806.071541
884.122806	8047.329996
884.432522	7292.762526
884.742197	6643.174565
885.051831	6083.677064
885.361424	5599.139001
885.670975	5209.525864
885.980485	4889.246237
886.289954	4628.366525
886.599382	4413.691509
886.908768	4236.830188
887.218113	4077.494439
887.527417	3950.185139
887.836680	3826.381963
888.145901	3726.476376
888.455082	3653.392248
888.764221	3585.790375
889.073319	3525.185623
889.382376	3494.003566
889.691392	3470.708394
890.000366	3461.745223
890.309300	3457.364460
890.618193	3460.749595
890.927044	3455.630303
891.235855	3460.928556
891.544625	3476.268787
891.853353	3504.612674
892.162041	3563.669792
892.470687	3653.203205
892.779293	3770.697377
893.087858	3938.605609
893.396381	4214.886046
893.704864	4621.427377
894.013306	5177.819527
894.321707	5743.500003
894.630068	6098.679538
894.938387	6138.983563
895.246665	5964.582325
895.554903	5649.094315
895.863100	5314.870856
896.171256	5047.321698
896.479371	4810.453002
896.787446	4589.988221
897.095480	4397.927821
897.403473	4246.489039
897.711425	4107.910240
898.019336	3989.070080
898.327207	3866.643138
898.635038	3770.483128
898.942827	3657.949451
899.250576	3576.547419
899.558284	3494.898371
899.865952	3438.742438
900.173579	3379.022409
900.481165	3329.324193
900.788711	3290.519912
901.096216	3257.462545
901.403681	3229.925242
901.711105	3223.326372
902.018489	3213.118036
902.325832	3248.242275
902.633135	3304.501552
902.940397	3477.793736
903.247619	3870.683623
903.554800	4612.171818
903.861941	5566.298404
904.169041	6254.095791
904.476101	6464.495908
904.783121	6192.296286
905.090100	5794.135873
905.397039	5388.048245
905.703938	5033.937434
906.010796	4713.088157
906.317614	4468.262000
906.624391	4234.365064
906.931129	4043.360786
907.237826	3862.448898
907.544483	3695.596788
907.851099	3526.450953
908.157675	3365.975903
908.464211	3232.826427
908.770707	3132.454533
909.077163	3054.397307
909.383578	2993.318687
909.689954	2950.471400
909.996289	2920.920156
910.302584	2901.229409
910.608839	2889.130640
910.915054	2874.813763
911.221229	2872.991386
911.527363	2874.977600
911.833458	2883.625700
912.139513	2896.299160
912.445527	2906.948598
912.751502	2940.648711
913.057436	2983.886688
913.363331	3038.893238
913.669186	3128.232567
913.975000	3241.978641
914.280775	3422.807350
914.586510	3686.731919
914.892205	4059.283270
915.197859	4547.652611
915.503475	5123.702740
915.809050	5611.333552
916.114585	5898.021451
916.420081	5961.887829
916.725536	5892.314864
917.030952	5661.551006
917.336328	5461.525583
917.641665	5251.969859
917.946961	5027.575498
918.252218	4828.707020
918.557435	4602.820478
918.862612	4407.029624
919.167750	4240.275817
919.472848	4056.437539
919.777906	3886.802712
920.082925	3733.884351
920.387904	3581.177719
920.692843	3472.140082
920.997743	3374.810525
921.302603	3282.859878
921.607423	3218.275136
921.912204	3154.323058
922.216946	3107.417642
922.521647	3060.887792
922.826310	3017.044877
923.130932	2978.719505
923.435516	2941.309103
923.740059	2913.217273
924.044564	2885.059908
924.349028	2860.685929
924.653454	2831.379181
924.957840	2805.450006
925.262186	2788.080711
925.566493	2765.148502
925.870761	2741.266036
926.174989	2730.493090
926.479178	2715.931717
926.783328	2697.922195
927.087438	2689.304342
927.391509	2675.499142
927.695541	2664.569921
927.999533	2652.829074
928.303486	2643.548309
928.607400	2639.530510
928.911275	2633.700415
929.215110	2629.206227
929.518906	2624.865793
929.822663	2627.925774
930.126381	2625.450567
930.430060	2627.020887
930.733699	2630.121196
931.037299	2632.137658
931.340861	2636.452885
931.644383	2637.491363
931.947866	2634.091105
932.251309	2633.367699
932.554714	2633.080353
932.858080	2630.980713
933.161407	2626.925105
933.464694	2622.947634
933.767943	2620.666512
934.071153	2615.494288
934.374323	2613.555965
934.677455	2606.692434
934.980548	2604.497011
935.283602	2603.009871
935.586617	2603.329984
935.889593	2604.219748
936.192530	2607.667897
936.495428	2612.756942
936.798287	2622.564507
937.101108	2634.403656
937.403890	2655.722696
937.706632	2681.039371
938.009336	2716.077910
938.312002	2742.322157
938.614628	2765.327463
938.917216	2785.570216
939.219765	2793.943573
939.522275	2804.076292
939.824747	2803.783905
940.127179	2796.035652
940.429573	2789.144394
940.731929	2791.349899
941.034246	2781.436470
941.336524	2780.609721
941.638763	2773.786519
941.940964	2766.822165
942.243126	2751.552510
942.545250	2740.623288
942.847335	2728.600137
943.149381	2715.276367
943.451389	2701.579552
943.753359	2688.812830
944.055290	2679.958043
944.357182	2671.708195
944.659036	2665.946156
944.960851	2661.888027
945.262628	2656.728406
945.564367	2656.869558
945.866067	2659.501041
946.167729	2658.878458
946.469352	2654.147335
946.770937	2653.365957
947.072484	2646.504946
947.373992	2646.991418
947.675462	2642.129225
947.976893	2637.859367
948.278286	2633.574387
948.579641	2632.243522
948.880958	2626.269755
949.182236	2627.396452
949.483476	2624.530557
949.784678	2623.940742
950.085841	2623.461832
950.386967	2629.382667
950.688054	2633.801238
950.989103	2643.613844
951.290114	2651.631800
951.591087	2662.714776
951.892021	2674.168278
952.192917	2687.451718
952.493776	2697.171063
952.794596	2701.052751
953.095378	2704.009388
953.396122	2698.005374
953.696828	2697.564273
953.997496	2690.814168
954.298126	2682.261850
954.598718	2674.422856
954.899272	2662.891217
955.199788	2653.290339
955.500266	2640.707619
955.800706	2625.359826
956.101108	2609.391972
956.401472	2600.822010
956.701798	2583.150245
957.002087	2569.065261
957.302337	2559.933211
957.602550	2548.154555
957.902724	2540.129038
958.202861	2531.317101
958.502960	2522.769825
958.803022	2517.806809
959.103045	2508.679800
959.403031	2502.196876
959.702979	2497.606906
960.002889	2494.693119
960.302762	2489.977119
960.602596	2483.264823
960.902393	2481.679380
961.202153	2479.347846
961.501875	2477.303658
961.801559	2472.136476
962.101205	2472.650673
962.400814	2468.683285
962.700385	2466.601289
962.999918	2465.179683
963.299414	2462.396967
963.598873	2463.029631
963.898293	2459.568879
964.197677	2460.269600
964.497022	2458.787500
964.796331	2458.749692
965.095601	2456.743312
965.394835	2459.009311
965.694030	2457.892696
965.993189	2457.512088
966.292309	2452.087807
966.591393	2457.060905
966.890439	2452.838939
967.189447	2455.278857
967.488419	2455.619135
967.787353	2455.871193
968.086249	2453.945472
968.385108	2457.194496
968.683930	2456.944959
968.982714	2461.424024
969.281462	2460.158694
969.580172	2460.677933
969.878844	2462.396967
970.177480	2465.409056
970.476078	2467.291927
970.774639	2471.360138
971.073162	2473.086733
971.371649	2474.019347
971.670098	2472.668317
971.968510	2477.838021
972.266885	2474.011785
972.565223	2481.570995
972.863524	2482.092755
973.161788	2483.751294
973.460014	2483.574854
973.758204	2483.700883
974.056356	2487.602736
974.354471	2485.578712
974.652550	2489.490648
974.950591	2486.622231
975.248595	2483.716006
975.546563	2486.536532
975.844493	2482.889257
976.142386	2482.029740
976.440243	2477.933803
976.738062	2478.480768
977.035845	2475.161168
977.333590	2472.867443
977.631299	2465.779581
977.928971	2466.956690
978.226606	2465.706484
978.524204	2465.565332
978.821765	2462.228088
979.119290	2465.114148
979.416777	2459.442850
979.714228	2463.606843
980.011642	2465.666155
980.309020	2470.845940
980.606360	2473.603452
980.903664	2479.796509
981.200931	2493.906699
981.498162	2509.156189
981.795356	2542.947043
982.092513	2579.981880
982.389633	2620.303549
982.686717	2663.990188
982.983764	2692.684436
983.280775	2710.394009
983.577749	2712.909545
983.874686	2702.880170
984.171587	2688.752336
984.468451	2672.691220
984.765279	2655.158087
985.062070	2637.327526
985.358824	2616.121912
985.655543	2595.818665
985.952224	2574.282856
986.248869	2548.688917
986.545478	2518.779752
986.842050	2504.530930
987.138586	2484.537714
987.435086	2470.755200
987.731549	2459.853704
988.027975	2455.175514
988.324366	2449.446242
988.620719	2446.655964
988.917037	2443.694286
989.213318	2442.580191
989.509563	2437.773451
989.805772	2435.814962
990.101944	2435.507452
990.398080	2433.775816
990.694180	2430.829261
990.990244	2433.667431
991.286271	2433.770774
991.582262	2434.312698
991.878217	2431.391350
992.174136	2436.530806
992.470019	2436.218255
992.765865	2436.654314
993.061676	2437.886877
993.357450	2443.333843
993.653188	2446.529935
993.948890	2449.685697
994.244556	2456.072839
994.540186	2464.289920
994.835780	2474.036991
995.131337	2488.923518
995.426859	2504.165447
995.722345	2526.273427
996.017795	2544.325799
996.313208	2558.219219
996.608586	2566.169118
996.903928	2571.623647
997.199234	2568.659448
997.494504	2562.852039
997.789738	2557.639486
998.084936	2547.804195
998.380099	2538.470499
998.675225	2526.089425
998.970316	2513.882271
999.265371	2499.217554
999.560390	2483.448825
999.855373	2478.374904
1000.150320	2465.013325
1000.445232	2457.323045
1000.740108	2451.387087
1001.034948	2447.863320
1001.329752	2438.499377
1001.624521	2436.694644
1001.919254	2428.696853
1002.213951	2427.401277
1002.508613	2426.322470
1002.803239	2425.397418
1003.097829	2420.651172
1003.392384	2425.319280
1003.686903	2420.822571
1003.981386	2422.279464
1004.275834	2418.770821
1004.570246	2419.058167
1004.864623	2418.995153
1005.158964	2414.442991
1005.453270	2417.379463
1005.747540	2420.073959
1006.041775	2417.316448
1006.335974	2417.528177
1006.630138	2414.243865
1006.924266	2416.182189
1007.218359	2415.052970
1007.512416	2414.652198
1007.806438	2413.265881
1008.100425	2414.271591
1008.394376	2413.190264
1008.688292	2415.305028
1008.982172	2413.722106
1009.276017	2414.427867
1009.569827	2412.101375
1009.863602	2410.145407
1010.157341	2410.188257
1010.451045	2412.610531
1010.744714	2411.511560
1011.038347	2410.896539
1011.331945	2414.105233
1011.625508	2413.490212
1011.919036	2412.524832
1012.212528	2411.325037
1012.505986	2409.217835
1012.799408	2409.679100
1013.092795	2407.949984
1013.386147	2409.525345
1013.679464	2408.058369
1013.972745	2410.563823
1014.265992	2407.682803
1014.559204	2411.546848
1014.852380	2405.825138
1015.145521	2405.973852
1015.438628	2406.475447
1015.731699	2410.258833
1016.024736	2410.102557
1016.317737	2411.176323
1016.610703	2409.258164
1016.903635	2409.076682
1017.196531	2408.653225
1017.489393	2410.112639
1017.782219	2408.076013
1018.075011	2412.355953
1018.367768	2411.698082
1018.660490	2411.236817
1018.953177	2411.236817
1019.245829	2411.236817
