Dividing Wavelength (nm)	Counts (n)	Blue Motor Position (mm): 29.000000	Red Motor Position (mm): 0.000000	
326.493990	1971.149127
326.888308	1971.149127
327.282561	1971.149127
327.676750	1948.196754
328.070874	1949.177258
328.464933	1955.012394
328.858929	1965.066975
329.252859	1975.386217
329.646726	1992.294247
330.040528	2006.028871
330.434265	2027.743641
330.827938	2043.053625
331.221547	2063.069526
331.615091	2084.421333
332.008571	2105.052256
332.401986	2126.194855
332.795338	2145.971301
333.188625	2167.406288
333.581847	2182.469255
333.975006	2203.455579
334.368100	2221.500389
334.761129	2238.776423
335.154095	2251.762435
335.546996	2290.438168
335.939833	2367.121679
336.332606	2381.002497
336.725315	2392.171173
337.117960	2401.454458
337.510540	2408.847310
337.903056	2416.487178
338.295508	2426.365319
338.687896	2433.937132
339.080220	2440.084820
339.472480	2446.169492
339.864676	2448.090172
340.256807	2451.079576
340.648875	2452.826336
341.040879	2456.221553
341.432818	2458.235494
341.824694	2456.720627
342.216506	2454.789865
342.608253	2459.851184
342.999937	2455.362036
343.391557	2454.313476
343.783113	2452.095369
344.174605	2450.625872
344.566033	2450.860286
344.957397	2451.639144
345.348697	2446.686211
345.739934	2445.793926
346.131106	2445.007506
346.522215	2437.944850
346.913260	2438.847216
347.304241	2439.888215
347.695159	2438.648091
348.086012	2434.703388
348.476802	2434.920158
348.867528	2432.749941
349.258191	2429.818510
349.648789	2429.548808
350.039324	2429.032090
350.429796	2429.581576
350.820203	2425.641914
351.210548	2428.890938
351.600828	2428.482604
351.991045	2425.871286
352.381198	2427.348344
352.771288	2427.217274
353.161314	2423.998498
353.551276	2425.256266
353.941175	2424.701739
354.331010	2425.888930
354.720782	2429.142995
355.110490	2425.843560
355.500135	2427.108890
355.889717	2424.031265
356.279235	2423.234763
356.668689	2427.436565
357.058080	2424.979002
357.447408	2424.890782
357.836672	2424.149732
358.225873	2426.299784
358.615010	2422.246697
359.004084	2429.815989
359.393095	2428.520413
359.782043	2433.773295
360.170927	2432.276072
360.559748	2432.465116
360.948505	2431.020825
361.337199	2433.858995
361.725830	2435.378902
362.114398	2434.514345
362.502903	2433.813624
362.891344	2434.670620
363.279722	2435.830086
363.668037	2435.620878
364.056289	2437.634819
364.444478	2438.295210
364.832603	2439.679007
365.220665	2437.377720
365.608665	2438.038111
365.996601	2437.481064
366.384474	2441.365273
366.772284	2440.034408
367.160031	2442.512135
367.547715	2442.121446
367.935336	2440.621703
368.322893	2439.880653
368.710388	2440.261260
369.097820	2443.560695
369.485189	2441.002310
369.872495	2443.200253
370.259738	2442.968360
370.646918	2444.682352
371.034035	2444.974739
371.421090	2447.139914
371.808081	2445.942640
372.195010	2443.848041
372.581875	2445.539348
372.968678	2444.878957
373.355418	2447.374328
373.742096	2447.102106
374.128710	2449.058073
374.515262	2446.870213
374.901751	2446.461879
375.288177	2450.388938
375.674540	2451.548403
376.060841	2456.554269
376.447079	2448.022116
376.833254	2450.913218
377.219367	2445.630089
377.605417	2450.736778
377.991404	2445.551951
378.377329	2448.458176
378.763191	2447.744853
379.148991	2452.022272
379.534727	2451.704679
379.920402	2454.494958
380.306013	2452.042437
380.691563	2458.295988
381.077049	2454.373970
381.462474	2456.604681
381.847835	2455.740123
382.233134	2456.251800
382.618371	2457.512088
383.003545	2458.106945
383.388657	2455.646862
383.773706	2458.081739
384.158693	2458.585854
384.543618	2457.416307
384.928480	2460.136009
385.313280	2457.653241
385.698017	2460.642645
386.082692	2459.309260
386.467305	2461.194651
386.851856	2460.012501
387.236344	2460.947635
387.620770	2462.323870
388.005133	2465.260342
388.389435	2465.088943
388.773674	2462.376802
389.157851	2467.097843
389.541965	2465.603140
389.926018	2466.651700
390.310008	2466.460137
390.693936	2469.416773
391.077802	2465.593058
391.461606	2469.194963
391.845348	2464.857050
392.229027	2470.624130
392.612645	2465.199848
392.996200	2468.688327
393.379694	2468.126238
393.763125	2469.570528
394.146494	2470.185549
394.529801	2471.309727
394.913047	2470.349387
395.296230	2471.581949
395.679351	2470.563636
396.062410	2473.442135
396.445408	2473.447176
396.828343	2473.585808
397.211217	2472.380972
397.594028	2474.281487
397.976778	2467.453244
398.359466	2476.068576
398.742092	2471.342494
399.124656	2475.158648
399.507158	2475.463637
399.889598	2476.615541
400.271977	2476.383648
400.654294	2480.146869
401.036549	2481.187867
401.418742	2477.822897
401.800874	2477.971611
402.182944	2479.143680
402.564952	2479.799030
402.946898	2481.631489
403.328783	2479.635192
403.710606	2482.027220
404.092367	2483.085862
404.474067	2480.905563
404.855705	2484.729278
405.237282	2485.336737
405.618797	2485.619042
406.000250	2486.949906
406.381642	2488.290853
406.762972	2491.159270
407.144240	2492.049033
407.525447	2487.625421
407.906593	2490.733292
408.287677	2488.248003
408.668700	2489.256234
409.049661	2490.592140
409.430560	2488.227839
409.811399	2492.469970
410.192176	2490.524084
410.572891	2492.843015
410.953545	2493.516009
411.334138	2491.862511
411.714669	2495.126658
412.095139	2494.040289
412.475547	2494.254538
412.855894	2494.781339
413.236180	2497.553973
413.616405	2497.586741
413.996568	2497.317039
414.376670	2495.368633
414.756711	2500.130003
415.136691	2499.696464
415.516609	2502.078409
415.896466	2502.302740
416.276262	2501.554129
416.655997	2500.331649
417.035670	2499.300733
417.415283	2508.452948
417.794834	2504.304078
418.174324	2505.970180
418.553753	2506.126456
418.933121	2507.795078
419.312428	2509.524193
419.691674	2510.683659
420.070859	2513.841942
420.449983	2512.637106
420.829045	2513.073166
421.208047	2512.301869
421.586988	2513.796571
421.965867	2517.935358
422.344686	2518.797396
422.723444	2520.100534
423.102141	2520.891995
423.480777	2523.833508
423.859352	2522.669002
424.237866	2530.376926
424.616319	2527.450536
424.994712	2530.419776
425.373044	2532.022863
425.751314	2536.363296
426.129524	2533.840199
426.507673	2537.389171
426.885762	2537.598379
427.263789	2545.190357
427.641756	2544.870243
428.019662	2550.657488
428.397508	2549.540872
428.775292	2552.973898
429.153016	2558.940104
429.530679	2558.907336
429.908282	2565.493604
430.285824	2572.004254
430.663305	2575.875860
431.040726	2580.796026
431.418086	2585.922880
431.795385	2598.543408
432.172624	2607.388113
432.549802	2615.096037
432.926920	2624.739764
433.303977	2635.376599
433.680974	2651.079793
434.057910	2669.759789
434.434786	2685.218487
434.811601	2700.795652
435.188355	2731.821434
435.565050	2749.291552
435.941683	2770.164450
436.318257	2809.578711
436.694770	2832.342042
437.071222	2877.014226
437.447614	2889.589385
437.823946	2926.082297
438.200218	2968.143164
438.576429	3005.891324
438.952580	3057.666495
439.328670	3100.478494
439.704700	3171.944412
440.080670	3205.021942
440.456580	3282.481792
440.832429	3354.650950
441.208218	3378.457799
441.583947	3460.963844
441.959616	3534.922612
442.335224	3622.575674
442.710773	3712.920713
443.086261	3833.026203
443.461689	3877.302658
443.837057	3973.361844
444.212365	4117.228813
444.587612	4213.509811
444.962800	4279.851395
445.337927	4429.049384
445.712995	4405.658431
446.088002	4698.546948
446.462949	4848.803580
446.837837	4991.430425
447.212664	5120.405826
447.587431	5627.762672
447.962139	6197.975146
448.336786	6699.539706
448.711374	6643.058619
449.085901	6244.900726
449.460369	6387.681327
449.834776	6556.817079
450.209124	7177.257089
450.583412	7287.552494
450.957640	7565.798980
451.331808	7496.392374
451.705917	7399.761017
452.079965	7590.384688
452.453954	7863.794187
452.827883	8036.433542
453.201752	8184.280502
453.575562	8412.919514
453.949311	8902.027383
454.323001	9140.526892
454.696632	9299.363568
455.070202	9945.233678
455.443713	10226.877902
455.817164	10626.767431
456.190556	11041.588858
456.563888	11110.665268
456.937160	11477.948614
457.310373	11173.765391
457.683526	11547.198944
458.056619	11781.421034
458.429653	12010.538956
458.802628	12477.087662
459.175542	12788.888069
459.548398	13569.505701
459.921194	14493.138347
460.293930	15073.816255
460.666607	16239.903196
461.039224	17335.292994
461.411782	17853.465636
461.784280	17571.070280
462.156719	17635.657543
462.529099	17666.587543
462.901419	17332.285946
463.273680	17091.890963
463.645882	17427.286490
464.018024	17711.017752
464.390106	18456.601885
464.762130	20232.885211
465.134094	22848.382019
465.505999	26282.980629
465.877845	29478.641148
466.249631	30625.140685
466.621358	29912.450081
466.993026	28916.302958
467.364634	27969.518813
467.736184	27080.534017
468.107674	26604.092046
468.479105	26423.903564
468.850477	26292.130323
469.221790	25656.042572
469.593043	24785.747854
469.964238	24464.069307
470.335373	24663.777137
470.706449	26101.357938
471.077467	28194.654223
471.448425	31842.566736
471.819324	34287.480981
472.190164	33217.246540
472.560945	30816.956589
472.931667	28747.749458
473.302330	28176.894238
473.672934	27776.276262
474.043479	28412.338807
474.413965	28024.023768
474.784393	27961.198388
475.154761	28856.373721
475.525070	29109.994171
475.895321	28951.182701
476.265513	29638.299532
476.635645	30612.827667
477.005719	30682.531701
477.375734	31252.643352
477.745691	32022.687163
478.115588	33325.800227
478.485427	35195.818767
478.855207	38244.093592
479.224928	40751.079564
479.594591	42425.055193
479.964194	41728.493760
480.333739	42037.188816
480.703226	42251.853749
481.072653	43038.112432
481.442022	43681.366184
481.811333	44131.024504
482.180584	43110.221097
482.549777	42804.495281
482.918912	42466.183446
483.287988	42356.515665
483.657005	41745.406831
484.025964	41290.420011
484.394864	41463.694551
484.763706	41182.889679
485.132489	40532.338858
485.501213	40489.277322
485.869879	40745.942628
486.238487	40493.864772
486.607036	40792.220421
486.975527	40389.918700
487.343959	40674.799345
487.712333	40862.846986
488.080648	40863.920752
488.448905	41360.988603
488.817104	41272.654985
489.185244	42254.152516
489.553326	43919.364098
489.921350	46615.983155
490.289315	49600.376478
490.657222	50347.276353
491.025070	50699.726103
491.392861	49827.977013
491.760593	48616.975912
492.128267	47003.088317
492.495883	45552.821452
492.863440	44237.087860
493.230939	42978.742764
493.598380	41996.146262
493.965763	41734.089441
494.333088	40994.405978
494.700354	40572.814282
495.067563	40339.285351
495.434713	40250.465261
495.801805	40351.905879
496.168839	40016.031442
496.535815	39710.880318
496.902733	39777.559660
497.269593	39397.628059
497.636395	39364.464828
498.003139	39765.420561
498.369825	39274.281107
498.736453	39577.541799
499.103023	39129.481524
499.469535	39044.328874
499.835989	39152.464145
500.202385	38836.293058
500.568723	38876.894511
500.935003	39073.875077
501.301226	38891.586954
501.667390	39505.803659
502.033497	39762.020303
502.399546	39221.782531
502.765537	38574.689941
503.131470	38940.647463
503.497345	39298.483686
503.863163	38003.207097
504.228923	38601.128272
504.594625	39007.142803
504.960269	38319.068153
505.325856	38985.178495
505.691385	38392.220336
506.056856	38515.973101
506.422270	38941.844737
506.787625	38543.107112
507.152924	38735.860670
507.518164	38832.164353
507.883347	38087.331351
508.248472	38332.565842
508.613540	38805.504211
508.978550	39075.468081
509.343503	38852.432312
509.708398	39060.296729
510.073236	39567.671219
510.438016	39575.583310
510.802738	39050.438752
511.167403	39649.564764
511.532010	39872.416531
511.896561	40177.242501
512.261053	40987.728970
512.625488	40544.515765
512.989866	40420.589080
513.354186	40279.686309
513.718449	40271.854877
514.082655	40936.697369
514.446803	40610.375919
514.810894	41135.543162
515.174927	41068.558831
515.538904	40961.013375
515.902822	41613.999074
516.266684	41077.758936
516.630488	41488.350835
516.994235	41354.198169
517.357925	41897.672363
517.721558	42067.397930
518.085133	42372.395300
518.448651	42512.415868
518.812112	42283.345837
519.175516	42382.028945
519.538863	42726.344793
519.902152	42676.442412
520.265385	43144.942044
520.628560	43185.051985
520.991678	42975.327382
521.354739	43211.805388
521.717743	43522.952965
522.080690	43430.175570
522.443580	43963.217095
522.806413	44018.188358
523.169189	43975.502387
523.531908	44146.916742
523.894569	44012.554868
524.257174	44174.355742
524.619722	44481.697248
524.982213	44458.782683
525.344647	44390.923711
525.707025	44442.535044
526.069345	44822.214587
526.431608	44739.161578
526.793815	45050.568774
527.155964	44608.520076
527.518057	44778.434687
527.880093	44558.963013
528.242072	45087.601090
528.603995	44789.454649
528.965860	44799.363037
529.327669	44893.493982
529.689421	44802.012163
530.051117	44769.620229
530.412755	44913.290593
530.774337	44973.451723
531.135862	44789.048836
531.497331	44985.794988
531.858743	44901.322894
532.220098	45226.157204
532.581396	44954.834742
532.942638	44604.966062
533.303824	44912.859575
533.664953	44890.726389
534.026025	44617.180778
534.387040	45073.127938
534.747999	45026.038520
535.108902	45195.663264
535.469748	44719.690121
535.830537	44847.201066
536.191270	45052.575153
536.551947	44697.385536
536.912567	44995.542059
537.273131	45107.697650
537.633638	44608.580570
537.994089	44933.114931
538.354483	44570.630763
538.714821	45116.985976
539.075103	45472.039483
539.435328	45250.483292
539.795497	45138.945242
540.155609	45122.969826
540.515665	45567.536581
540.875665	45042.429831
541.235609	45355.367018
541.595496	45331.093862
541.955328	45983.298182
542.315102	45377.795112
542.674821	45154.857644
543.034483	45206.451333
543.394090	45185.069279
543.753640	45143.867929
544.113134	46126.708927
544.472571	45157.045505
544.831953	46377.894500
545.191278	45608.717766
545.550548	45333.937073
545.909761	45784.442307
546.268918	45994.048443
546.628019	46279.143337
546.987064	45869.176542
547.346053	45146.514535
547.704986	46020.466610
548.063863	45577.752479
548.422684	45779.081040
548.781449	45627.183513
549.140158	46024.055911
549.498811	45865.932559
549.857408	45305.784749
550.215949	46128.064997
550.574434	46057.844245
550.932864	45841.666965
551.291237	46542.349541
551.649555	46152.711198
552.007817	46395.856131
552.366022	46059.959009
552.724173	46237.521050
553.082267	46606.473018
553.440305	46912.400480
553.798288	46238.705721
554.156215	46532.420988
554.514086	46760.613858
554.871902	46484.643453
555.229661	46500.868407
555.587365	46336.743561
555.945014	46427.842252
556.302606	46365.843621
556.660143	46580.808504
557.017625	46660.259609
557.375050	46456.811243
557.732421	46812.779718
558.089735	46772.853780
558.446994	46708.382463
558.804197	47159.538006
559.161345	47104.292001
559.518437	46386.003196
559.875474	46686.987807
560.232455	46849.295316
560.589381	47011.751540
560.946251	46712.342290
561.303065	47385.048983
561.659825	47181.565328
562.016528	46882.808907
562.373177	46590.069103
562.729770	47074.808813
563.086307	46593.182016
563.442789	47052.037921
563.799216	47093.604755
564.155587	46896.883809
564.511904	46920.345339
564.868164	47015.434103
565.224370	47258.568953
565.580520	46998.936927
565.936615	47208.878300
566.292654	46929.767255
566.648638	47168.027309
567.004567	47137.997156
567.360441	47156.346956
567.716260	47021.995165
568.072023	47328.343563
568.427732	47312.156418
568.783385	46864.504478
569.138982	47255.201462
569.494525	47223.323726
569.850013	46987.828745
570.205445	46958.504353
570.560823	46915.836027
570.916145	46788.766182
571.271412	46827.366297
571.626625	46588.365193
571.981782	46653.552354
572.336884	46352.166971
572.691931	46663.085176
573.046923	46270.046575
573.401860	46123.563247
573.756743	46096.814885
574.111570	46221.056642
574.466342	46064.455718
574.821059	46185.818976
575.175722	45719.812194
575.530330	45731.139667
575.884882	45466.854656
576.239380	45429.640858
576.593823	45403.419297
576.948211	45320.819991
577.302544	44857.928642
577.656823	44883.799843
578.011047	45115.473630
578.365216	44828.090052
578.719330	44625.012211
579.073389	44480.502494
579.427394	44570.930712
579.781344	44554.090738
580.135239	44210.541144
580.489080	44286.259275
580.842866	43767.882466
581.196597	44230.783897
581.550273	44171.999003
581.903895	44037.110328
582.257463	44462.276203
582.610975	43849.390362
582.964434	44135.465761
583.317837	43782.259837
583.671186	43615.422850
584.024481	43855.359088
584.377721	43383.776790
584.730906	43669.335470
585.084037	43687.682750
585.437113	43404.427877
585.790135	43443.443887
586.143103	43038.861044
586.496016	43164.521886
586.848874	43183.751367
587.201679	43222.711925
587.554428	42699.916544
587.907124	42890.572983
588.259765	42651.415603
588.612352	42886.063671
588.964884	42299.291007
589.317362	42570.479878
589.669786	42524.199565
590.022155	42306.807368
590.374470	42700.634909
590.726731	42235.928744
591.078937	41753.437389
591.431090	41843.626152
591.783188	41511.875379
592.135232	41196.894005
592.487222	41442.209154
592.839157	41529.829449
593.191038	41201.403317
593.542866	40974.022072
593.894639	40382.183049
594.246358	40655.093474
594.598022	40628.798816
594.949633	40234.613353
595.301190	40200.572961
595.652692	40029.725737
596.004141	40362.504905
596.355535	39393.600177
596.706876	39331.183131
597.058162	39169.815796
597.409395	39631.620777
597.760573	39704.273886
598.111698	39292.721648
598.462768	39301.563831
598.813785	39337.966003
599.164748	38798.209661
599.515657	39187.326244
599.866511	38673.247019
600.217312	39268.582082
600.568060	38256.940973
600.918753	38987.636058
601.269392	38952.814288
601.619978	38604.689847
601.970510	38816.002413
602.320988	39002.328501
602.671412	39292.189806
603.021783	39033.160198
603.372100	38690.218063
603.722363	38805.917585
604.072572	38886.160152
604.422728	38905.613964
604.772830	38709.364366
605.122878	38795.447109
605.472872	38743.737473
605.822813	39027.360350
606.172701	38857.216367
606.522534	39086.956871
606.872314	39338.870890
607.222041	39102.753327
607.571714	39489.210701
607.921333	38946.979152
608.270899	39231.403573
608.620411	39564.722144
608.969870	39371.310715
609.319276	39365.563800
609.668627	39435.436713
610.017926	39895.721785
610.367171	40068.383825
610.716362	40150.047997
611.065500	40090.146486
611.414585	40293.168875
611.763616	40567.924363
612.112594	40505.492193
612.461518	40732.633982
612.810389	41014.416838
613.159207	40878.388863
613.507971	40950.558022
613.856682	41430.082658
614.205340	41316.679382
614.553945	42004.655729
614.902496	41472.793834
615.250994	41939.541666
615.599439	42003.334947
615.947830	42218.267062
616.296169	42270.800926
616.644454	42406.692790
616.992686	42576.042792
617.340864	43084.533898
617.688990	42812.845952
618.037063	43409.418619
618.385082	43382.398034
618.733048	43673.373434
619.080961	43691.902195
619.428821	43697.518041
619.776628	43799.177949
620.124382	43618.908808
620.472083	43750.861010
620.819731	43879.889343
621.167326	43550.281060
621.514868	43530.673492
621.862357	43107.952578
622.209793	43133.148265
622.557176	42802.927482
622.904506	42558.557549
623.251783	42208.915722
623.599007	41984.662513
623.946179	41765.097578
624.293297	41729.900242
624.640363	41144.113124
624.987376	41130.713737
625.334336	40917.767837
625.681243	40560.864227
626.028097	40511.057627
626.374899	40380.577442
626.721647	40356.198422
627.068343	40240.927398
627.414987	40019.257781
627.761577	39795.788472
628.108115	40125.721909
628.454600	39573.650028
628.801032	39775.049165
629.147412	39736.149102
629.493739	39756.414540
629.840014	39417.192777
630.186236	39733.235315
630.532405	39373.564111
630.878521	39589.212070
631.224585	39466.129778
631.570597	39170.685395
631.916556	39332.972740
632.262462	39289.833066
632.608316	39312.470368
632.954117	39208.236950
633.299866	39181.458341
633.645562	39108.124676
633.991206	38626.449988
634.336797	38193.616518
634.682336	38186.664767
635.027823	37943.166954
635.373257	37756.503110
635.718639	37539.733494
636.063968	37398.883656
636.409245	36829.999527
636.754470	36867.583849
637.099642	36639.214539
637.444762	36171.730698
637.789829	36321.836095
638.134845	35976.627962
638.479808	35923.705929
638.824719	35821.168860
639.169577	35448.473836
639.514383	35508.004821
639.859137	35223.406481
640.203839	35448.025173
640.548489	35081.931539
640.893086	35159.658570
641.237632	34934.094662
641.582125	35019.254874
641.926566	34957.692303
642.270955	34943.173780
642.615292	34952.300789
642.959576	34924.342550
643.303809	34931.919404
643.647990	35070.873768
643.992118	35034.950506
644.336195	35039.858069
644.680219	35136.930528
645.024192	35443.591478
645.368112	35953.476463
645.711981	35963.256302
646.055797	36832.192428
646.399562	36750.228308
646.743274	37692.533388
647.086935	38142.380751
647.430544	38029.746251
647.774101	38155.021445
648.117606	38392.706807
648.461059	38683.155407
648.804460	38299.188362
649.147810	37691.104221
649.491108	37437.158616
649.834354	37078.165448
650.177548	36260.265963
650.520690	35823.802863
650.863781	35833.471796
651.206820	35678.000091
651.549807	35248.060244
651.892742	34760.195019
652.235626	34576.162656
652.578458	34443.502172
652.921238	33860.482648
653.263967	34192.881209
653.606644	33861.465673
653.949269	33814.550174
654.291843	33433.118830
654.634365	33821.794313
654.976836	33431.553552
655.319255	33430.600774
655.661622	33430.515074
656.003938	33199.985630
656.346203	33062.644434
656.688416	33301.948007
657.030577	33090.542180
657.372687	32934.634415
657.714746	33198.027141
658.056753	33320.539783
658.398708	32785.917856
658.740612	32835.759744
659.082465	33099.482666
659.424266	32930.626697
659.766016	33057.167221
660.107715	32938.228757
660.449362	33069.593665
660.790958	33047.649522
661.132503	33073.750096
661.473996	33088.951696
661.815438	33217.039853
662.156829	33405.354676
662.498168	33175.687268
662.839456	33216.417271
663.180693	33353.065307
663.521879	33509.726725
663.863013	33468.359016
664.204097	33463.524550
664.545129	33929.395221
664.886110	33878.993765
665.227040	33953.161741
665.567918	34074.484670
665.908746	34140.657376
666.249522	34303.297602
666.590248	34300.683763
666.930922	34417.502421
667.271545	34372.139598
667.612118	34464.853979
667.952639	34258.212042
668.293109	34295.055315
668.633528	34208.407963
668.973896	34122.970487
669.314213	34154.555837
669.654480	33896.650406
669.994695	33919.990948
670.334859	33815.417253
670.674973	33728.921135
671.015035	33859.633213
671.355047	33832.761343
671.695008	33771.402939
672.034918	33676.840975
672.374777	33760.438429
672.714585	33596.411886
673.054342	33832.983153
673.394049	33608.462764
673.733705	33853.936709
674.073310	33542.065727
674.412864	33630.298522
674.752368	33221.097982
675.091820	33505.343442
675.431223	33079.330653
675.770574	32818.884481
676.109875	32673.192614
676.449125	32399.568866
676.788324	32316.339416
677.127473	31786.473818
677.466571	31719.179455
677.805619	31369.547709
678.144616	31372.264891
678.483562	31290.477211
678.822458	30962.023353
679.161303	30904.118139
679.500098	30798.284155
679.838842	30704.717819
680.177535	30846.323831
680.516179	31128.739352
680.854771	31368.423532
681.193314	32228.315829
681.531805	33358.093858
681.870247	34131.986591
682.208638	34869.255341
682.546978	35111.482783
682.885268	35197.593253
683.223508	34655.386910
683.561697	34331.117209
683.899836	34130.902743
684.237925	33611.673979
684.575963	33468.190138
684.913951	33019.739174
685.251889	33175.316743
685.589776	33153.559123
685.927614	33149.047291
686.265401	33309.295489
686.603137	33396.807399
686.940824	33915.300155
687.278460	34289.051301
687.616046	34435.524546
687.953582	35041.768667
688.291068	34927.037046
688.628504	35187.848702
688.965889	35121.038290
689.303224	34731.294084
689.640510	34393.952671
689.977745	33663.161804
690.314930	32847.727443
690.652065	32311.308344
690.989150	31571.849213
691.326185	30670.679949
691.663170	29971.855038
692.000105	29207.878255
692.336990	28534.687611
692.673825	28089.405013
693.010610	27564.799858
693.347345	26994.378177
693.684030	26354.945620
694.020665	26075.511942
694.357251	25387.344031
694.693786	25357.868404
695.030272	25120.626663
695.366707	24574.019392
695.703093	24292.007164
696.039429	24273.279278
696.375716	24019.195041
696.711952	23983.854032
697.048139	23830.260157
697.384276	23657.272963
697.720363	23778.663947
698.056400	23576.576693
698.392388	23361.730277
698.728326	23325.040760
699.064214	23113.886990
699.400053	23051.510272
699.735842	22705.659392
700.071581	22422.762441
700.407270	22145.461171
700.742910	21946.169236
701.078501	21681.523783
701.414042	21387.770707
701.749533	21096.029052
702.084974	20744.965618
702.420366	20951.398348
702.755709	20501.949235
703.091002	20214.850483
703.426246	20238.453165
703.761440	20139.097064
704.096584	19862.930053
704.431679	19824.188786
704.766725	19733.684951
705.101721	19672.583646
705.436668	19764.748541
705.771565	19447.934707
706.106413	19785.933990
706.441212	19774.099881
706.775961	19891.770494
707.110661	19958.749785
707.445311	20322.940383
707.779913	20168.413894
708.114465	20424.970816
708.448967	20697.104904
708.783421	21389.076366
709.117825	21668.583141
709.452180	21897.892626
709.786485	22293.177061
710.120742	23094.120625
710.454949	23110.355661
710.789107	23577.632814
711.123216	24284.019456
711.457275	24400.593618
711.791286	24947.543687
712.125247	25026.150399
712.459159	24699.786099
712.793023	25363.723704
713.126837	24247.105607
713.460602	24500.451314
713.794318	24118.478046
714.127985	23745.566252
714.461602	22840.500175
714.795171	22787.205097
715.128691	21783.541613
715.462162	21238.592882
715.795584	20813.936165
716.128957	20560.061136
716.462281	20146.396655
716.795556	19912.910573
717.128782	19411.981198
717.461960	18874.624445
717.795088	18790.220406
718.128167	18379.326038
718.461198	17942.106765
718.794180	17799.280794
719.127113	17424.715502
719.459997	17236.972850
719.792833	16899.454997
720.125619	16852.973038
720.458357	16530.487906
720.791046	16368.684512
721.123686	16219.473920
721.456278	15969.392360
721.788821	15932.884323
722.121315	15676.960066
722.453761	15743.309212
722.786158	15668.904302
723.118506	15670.613253
723.450805	15549.033226
723.783056	15705.513162
724.115259	15607.891217
724.447412	15546.079109
724.779518	15785.082734
725.111574	15807.495704
725.443582	15999.750188
725.775542	15987.333826
726.107453	16452.284487
726.439315	16339.213926
726.771129	16736.003146
727.102895	17113.245291
727.434612	17316.434038
727.766281	17436.421061
728.097901	17707.110858
728.429473	17724.961584
728.760996	17709.341568
729.092471	17800.402451
729.423897	17668.286412
729.755276	17536.588788
730.086606	17652.114390
730.417887	18177.896654
730.749120	18688.489921
731.080305	18859.521148
731.411442	19199.693168
731.742530	19271.312841
732.073570	19350.680767
732.404562	19650.770573
732.735506	19461.351738
733.066401	19174.341205
733.397249	18652.944745
733.728048	18022.475360
734.058798	17186.420159
734.389501	16501.360119
734.720156	16039.058585
735.050762	15521.758063
735.381320	15171.476008
735.711831	14932.353917
736.042293	14584.237038
736.372707	14587.939765
736.703073	14380.685328
737.033391	14565.317588
737.363661	14532.388771
737.693883	14643.952026
738.024056	14814.511904
738.354182	15003.245143
738.684260	15284.566733
739.014290	15504.456823
739.344272	15695.551842
739.674207	15981.168495
740.004093	16091.229486
740.333931	16076.340438
740.663722	16109.410408
740.993464	16111.850326
741.323159	15931.697132
741.652806	15641.848430
741.982405	15446.801146
742.311956	15099.316932
742.641460	14975.354959
742.970915	14680.122305
743.300323	14339.362990
743.629683	14121.222181
743.958996	13845.055170
744.288260	13572.732039
744.617477	13281.159263
744.946647	13203.706975
745.275768	12928.739759
745.604842	12743.752098
745.933869	12574.160121
746.262847	12529.649253
746.591778	12462.100312
746.920662	12357.440917
747.249498	12353.395391
747.578286	12473.795789
747.907027	12628.559212
748.235720	12839.947396
748.564365	12868.959236
748.892963	12766.379317
749.221514	12820.118017
749.550017	12689.597503
749.878473	12642.344247
750.206881	12420.556163
750.535242	12330.445538
750.863555	12245.154256
751.191821	12144.210192
751.520039	12167.034016
751.848210	12077.656878
752.176334	12108.964964
752.504411	12013.467867
752.832440	11858.462468
753.160421	11921.469329
753.488356	11799.609518
753.816243	11706.559900
754.144082	11566.564537
754.471875	11508.954231
754.799620	11458.507404
755.127318	11422.664800
755.454969	11388.319419
755.782572	11341.635814
756.110129	11353.848009
756.437638	11269.138981
756.765100	11261.728484
757.092515	11266.860379
757.419882	11277.373705
757.747203	11284.718667
758.074477	11357.505366
758.401703	11313.664972
758.728882	11474.182872
759.056014	11524.964935
759.383099	11628.043929
759.710138	11733.887995
760.037129	11816.479739
760.364073	11829.299393
760.690970	11824.336377
761.017820	11819.128865
761.344623	11999.763490
761.671379	12318.550936
761.998088	12943.507819
762.324751	14490.151463
762.651366	17347.870673
762.977935	21012.010661
763.304456	23233.135484
763.630931	23683.126520
763.957359	22519.091330
764.283740	20600.657548
764.610074	18729.219924
764.936362	16603.914833
765.262602	15092.902064
765.588796	13622.861273
765.914943	12604.429729
766.241044	11751.965572
766.567097	11127.104471
766.893104	10581.124824
767.219064	10217.486233
767.544978	9838.696453
767.870845	9527.160707
768.196665	9339.113066
768.522438	9143.581832
768.848165	8983.023602
769.173846	8811.160585
769.499479	8689.071401
769.825066	8538.013226
770.150607	8354.235442
770.476101	8291.815875
770.801548	8180.963423
771.126949	8042.135087
771.452303	7951.560676
771.777611	7784.751415
772.102872	7769.635516
772.428087	7652.126219
772.753256	7524.302723
773.078378	7440.294414
773.403453	7300.001623
773.728482	7201.709206
774.053465	7131.985007
774.378401	7046.421503
774.703291	6952.189734
775.028135	6857.784046
775.352932	6821.863304
775.677683	6739.367342
776.002388	6650.637993
776.327046	6647.847715
776.651658	6566.607000
776.976224	6487.856615
777.300743	6472.569316
777.625216	6403.578605
777.949643	6366.659715
778.274024	6370.080138
778.598359	6297.779909
778.922647	6296.953160
779.246889	6270.343430
779.571086	6266.275218
779.895236	6284.824144
780.219339	6279.929184
780.543397	6274.688904
780.867409	6323.557850
781.191374	6318.388146
781.515294	6290.170288
781.839167	6343.518298
782.162995	6315.071067
782.486776	6260.684579
782.810511	6224.937757
783.134201	6149.189379
783.457844	6133.844107
783.781441	6090.913641
784.104993	6042.828595
784.428498	6008.851218
784.751958	5995.149362
785.075372	5978.558924
785.398739	5935.472182
785.722061	5954.192507
786.045337	5957.265091
786.368568	6057.039608
786.691752	6085.249904
787.014891	6329.995403
787.337983	6615.957376
787.661030	7055.961886
787.984031	7477.213304
788.306987	7732.469609
788.629897	7821.703073
788.952760	7734.927171
789.275579	7560.168012
789.598351	7256.831702
789.921078	6999.926941
790.243759	6719.265741
790.566395	6509.702455
790.888984	6319.519885
791.211529	6185.997364
791.534027	6017.325398
791.856480	5883.820520
792.178888	5822.618392
792.501249	5755.863433
792.823566	5657.881046
793.145836	5649.474922
793.468062	5633.186954
793.790241	5587.062917
794.112375	5632.594618
794.434464	5730.254371
794.756507	5765.272746
795.078505	5884.617023
795.400457	6097.298262
795.722364	6334.456824
796.044226	6527.724580
796.366042	6686.213416
796.687812	6631.320292
797.009538	6661.632750
797.331218	6567.340488
797.652852	6493.606051
797.974442	6381.478187
798.295986	6303.362987
798.617484	6177.069481
798.938938	6070.907822
799.260346	6001.188664
799.581709	5865.057346
799.903026	5810.998532
800.224299	5740.750053
800.545526	5623.573473
800.866708	5557.211724
801.187845	5512.640362
801.508936	5431.969298
801.829983	5411.567748
802.150984	5303.485410
802.471940	5275.287716
802.792851	5262.851189
803.113717	5241.285133
803.434538	5210.574424
803.755314	5175.495555
804.076045	5170.630842
804.396731	5135.390656
804.717372	5151.277852
805.037967	5149.415146
805.358518	5182.737173
805.679024	5237.514350
805.999485	5247.553808
806.319901	5262.634420
806.640272	5283.794663
806.960598	5330.851314
807.280879	5320.627854
807.601115	5364.435481
807.921306	5320.191794
808.241453	5317.063758
808.561554	5328.076158
808.881611	5292.228513
809.201623	5290.774141
809.521590	5242.217747
809.841513	5223.832659
810.161390	5242.303446
810.481223	5151.645856
810.801011	5140.275534
811.120755	5117.187049
811.440453	5058.843255
811.760107	5027.870406
812.079716	5007.224360
812.399281	4951.527172
812.718801	4945.838230
813.038276	4912.082664
813.357707	4879.907499
813.677093	4904.631838
813.996434	4840.488197
814.315731	4858.049056
814.634983	4857.219786
814.954191	4861.051063
815.273354	4922.162451
815.592473	4964.626610
815.911547	5035.578330
816.230577	5086.362914
816.549562	5177.625443
816.868502	5224.714861
817.187399	5280.971617
817.506250	5360.387434
817.825058	5385.036156
818.143821	5536.043919
818.462539	5707.473397
818.781213	5937.155928
819.099843	6293.068951
819.418429	6915.913591
819.736970	7529.167436
820.055466	8242.720078
820.373919	9145.449579
820.692327	10578.180790
821.010691	13250.108275
821.329011	19404.772348
821.647286	28920.116590
821.965517	39192.758087
822.283704	44661.164845
822.601847	46124.873947
822.919945	41571.560120
823.237999	36472.778324
823.556010	31306.281228
823.873976	26631.712528
824.191897	22450.289662
824.509775	19402.014837
824.827609	16644.032335
825.145398	15110.878818
825.463144	14365.249315
825.780845	14643.994876
826.098502	15888.653240
826.416116	18333.471703
826.733685	20617.865527
827.051210	21147.645426
827.368692	19723.685822
827.686129	17182.755241
828.003522	14706.427045
828.320872	12500.720592
828.638177	10862.390962
828.955439	9621.460531
829.272656	8571.337773
829.589830	7735.423725
829.906960	7010.765421
830.224046	6480.942673
830.541088	6076.077525
830.858086	5814.638245
831.175041	5615.764726
831.491952	5558.955963
831.808819	5589.041570
832.125642	5835.533828
832.442421	6377.173041
832.759157	7478.345043
833.075849	9236.840657
833.392497	11071.450133
833.709101	12189.003364
834.025662	11940.134202
834.342179	10890.807946
834.658653	9596.221994
834.975083	8492.937749
835.291469	7591.372754
835.607811	6856.969900
835.924110	6341.670715
836.240366	5860.069124
836.556578	5413.039765
836.872746	5060.176640
837.188871	4788.098005
837.504952	4569.251435
837.820990	4402.270775
838.136984	4287.723157
838.452935	4242.347731
838.768842	4273.013070
839.084706	4545.805028
839.400526	5281.387512
839.716303	6183.363361
840.032037	6749.495020
840.347727	6605.035716
840.663373	6009.194016
840.978977	5434.278147
841.294537	4991.052339
841.610054	4666.182741
841.925527	4427.862193
842.240957	4225.767376
842.556344	4041.780384
842.871687	3882.742063
843.186987	3732.450143
843.502244	3616.904376
843.817458	3530.362888
844.132629	3458.392855
844.447756	3409.634815
844.762840	3362.157228
845.077881	3327.600119
845.392879	3293.738688
845.707833	3269.523506
846.022745	3241.996285
846.337613	3229.955489
846.652438	3206.481357
846.967221	3200.769729
847.281960	3177.325843
847.596656	3168.982734
847.911309	3155.686690
848.225919	3143.444248
848.540485	3136.986530
848.855009	3126.664768
849.169490	3116.726133
849.483928	3111.077520
849.798323	3106.207765
850.112675	3089.647575
850.426984	3094.625714
850.741251	3088.581371
851.055474	3082.831935
851.369654	3087.069025
851.683792	3080.339084
851.997887	3084.797985
852.311938	3085.271853
852.625947	3086.902667
852.939914	3078.955288
853.253837	3085.899477
853.567718	3083.116760
853.881555	3076.802715
854.195350	3080.457552
854.509103	3079.900504
854.822812	3077.921851
855.136479	3072.245512
855.450103	3077.548806
855.763685	3069.311560
856.077224	3069.830799
856.390720	3080.449990
856.704173	3090.973398
857.017584	3096.122937
857.330953	3100.659976
857.644278	3106.890842
857.957561	3112.277315
858.270802	3108.138527
858.584000	3107.478136
858.897155	3102.870522
859.210268	3090.033223
859.523339	3081.521235
859.836367	3077.619382
860.149352	3074.360276
860.462295	3066.710325
860.775195	3057.681618
861.088054	3056.670867
861.400869	3055.544169
861.713642	3055.529046
862.026373	3063.504151
862.339062	3065.482804
862.651708	3074.156109
862.964312	3091.331320
863.276873	3102.489914
863.589392	3132.804893
863.901869	3157.020076
864.214303	3177.711492
864.526696	3192.454346
864.839045	3213.284394
865.151353	3227.782752
865.463619	3227.097155
865.775842	3227.835684
866.088023	3234.028742
866.400162	3226.958523
866.712258	3225.269737
867.024313	3226.610684
867.336325	3223.943913
867.648296	3224.538770
867.960224	3222.063563
868.272110	3224.649675
868.583954	3226.645972
868.895755	3234.432034
869.207515	3229.285016
869.519233	3247.808736
869.830909	3254.145466
870.142542	3267.292795
870.454134	3271.330760
870.765684	3283.835342
871.077191	3302.064154
871.388657	3313.426915
871.700081	3334.824092
872.011463	3353.675487
872.322803	3373.267932
872.634101	3387.673029
872.945357	3411.978952
873.256571	3437.651028
873.567744	3454.375056
873.878874	3459.605253
874.189963	3474.902634
874.501010	3475.255515
874.812015	3471.832572
875.122979	3489.516939
875.433900	3485.040395
875.744780	3484.916886
876.055618	3494.616066
876.366415	3493.958196
876.677169	3497.575224
876.987882	3514.941999
877.298554	3538.370761
877.609183	3574.704877
877.919771	3620.775982
878.230317	3686.769727
878.540822	3788.525418
878.851285	3936.647121
879.161707	4159.347654
879.472087	4528.355074
879.782425	5145.886338
880.092722	6321.322098
880.402977	8239.773523
880.713191	10591.643192
881.023363	12962.008854
881.333494	14310.232682
881.643583	14752.631741
881.953631	14351.348333
882.263637	13517.687680
882.573602	12482.912716
882.883526	11531.021882
883.193408	10594.337688
883.503248	9680.623513
883.813048	8854.005352
884.122806	8102.444931
884.432522	7337.364135
884.742197	6686.026893
885.051831	6120.759792
885.361424	5625.232013
885.670975	5236.642231
885.980485	4913.330349
886.289954	4651.175226
886.599382	4431.701031
886.908768	4256.180657
887.218113	4094.480607
887.527417	3962.800627
887.836680	3841.671782
888.145901	3740.553798
888.455082	3665.301974
888.764221	3596.890996
889.073319	3537.594423
889.382376	3506.036800
889.691392	3481.458655
890.000366	3474.302737
890.309300	3468.951552
890.618193	3474.809373
890.927044	3465.057261
891.235855	3472.271152
891.544625	3483.356649
891.853353	3517.412164
892.162041	3574.047007
892.470687	3664.190399
892.779293	3783.267494
893.087858	3955.173361
893.396381	4232.754415
893.704864	4639.530160
894.013306	5207.401018
894.321707	5780.199603
894.630068	6133.894518
894.938387	6172.310631
895.246665	5993.931923
895.554903	5679.865518
895.863100	5343.197099
896.171256	5074.591820
896.479371	4839.290923
896.787446	4613.220378
897.095480	4420.166871
897.403473	4269.776649
897.711425	4123.245430
898.019336	4002.900485
898.327207	3882.764748
898.635038	3783.307824
898.942827	3675.656504
899.250576	3590.246755
899.558284	3504.085874
899.865952	3452.403965
900.173579	3390.455746
900.481165	3341.425483
900.788711	3301.058444
901.096216	3270.829165
901.403681	3240.620050
901.711105	3230.812486
902.018489	3223.195302
902.325832	3260.595622
902.633135	3318.349602
902.940397	3488.543997
903.247619	3884.599728
903.554800	4632.192761
903.861941	5592.033494
904.169041	6295.569363
904.476101	6505.382187
904.783121	6237.248255
905.090100	5830.848076
905.397039	5416.187966
905.703938	5064.501950
906.010796	4742.848608
906.317614	4486.261439
906.624391	4253.639916
906.931129	4061.098086
907.237826	3878.903224
907.544483	3708.827296
907.851099	3539.258004
908.157675	3381.396792
908.464211	3240.839341
908.770707	3144.328971
909.077163	3063.234449
909.383578	2998.400170
909.689954	2958.348203
909.996289	2928.406269
910.302584	2906.767116
910.608839	2894.849829
910.915054	2884.460011
911.221229	2877.407436
911.527363	2884.177706
911.833458	2890.176679
912.139513	2901.362999
912.445527	2915.866399
912.751502	2950.403344
913.057436	2995.947648
913.363331	3051.387738
913.669186	3133.072074
913.975000	3252.154210
914.280775	3438.747479
914.586510	3704.239846
914.892205	4074.739448
915.197859	4569.611877
915.503475	5153.566536
915.809050	5646.747658
916.114585	5932.197953
916.420081	5996.626420
916.725536	5931.898004
917.030952	5696.372776
917.336328	5491.772506
917.641665	5279.411380
917.946961	5057.099016
918.252218	4857.050908
918.557435	4627.391062
918.862612	4432.842853
919.167750	4261.902367
919.472848	4072.037390
919.777906	3906.075043
920.082925	3749.660642
920.387904	3596.240687
920.692843	3485.398317
920.997743	3390.193606
921.302603	3293.758853
921.607423	3232.730645
921.912204	3165.045592
922.216946	3116.819394
922.521647	3066.669996
922.826310	3029.151208
923.130932	2988.771566
923.435516	2951.532563
923.740059	2922.175403
924.044564	2892.198182
924.349028	2866.959645
924.653454	2838.855212
924.957840	2813.891418
925.262186	2792.751340
925.566493	2773.703340
925.870761	2747.539752
926.174989	2735.667834
926.479178	2721.595453
926.783328	2706.625747
927.087438	2696.671989
927.391509	2681.508198
927.695541	2669.182577
927.999533	2656.670433
928.303486	2650.880668
928.607400	2644.876653
928.911275	2643.515542
929.215110	2634.552370
929.518906	2627.025928
929.822663	2628.293778
930.126381	2627.840074
930.430060	2633.017339
930.733699	2634.653193
931.037299	2639.863226
931.340861	2640.526138
931.644383	2641.849441
931.947866	2642.555202
932.251309	2637.128400
932.554714	2637.098153
932.858080	2634.191928
933.161407	2631.565487
933.464694	2628.422327
933.767943	2625.833695
934.071153	2620.260699
934.374323	2616.915894
934.677455	2614.433125
934.980548	2608.345932
935.283602	2609.076899
935.586617	2608.562702
935.889593	2608.645881
936.192530	2611.403392
936.495428	2616.497478
936.798287	2625.692542
937.101108	2642.081334
937.403890	2661.388953
937.706632	2688.240659
938.009336	2717.134032
938.312002	2747.461614
938.614628	2772.987496
938.917216	2789.421658
939.219765	2799.819037
939.522275	2808.099133
939.824747	2813.657005
940.127179	2803.123514
940.429573	2797.734520
940.731929	2798.321815
941.034246	2790.699590
941.336524	2790.069446
941.638763	2779.866151
941.940964	2773.103443
942.243126	2756.228180
942.545250	2745.510687
942.847335	2732.736403
943.149381	2722.016390
943.451389	2707.893597
943.753359	2697.423121
944.055290	2685.982222
944.357182	2678.730522
944.659036	2671.070489
944.960851	2669.900941
945.262628	2663.987668
945.564367	2667.166115
945.866067	2660.766370
946.167729	2661.315856
946.469352	2660.229487
946.770937	2656.902326
947.072484	2651.041985
947.373992	2653.345792
947.675462	2649.275060
947.976893	2642.081334
948.278286	2639.558236
948.579641	2635.936167
948.880958	2634.224695
949.182236	2633.186218
949.483476	2628.384519
949.784678	2630.073305
950.085841	2629.314612
950.386967	2633.730662
950.688054	2638.731487
950.989103	2648.430667
951.290114	2655.329486
951.591087	2665.590755
951.892021	2680.595749
952.192917	2690.486493
952.493776	2701.700540
952.794596	2703.328832
953.095378	2708.072558
953.396122	2700.528471
953.696828	2701.367823
953.997496	2697.488656
954.298126	2686.698066
954.598718	2678.095337
954.899272	2665.943635
955.199788	2658.150012
955.500266	2645.363125
955.800706	2629.375105
956.101108	2616.318517
956.401472	2601.379057
956.701798	2588.617377
957.002087	2575.104564
957.302337	2565.728017
957.602550	2553.384752
957.902724	2542.140459
958.202861	2535.639891
958.502960	2523.967099
958.803022	2520.244207
959.103045	2512.097702
959.403031	2507.815242
959.702979	2500.152688
960.002889	2497.798469
960.302762	2489.634321
960.602596	2489.263796
960.902393	2482.034781
961.202153	2483.012765
961.501875	2479.090747
961.801559	2476.265181
962.101205	2471.370220
962.400814	2471.133286
962.700385	2469.711681
962.999918	2468.148923
963.299414	2467.307050
963.598873	2465.570373
963.898293	2461.303036
964.197677	2463.591720
964.497022	2458.787500
964.796331	2456.808848
965.095601	2457.877572
965.394835	2456.864300
965.694030	2457.219702
965.993189	2457.360854
966.292309	2456.864300
966.591393	2455.598971
966.890439	2456.219032
967.189447	2455.470421
967.488419	2454.431943
967.787353	2458.795062
968.086249	2453.176696
968.385108	2457.852366
968.683930	2459.163066
968.982714	2457.696091
969.281462	2460.178859
969.580172	2459.503344
969.878844	2462.154991
970.177480	2468.378296
970.476078	2468.683285
970.774639	2471.773513
971.073162	2476.650829
971.371649	2476.378607
971.670098	2471.115642
971.968510	2480.018320
972.266885	2478.062352
972.565223	2485.019144
972.863524	2478.548823
973.161788	2485.629124
973.460014	2484.560399
973.758204	2485.084679
974.056356	2483.743733
974.354471	2488.837818
974.652550	2488.414362
974.950591	2490.992912
975.248595	2489.130205
975.546563	2485.800523
975.844493	2485.109885
976.142386	2480.361118
976.440243	2479.010089
976.738062	2477.593525
977.035845	2476.461786
977.333590	2472.368369
977.631299	2471.218986
977.928971	2467.682616
978.226606	2464.864611
978.524204	2468.784108
978.821765	2463.455609
979.119290	2463.253963
979.416777	2465.036011
979.714228	2466.384519
980.011642	2464.544498
980.309020	2469.462144
980.606360	2475.146045
980.903664	2483.174082
981.200931	2494.385608
981.498162	2516.296983
981.795356	2541.906045
982.092513	2581.007755
982.389633	2624.046606
982.686717	2666.813234
982.983764	2697.103007
983.280775	2717.217211
983.577749	2716.917263
983.874686	2709.537013
984.171587	2692.608819
984.468451	2674.919410
984.765279	2661.177224
985.062070	2640.758031
985.358824	2619.118878
985.655543	2599.544078
985.952224	2578.371231
986.248869	2548.535162
986.545478	2521.418796
986.842050	2503.653770
987.138586	2483.947899
987.435086	2473.202680
987.731549	2460.551904
988.027975	2456.110648
988.324366	2451.747529
988.620719	2447.036571
988.917037	2441.445931
989.213318	2440.203287
989.509563	2435.847730
989.805772	2437.392843
990.101944	2434.645415
990.398080	2434.955446
990.694180	2431.804724
990.990244	2434.000147
991.286271	2433.148192
991.582262	2434.738676
991.878217	2436.177925
992.174136	2435.527617
992.470019	2435.807401
992.765865	2438.423759
993.061676	2438.827052
993.357450	2444.256374
993.653188	2446.174533
993.948890	2449.579833
994.244556	2456.639969
994.540186	2463.808490
994.835780	2477.207877
995.131337	2491.681029
995.426859	2505.498832
995.722345	2527.044723
996.017795	2547.816798
996.313208	2561.319528
996.608586	2565.985116
996.903928	2570.801939
997.199234	2570.265056
997.494504	2565.972513
997.789738	2562.204251
998.084936	2551.116233
998.380099	2538.846065
998.675225	2529.131761
998.970316	2514.018382
999.265371	2504.477998
999.560390	2489.097438
999.855373	2476.260140
1000.150320	2465.928295
1000.445232	2457.229784
1000.740108	2453.794237
1001.034948	2445.231838
1001.329752	2440.692279
1001.624521	2438.935437
1001.919254	2428.948911
1002.213951	2431.721545
1002.508613	2424.580751
1002.803239	2428.596030
1003.097829	2422.297108
1003.392384	2425.588982
1003.686903	2420.880544
1003.981386	2420.608322
1004.275834	2420.784762
1004.570246	2420.376429
1004.864623	2416.053639
1005.158964	2418.153280
1005.453270	2418.538928
1005.747540	2416.393917
1006.041775	2417.119843
1006.335974	2414.929462
1006.630138	2415.378125
1006.924266	2414.437949
1007.218359	2416.146901
1007.512416	2414.780748
1007.806438	2413.056673
1008.100425	2413.646488
1008.394376	2413.689338
1008.688292	2414.599266
1008.982172	2413.122208
1009.276017	2411.798905
1009.569827	2413.394431
1009.863602	2412.696231
1010.157341	2410.203380
1010.451045	2412.701272
1010.744714	2406.218348
1011.038347	2409.399316
1011.331945	2410.253792
1011.625508	2411.768658
1011.919036	2410.102557
1012.212528	2409.094326
1012.505986	2409.661456
1012.799408	2407.801270
1013.092795	2408.101219
1013.386147	2412.005593
1013.679464	2409.729512
1013.972745	2409.971487
1014.265992	2409.066600
1014.559204	2406.435118
1014.852380	2404.935374
1015.145521	2412.141704
1015.438628	2407.680283
1015.731699	2407.987793
1016.024736	2407.322361
1016.317737	2409.028791
1016.610703	2409.527866
1016.903635	2404.668193
1017.196531	2405.835220
1017.489393	2410.284039
1017.782219	2403.680127
1018.075011	2409.535427
1018.367768	2411.710685
1018.660490	2409.187588
1018.953177	2409.187588
1019.245829	2409.187588
