Dividing Wavelength (nm)	Counts (n)	Blue Motor Position (mm): 8.800000	Red Motor Position (mm): 0.000000	
326.493990	1978.627679
326.888308	1978.627679
327.282561	1978.627679
327.676750	1949.814964
328.070874	1952.257403
328.464933	1956.885182
328.858929	1968.502521
329.252859	1979.088944
329.646726	1994.643425
330.040528	2012.123626
330.434265	2030.745648
330.827938	2047.653678
331.221547	2068.400547
331.615091	2090.304360
332.008571	2109.659870
332.401986	2131.094856
332.795338	2151.463638
333.188625	2171.809735
333.581847	2188.932014
333.975006	2205.436752
334.368100	2224.716645
334.761129	2242.678276
335.154095	2257.927767
335.546996	2280.567588
335.939833	2314.605459
336.332606	2328.456029
336.725315	2339.901969
337.117960	2347.448577
337.510540	2355.090966
337.903056	2364.389374
338.295508	2370.143851
338.687896	2377.972763
339.080220	2384.521222
339.472480	2389.247304
339.864676	2393.512120
340.256807	2396.491442
340.648875	2400.683161
341.040879	2398.109652
341.432818	2401.151988
341.824694	2403.322205
342.216506	2400.027811
342.608253	2401.043604
342.999937	2399.155692
343.391557	2396.481359
343.783113	2398.381874
344.174605	2397.981103
344.566033	2395.026987
344.957397	2393.623025
345.348697	2389.138919
345.739934	2390.222767
346.131106	2388.864176
346.522215	2384.216232
346.913260	2381.960316
347.304241	2385.912580
347.695159	2379.396889
348.086012	2380.253885
348.476802	2376.594008
348.867528	2376.523431
349.258191	2375.127032
349.648789	2374.509490
350.039324	2373.357587
350.429796	2374.310365
350.820203	2369.909438
351.210548	2375.273225
351.600828	2371.643594
351.991045	2371.139479
352.381198	2369.942205
352.771288	2373.163502
353.161314	2369.465816
353.551276	2368.671834
353.941175	2367.295599
354.331010	2365.132944
354.720782	2366.514220
355.110490	2369.440610
355.500135	2368.656711
355.889717	2371.199973
356.279235	2368.500435
356.668689	2372.561084
357.058080	2371.925899
357.447408	2370.199304
357.836672	2368.641587
358.225873	2372.056969
358.615010	2367.391381
359.004084	2372.508152
359.393095	2372.359438
359.782043	2373.864223
360.170927	2373.965046
360.559748	2374.267515
360.948505	2375.288349
361.337199	2376.034439
361.725830	2376.394882
362.114398	2373.864223
362.502903	2376.747763
362.891344	2375.419419
363.279722	2376.016795
363.668037	2379.245654
364.056289	2377.403113
364.444478	2380.873947
364.832603	2379.664070
365.220665	2379.769934
365.608665	2378.618031
365.996601	2380.563916
366.384474	2382.860162
366.772284	2380.921838
367.160031	2380.684904
367.547715	2381.980480
367.935336	2376.772968
368.322893	2380.755480
368.710388	2382.010727
369.097820	2384.614483
369.485189	2381.877137
369.872495	2383.147507
370.259738	2383.487785
370.646918	2384.256561
371.034035	2383.066849
371.421090	2386.353681
371.808081	2383.795296
372.195010	2382.809750
372.581875	2386.646068
372.968678	2385.723537
373.355418	2383.598691
373.742096	2384.886706
374.128710	2383.001314
374.515262	2386.751932
374.901751	2385.962992
375.288177	2386.194885
375.674540	2386.759494
376.060841	2384.312014
376.447079	2387.324103
376.833254	2386.139432
377.219367	2380.321941
377.605417	2383.318907
377.991404	2381.620038
378.377329	2383.465100
378.763191	2382.749256
379.148991	2388.019783
379.534727	2388.876779
379.920402	2386.348640
380.306013	2389.564896
380.691563	2386.799823
381.077049	2389.794269
381.462474	2389.615308
381.847835	2389.418703
382.233134	2387.873589
382.618371	2389.834598
383.003545	2388.975081
383.388657	2390.331152
383.773706	2389.786707
384.158693	2390.936090
384.543618	2392.014897
384.928480	2390.016080
385.313280	2394.003632
385.698017	2392.357696
386.082692	2392.453477
386.467305	2390.215205
386.851856	2392.831564
387.236344	2393.423900
387.620770	2394.036400
388.005133	2392.251831
388.389435	2393.161760
388.773674	2392.050185
389.157851	2394.946328
389.541965	2392.680329
389.926018	2393.403735
390.310008	2392.569424
390.693936	2392.864332
391.077802	2396.138561
391.461606	2394.260731
391.845348	2396.199055
392.229027	2393.688560
392.612645	2395.667213
392.996200	2396.635115
393.379694	2395.594116
393.763125	2396.158726
394.146494	2394.477501
394.529801	2396.466236
394.913047	2393.844836
395.296230	2400.834396
395.679351	2396.809034
396.062410	2396.095711
396.445408	2398.359189
396.828343	2398.374313
397.211217	2396.619991
397.594028	2393.930536
397.976778	2394.454816
398.359466	2397.247615
398.742092	2393.960783
399.124656	2399.138048
399.507158	2397.464384
399.889598	2396.234343
400.271977	2399.042266
400.654294	2401.867832
401.036549	2399.448078
401.418742	2399.974879
401.800874	2399.564025
402.182944	2399.027142
402.564952	2403.012174
402.946898	2401.777092
403.328783	2398.389436
403.710606	2400.264745
404.092367	2399.896741
404.474067	2402.656773
404.855705	2399.624519
405.237282	2403.201218
405.618797	2402.997051
406.000250	2401.880435
406.381642	2401.134344
406.762972	2400.625188
407.144240	2401.338511
407.525447	2404.353121
407.906593	2401.499828
408.287677	2402.109808
408.668700	2403.329767
409.049661	2402.687020
409.430560	2402.984448
409.811399	2404.000240
410.192176	2402.366907
410.572891	2402.964283
410.953545	2404.854716
411.334138	2404.675755
411.714669	2405.706671
412.095139	2404.358162
412.475547	2403.052503
412.855894	2402.878584
413.236180	2403.813718
413.616405	2405.429408
413.996568	2404.743811
414.376670	2405.278173
414.756711	2404.615261
415.136691	2402.465209
415.516609	2403.594427
415.896466	2405.636095
416.276262	2406.886301
416.655997	2404.000240
417.035670	2403.743142
417.415283	2407.622309
417.794834	2398.669220
418.174324	2405.663821
418.553753	2405.071486
418.933121	2407.614748
419.312428	2407.103071
419.691674	2406.354459
420.070859	2406.485529
420.449983	2409.996693
420.829045	2407.029974
421.208047	2406.097360
421.586988	2407.040056
421.965867	2409.845458
422.344686	2409.479975
422.723444	2408.524676
423.102141	2407.213976
423.480777	2408.355797
423.859352	2406.288924
424.237866	2408.423853
424.616319	2408.426373
424.994712	2407.889491
425.373044	2408.479306
425.751314	2409.837897
426.129524	2406.795560
426.507673	2408.421332
426.885762	2409.243040
427.263789	2408.343194
427.641756	2408.433935
428.019662	2407.627351
428.397508	2410.871333
428.775292	2410.825963
429.153016	2409.888308
429.530679	2411.713206
429.908282	2407.924779
430.285824	2411.786302
430.663305	2409.767320
431.040726	2409.366549
431.418086	2410.735222
431.795385	2412.061045
432.172624	2409.563154
432.549802	2410.457958
432.926920	2411.940058
433.303977	2410.813360
433.680974	2411.622465
434.057910	2410.034502
434.434786	2408.693555
434.811601	2411.599780
435.188355	2411.370407
435.565050	2412.731519
435.941683	2413.565830
436.318257	2410.888977
436.694770	2408.479306
437.071222	2411.362846
437.447614	2406.951836
437.823946	2409.485016
438.200218	2413.515418
438.576429	2413.969122
438.952580	2411.778741
439.328670	2411.864440
439.704700	2410.460479
440.080670	2411.178843
440.456580	2411.718247
440.832429	2414.243865
441.208218	2410.871333
441.583947	2413.039029
441.959616	2414.737898
442.335224	2414.516087
442.710773	2412.476941
443.086261	2414.624472
443.461689	2413.588515
443.837057	2412.610531
444.212365	2413.316293
444.587612	2413.757394
444.962800	2415.829308
445.337927	2413.301169
445.712995	2413.200346
446.088002	2415.400810
446.462949	2415.297466
446.837837	2413.381828
447.212664	2410.110119
447.587431	2414.826118
447.962139	2413.719585
448.336786	2415.761252
448.711374	2416.855183
449.085901	2417.583629
449.460369	2414.652198
449.834776	2416.557755
450.209124	2414.223700
450.583412	2416.310738
450.957640	2414.412744
451.331808	2416.020872
451.705917	2413.855696
452.079965	2416.318300
452.453954	2414.266550
452.827883	2417.563465
453.201752	2416.005748
453.575562	2414.974832
453.949311	2414.508526
454.323001	2417.389545
454.696632	2417.203022
455.070202	2420.177303
455.443713	2417.956675
455.817164	2416.565316
456.190556	2416.285532
456.563888	2415.438618
456.937160	2412.446694
457.310373	2418.511202
457.683526	2417.475245
458.056619	2419.108578
458.429653	2420.578075
458.802628	2418.780903
459.175542	2414.422826
459.548398	2418.077662
459.921194	2418.170924
460.293930	2418.705286
460.666607	2421.296439
461.039224	2419.267375
461.411782	2422.682757
461.784280	2420.809968
462.156719	2420.878023
462.529099	2420.638569
462.901419	2423.201995
463.273680	2421.767787
463.645882	2420.754515
464.018024	2423.698549
464.390106	2421.049423
464.762130	2424.580751
465.134094	2424.931111
465.505999	2426.103179
465.877845	2427.018149
466.249631	2430.524271
466.621358	2426.272058
466.993026	2428.263314
467.364634	2430.846905
467.736184	2427.693663
468.107674	2430.249528
468.479105	2430.367996
468.850477	2428.396904
469.221790	2426.940011
469.593043	2425.873807
469.964238	2425.916657
470.335373	2423.874989
470.706449	2427.842378
471.077467	2427.938159
471.448425	2427.575196
471.819324	2430.365475
472.190164	2431.729107
472.560945	2429.884045
472.931667	2429.962183
473.302330	2428.149888
473.672934	2429.939497
474.043479	2430.040321
474.413965	2426.259455
474.784393	2422.962541
475.154761	2425.470515
475.525070	2424.452202
475.895321	2425.868766
476.265513	2424.910947
476.635645	2428.107038
477.005719	2429.344641
477.375734	2429.828592
477.745691	2427.358427
478.115588	2432.145002
478.485427	2431.540064
478.855207	2434.466454
479.224928	2432.583583
479.594591	2438.446445
479.964194	2433.357400
480.333739	2433.546443
480.703226	2431.983685
481.072653	2433.163315
481.442022	2435.779674
481.811333	2434.655497
482.180584	2436.513162
482.549777	2436.747576
482.918912	2430.793973
483.287988	2431.890424
483.657005	2434.274890
484.025964	2432.949066
484.394864	2431.671134
484.763706	2435.421752
485.132489	2434.995775
485.501213	2436.235899
485.869879	2433.443099
486.238487	2434.461412
486.607036	2432.823038
486.975527	2434.453851
487.343959	2433.163315
487.712333	2432.079467
488.080648	2435.749427
488.448905	2433.128027
488.817104	2434.232040
489.185244	2436.387133
489.553326	2438.169181
489.921350	2436.984510
490.289315	2440.450303
490.657222	2440.155396
491.025070	2440.014243
491.392861	2439.046342
491.760593	2440.102464
492.128267	2437.733121
492.495883	2433.755651
492.863440	2437.188677
493.230939	2435.699016
493.598380	2436.311516
493.965763	2430.267173
494.333088	2435.023501
494.700354	2430.395722
495.067563	2433.806063
495.434713	2429.127872
495.801805	2432.046700
496.168839	2434.660538
496.535815	2435.235230
496.902733	2436.485436
497.269593	2437.360076
497.636395	2431.897986
498.003139	2435.759510
498.369825	2434.317740
498.736453	2437.665066
499.103023	2433.949735
499.469535	2434.133737
499.835989	2437.355035
500.202385	2434.305137
500.568723	2434.501742
500.935003	2437.261773
501.301226	2437.239088
501.667390	2436.465271
502.033497	2435.351176
502.399546	2437.070210
502.765537	2433.543922
503.131470	2437.665066
503.497345	2439.860488
503.863163	2435.625919
504.228923	2436.482915
504.594625	2437.072730
504.960269	2440.803184
505.325856	2437.909562
505.691385	2440.180602
506.056856	2441.571960
506.422270	2440.324274
506.787625	2441.511466
507.152924	2443.603545
507.518164	2442.910386
507.883347	2440.238575
508.248472	2441.645057
508.613540	2446.628237
508.978550	2445.486416
509.343503	2446.729060
509.708398	2446.126642
510.073236	2450.797272
510.438016	2451.157714
510.802738	2451.364401
511.167403	2449.789041
511.532010	2451.621500
511.896561	2456.060236
512.261053	2460.559466
512.625488	2455.319187
512.989866	2456.539146
513.354186	2458.278344
513.718449	2457.005453
514.082655	2465.666155
514.446803	2460.607357
514.810894	2463.430403
515.174927	2464.594910
515.538904	2470.931640
515.902822	2470.954325
516.266684	2473.459779
516.630488	2472.633029
516.994235	2474.783082
517.357925	2478.722743
517.721558	2477.129739
518.085133	2480.421612
518.448651	2482.256592
518.812112	2483.978146
519.175516	2481.674339
519.538863	2487.552324
519.902152	2489.888899
520.265385	2491.295381
520.628560	2495.761843
520.991678	2497.427945
521.354739	2497.904334
521.717743	2499.073881
522.080690	2503.721825
522.443580	2505.902124
522.806413	2506.943123
523.169189	2510.280366
523.531908	2509.425891
523.894569	2512.871519
524.257174	2517.433764
524.619722	2516.773372
524.982213	2522.086749
525.344647	2520.869310
525.707025	2523.324352
526.069345	2523.750329
526.431608	2526.061698
526.793815	2531.609488
527.155964	2531.186031
527.518057	2533.888090
527.880093	2534.215765
528.242072	2537.648791
528.603995	2538.752803
528.965860	2541.585932
529.327669	2542.606765
529.689421	2546.372507
530.051117	2547.650440
530.412755	2547.610111
530.774337	2550.450801
531.135862	2548.141952
531.497331	2548.817467
531.858743	2551.635472
532.220098	2556.863148
532.581396	2551.290153
532.942638	2556.621173
533.303824	2559.159394
533.664953	2562.799107
534.026025	2563.058727
534.387040	2570.398647
534.747999	2569.765982
535.108902	2570.902762
535.469748	2572.271435
535.830537	2572.843606
536.191270	2577.204204
536.551947	2575.838052
536.912567	2577.415933
537.273131	2580.296952
537.633638	2577.700758
537.994089	2581.690831
538.354483	2581.199319
538.714821	2584.105544
539.075103	2588.851790
539.435328	2588.463621
539.795497	2588.375401
540.155609	2591.682398
540.515665	2592.557038
540.875665	2593.769436
541.235609	2598.833275
541.595496	2597.217585
541.955328	2600.932915
542.315102	2600.461568
542.674821	2596.229519
543.034483	2600.544747
543.394090	2601.409304
543.753640	2604.010540
544.113134	2606.155551
544.472571	2607.549430
544.831953	2610.112857
545.191278	2609.454986
545.550548	2607.897269
545.909761	2612.648557
546.268918	2617.009155
546.628019	2618.886985
546.987064	2614.289452
547.346053	2613.344236
547.704986	2615.375821
548.063863	2615.312807
548.422684	2613.949175
548.781449	2613.757611
549.140158	2617.999742
549.498811	2616.048815
549.857408	2615.955554
550.215949	2617.099896
550.574434	2618.748353
550.932864	2615.895060
551.291237	2615.668208
551.649555	2621.352109
552.007817	2623.129116
552.366022	2621.969650
552.724173	2623.413941
553.082267	2625.511061
553.440305	2627.419138
553.798288	2624.712038
554.156215	2626.297481
554.514086	2627.741772
554.871902	2622.899743
555.229661	2625.826133
555.587365	2623.514764
555.945014	2626.123561
556.302606	2621.052160
556.660143	2627.051133
557.017625	2624.661627
557.375050	2624.548201
557.732421	2625.584158
558.089735	2624.462501
558.446994	2621.689866
558.804197	2626.642800
559.161345	2625.780763
559.518437	2621.770525
559.875474	2621.873868
560.232455	2623.093828
560.589381	2623.401338
560.946251	2620.232973
561.303065	2623.618108
561.659825	2623.091307
562.016528	2622.186420
562.373177	2620.195164
562.729770	2622.965278
563.086307	2620.540483
563.442789	2621.024434
563.799216	2619.764146
564.155587	2617.916563
564.511904	2617.465379
564.868164	2618.531583
565.224370	2619.658281
565.580520	2616.726850
565.936615	2617.319186
566.292654	2616.273147
566.648638	2615.935389
567.004567	2615.882457
567.360441	2614.145780
567.716260	2614.579319
568.072023	2614.332302
568.427732	2614.007148
568.783385	2612.323402
569.138982	2610.717795
569.494525	2613.775255
569.850013	2609.182764
570.205445	2613.566047
570.560823	2611.463886
570.916145	2611.058073
571.271412	2611.688217
571.626625	2612.134359
571.981782	2611.063114
572.336884	2612.986314
572.691931	2612.187291
573.046923	2609.959101
573.401860	2609.979266
573.756743	2611.733587
574.111570	2610.755604
574.466342	2609.356683
574.821059	2612.446911
575.175722	2610.495984
575.530330	2611.680655
575.884882	2607.786364
576.239380	2611.597476
576.593823	2612.399020
576.948211	2610.001951
577.302544	2610.148145
577.656823	2610.284256
578.011047	2612.920779
578.365216	2611.970522
578.719330	2615.143928
579.073389	2616.033692
579.427394	2620.099382
579.781344	2621.127778
580.135239	2617.384721
580.489080	2619.355812
580.842866	2621.596605
581.196597	2626.282357
581.550273	2627.525002
581.903895	2627.696401
582.257463	2634.731331
582.610975	2637.866929
582.964434	2639.711991
583.317837	2638.842392
583.671186	2640.523617
584.024481	2645.428660
584.377721	2648.191212
584.730906	2648.624751
585.084037	2653.000473
585.437113	2654.003662
585.790135	2659.390135
586.143103	2659.680002
586.496016	2661.593120
586.848874	2663.289468
587.201679	2669.222906
587.554428	2669.714418
587.907124	2676.802281
588.259765	2680.252951
588.612352	2688.049095
588.964884	2689.576565
589.317362	2698.204499
589.669786	2699.547967
590.022155	2707.104657
590.374470	2713.393496
590.726731	2717.300390
591.078937	2714.043805
591.431090	2718.850545
591.783188	2724.032851
592.135232	2726.404714
592.487222	2733.041393
592.839157	2740.451889
593.191038	2744.731829
593.542866	2747.713671
593.894639	2749.324320
594.246358	2758.229518
594.598022	2763.472318
594.949633	2765.743358
595.301190	2771.903648
595.652692	2775.792898
596.004141	2784.587191
596.355535	2780.226593
596.706876	2786.991822
597.058162	2791.075156
597.409395	2803.057979
597.760573	2806.647280
598.111698	2812.248002
598.462768	2819.484579
598.813785	2826.577482
599.164748	2827.847853
599.515657	2839.800429
599.866511	2841.985769
600.217312	2858.233408
600.568060	2855.128057
600.918753	2872.693958
601.269392	2879.287787
601.619978	2882.269629
601.970510	2896.820920
602.320988	2905.131262
602.671412	2920.698345
603.021783	2924.748912
603.372100	2932.555139
603.722363	2943.665842
604.072572	2952.684466
604.422728	2963.369192
604.772830	2965.131075
605.122878	2979.720174
605.472872	2991.728203
605.822813	3006.251767
606.172701	3015.988756
606.522534	3031.848226
606.872314	3048.473951
607.222041	3055.166083
607.571714	3073.331881
607.921333	3080.162644
608.270899	3096.495983
608.620411	3113.277984
608.969870	3121.973974
609.319276	3140.195225
609.668627	3159.855725
610.017926	3179.972449
610.367171	3199.932898
610.716362	3215.908314
611.065500	3231.677043
611.414585	3248.277563
611.763616	3276.732356
612.112594	3292.808596
612.461518	3317.981597
612.810389	3340.515555
613.159207	3355.520549
613.507971	3377.915875
613.856682	3407.141965
614.205340	3424.695262
614.553945	3463.517188
614.902496	3469.828713
615.250994	3502.875997
615.599439	3529.503372
615.947830	3560.791293
616.296169	3589.614090
616.644454	3617.123667
616.992686	3649.868481
617.340864	3696.589895
617.688990	3717.296435
618.037063	3767.536574
618.385082	3797.843991
618.733048	3838.861339
619.080961	3863.671378
619.428821	3890.991911
619.776628	3924.087086
620.124382	3938.441772
620.472083	3965.197696
620.819731	3988.999503
621.167326	3996.314218
621.514868	4016.057897
621.862357	4014.129655
622.209793	4035.562121
622.557176	4035.710835
622.904506	4042.997823
623.251783	4044.217782
623.599007	4057.508784
623.946179	4070.323397
624.293297	4081.071137
624.640363	4086.087085
624.987376	4105.180456
625.334336	4119.898104
625.681243	4130.124085
626.028097	4152.032939
626.374899	4172.888193
626.721647	4198.827450
627.068343	4223.032550
627.414987	4237.891351
627.761577	4254.844752
628.108115	4300.598264
628.454600	4304.815189
628.801032	4340.665355
629.147412	4369.480590
629.493739	4403.992329
629.840014	4421.225514
630.186236	4468.370384
630.532405	4485.434690
630.878521	4528.932286
631.224585	4555.630237
631.570597	4581.488836
631.916556	4622.392758
632.262462	4653.544568
632.608316	4687.327861
632.954117	4715.041604
633.299866	4736.514399
633.645562	4759.126494
633.991206	4754.360083
634.336797	4750.155761
634.682336	4773.256848
635.027823	4775.921098
635.373257	4789.464158
635.718639	4788.644971
636.063968	4808.360923
636.409245	4790.537924
636.754470	4819.317871
637.099642	4825.500846
637.444762	4821.115042
637.789829	4859.488306
638.134845	4860.567112
638.479808	4884.683992
638.824719	4904.188217
639.169577	4904.402466
639.514383	4933.331127
639.859137	4943.209268
640.203839	4988.423377
640.548489	4988.955219
640.893086	5021.788254
641.237632	5031.079100
641.582125	5070.969751
641.926566	5087.809725
642.270955	5123.138131
642.615292	5153.158202
642.959576	5183.856309
643.303809	5216.749837
643.647990	5256.572432
643.992118	5282.826762
644.336195	5315.062420
644.680219	5358.398699
645.024192	5422.933030
645.368112	5506.520402
645.711981	5552.810797
646.055797	5677.609602
646.399562	5730.456017
646.743274	5866.408375
647.086935	5966.220700
647.430544	6001.788561
647.774101	6052.797477
648.117606	6116.789883
648.461059	6179.373288
648.804460	6172.829870
649.147810	6133.158510
649.491108	6138.938193
649.834354	6126.451255
650.177548	6066.713582
650.520690	6041.769953
650.863781	6073.932514
651.206820	6089.245019
651.549807	6072.974695
651.892742	6055.030708
652.235626	6064.881122
652.578458	6083.707311
652.921238	6051.320418
653.263967	6121.125276
653.606644	6118.118227
653.949269	6151.404966
654.291843	6141.277288
654.634365	6223.420370
654.976836	6210.678853
655.319255	6247.494400
655.661622	6281.171828
656.003938	6292.685823
656.346203	6310.710469
656.688416	6365.404468
657.030577	6374.019800
657.372687	6389.254167
657.714746	6454.499300
658.056753	6508.784965
658.398708	6476.783721
658.740612	6514.988105
659.082465	6585.289516
659.424266	6606.480006
659.766016	6659.994375
660.107715	6680.965575
660.449362	6733.680921
660.790958	6773.672394
661.132503	6817.787532
661.473996	6859.591300
661.815438	6912.241111
662.156829	6977.624876
662.498168	6985.567214
662.839456	7027.398708
663.180693	7087.141423
663.521879	7155.819582
663.863013	7188.418203
664.204097	7229.427990
664.545129	7338.523600
664.886110	7384.395580
665.227040	7434.111439
665.567918	7502.366142
665.908746	7562.688588
666.249522	7635.513097
666.590248	7679.426588
666.930922	7744.258347
667.271545	7784.955582
667.612118	7841.282915
667.952639	7848.368256
668.293109	7891.150008
668.633528	7920.756705
668.973896	7948.808206
669.314213	7993.321594
669.654480	7991.093404
669.994695	8029.718725
670.334859	8054.884165
670.674973	8085.509174
671.015035	8152.153228
671.355047	8195.575207
671.695008	8226.709373
672.034918	8251.489165
672.374777	8315.910070
672.714585	8328.190321
673.054342	8425.829909
673.394049	8426.729755
673.733705	8523.343468
674.073310	8507.829317
674.412864	8559.372595
674.752368	8525.848922
675.091820	8617.948282
675.431223	8584.364115
675.770574	8565.921054
676.109875	8572.557733
676.449125	8562.177997
676.788324	8583.524763
677.127473	8518.085545
677.466571	8536.760499
677.805619	8508.504832
678.144616	8543.021612
678.483562	8573.636540
678.822458	8547.505719
679.161303	8575.867250
679.500098	8590.489117
679.838842	8611.689689
680.177535	8685.189712
680.516179	8796.604254
680.854771	8890.629335
681.193314	9145.923448
681.531805	9454.971384
681.870247	9698.741420
682.208638	9925.043857
682.546978	10021.521459
682.885268	10082.098484
683.223508	10015.814873
683.561697	9981.535027
683.899836	9979.810952
684.237925	9909.935519
684.575963	9933.323952
684.913951	9870.538902
685.251889	9959.472417
685.589776	10017.178505
685.927614	10068.469725
686.265401	10154.050873
686.603137	10231.911494
686.940824	10419.772613
687.278460	10580.560215
687.616046	10672.833495
687.953582	10877.900072
688.291068	10902.601726
688.628504	11021.920796
688.965889	11060.979656
689.303224	11005.045533
689.640510	10953.192225
689.977745	10798.973247
690.314930	10626.134766
690.652065	10519.915134
690.989150	10356.027223
691.326185	10152.049535
691.663170	9997.802830
692.000105	9827.883178
692.336990	9682.261888
692.673825	9595.642262
693.010610	9484.381476
693.347345	9366.236994
693.684030	9222.649809
694.020665	9178.746400
694.357251	9033.304071
694.693786	9053.123367
695.030272	9013.998972
695.366707	8899.020335
695.703093	8851.426802
696.039429	8884.567347
696.375716	8840.187549
696.711952	8870.149647
697.048139	8855.767235
697.384276	8833.873504
697.720363	8906.919823
698.056400	8890.034478
698.392388	8856.112554
698.728326	8877.018219
699.064214	8848.631482
699.400053	8855.283284
699.735842	8787.252913
700.071581	8734.910613
700.407270	8678.243002
700.742910	8646.093044
701.078501	8591.852749
701.414042	8536.921816
701.749533	8479.840831
702.084974	8390.670381
702.420366	8490.404569
702.755709	8375.904842
703.091002	8309.958988
703.426246	8348.034823
703.761440	8347.629010
704.096584	8285.922766
704.431679	8305.704254
704.766725	8301.305847
705.101721	8311.148700
705.436668	8367.753296
705.771565	8287.961913
706.106413	8429.673789
706.441212	8459.837533
706.775961	8533.067854
707.110661	8586.156245
707.445311	8734.925736
707.779913	8714.672901
708.114465	8821.593253
708.448967	8954.762894
708.783421	9224.502433
709.117825	9348.542544
709.452180	9461.187127
709.786485	9627.351119
710.120742	9931.100803
710.454949	9972.014808
710.789107	10156.510956
711.123216	10430.338872
711.457275	10494.840435
711.791286	10718.733201
712.125247	10769.432085
712.459159	10693.804695
712.793023	10956.763883
713.126837	10606.577610
713.460602	10722.521628
713.794318	10626.527976
714.127985	10523.716164
714.461602	10237.555066
714.795171	10251.521583
715.128691	9914.792671
715.462162	9745.629192
715.795584	9617.435170
716.128957	9557.183299
716.462281	9432.071943
716.795556	9367.774546
717.128782	9219.630158
717.461960	9031.476653
717.795088	9026.869038
718.128167	8901.104852
718.461198	8744.529134
718.794180	8716.712047
719.127113	8602.474460
719.459997	8548.450935
719.792833	8426.954086
720.125619	8446.128115
720.458357	8338.502001
720.791046	8296.602451
721.123686	8246.853824
721.456278	8171.498656
721.788821	8179.688011
722.121315	8088.420441
722.453761	8138.804253
722.786158	8129.364692
723.118506	8154.998960
723.450805	8114.130325
723.783056	8198.481432
724.115259	8176.890170
724.447412	8167.538830
724.779518	8287.319166
725.111574	8326.057912
725.443582	8419.478055
725.775542	8434.606558
726.107453	8646.667735
726.439315	8616.519115
726.771129	8802.910737
727.102895	8980.944126
727.434612	9075.281759
727.766281	9148.756576
728.097901	9277.731977
728.429473	9311.921082
728.760996	9335.329680
729.092471	9391.321776
729.423897	9372.931647
729.755276	9339.602058
730.086606	9417.301362
730.417887	9666.563735
730.749120	9914.893494
731.080305	10026.918014
731.411442	10199.234735
731.742530	10264.457184
732.073570	10333.999901
732.404562	10480.664710
732.735506	10414.764227
733.066401	10322.846348
733.397249	10119.156006
733.728048	9867.738541
734.058798	9521.658288
734.389501	9239.772088
734.720156	9050.386021
735.050762	8824.481834
735.381320	8680.871964
735.711831	8582.980318
736.042293	8434.425076
736.372707	8457.264024
736.703073	8375.879636
737.033391	8471.661559
737.363661	8471.520407
737.693883	8539.759986
738.024056	8627.919684
738.354182	8719.678767
738.684260	8861.882155
739.014290	8970.103125
739.344272	9072.196573
739.674207	9211.990289
740.004093	9278.672152
740.333931	9295.416344
740.663722	9329.096293
740.993464	9348.033388
741.323159	9288.388976
741.652806	9178.297738
741.982405	9100.593392
742.311956	8957.444788
742.641460	8924.901619
742.970915	8800.407804
743.300323	8653.455649
743.629683	8567.388029
743.958996	8447.869833
744.288260	8333.382709
744.617477	8200.586114
744.946647	8172.776589
745.275768	8052.378711
745.604842	7986.405131
745.933869	7913.731857
746.262847	7899.367089
746.591778	7881.450828
746.920662	7843.369952
747.249498	7847.433122
747.578286	7923.330214
747.907027	8004.838110
748.235720	8123.910164
748.564365	8154.217581
748.892963	8111.536652
749.221514	8153.259762
749.550017	8091.372036
749.878473	8086.270389
750.206881	7986.921849
750.535242	7953.098227
750.863555	7919.607322
751.191821	7885.050212
751.520039	7897.395998
751.848210	7873.185857
752.176334	7895.029176
752.504411	7851.854214
752.832440	7770.915969
753.160421	7813.450704
753.488356	7751.562979
753.816243	7711.556382
754.144082	7640.834035
754.471875	7622.259903
754.799620	7598.059844
755.127318	7592.769153
755.454969	7577.186947
755.782572	7562.439051
756.110129	7577.159221
756.437638	7538.667490
756.765100	7540.338633
757.092515	7547.353398
757.419882	7566.766882
757.747203	7572.377686
758.074477	7623.507589
758.401703	7599.443641
758.728882	7699.936523
759.056014	7729.603713
759.383099	7797.629043
759.710138	7872.099488
760.037129	7920.499606
760.364073	7940.137421
760.690970	7943.726723
761.017820	7958.525030
761.344623	8084.233763
761.671379	8290.265720
761.998088	8667.064244
762.324751	9567.069002
762.651366	11170.808754
762.977935	13243.453952
763.304456	14527.201423
763.630931	14869.997364
763.957359	14266.853553
764.283740	13211.646792
764.610074	12138.725416
764.936362	10950.134765
765.262602	10080.777702
765.588796	9220.930776
765.914943	8633.306157
766.241044	8133.745455
766.567097	7757.471211
766.893104	7428.520799
767.219064	7224.349027
767.544978	6996.163719
767.870845	6809.260420
768.196665	6711.696449
768.522438	6596.485919
768.848165	6507.716241
769.173846	6415.226191
769.499479	6349.771850
769.825066	6259.492346
770.150607	6154.301109
770.476101	6120.243074
770.801548	6058.524227
771.126949	5980.814841
771.452303	5932.389517
771.777611	5831.248847
772.102872	5826.613506
772.428087	5766.026399
772.753256	5692.233989
773.078378	5646.147760
773.403453	5562.351181
773.728482	5497.335419
774.053465	5462.927024
774.378401	5414.383233
774.703291	5359.258216
775.028135	5299.568433
775.352932	5280.843067
775.677683	5231.830449
776.002388	5181.068551
776.327046	5182.956463
776.651658	5130.936796
776.976224	5083.915434
777.300743	5080.464764
777.625216	5038.819792
777.949643	5013.747613
778.274024	5024.432339
778.598359	4977.176563
778.922647	4983.150330
779.246889	4961.082679
779.571086	4964.109892
779.895236	4970.970902
780.219339	4970.055933
780.543397	4973.282271
780.867409	5004.058516
781.191374	5009.883569
781.515294	4987.087471
781.839167	5032.820819
782.162995	5019.199621
782.486776	4990.989324
782.810511	4961.390189
783.134201	4920.713119
783.457844	4917.804373
783.781441	4890.493922
784.104993	4861.905539
784.428498	4850.275597
784.751958	4838.252445
785.075372	4830.423533
785.398739	4803.508813
785.722061	4821.747707
786.045337	4827.381197
786.368568	4903.048916
786.691752	4919.662038
787.014891	5083.091205
787.337983	5258.155355
787.661030	5539.852511
787.984031	5823.256098
788.306987	5997.790926
788.629897	6076.195992
788.952760	6029.222521
789.275579	5935.651143
789.598351	5746.345734
789.921078	5570.890895
790.243759	5391.022526
790.566395	5254.457668
790.888984	5128.585098
791.211529	5038.691243
791.534027	4927.180919
791.856480	4834.385880
792.178888	4793.154283
792.501249	4752.310854
792.823566	4684.658570
793.145836	4687.413560
793.468062	4674.417466
793.790241	4645.962673
794.112375	4674.185572
794.434464	4744.197117
794.756507	4769.039923
795.078505	4844.390050
795.400457	4984.050176
795.722364	5141.608919
796.044226	5268.928300
796.366042	5381.358634
796.687812	5349.649776
797.009538	5376.103231
797.331218	5322.230941
797.652852	5279.512203
797.974442	5203.252148
798.295986	5160.719933
798.617484	5072.565276
798.938938	5006.216129
799.260346	4955.718891
799.581709	4865.693966
799.903026	4831.083924
800.224299	4779.550729
800.545526	4699.774469
800.866708	4656.387779
801.187845	4621.724805
801.508936	4571.323349
801.829983	4549.961459
802.150984	4477.376406
802.471940	4459.762614
802.792851	4447.323567
803.113717	4432.421916
803.434538	4416.292745
803.755314	4391.306266
804.076045	4383.318557
804.396731	4358.203529
804.717372	4366.339951
805.037967	4370.892113
805.358518	4388.185791
805.679024	4425.334054
805.999485	4435.653296
806.319901	4448.170481
806.640272	4459.215649
806.960598	4495.264940
807.280879	4490.155731
807.601115	4517.700595
807.921306	4493.719827
808.241453	4487.874609
808.561554	4502.010004
808.881611	4476.763906
809.201623	4479.589472
809.521590	4448.293989
809.841513	4437.793266
810.161390	4451.598466
810.481223	4392.619486
810.801011	4385.919793
811.120755	4370.294736
811.440453	4337.040765
811.760107	4316.525789
812.079716	4299.055671
812.399281	4264.022172
812.718801	4265.106020
813.038276	4238.261876
813.357707	4217.177250
813.677093	4236.837750
813.996434	4196.009445
814.315731	4211.387485
814.634983	4203.523285
814.954191	4215.158268
815.273354	4259.238117
815.592473	4289.122077
815.911547	4347.730532
816.230577	4381.702868
816.549562	4450.383547
816.868502	4491.625227
817.187399	4534.691804
817.506250	4598.444757
817.825058	4621.361842
818.143821	4741.694184
818.462539	4865.862845
818.781213	5031.038771
819.099843	5298.744205
819.418429	5759.964411
819.736970	6199.132090
820.055466	6722.597944
820.373919	7406.314517
820.692327	8483.220925
821.010691	10347.933650
821.329011	14377.080903
821.647286	20346.800164
821.965517	26823.896436
822.283704	30450.187441
822.601847	31852.868334
822.919945	29203.379025
823.237999	26078.135863
823.556010	22701.087066
823.873976	19582.226004
824.191897	16693.912032
824.509775	14618.652995
824.827609	12746.509609
825.145398	11690.211438
825.463144	11179.766885
825.780845	11394.441901
826.098502	12244.093093
826.416116	13916.586622
826.733685	15503.647717
827.051210	15923.860658
827.368692	14984.068593
827.686129	13250.635076
828.003522	11478.500620
828.320872	9897.816585
828.638177	8704.973721
828.955439	7790.054709
829.272656	7010.896491
829.589830	6403.412247
829.906960	5874.716196
830.224046	5480.959231
830.541088	5179.730124
830.858086	4986.048993
831.175041	4842.633208
831.491952	4802.185510
831.808819	4833.218853
832.125642	5019.297924
832.442421	5435.586326
832.759157	6244.830150
833.075849	7527.753392
833.392497	8865.547074
833.709101	9680.769706
834.025662	9528.514257
834.342179	8780.704454
834.658653	7828.997623
834.975083	7011.594691
835.291469	6341.630386
835.607811	5793.629237
835.924110	5395.224328
836.240366	5032.949368
836.556578	4699.366136
836.872746	4433.465435
837.188871	4223.652612
837.504952	4057.788568
837.820990	3931.094290
838.136984	3846.143286
838.452935	3811.276145
838.768842	3832.116275
839.084706	4037.845764
839.400526	4585.665432
839.716303	5253.560343
840.032037	5682.542371
840.347727	5585.800108
840.663373	5151.222399
840.978977	4714.716449
841.294537	4380.591293
841.610054	4129.688025
841.925527	3948.592135
842.240957	3790.199081
842.556344	3650.412926
842.871687	3531.600492
843.186987	3415.676638
843.502244	3326.319666
843.817458	3261.860952
844.132629	3207.787015
844.447756	3167.447702
844.762840	3133.561066
845.077881	3104.476129
845.392879	3077.417736
845.707833	3057.157338
846.022745	3037.766540
846.337613	3030.058616
846.652438	3012.391892
846.967221	3005.127590
847.281960	2989.948675
847.596656	2981.804691
847.911309	2973.645584
848.225919	2963.820375
848.540485	2955.779735
848.855009	2953.370063
849.169490	2940.512600
849.483928	2933.066816
849.798323	2930.959614
850.112675	2921.288160
850.426984	2925.716814
850.741251	2920.978129
851.055474	2914.212901
851.369654	2918.712130
851.683792	2916.325144
851.997887	2919.183478
852.311938	2916.494023
852.625947	2917.678694
852.939914	2911.518404
853.253837	2919.748088
853.567718	2913.630647
853.881555	2908.072775
854.195350	2915.926893
854.509103	2912.831624
854.822812	2915.258940
855.136479	2907.339287
855.450103	2910.018661
855.763685	2905.675707
856.077224	2908.803743
856.390720	2915.695000
856.704173	2925.908378
857.017584	2927.980292
857.330953	2931.390632
857.644278	2939.285079
857.957561	2937.281221
858.270802	2938.107970
858.584000	2939.295162
858.897155	2933.734769
859.210268	2926.299067
859.523339	2918.054260
859.836367	2916.955288
860.149352	2911.188208
860.462295	2911.518404
860.775195	2901.433576
861.088054	2899.197824
861.400869	2902.053638
861.713642	2897.078019
862.026373	2907.029256
862.339062	2907.515728
862.651708	2914.870771
862.964312	2926.725044
863.276873	2932.318205
863.589392	2957.087914
863.901869	2977.028198
864.214303	2993.106958
864.526696	3006.087929
864.839045	3023.426978
865.151353	3033.078267
865.463619	3033.620191
865.775842	3034.202444
866.088023	3037.832075
866.400162	3031.908719
866.712258	3035.739996
867.024313	3035.669420
867.336325	3033.784029
867.648296	3035.067002
867.960224	3032.185983
868.272110	3035.563556
868.583954	3037.955583
868.895755	3041.275183
869.207515	3042.565719
869.519233	3056.479303
869.830909	3062.556414
870.142542	3069.296437
870.454134	3075.756676
870.765684	3084.190526
871.077191	3098.764502
871.388657	3108.370420
871.700081	3123.171248
872.011463	3138.652632
872.322803	3154.559992
872.634101	3164.450736
872.945357	3180.100998
873.256571	3201.467929
873.567744	3211.194835
873.878874	3216.392265
874.189963	3233.033114
874.501010	3233.252404
874.812015	3229.887434
875.122979	3245.837645
875.433900	3245.152048
875.744780	3247.763365
876.055618	3252.754108
876.366415	3251.622369
876.677169	3258.564037
876.987882	3270.249432
877.298554	3284.921710
877.609183	3318.457986
877.919771	3357.627752
878.230317	3413.498860
878.540822	3497.928104
878.851285	3619.969398
879.161707	3795.013383
879.472087	4097.346502
879.782425	4589.133745
880.092722	5491.676724
880.402977	6871.085131
880.713191	8465.402967
881.023363	9991.453497
881.333494	10877.416121
881.643583	11282.964345
881.953631	11144.771195
882.263637	10654.632409
882.573602	9975.258790
882.883526	9315.033995
883.193408	8621.837532
883.503248	7944.820653
883.813048	7330.293917
884.122806	6763.431290
884.432522	6198.627975
884.742197	5711.944900
885.051831	5292.825890
885.361424	4918.487450
885.670975	4622.097850
885.980485	4374.814131
886.289954	4167.496679
886.599382	3996.548631
886.908768	3857.372456
887.218113	3733.836460
887.527417	3628.778814
887.836680	3531.547559
888.145901	3453.442442
888.455082	3392.888102
888.764221	3342.050586
889.073319	3293.138791
889.382376	3269.485697
889.691392	3247.143303
890.000366	3241.769433
890.309300	3236.544277
890.618193	3241.106522
890.927044	3232.947414
891.235855	3239.372365
891.544625	3251.254364
891.853353	3275.086419
892.162041	3322.009479
892.470687	3396.558062
892.779293	3487.502998
893.087858	3628.345275
893.396381	3847.118749
893.704864	4163.189013
894.013306	4603.037248
894.321707	5054.752359
894.630068	5339.842212
894.938387	5382.923912
895.246665	5241.721193
895.554903	4996.524511
895.863100	4733.875355
896.171256	4516.823435
896.479371	4327.202953
896.787446	4153.386489
897.095480	3998.534846
897.403473	3882.593349
897.711425	3760.902415
898.019336	3665.312056
898.327207	3568.315215
898.635038	3487.722288
898.942827	3403.340935
899.250576	3335.965914
899.558284	3269.054679
899.865952	3227.029100
900.173579	3179.251564
900.481165	3137.770430
900.788711	3101.852208
901.096216	3080.376893
901.403681	3055.022410
901.711105	3048.244578
902.018489	3046.028991
902.325832	3073.067220
902.633135	3120.111268
902.940397	3256.968512
903.247619	3572.022984
903.554800	4151.657373
903.861941	4897.856527
904.169041	5442.681750
904.476101	5612.639211
904.783121	5406.261934
905.090100	5101.831694
905.397039	4777.960245
905.703938	4496.651257
906.010796	4241.382350
906.317614	4046.763565
906.624391	3854.987990
906.931129	3699.975030
907.237826	3558.588309
907.544483	3424.763318
907.851099	3290.303142
908.157675	3164.274296
908.464211	3052.141390
908.770707	2972.372693
909.077163	2907.084709
909.383578	2861.711804
909.689954	2823.305773
909.996289	2805.394554
910.302584	2787.329579
910.608839	2775.263577
910.915054	2765.181269
911.221229	2762.390991
911.527363	2766.408790
911.833458	2773.327774
912.139513	2781.461676
912.445527	2792.017852
912.751502	2820.046667
913.057436	2856.279961
913.363331	2901.138668
913.669186	2969.438741
913.975000	3063.504151
914.280775	3216.954354
914.586510	3430.114503
914.892205	3720.815160
915.197859	4117.977425
915.503475	4577.161005
915.809050	4958.947750
916.114585	5189.635992
916.420081	5250.623871
916.725536	5200.237538
917.030952	5016.996637
917.336328	4852.791133
917.641665	4688.484805
917.946961	4509.251622
918.252218	4348.627857
918.557435	4169.971885
918.862612	4008.856608
919.167750	3873.849467
919.472848	3722.768607
919.777906	3590.302207
920.082925	3464.321252
920.387904	3342.680731
920.692843	3255.725868
920.997743	3173.207221
921.302603	3102.003443
921.607423	3048.189126
921.912204	2998.929491
922.216946	2958.312914
922.521647	2918.228180
922.826310	2885.168293
923.130932	2854.739888
923.435516	2821.619507
923.740059	2800.890283
924.044564	2776.788526
924.349028	2755.414034
924.653454	2731.463512
924.957840	2710.499874
925.262186	2696.034283
925.566493	2677.518125
925.870761	2655.848725
926.174989	2647.979484
926.479178	2635.749644
926.783328	2623.199692
927.087438	2614.256685
927.391509	2603.579521
927.695541	2592.819178
927.999533	2586.487489
928.303486	2578.729153
928.607400	2572.485684
928.911275	2570.375961
929.215110	2562.146278
929.518906	2559.381205
929.822663	2561.221226
930.126381	2563.845147
930.430060	2564.071998
930.733699	2566.421176
931.037299	2569.279510
931.340861	2565.705332
931.644383	2570.617937
931.947866	2569.168605
932.251309	2567.530230
932.554714	2565.826320
932.858080	2563.388922
933.161407	2560.006308
933.464694	2556.558159
933.767943	2556.275854
934.071153	2554.098076
934.374323	2552.636141
934.677455	2548.532642
934.980548	2546.354863
935.283602	2542.674821
935.586617	2541.497712
935.889593	2546.949719
936.192530	2544.560212
936.495428	2550.249155
936.798287	2555.870041
937.101108	2571.681620
937.403890	2590.127202
937.706632	2610.546396
938.009336	2636.049593
938.312002	2660.738644
938.614628	2678.788495
938.917216	2697.501258
939.219765	2704.042156
939.522275	2713.932899
939.824747	2713.136397
940.127179	2708.866540
940.429573	2703.737166
940.731929	2703.570808
941.034246	2693.085208
941.336524	2693.790969
941.638763	2688.275947
941.940964	2685.019362
942.243126	2668.839778
942.545250	2660.463901
942.847335	2651.566265
943.149381	2640.309368
943.451389	2626.907461
943.753359	2619.035699
944.055290	2609.036570
944.357182	2603.181270
944.659036	2595.727924
944.960851	2596.264807
945.262628	2589.308015
945.564367	2590.880855
945.866067	2591.455546
946.167729	2589.184506
946.469352	2588.065370
946.770937	2588.793817
947.072484	2580.972467
947.373992	2582.026068
947.675462	2579.122363
947.976893	2575.510377
948.278286	2572.778071
948.579641	2568.004098
948.880958	2568.228430
949.182236	2565.690209
949.483476	2559.908005
949.784678	2564.397153
950.085841	2562.501679
950.386967	2567.414283
950.688054	2569.372772
950.989103	2581.007755
951.290114	2584.158476
951.591087	2594.679364
951.892021	2607.577156
952.192917	2617.707355
952.493776	2625.337141
952.794596	2627.325876
953.095378	2629.826289
953.396122	2628.240846
953.696828	2626.708335
953.997496	2620.326234
954.298126	2613.109822
954.598718	2607.166302
954.899272	2597.114241
955.199788	2587.304156
955.500266	2579.520614
955.800706	2569.037535
956.101108	2548.162117
956.401472	2542.455531
956.701798	2527.682429
957.002087	2516.750687
957.302337	2509.546878
957.602550	2501.869201
957.902724	2495.449292
958.202861	2486.680205
958.502960	2478.778196
958.803022	2475.912300
959.103045	2471.539099
959.403031	2461.537450
959.702979	2459.019393
960.002889	2456.100565
960.302762	2450.391459
960.602596	2446.897939
960.902393	2446.494647
961.202153	2445.002465
961.501875	2439.926023
961.801559	2440.704882
962.101205	2437.211362
962.400814	2437.239088
962.700385	2432.419745
962.999918	2433.367482
963.299414	2429.803386
963.598873	2429.977306
963.898293	2430.824220
964.197677	2428.633839
964.497022	2425.180648
964.796331	2428.096956
965.095601	2426.597212
965.394835	2428.432192
965.694030	2421.858528
965.993189	2424.668971
966.292309	2422.546645
966.591393	2422.861717
966.890439	2424.759712
967.189447	2423.486821
967.488419	2425.231060
967.787353	2426.302305
968.086249	2423.766605
968.385108	2424.999167
968.683930	2427.348344
968.982714	2426.705597
969.281462	2428.467481
969.580172	2428.890938
969.878844	2430.683068
970.177480	2436.336722
970.476078	2437.576846
970.774639	2440.231013
971.073162	2440.006682
971.371649	2441.980293
971.670098	2440.619182
971.968510	2443.956426
972.266885	2443.399378
972.565223	2448.107816
972.863524	2447.563371
973.161788	2448.755604
973.460014	2450.056222
973.758204	2449.599997
974.056356	2450.388938
974.354471	2449.688218
974.652550	2452.478496
974.950591	2453.574947
975.248595	2448.717796
975.546563	2452.843980
975.844493	2451.981943
976.142386	2447.586057
976.440243	2447.223093
976.738062	2443.154882
977.035845	2443.462393
977.333590	2441.723195
977.631299	2438.718667
977.928971	2440.243616
978.226606	2435.714139
978.524204	2434.209355
978.821765	2428.946390
979.119290	2432.187852
979.416777	2434.920158
979.714228	2431.890424
980.011642	2433.977462
980.309020	2435.653645
980.606360	2441.909717
980.903664	2447.833073
981.200931	2457.088632
981.498162	2473.321147
981.795356	2500.883656
982.092513	2528.438603
982.389633	2565.150805
982.686717	2599.715477
982.983764	2626.219343
983.280775	2639.780047
983.577749	2639.452372
983.874686	2635.868112
984.171587	2618.375308
984.468451	2603.385437
984.765279	2592.529312
985.062070	2574.776889
985.358824	2559.469425
985.655543	2543.239430
985.952224	2525.184538
986.248869	2502.217041
986.545478	2481.250882
986.842050	2467.682616
987.138586	2449.887343
987.435086	2440.712443
987.731549	2431.035948
988.027975	2427.325659
988.324366	2425.215936
988.620719	2419.423651
988.917037	2415.499112
989.213318	2414.390058
989.509563	2414.659760
989.805772	2412.741601
990.101944	2414.014493
990.398080	2411.435942
990.694180	2411.425860
990.990244	2411.403175
991.286271	2410.689852
991.582262	2412.396282
991.878217	2412.018196
992.174136	2414.841242
992.470019	2415.950296
992.765865	2414.032137
993.061676	2417.034144
993.357450	2419.831984
993.653188	2421.767787
993.948890	2428.361616
994.244556	2431.799683
994.540186	2438.806887
994.835780	2445.297373
995.131337	2458.008642
995.426859	2471.269397
995.722345	2489.178096
996.017795	2501.123110
996.313208	2518.343692
996.608586	2518.910822
996.903928	2525.711338
997.199234	2522.129598
997.494504	2522.396780
997.789738	2513.796571
998.084936	2509.322547
998.380099	2498.894920
998.675225	2488.038796
998.970316	2475.771148
999.265371	2469.003399
999.560390	2456.145936
999.855373	2448.609411
1000.150320	2438.615323
1000.445232	2435.653645
1000.740108	2425.208375
1001.034948	2422.521440
1001.329752	2417.734864
1001.624521	2414.188412
1001.919254	2406.936713
1002.213951	2409.648853
1002.508613	2406.427556
1002.803239	2404.963101
1003.097829	2400.884807
1003.392384	2406.679614
1003.686903	2403.319685
1003.981386	2403.448234
1004.275834	2404.466547
1004.570246	2401.215003
1004.864623	2400.365568
1005.158964	2400.952863
1005.453270	2401.562843
1005.747540	2400.675599
1006.041775	2398.649056
1006.335974	2399.185938
1006.630138	2397.184600
1006.924266	2398.954045
1007.218359	2397.114024
1007.512416	2396.567059
1007.806438	2398.593603
1008.100425	2398.717111
1008.394376	2395.780639
1008.688292	2399.806000
1008.982172	2399.208624
1009.276017	2396.183931
1009.569827	2399.722821
1009.863602	2397.703839
1010.157341	2399.090157
1010.451045	2396.284754
1010.744714	2397.537481
1011.038347	2394.601009
1011.331945	2397.262738
1011.625508	2394.779970
1011.919036	2397.361041
1012.212528	2395.710063
1012.505986	2395.878942
1012.799408	2398.714591
1013.092795	2394.878273
1013.386147	2396.768705
1013.679464	2396.171328
1013.972745	2392.826523
1014.265992	2396.390619
1014.559204	2394.013715
1014.852380	2395.762995
1015.145521	2398.260887
1015.438628	2396.083108
1015.731699	2395.667213
1016.024736	2397.625701
1016.317737	2396.183931
1016.610703	2393.623025
1016.903635	2393.121430
1017.196531	2391.281409
1017.489393	2395.750392
1017.782219	2392.345093
1018.075011	2399.760630
1018.367768	2396.259549
1018.660490	2397.502193
1018.953177	2397.502193
1019.245829	2397.502193
