Dividing Wavelength (nm)	Counts (n)	Blue Motor Position (mm): 33.800000	Red Motor Position (mm): 0.000000	
326.493990	1970.271966
326.888308	1970.271966
327.282561	1970.271966
327.676750	1946.265992
328.070874	1947.516198
328.464933	1953.701694
328.858929	1963.569752
329.252859	1975.398820
329.646726	1990.164359
330.040528	2007.694972
330.434265	2023.967817
330.827938	2043.943389
331.221547	2060.808569
331.615091	2082.520818
332.008571	2104.868253
332.401986	2125.206789
332.795338	2146.014151
333.188625	2163.378406
333.581847	2184.818433
333.975006	2202.540609
334.368100	2220.761860
334.761129	2238.148799
335.154095	2253.363002
335.546996	2294.208951
335.939833	2370.408512
336.332606	2382.308155
336.725315	2398.041597
337.117960	2405.033677
337.510540	2412.204718
337.903056	2424.976482
338.295508	2429.942018
338.687896	2437.352514
339.080220	2440.919131
339.472480	2449.733588
339.864676	2450.217539
340.256807	2457.164249
340.648875	2457.408745
341.040879	2461.098869
341.432818	2461.131637
341.824694	2461.925619
342.216506	2461.913016
342.608253	2463.279168
342.999937	2458.495113
343.391557	2459.841102
343.783113	2457.817078
344.174605	2456.748354
344.566033	2451.326593
344.957397	2452.034875
345.348697	2449.784000
345.739934	2447.855758
346.131106	2448.576643
346.522215	2448.226283
346.913260	2442.786878
347.304241	2440.475509
347.695159	2437.556681
348.086012	2442.171857
348.476802	2437.009716
348.867528	2438.433842
349.258191	2436.039294
349.648789	2434.405960
350.039324	2433.213727
350.429796	2433.385126
350.820203	2430.841864
351.210548	2430.627615
351.600828	2432.994437
351.991045	2429.810948
352.381198	2428.573345
352.771288	2432.465116
353.161314	2428.303643
353.551276	2431.282965
353.941175	2428.003694
354.331010	2429.001843
354.720782	2430.793973
355.110490	2435.905703
355.500135	2431.320774
355.889717	2432.195414
356.279235	2431.537543
356.668689	2432.457554
357.058080	2432.994437
357.447408	2425.586461
357.836672	2425.367171
358.225873	2429.158119
358.615010	2430.695671
359.004084	2433.705239
359.393095	2434.065682
359.782043	2437.292020
360.170927	2437.375199
360.559748	2435.802359
360.948505	2435.671289
361.337199	2437.846547
361.725830	2438.517021
362.114398	2437.803697
362.502903	2440.306630
362.891344	2441.468616
363.279722	2438.980807
363.668037	2440.238575
364.056289	2440.346960
364.444478	2440.301589
364.832603	2439.961311
365.220665	2443.510284
365.608665	2443.948864
365.996601	2443.127156
366.384474	2448.168310
366.772284	2444.420212
367.160031	2445.304934
367.547715	2448.110337
367.935336	2444.634461
368.322893	2443.545572
368.710388	2448.806016
369.097820	2448.758125
369.485189	2448.475820
369.872495	2450.426747
370.259738	2450.250306
370.646918	2451.185440
371.034035	2449.209308
371.421090	2450.814916
371.808081	2450.189813
372.195010	2450.588064
372.581875	2454.868003
372.968678	2451.654268
373.355418	2453.111161
373.742096	2454.308435
374.128710	2453.602674
374.515262	2456.942438
374.901751	2454.865483
375.288177	2456.702983
375.674540	2455.989660
376.060841	2459.873869
376.447079	2456.027469
376.833254	2458.933694
377.219367	2453.690894
377.605417	2459.120217
377.991404	2457.199537
378.377329	2457.464198
378.763191	2457.527212
379.148991	2462.379323
379.534727	2461.098869
379.920402	2465.194807
380.306013	2461.280351
380.691563	2464.415949
381.077049	2461.454271
381.462474	2460.251956
381.847835	2462.580969
382.233134	2465.416618
382.618371	2465.721608
383.003545	2466.838223
383.388657	2465.645990
383.773706	2467.060034
384.158693	2466.021556
384.543618	2468.821917
384.928480	2471.667648
385.313280	2468.763944
385.698017	2472.849799
386.082692	2470.238481
386.467305	2471.576908
386.851856	2471.367700
387.236344	2474.243678
387.620770	2472.108749
388.005133	2475.388020
388.389435	2477.147383
388.773674	2473.547999
389.157851	2478.816005
389.541965	2473.724439
389.926018	2480.282980
390.310008	2481.109730
390.693936	2481.064359
391.077802	2478.543782
391.461606	2480.724081
391.845348	2480.466983
392.229027	2482.100316
392.612645	2482.561582
392.996200	2483.615183
393.379694	2481.623927
393.763125	2487.017962
394.146494	2487.033085
394.529801	2484.893116
394.913047	2488.202633
395.296230	2488.918477
395.679351	2486.899495
396.062410	2491.517192
396.445408	2491.376039
396.828343	2488.908395
397.211217	2490.019969
397.594028	2491.131543
397.976778	2489.165493
398.359466	2493.173211
398.742092	2489.034423
399.124656	2499.313336
399.507158	2494.993067
399.889598	2495.756802
400.271977	2499.124293
400.654294	2502.471619
401.036549	2500.656804
401.418742	2502.345590
401.800874	2504.296517
402.182944	2505.574449
402.564952	2506.965808
402.946898	2505.753410
403.328783	2508.755417
403.710606	2510.393792
404.092367	2513.715913
404.474067	2513.773886
404.855705	2514.393948
405.237282	2514.025944
405.618797	2518.373939
406.000250	2516.455780
406.381642	2522.119516
406.762972	2523.725124
407.144240	2523.228570
407.525447	2527.921884
407.906593	2525.870135
408.287677	2531.120496
408.668700	2532.451361
409.049661	2536.343132
409.430560	2537.641229
409.811399	2541.865716
410.192176	2547.274874
410.572891	2551.098589
410.953545	2560.399518
411.334138	2562.841957
411.714669	2571.043914
412.095139	2575.585994
412.475547	2589.063519
412.855894	2593.615681
413.236180	2607.433483
413.616405	2618.438322
413.996568	2633.143368
414.376670	2650.547952
414.756711	2665.694098
415.136691	2689.624456
415.516609	2714.210163
415.896466	2739.242012
416.276262	2778.172323
416.655997	2812.114412
417.035670	2851.001872
417.415283	2911.354566
417.794834	2948.623817
418.174324	2989.003459
418.553753	3030.910571
418.933121	3110.525514
419.312428	3159.540652
419.691674	3213.851523
420.070859	3305.542550
420.449983	3360.430633
420.829045	3470.736121
421.208047	3530.055378
421.586988	3650.992659
421.965867	3763.014659
422.344686	3856.407075
422.723444	4015.664687
423.102141	3973.805466
423.480777	4212.221796
423.859352	4261.723406
424.237866	4523.409702
424.616319	4607.639821
424.994712	4829.934541
425.373044	4929.857772
425.751314	5179.296585
426.129524	5166.229914
426.507673	5509.724055
426.885762	5607.638386
427.263789	5799.827335
427.641756	5994.940154
428.019662	6167.279560
428.397508	6341.075859
428.775292	6577.561427
429.153016	6752.280258
429.530679	6937.686335
429.908282	7125.030735
430.285824	7219.524643
430.663305	7616.076928
431.040726	7678.645209
431.418086	7806.957698
431.795385	8205.218934
432.172624	8549.156697
432.549802	8583.963343
432.926920	8852.276236
433.303977	8996.954831
433.680974	9291.582547
434.057910	9608.161967
434.434786	9816.134769
434.811601	9985.540224
435.188355	10659.514767
435.565050	10713.505524
435.941683	10889.482123
436.318257	11512.178049
436.694770	11634.342850
437.071222	12145.263793
437.447614	11879.539532
437.823946	12090.627767
438.200218	12378.099565
438.576429	12451.614712
438.952580	12824.975169
439.328670	13007.200277
439.704700	13451.293164
440.080670	13384.225653
440.456580	13939.667545
440.832429	14244.301952
441.208218	13797.481801
441.583947	14256.572120
441.959616	14511.452859
442.335224	14851.087996
442.710773	15123.146466
443.086261	15665.645196
443.461689	15386.791251
443.837057	15649.042156
444.212365	16283.362983
444.587612	16443.409535
444.962800	16308.767878
445.337927	16771.082015
445.712995	15972.540560
446.088002	17530.642747
446.462949	17851.199638
446.837837	18154.898910
447.212664	18266.880581
447.587431	20691.693225
447.962139	23257.270008
448.336786	25392.014660
448.711374	24272.515543
449.085901	21374.033563
449.460369	21465.941359
449.834776	21524.852283
450.209124	23794.200783
450.583412	23532.217059
450.957640	24126.286793
451.331808	23078.069592
451.705917	21986.836224
452.079965	22133.743009
452.453954	22552.241957
452.827883	22560.537176
453.201752	22477.990802
453.575562	22711.988561
453.949311	23803.980622
454.323001	23958.295382
454.696632	23830.839890
455.070202	25326.356151
455.443713	25542.898915
455.817164	26159.958831
456.190556	26709.739507
456.563888	26282.194209
456.937160	26743.028767
457.310373	25259.374340
457.683526	25719.198147
458.056619	25769.110611
458.429653	25752.537818
458.802628	26349.206267
459.175542	26512.161565
459.548398	27790.328478
459.921194	29336.238635
460.293930	30041.967406
460.666607	32010.666532
461.039224	33734.400869
461.411782	34144.140813
461.784280	33017.901673
462.156719	32540.852244
462.529099	32020.542152
462.901419	30806.614662
463.273680	29820.927933
463.645882	29943.755646
464.018024	29935.571333
464.390106	30773.567378
464.762130	33412.429935
465.134094	37391.195896
465.505999	42613.070067
465.877845	47153.385278
466.249631	48261.786295
466.621358	46530.573406
466.993026	44390.182662
467.364634	42336.421626
467.736184	40442.641607
468.107674	39229.732430
468.479105	38472.457861
468.850477	37813.074938
469.221790	36436.524866
469.593043	34768.525525
469.964238	33924.124694
470.335373	33832.912577
470.706449	35468.330941
471.077467	37947.623334
471.448425	42475.910353
471.819324	45317.313868
472.190164	43538.255388
472.560945	40051.939581
472.931667	37023.385750
473.302330	35933.268998
473.672934	35121.355883
474.043479	35636.854193
474.413965	34870.934045
474.784393	34516.097308
475.154761	35396.386113
475.525070	35428.031957
475.895321	34982.978731
476.265513	35555.094239
476.635645	36492.055696
477.005719	36333.642478
477.375734	36804.829045
477.745691	37461.938408
478.115588	38759.276830
478.485427	40711.246887
478.855207	43997.943084
479.224928	46617.891231
479.594591	48236.608252
479.964194	47203.504430
480.333739	47294.293090
480.703226	47319.881987
481.072653	47956.995613
481.442022	48475.813522
481.811333	48730.074199
482.180584	47446.178014
482.549777	46935.156249
482.918912	46420.020902
483.287988	46120.346991
483.657005	45302.762578
484.025964	44676.580694
484.394864	44666.752964
484.763706	44241.254374
485.132489	43383.829722
485.501213	43215.001480
485.869879	43376.905697
486.238487	42967.223727
486.607036	43170.508256
486.975527	42642.039057
487.343959	42846.762835
487.712333	42929.213427
488.080648	42841.255375
488.448905	43261.085188
488.817104	43080.811006
489.185244	44015.140980
489.553326	45645.424928
489.921350	48368.142038
490.289315	51310.756799
490.657222	51964.012200
491.025070	52233.361050
491.392861	51291.660909
491.760593	50018.961126
492.128267	48308.739602
492.495883	46771.147349
492.863440	45390.466052
493.230939	44054.283019
493.598380	42984.577899
493.965763	42664.930937
494.333088	41887.224571
494.700354	41402.074007
495.067563	41134.416464
495.434713	41016.463547
495.801805	41086.734711
496.168839	40723.554864
496.535815	40386.911652
496.902733	40429.917735
497.269593	40027.313545
497.636395	39947.575094
498.003139	40332.051295
498.369825	39797.562958
498.736453	40109.996030
499.103023	39669.081591
499.469535	39539.594513
499.835989	39611.675451
500.202385	39270.958986
500.568723	39297.125095
500.935003	39491.017955
501.301226	39298.713059
501.667390	39902.015666
502.033497	40158.728864
502.399546	39574.819576
502.765537	38924.755225
503.131470	39298.743306
503.497345	39627.141711
503.863163	38317.669232
504.228923	38915.925644
504.594625	39313.239144
504.960269	38618.313565
505.325856	39298.720621
505.691385	38663.285699
506.056856	38802.086308
506.422270	39239.177032
506.787625	38805.234509
507.152924	38998.817337
507.518164	39074.101929
507.883347	38337.327212
508.248472	38556.642610
508.613540	39025.890854
508.978550	39312.729987
509.343503	39073.416332
509.708398	39269.739027
510.073236	39777.481522
510.438016	39778.547726
510.802738	39248.475440
511.167403	39840.586686
511.532010	40083.025857
511.896561	40374.974199
512.261053	41175.910202
512.625488	40750.676272
512.989866	40621.093412
513.354186	40473.725362
513.718449	40449.525303
514.082655	41120.265946
514.446803	40791.683538
514.810894	41318.905051
515.174927	41236.129305
515.538904	41139.472742
515.902822	41790.694037
516.266684	41259.847934
516.630488	41659.210662
516.994235	41516.719928
517.357925	42064.884915
517.721558	42233.902201
518.085133	42537.692214
518.448651	42678.635313
518.812112	42443.384828
519.175516	42548.255952
519.538863	42893.229671
519.902152	42845.978936
520.265385	43297.585662
520.628560	43327.537678
520.991678	43122.559321
521.354739	43365.928585
521.717743	43661.516641
522.080690	43583.807254
522.443580	44110.965753
522.806413	44175.255588
523.169189	44104.669352
523.531908	44296.018949
523.894569	44158.957537
524.257174	44315.699613
524.619722	44630.660823
524.982213	44599.635042
525.344647	44531.193817
525.707025	44573.489098
526.069345	44954.441532
526.431608	44877.405140
526.793815	45191.874837
527.155964	44738.085291
527.518057	44906.439665
527.880093	44717.325820
528.242072	45216.783178
528.603995	44927.063026
528.965860	44920.403661
529.327669	45031.064550
529.689421	44915.816211
530.051117	44885.680194
530.412755	45032.909612
530.774337	45083.059011
531.135862	44915.349905
531.497331	45103.221106
531.858743	45037.421445
532.220098	45351.311410
532.581396	45065.440178
532.942638	44734.881638
533.303824	45021.440987
533.664953	45009.548905
534.026025	44729.714455
534.387040	45201.768102
534.747999	45143.106715
535.108902	45313.480071
535.469748	44841.983472
535.830537	44953.728209
536.191270	45145.453372
536.551947	44795.793900
536.912567	45111.153361
537.273131	45212.261263
537.633638	44718.840687
537.994089	45075.164564
538.354483	44686.536973
538.714821	45244.449031
539.075103	45586.551813
539.435328	45356.801226
539.795497	45232.720786
540.155609	45231.614253
540.515665	45685.751638
540.875665	45156.422923
541.235609	45471.855481
541.595496	45445.538137
541.955328	46125.645243
542.315102	45501.368916
542.674821	45290.106761
543.034483	45332.989336
543.394090	45298.601105
543.753640	45258.624755
544.113134	46253.463699
544.472571	45285.534434
544.831953	46511.666558
545.191278	45741.007726
545.550548	45457.798223
545.909761	45934.751871
546.268918	46129.191695
546.628019	46423.539627
546.987064	46002.804927
547.346053	45293.333099
547.704986	46151.397978
548.063863	45732.974647
548.422684	45939.430062
548.781449	45801.983002
549.140158	46193.050512
549.498811	46048.472740
549.857408	45484.970042
550.215949	46304.875907
550.574434	46253.753566
550.932864	46028.487085
551.291237	46723.871409
551.649555	46357.563526
552.007817	46604.479242
552.366022	46244.248470
552.724173	46420.555264
553.082267	46825.208683
553.440305	47126.770506
553.798288	46444.972093
554.156215	46764.001514
554.514086	46968.437946
554.871902	46714.509986
555.229661	46736.335662
555.587365	46571.731906
555.945014	46654.721901
556.302606	46598.452542
556.660143	46832.346957
557.017625	46888.341573
557.375050	46710.547639
557.732421	47057.537820
558.089735	47045.028197
558.446994	46954.703323
558.804197	47422.643387
559.161345	47343.643465
559.518437	46626.410781
559.875474	46932.043336
560.232455	47097.259592
560.589381	47252.275072
560.946251	46963.099364
561.303065	47642.979619
561.659825	47446.299002
562.016528	47122.324209
562.373177	46840.314501
562.729770	47316.448961
563.086307	46846.983947
563.442789	47297.705951
563.799216	47330.909511
564.155587	47134.780900
564.511904	47157.077923
564.868164	47254.437727
565.224370	47497.877567
565.580520	47226.983604
565.936615	47433.464224
566.292654	47165.663008
566.648638	47399.252433
567.004567	47356.279117
567.360441	47393.608862
567.716260	47245.396418
568.072023	47546.718786
568.427732	47522.569139
568.783385	47080.734689
569.138982	47474.027868
569.494525	47442.077035
569.850013	47207.224801
570.205445	47172.196344
570.560823	47102.273019
570.916145	46996.002976
571.271412	47026.234775
571.626625	46785.338197
571.981782	46832.987184
572.336884	46527.626851
572.691931	46836.742843
573.046923	46446.290354
573.401860	46290.506098
573.756743	46270.845598
574.111570	46396.977788
574.466342	46245.163439
574.821059	46368.643982
575.175722	45879.480660
575.530330	45901.208033
575.884882	45621.847452
576.239380	45574.967241
576.593823	45539.638835
576.948211	45479.805380
577.302544	45004.699315
577.656823	45042.712136
578.011047	45248.930616
578.365216	44975.899203
578.719330	44778.570798
579.073389	44642.769675
579.427394	44718.500409
579.781344	44682.700655
580.135239	44351.171692
580.489080	44421.735243
580.842866	43928.302064
581.196597	44368.041914
581.550273	44313.211804
581.903895	44166.194114
582.257463	44593.061378
582.610975	43986.587885
582.964434	44259.452939
583.317837	43908.528138
583.671186	43750.288839
584.024481	43977.929703
584.377721	43502.165768
584.730906	43785.604643
585.084037	43819.778624
585.437113	43522.489179
585.790135	43562.732710
586.143103	43178.203577
586.496016	43278.215028
586.848874	43308.676201
587.201679	43339.351622
587.554428	42798.511431
587.907124	43010.542362
588.259765	42741.869027
588.612352	42998.607430
588.964884	42393.101839
589.317362	42684.788042
589.669786	42612.046712
590.022155	42396.600400
590.374470	42811.038699
590.726731	42338.133098
591.078937	41857.411187
591.431090	41953.656897
591.783188	41622.967287
592.135232	41297.616258
592.487222	41542.432333
592.839157	41630.332412
593.191038	41298.193471
593.542866	41087.569022
593.894639	40476.727369
594.246358	40749.415983
594.598022	40723.023022
594.949633	40347.341114
595.301190	40298.346140
595.652692	40139.527109
596.004141	40457.805398
596.355535	39502.600006
596.706876	39448.420205
597.058162	39279.758320
597.409395	39732.993339
597.760573	39805.616202
598.111698	39394.394159
598.462768	39407.417980
598.813785	39453.332809
599.164748	38905.349304
599.515657	39310.693361
599.866511	38779.065879
600.217312	39379.686593
600.568060	38365.318218
600.918753	39105.452864
601.269392	39072.521527
601.619978	38727.845236
601.970510	38934.451885
602.320988	39123.815267
602.671412	39416.015668
603.021783	39164.293212
603.372100	38802.580341
603.722363	38902.475846
604.072572	38983.651026
604.422728	39012.209162
604.772830	38825.116820
605.122878	38912.537989
605.472872	38861.574444
605.822813	39130.842636
606.172701	38958.392324
606.522534	39196.128099
606.872314	39455.808016
607.222041	39214.843382
607.571714	39604.995923
607.921333	39059.303622
608.270899	39357.661791
608.620411	39688.916011
608.969870	39489.125001
609.319276	39479.224175
609.668627	39543.067868
610.017926	40006.843940
610.367171	40163.172641
610.716362	40259.612435
611.065500	40190.919152
611.414585	40400.661399
611.763616	40688.864164
612.112594	40613.750972
612.461518	40844.484583
612.810389	41127.545372
613.159207	40996.245999
613.507971	41060.772768
613.856682	41543.866542
614.205340	41431.980653
614.553945	42121.504634
614.902496	41581.506317
615.250994	42032.671942
615.599439	42104.828497
615.947830	42329.900893
616.296169	42384.579768
616.644454	42503.427491
616.992686	42669.939323
617.340864	43199.242833
617.688990	42913.711879
618.037063	43525.841547
618.385082	43480.335051
618.733048	43780.376966
619.080961	43797.307681
619.428821	43803.818331
619.776628	43907.320782
620.124382	43727.790170
620.472083	43878.172830
620.819731	43979.799971
621.167326	43674.477447
621.514868	43644.381759
621.862357	43199.746948
622.209793	43231.143254
622.557176	42923.395936
622.904506	42652.343176
623.251783	42324.353103
623.599007	42090.670417
623.946179	41875.967675
624.293297	41837.019720
624.640363	41255.953643
624.987376	41249.601789
625.334336	40997.324806
625.681243	40642.109983
626.028097	40617.229368
626.374899	40470.297377
626.721647	40462.836470
627.068343	40332.046254
627.414987	40117.797215
627.761577	39892.828163
628.108115	40219.562988
628.454600	39690.887102
628.801032	39880.116894
629.147412	39833.551756
629.493739	39833.166107
629.840014	39492.253037
630.186236	39825.730405
630.532405	39454.605700
630.878521	39670.112507
631.224585	39556.263088
631.570597	39261.925239
631.916556	39427.958161
632.262462	39377.392868
632.608316	39385.352849
632.954117	39294.302049
633.299866	39283.965163
633.645562	39204.090601
633.991206	38710.975014
634.336797	38273.912017
634.682336	38288.536404
635.027823	38030.351189
635.373257	37845.378652
635.718639	37609.780327
636.063968	37471.204049
636.409245	36912.137567
636.754470	36956.189690
637.099642	36705.520835
637.444762	36264.308968
637.789829	36412.090393
638.134845	36060.976548
638.479808	36001.513618
638.824719	35916.786946
639.169577	35514.487745
639.514383	35582.034166
639.859137	35299.767359
640.203839	35545.508485
640.548489	35180.191190
640.893086	35238.895426
641.237632	34997.552706
641.582125	35109.075632
641.926566	35044.329573
642.270955	35023.567581
642.615292	35036.556114
642.959576	34995.226214
643.303809	35004.900188
643.647990	35147.940408
643.992118	35124.322602
644.336195	35119.142817
644.680219	35197.338674
645.024192	35504.685222
645.368112	36019.157657
645.711981	36035.445625
646.055797	36914.580006
646.399562	36833.220824
646.743274	37771.140100
647.086935	38216.145435
647.430544	38096.299564
647.774101	38226.240346
648.117606	38476.800815
648.461059	38754.475131
648.804460	38365.441727
649.147810	37768.410315
649.491108	37511.717282
649.834354	37160.787439
650.177548	36335.873188
650.520690	35887.956587
650.863781	35899.069810
651.206820	35753.108242
651.549807	35318.805276
651.892742	34850.590469
652.235626	34657.005120
652.578458	34533.529618
652.921238	33927.023358
653.263967	34243.907768
653.606644	33929.354892
653.949269	33887.243613
654.291843	33489.761235
654.634365	33897.812392
654.976836	33499.210878
655.319255	33503.831095
655.661622	33486.113960
656.003938	33275.524799
656.346203	33132.761843
656.688416	33355.492623
657.030577	33150.408402
657.372687	33003.113448
657.714746	33261.530556
658.056753	33376.945253
658.398708	32839.515403
658.740612	32893.123033
659.082465	33173.040662
659.424266	33001.969107
659.766016	33102.066257
660.107715	32990.208095
660.449362	33116.667959
660.790958	33094.292798
661.132503	33124.612818
661.473996	33159.369053
661.815438	33281.853968
662.156829	33459.675629
662.498168	33241.968359
662.839456	33264.093983
663.180693	33414.670728
663.521879	33566.200251
663.863013	33533.624315
664.204097	33520.421533
664.545129	33984.646267
664.886110	33952.609734
665.227040	34014.575597
665.567918	34142.532685
665.908746	34202.865214
666.249522	34359.451014
666.590248	34356.910273
666.930922	34485.467257
667.271545	34447.633398
667.612118	34536.158580
667.952639	34314.390661
668.293109	34365.565934
668.633528	34260.586426
668.973896	34171.852036
669.314213	34216.816607
669.654480	33949.547233
669.994695	33978.581759
670.334859	33869.793659
670.674973	33775.082981
671.015035	33938.428968
671.355047	33892.251999
671.695008	33836.136395
672.034918	33731.338368
672.374777	33817.980680
672.714585	33641.187414
673.054342	33876.127869
673.394049	33635.483349
673.733705	33910.889145
674.073310	33592.699076
674.412864	33656.275588
674.752368	33251.559154
675.091820	33536.517937
675.431223	33139.915240
675.770574	32851.130222
676.109875	32737.033787
676.449125	32436.407098
676.788324	32366.733310
677.127473	31826.089725
677.466571	31750.046440
677.805619	31404.775292
678.144616	31403.807391
678.483562	31332.429693
678.822458	31012.018996
679.161303	30941.064756
679.500098	30845.504643
679.838842	30736.862737
680.177535	30888.533412
680.516179	31160.256646
680.854771	31408.856106
681.193314	32277.782151
681.531805	33388.832294
681.870247	34162.435160
682.208638	34908.551135
682.546978	35141.512937
682.885268	35218.166202
683.223508	34692.973753
683.561697	34352.889953
683.899836	34171.032848
684.237925	33667.691281
684.575963	33521.724671
684.913951	33057.938517
685.251889	33216.354256
685.589776	33198.664847
685.927614	33186.810574
686.265401	33337.120138
686.603137	33431.142698
686.940824	33942.199752
687.278460	34321.208821
687.616046	34456.037001
687.953582	35064.322789
688.291068	34934.573571
688.628504	35219.171912
688.965889	35146.604502
689.303224	34758.155872
689.640510	34418.913944
689.977745	33684.196018
690.314930	32886.861920
690.652065	32356.572865
690.989150	31611.361777
691.326185	30712.599663
691.663170	30004.002476
692.000105	29241.323790
692.336990	28565.967971
692.673825	28105.670296
693.010610	27603.047092
693.347345	27027.455708
693.684030	26363.999533
694.020665	26100.407680
694.357251	25427.244763
694.693786	25378.655602
695.030272	25143.755477
695.366707	24607.149856
695.703093	24315.488859
696.039429	24295.185612
696.375716	24036.050139
696.711952	24004.358926
697.048139	23839.692156
697.384276	23672.981198
697.720363	23803.070694
698.056400	23591.722839
698.392388	23386.373958
698.728326	23334.989477
699.064214	23130.401810
699.400053	23071.581627
699.735842	22719.353687
700.071581	22436.013114
700.407270	22149.047952
700.742910	21965.479376
701.078501	21687.822704
701.414042	21408.366341
701.749533	21113.443718
702.084974	20760.888103
702.420366	20970.330401
702.755709	20526.413955
703.091002	20229.638708
703.426246	20256.765156
703.761440	20149.423868
704.096584	19883.717251
704.431679	19833.023408
704.766725	19744.667105
705.101721	19681.753505
705.436668	19772.620303
705.771565	19470.819025
706.106413	19807.943668
706.441212	19777.263205
706.775961	19913.215563
707.110661	19981.303907
707.445311	20334.850109
707.779913	20172.754327
708.114465	20420.383366
708.448967	20711.885567
708.783421	21401.008777
709.117825	21683.499915
709.452180	21890.522459
709.786485	22297.507412
710.120742	23093.321602
710.454949	23118.658442
710.789107	23575.878493
711.123216	24290.131855
711.457275	24417.143726
711.791286	24956.758916
712.125247	25014.273440
712.459159	24713.273706
712.793023	25365.523396
713.126837	24273.697693
713.460602	24521.674572
713.794318	24122.924343
714.127985	23739.630293
714.461602	22851.515097
714.795171	22807.253766
715.128691	21782.422477
715.462162	21249.658215
715.795584	20819.317596
716.128957	20560.257741
716.462281	20153.792027
716.795556	19913.545758
717.128782	19432.286965
717.461960	18879.441267
717.795088	18804.839752
718.128167	18410.132529
718.461198	17947.188248
718.794180	17800.283984
719.127113	17437.136905
719.459997	17239.017038
719.792833	16908.536636
720.125619	16864.169441
720.458357	16551.267542
720.791046	16373.778598
721.123686	16222.317130
721.456278	15980.596324
721.788821	15933.443892
722.121315	15683.135480
722.453761	15751.675007
722.786158	15678.285890
723.118506	15685.315779
723.450805	15553.353494
723.783056	15715.797115
724.115259	15614.487567
724.447412	15544.748245
724.779518	15786.345543
725.111574	15806.512679
725.443582	16005.502145
725.775542	15988.737787
726.107453	16456.851772
726.439315	16344.769278
726.771129	16737.361737
727.102895	17105.746574
727.434612	17310.152760
727.766281	17442.195703
728.097901	17696.700875
728.429473	17737.826608
728.760996	17716.003453
729.092471	17802.804561
729.423897	17670.565013
729.755276	17532.853293
730.086606	17656.863157
730.417887	18174.753494
730.749120	18690.156022
731.080305	18869.280822
731.411442	19195.544298
731.742530	19263.715822
732.073570	19366.396564
732.404562	19657.200565
732.735506	19461.381985
733.066401	19181.111475
733.397249	18658.197628
733.728048	18014.041510
734.058798	17186.289089
734.389501	16509.297416
734.720156	16052.478137
735.050762	15525.065060
735.381320	15175.778633
735.711831	14931.189410
736.042293	14588.748871
736.372707	14590.271299
736.703073	14379.283887
737.033391	14571.964349
737.363661	14540.310944
737.693883	14641.464216
738.024056	14807.487057
738.354182	14998.798845
738.684260	15288.022444
739.014290	15504.469426
739.344272	15695.216605
739.674207	15973.962166
740.004093	16087.161275
740.333931	16073.061168
740.663722	16101.004284
740.993464	16108.860922
741.323159	15928.848880
741.652806	15649.473175
741.982405	15434.788077
742.311956	15098.520430
742.641460	14974.775226
742.970915	14665.805428
743.300323	14340.194780
743.629683	14121.978354
743.958996	13846.980891
744.288260	13584.949276
744.617477	13280.892081
744.946647	13204.868961
745.275768	12938.801902
745.604842	12747.404414
745.933869	12575.077611
746.262847	12530.042463
746.591778	12457.646453
746.920662	12361.942667
747.249498	12358.464271
747.578286	12473.019451
747.907027	12629.305303
748.235720	12835.974966
748.564365	12867.192312
748.892963	12763.379830
749.221514	12821.504334
749.550017	12676.515708
749.878473	12640.456335
750.206881	12425.350300
750.535242	12332.421670
750.863555	12240.854152
751.191821	12147.890234
751.520039	12167.409582
751.848210	12073.104717
752.176334	12111.155346
752.504411	12007.360509
752.832440	11850.953669
753.160421	11920.080492
753.488356	11793.514763
753.816243	11704.210722
754.144082	11562.995400
754.471875	11503.103972
754.799620	11450.948194
755.127318	11421.510376
755.454969	11384.500745
755.782572	11339.803355
756.110129	11352.204593
756.437638	11271.069742
756.765100	11259.603638
757.092515	11257.859399
757.419882	11275.538725
757.747203	11281.179777
758.074477	11350.667041
758.401703	11308.684312
758.728882	11476.317801
759.056014	11521.859585
759.383099	11626.483692
759.710138	11730.218035
760.037129	11810.281640
760.364073	11828.639002
760.690970	11814.372537
761.017820	11814.145685
761.344623	12000.471772
761.671379	12312.055409
761.998088	12939.250565
762.324751	14487.731709
762.651366	17351.580962
762.977935	21004.131338
763.304456	23203.528787
763.630931	23677.835829
763.957359	22514.236698
764.283740	20600.675192
764.610074	18720.181135
764.936362	16604.381139
765.262602	15096.602271
765.588796	13626.455616
765.914943	12592.827513
766.241044	11756.202662
766.567097	11125.544234
766.893104	10578.536192
767.219064	10217.771058
767.544978	9839.026649
767.870845	9525.671046
768.196665	9339.123148
768.522438	9139.969845
768.848165	8978.713416
769.173846	8816.952871
769.499479	8687.067542
769.825066	8541.489102
770.150607	8351.762756
770.476101	8288.831512
770.801548	8178.541148
771.126949	8041.978811
771.452303	7950.650747
771.777611	7789.452291
772.102872	7771.583922
772.428087	7652.239645
772.753256	7527.609719
773.078378	7437.894825
773.403453	7297.332332
773.728482	7197.194852
774.053465	7134.918958
774.378401	7046.487037
774.703291	6953.923891
775.028135	6857.012750
775.352932	6819.506565
775.677683	6737.991107
776.002388	6653.771071
776.327046	6651.094218
776.651658	6562.760600
776.976224	6488.096070
777.300743	6472.077804
777.625216	6400.390075
777.949643	6363.826587
778.274024	6371.322782
778.598359	6301.331402
778.922647	6302.125384
779.246889	6260.898828
779.571086	6267.041474
779.895236	6280.224091
780.219339	6273.413492
780.543397	6273.181599
780.867409	6324.034239
781.191374	6317.178269
781.515294	6290.001409
781.839167	6343.062074
782.162995	6312.671478
782.486776	6266.701196
782.810511	6219.422735
783.134201	6147.941694
783.457844	6130.741277
783.781441	6088.614875
784.104993	6041.880858
784.428498	6013.163925
784.751958	5997.919476
785.075372	5978.652186
785.398739	5933.501091
785.722061	5956.284586
786.045337	5955.510769
786.368568	6065.473458
786.691752	6087.047076
787.014891	6335.321382
787.337983	6612.776408
787.661030	7051.197996
787.984031	7468.976059
788.306987	7733.767706
788.629897	7813.468348
788.952760	7732.840134
789.275579	7548.573358
789.598351	7259.921930
789.921078	6993.622978
790.243759	6713.773404
790.566395	6511.093814
790.888984	6322.867212
791.211529	6176.330952
791.534027	6022.840420
791.856480	5884.836313
792.178888	5823.180481
792.501249	5756.919554
792.823566	5653.013812
793.145836	5646.069622
793.468062	5629.809381
793.790241	5591.088278
794.112375	5630.767200
794.434464	5727.789247
794.756507	5756.478453
795.078505	5874.809458
795.400457	6091.019505
795.722364	6329.881977
796.044226	6524.997316
796.366042	6683.105545
796.687812	6625.691844
797.009538	6659.417163
797.331218	6567.186733
797.652852	6497.351628
797.974442	6374.967537
798.295986	6303.640251
798.617484	6176.116702
798.938938	6068.732564
799.260346	6001.501216
799.581709	5859.746490
799.903026	5814.088760
800.224299	5740.951700
800.545526	5628.491119
800.866708	5559.354215
801.187845	5511.007029
801.508936	5438.437098
801.829983	5409.626904
802.150984	5300.193537
802.471940	5276.243015
802.792851	5257.618472
803.113717	5235.233228
803.434538	5213.110124
803.755314	5180.516544
804.076045	5165.672867
804.396731	5132.365963
804.717372	5150.110825
805.037967	5153.196011
805.358518	5180.657697
805.679024	5237.317745
805.999485	5251.148151
806.319901	5262.296662
806.640272	5283.429179
806.960598	5329.003731
807.280879	5321.696578
807.601115	5359.182598
807.921306	5320.141382
808.241453	5319.286907
808.561554	5327.877033
808.881611	5289.496208
809.201623	5289.241630
809.521590	5237.637858
809.841513	5217.415270
810.161390	5239.997118
810.481223	5151.315661
810.801011	5137.029031
811.120755	5116.178818
811.440453	5058.394592
811.760107	5032.788051
812.079716	5005.114637
812.399281	4955.734015
812.718801	4949.692192
813.038276	4913.191717
813.357707	4876.688723
813.677093	4901.251745
813.996434	4838.822095
814.315731	4861.960992
814.634983	4855.664590
814.954191	4864.410992
815.273354	4918.739507
815.592473	4960.933965
815.911547	5036.773083
816.230577	5089.165795
816.549562	5173.148898
816.868502	5224.256116
817.187399	5282.920023
817.506250	5362.716447
817.825058	5383.095312
818.143821	5539.514754
818.462539	5709.754519
818.781213	5936.286329
819.099843	6290.394619
819.418429	6921.486587
819.736970	7540.641102
820.055466	8242.072289
820.373919	9148.509560
820.692327	10589.825856
821.010691	13253.064912
821.329011	19435.626730
821.647286	28943.023593
821.965517	39222.435360
822.283704	44678.188822
822.601847	46157.984245
822.919945	41582.960690
823.237999	36491.889338
823.556010	31329.916678
823.873976	26638.563456
824.191897	22461.791054
824.509775	19413.750643
824.827609	16656.867113
825.145398	15112.466782
825.463144	14355.255227
825.780845	14654.987112
826.098502	15899.653037
826.416116	18339.042178
826.733685	20614.939137
827.051210	21131.801079
827.368692	19721.243383
827.686129	17180.154005
828.003522	14715.561616
828.320872	12506.157476
828.638177	10868.591581
828.955439	9626.206777
829.272656	8578.322292
829.589830	7742.380517
829.906960	7011.508992
830.224046	6480.478887
830.541088	6075.827988
830.858086	5816.274100
831.175041	5616.160457
831.491952	5556.745417
831.808819	5592.323361
832.125642	5831.054763
832.442421	6373.339244
832.759157	7480.611042
833.075849	9239.300740
833.392497	11079.785680
833.709101	12191.690299
834.025662	11937.931217
834.342179	10898.220963
834.658653	9593.310728
834.975083	8497.762133
835.291469	7595.415759
835.607811	6862.263111
835.924110	6343.896385
836.240366	5861.092478
836.556578	5414.602523
836.872746	5062.172937
837.188871	4794.563285
837.504952	4569.243873
837.820990	4405.895365
838.136984	4294.359836
838.452935	4244.515427
838.768842	4273.247484
839.084706	4552.524886
839.400526	5282.647801
839.716303	6188.331418
840.032037	6749.457212
840.347727	6606.941272
840.663373	6009.927504
840.978977	5431.989463
841.294537	4993.199870
841.610054	4667.027134
841.925527	4427.630300
842.240957	4219.619689
842.556344	4042.594531
842.871687	3883.682238
843.186987	3734.758992
843.502244	3616.833800
843.817458	3531.232487
844.132629	3461.092393
844.447756	3410.030546
844.762840	3365.791900
845.077881	3328.169769
845.392879	3291.276085
845.707833	3270.519134
846.022745	3241.908065
846.337613	3228.901888
846.652438	3208.049155
846.967221	3199.693443
847.281960	3176.489012
847.596656	3169.527178
847.911309	3159.369253
848.225919	3144.976759
848.540485	3136.003505
848.855009	3129.689460
849.169490	3117.862913
849.483928	3110.976697
849.798323	3103.805656
850.112675	3095.003801
850.426984	3093.735951
850.741251	3087.270671
851.055474	3082.138776
851.369654	3086.446442
851.683792	3081.717840
851.997887	3084.790423
852.311938	3086.426278
852.625947	3086.506936
852.939914	3078.010071
853.253837	3083.038622
853.567718	3085.413006
853.881555	3076.434711
854.195350	3083.068869
854.509103	3078.025195
854.822812	3077.679876
855.136479	3071.408680
855.450103	3077.256419
855.763685	3068.966241
856.077224	3072.187539
856.390720	3080.384455
856.704173	3091.646393
857.017584	3093.163780
857.330953	3102.028649
857.644278	3110.830503
857.957561	3112.383179
858.270802	3109.963425
858.584000	3110.212962
858.897155	3102.522682
859.210268	3094.320725
859.523339	3082.438725
859.836367	3076.389340
860.149352	3073.450348
860.462295	3069.422466
860.775195	3060.360992
861.088054	3052.716082
861.400869	3055.123233
861.713642	3054.475445
862.026373	3063.272258
862.339062	3066.601940
862.651708	3078.357911
862.964312	3092.513471
863.276873	3099.480346
863.589392	3133.036786
863.901869	3158.368584
864.214303	3179.528828
864.526696	3196.366281
864.839045	3216.112481
865.151353	3227.729820
865.463619	3227.329048
865.775842	3229.922722
866.088023	3235.140316
866.400162	3225.983060
866.712258	3224.952144
867.024313	3227.341651
867.336325	3222.567678
867.648296	3227.339131
867.960224	3224.639593
868.272110	3225.216805
868.583954	3225.524315
868.895755	3233.083525
869.207515	3227.099676
869.519233	3248.154055
869.830909	3255.151176
870.142542	3270.604833
870.454134	3274.695730
870.765684	3286.839869
871.077191	3302.117086
871.388657	3314.041936
871.700081	3333.798218
872.011463	3354.119109
872.322803	3371.034700
872.634101	3390.062536
872.945357	3409.725556
873.256571	3437.663631
873.567744	3452.691310
873.878874	3460.938638
874.189963	3473.755772
874.501010	3476.891369
874.812015	3472.104794
875.122979	3487.825632
875.433900	3488.549038
875.744780	3489.950478
876.055618	3495.044564
876.366415	3495.142867
876.677169	3500.115965
876.987882	3517.938965
877.298554	3539.111811
877.609183	3576.265115
877.919771	3622.265643
878.230317	3686.989018
878.540822	3793.836273
878.851285	3947.513328
879.161707	4164.353519
879.472087	4535.631980
879.782425	5155.852699
880.092722	6335.923800
880.402977	8255.915298
880.713191	10613.801583
881.023363	12983.791679
881.333494	14315.619155
881.643583	14774.149906
881.953631	14372.440521
882.263637	13536.004713
882.573602	12504.990449
882.883526	11556.512476
883.193408	10609.446027
883.503248	9691.575419
883.813048	8869.610244
884.122806	8108.045653
884.432522	7349.374684
884.742197	6693.457554
885.051831	6131.600793
885.361424	5639.281709
885.670975	5245.867542
885.980485	4922.023819
886.289954	4654.870392
886.599382	4441.594296
886.908768	4260.906739
887.218113	4096.151749
887.527417	3966.967141
887.836680	3846.498687
888.145901	3744.861464
888.455082	3665.906912
888.764221	3598.050461
889.073319	3537.634753
889.382376	3507.705422
889.691392	3483.427225
890.000366	3478.096205
890.309300	3470.171511
890.618193	3474.194352
890.927044	3466.604895
891.235855	3477.261894
891.544625	3490.845283
891.853353	3521.311497
892.162041	3576.393664
892.470687	3667.673837
892.779293	3786.851755
893.087858	3959.528918
893.396381	4234.228953
893.704864	4650.721522
894.013306	5214.022573
894.321707	5784.212361
894.630068	6139.974150
894.938387	6183.335635
895.246665	6001.193705
895.554903	5687.848185
895.863100	5355.142113
896.171256	5084.532975
896.479371	4841.440975
896.787446	4617.603662
897.095480	4419.919855
897.403473	4273.615488
897.711425	4129.025113
898.019336	4006.802338
898.327207	3887.132908
898.635038	3784.258081
898.942827	3678.199766
899.250576	3592.366560
899.558284	3513.666587
899.865952	3456.565437
900.173579	3393.825757
900.481165	3345.821369
900.788711	3302.936274
901.096216	3271.779422
901.403681	3246.553488
901.711105	3234.111921
902.018489	3228.233935
902.325832	3261.707197
902.633135	3316.859941
902.940397	3488.964933
903.247619	3894.016603
903.554800	4638.786590
903.861941	5599.912818
904.169041	6306.160828
904.476101	6517.319639
904.783121	6244.855356
905.090100	5841.953738
905.397039	5432.450728
905.703938	5070.599226
906.010796	4747.410853
906.317614	4494.947347
906.624391	4260.460597
906.931129	4066.749219
907.237826	3886.734657
907.544483	3715.164027
907.851099	3544.546175
908.157675	3385.797719
908.464211	3242.029053
908.770707	3146.158910
909.077163	3066.997671
909.383578	3004.686489
909.689954	2960.026907
909.996289	2929.658996
910.302584	2912.682910
910.608839	2896.611712
910.915054	2886.264744
911.221229	2880.598487
911.527363	2885.594270
911.833458	2892.021741
912.139513	2903.369379
912.445527	2916.756163
912.751502	2952.591205
913.057436	2996.300529
913.363331	3052.055691
913.669186	3140.028867
913.975000	3254.021958
914.280775	3443.244188
914.586510	3711.297462
914.892205	4078.689192
915.197859	4579.452209
915.503475	5159.005941
915.809050	5652.139172
916.114585	5943.656496
916.420081	6004.788048
916.725536	5944.657165
917.030952	5702.061718
917.336328	5502.835318
917.641665	5291.507628
917.946961	5066.493206
918.252218	4863.622052
918.557435	4635.361126
918.862612	4443.025983
919.167750	4270.232874
919.472848	4080.546857
919.777906	3912.225251
920.082925	3753.920417
920.387904	3601.206223
920.692843	3490.784789
920.997743	3392.898185
921.302603	3299.067188
921.607423	3234.172415
921.912204	3168.408042
922.216946	3120.585136
922.521647	3073.233578
922.826310	3028.516023
923.130932	2990.888851
923.435516	2952.261009
923.740059	2923.236566
924.044564	2894.176835
924.349028	2867.793956
924.653454	2842.429390
924.957840	2814.577015
925.262186	2794.256124
925.566493	2772.309461
925.870761	2748.794999
926.174989	2738.601786
926.479178	2721.802141
926.783328	2706.930737
927.087438	2692.260979
927.391509	2683.824608
927.695541	2668.292813
927.999533	2660.854591
928.303486	2650.454690
928.607400	2645.368166
928.911275	2641.357928
929.215110	2631.290744
929.518906	2630.892493
929.822663	2631.000877
930.126381	2632.394757
930.430060	2633.907103
930.733699	2634.615385
931.037299	2638.683596
931.340861	2639.349028
931.644383	2643.097126
931.947866	2641.773823
932.251309	2634.570014
932.554714	2634.391053
932.858080	2635.787453
933.161407	2631.729324
933.464694	2628.727317
933.767943	2623.308077
934.071153	2620.147273
934.374323	2616.689042
934.677455	2616.056377
934.980548	2612.328444
935.283602	2607.872064
935.586617	2606.082454
935.889593	2610.070007
936.192530	2611.652929
936.495428	2615.459000
936.798287	2626.799076
937.101108	2638.222330
937.403890	2662.782832
937.706632	2687.214784
938.009336	2722.855742
938.312002	2750.531676
938.614628	2771.177722
938.917216	2790.843263
939.219765	2803.678041
939.522275	2814.115750
939.824747	2812.764721
940.127179	2804.270376
940.429573	2799.380457
940.731929	2797.550518
941.034246	2789.749333
941.336524	2786.570885
941.638763	2782.278343
941.940964	2774.837600
942.243126	2755.557707
942.545250	2749.273908
942.847335	2738.742938
943.149381	2720.831718
943.451389	2708.105326
943.753359	2694.746268
944.055290	2685.737726
944.357182	2676.714061
944.659036	2674.551406
944.960851	2670.659635
945.262628	2664.312822
945.564367	2670.518482
945.866067	2662.064467
946.167729	2663.002122
946.469352	2660.572286
946.770937	2657.729075
947.072484	2654.888385
947.373992	2649.968219
947.675462	2649.391007
947.976893	2643.661735
948.278286	2638.547485
948.579641	2636.034470
948.880958	2634.617905
949.182236	2633.261835
949.483476	2627.091463
949.784678	2629.125568
950.085841	2630.400980
950.386967	2634.428862
950.688054	2640.014461
950.989103	2647.982004
951.290114	2654.757315
951.591087	2666.568738
951.892021	2681.011644
952.192917	2690.635207
952.493776	2704.725232
952.794596	2706.232537
953.095378	2705.970397
953.396122	2704.921837
953.696828	2704.107691
953.997496	2696.893799
954.298126	2687.192099
954.598718	2682.488702
954.899272	2666.344407
955.199788	2659.488438
955.500266	2646.943527
955.800706	2629.755712
956.101108	2615.219545
956.401472	2602.054572
956.701798	2587.767942
957.002087	2575.830490
957.302337	2564.878583
957.602550	2553.916594
957.902724	2544.167002
958.202861	2535.692823
958.502960	2527.130423
958.803022	2518.620955
959.103045	2511.281035
959.403031	2505.372803
959.702979	2501.123110
960.002889	2496.515496
960.302762	2492.601040
960.602596	2484.474700
960.902393	2484.104175
961.202153	2479.761221
961.501875	2475.645119
961.801559	2475.738380
962.101205	2474.016826
962.400814	2471.249233
962.700385	2467.969962
962.999918	2468.645477
963.299414	2466.147585
963.598873	2462.182717
963.898293	2461.839919
964.197677	2460.778756
964.497022	2459.054682
964.796331	2459.016873
965.095601	2456.975206
965.394835	2455.987139
965.694030	2456.108127
965.993189	2458.359002
966.292309	2456.236677
966.591393	2454.205092
966.890439	2455.397324
967.189447	2455.745164
967.488419	2452.823815
967.787353	2456.130812
968.086249	2453.194340
968.385108	2455.472942
968.683930	2454.323559
968.982714	2457.108796
969.281462	2460.320011
969.580172	2460.856894
969.878844	2464.131123
970.177480	2465.693881
970.476078	2466.177832
970.774639	2473.013637
971.073162	2473.167392
971.371649	2473.653863
971.670098	2472.411219
971.968510	2479.468834
972.266885	2472.585138
972.565223	2482.266674
972.863524	2481.928917
973.161788	2485.734988
973.460014	2485.482931
973.758204	2483.879844
974.056356	2489.271358
974.354471	2485.135091
974.652550	2487.890082
974.950591	2488.739516
975.248595	2482.755666
975.546563	2486.687766
975.844493	2481.520584
976.142386	2485.399752
976.440243	2479.194091
976.738062	2480.666108
977.035845	2475.990438
977.333590	2472.650673
977.631299	2473.515231
977.928971	2469.610858
978.226606	2467.601958
978.524204	2467.448203
978.821765	2464.569704
979.119290	2466.571042
979.416777	2464.559622
979.714228	2467.395271
980.011642	2467.296968
980.309020	2469.207565
980.606360	2472.002885
980.903664	2482.223825
981.200931	2492.515340
981.498162	2515.382014
981.795356	2545.328988
982.092513	2582.167220
982.389633	2623.950824
982.686717	2665.305929
982.983764	2699.585776
983.280775	2720.294836
983.577749	2718.923642
983.874686	2711.954247
984.171587	2692.593695
984.468451	2678.110460
984.765279	2658.107162
985.062070	2641.078144
985.358824	2623.633231
985.655543	2600.436362
985.952224	2575.722105
986.248869	2549.571119
986.545478	2521.514578
986.842050	2505.413132
987.138586	2484.325986
987.435086	2471.168574
987.731549	2460.367902
988.027975	2456.771039
988.324366	2451.876078
988.620719	2444.460541
988.917037	2441.750921
989.213318	2436.135076
989.509563	2432.704570
989.805772	2432.933943
990.101944	2437.070210
990.398080	2431.104004
990.694180	2432.502924
990.990244	2435.613316
991.286271	2431.224992
991.582262	2431.943356
991.878217	2430.499066
992.174136	2434.126176
992.470019	2436.185487
992.765865	2434.708429
993.061676	2438.111208
993.357450	2441.440890
993.653188	2443.636313
993.948890	2452.183589
994.244556	2456.405555
994.540186	2464.201700
994.835780	2474.788123
995.131337	2491.275216
995.426859	2504.629233
995.722345	2528.221833
996.017795	2543.735984
996.313208	2559.524878
996.608586	2568.989644
996.903928	2573.808987
997.199234	2570.572566
997.494504	2568.241033
997.789738	2561.163253
998.084936	2551.761501
998.380099	2541.636343
998.675225	2529.406504
998.970316	2516.007117
999.265371	2502.796773
999.560390	2484.807416
999.855373	2479.075624
1000.150320	2468.683285
1000.445232	2456.677778
1000.740108	2453.612756
1001.034948	2444.130346
1001.329752	2438.980807
1001.624521	2435.532658
1001.919254	2428.064188
1002.213951	2428.638880
1002.508613	2425.120154
1002.803239	2423.103693
1003.097829	2420.197468
1003.392384	2420.694021
1003.686903	2422.841553
1003.981386	2418.939700
1004.275834	2421.183013
1004.570246	2416.283012
1004.864623	2417.250913
1005.158964	2417.266037
1005.453270	2414.190933
1005.747540	2415.703279
1006.041775	2416.648495
1006.335974	2414.233783
1006.630138	2413.447363
1006.924266	2413.225552
1007.218359	2412.741601
1007.512416	2412.250089
1007.806438	2412.078689
1008.100425	2413.344019
1008.394376	2412.650860
1008.688292	2410.641961
1008.982172	2411.892167
1009.276017	2413.870820
1009.569827	2411.624986
1009.863602	2412.333268
1010.157341	2412.106416
1010.451045	2411.498957
1010.744714	2409.172464
1011.038347	2408.527197
1011.331945	2409.298493
1011.625508	2411.824111
1011.919036	2407.604665
1012.212528	2409.081723
1012.505986	2409.079203
1012.799408	2408.494429
1013.092795	2407.733215
1013.386147	2407.403019
1013.679464	2408.668349
1013.972745	2407.929820
1014.265992	2408.771693
1014.559204	2406.241033
1014.852380	2407.541651
1015.145521	2408.970818
1015.438628	2406.253636
1015.731699	2405.764644
1016.024736	2407.090468
1016.317737	2409.250602
1016.610703	2409.792526
1016.903635	2406.349418
1017.196531	2404.539644
1017.489393	2407.216497
1017.782219	2402.838254
1018.075011	2408.018040
1018.367768	2411.254461
1018.660490	2409.726991
1018.953177	2409.726991
1019.245829	2409.726991
