Dividing Wavelength (nm)	Counts (n)	Blue Motor Position (mm): 14.400000	Red Motor Position (mm): 0.000000	
326.493990	1973.336988
326.888308	1973.336988
327.282561	1973.336988
327.676750	1949.845211
328.070874	1950.210695
328.464933	1959.912395
328.858929	1968.807511
329.252859	1980.540797
329.646726	1996.619557
330.040528	2008.302431
330.434265	2029.140040
330.827938	2047.094110
331.221547	2068.614796
331.615091	2088.625656
332.008571	2110.990735
332.401986	2129.895062
332.795338	2150.160500
333.188625	2171.635816
333.581847	2190.799762
333.975006	2204.824252
334.368100	2225.308981
334.761129	2240.823132
335.154095	2256.266706
335.546996	2288.099072
335.939833	2340.552278
336.332606	2357.974506
336.725315	2366.335259
337.117960	2375.585777
337.510540	2381.695655
337.903056	2393.582696
338.295508	2398.008829
338.687896	2405.026115
339.080220	2411.861920
339.472480	2420.053795
339.864676	2422.027407
340.256807	2428.021338
340.648875	2428.611153
341.040879	2429.901689
341.432818	2430.478901
341.824694	2429.422779
342.216506	2430.216761
342.608253	2430.962852
342.999937	2425.939342
343.391557	2429.160639
343.783113	2428.502769
344.174605	2424.147212
344.566033	2424.008580
344.957397	2420.452046
345.348697	2420.124371
345.739934	2417.387024
346.131106	2416.731674
346.522215	2412.237486
346.913260	2412.933165
347.304241	2413.845614
347.695159	2408.703637
348.086012	2406.011661
348.476802	2408.877557
348.867528	2402.787843
349.258191	2403.317164
349.648789	2401.288100
350.039324	2401.124262
350.429796	2403.173491
350.820203	2401.860271
351.210548	2399.246432
351.600828	2397.209806
351.991045	2396.904816
352.381198	2396.584703
352.771288	2400.070661
353.161314	2397.159395
353.551276	2394.840464
353.941175	2393.897768
354.331010	2396.667882
354.720782	2396.357851
355.110490	2400.655435
355.500135	2398.039076
355.889717	2395.710063
356.279235	2399.266597
356.668689	2397.981103
357.058080	2398.447409
357.447408	2398.447409
357.836672	2394.666544
358.225873	2399.763151
358.615010	2396.524209
359.004084	2401.280538
359.393095	2399.914385
359.782043	2405.852864
360.170927	2403.617113
360.559748	2402.422359
360.948505	2401.857750
361.337199	2403.352452
361.725830	2405.348749
362.114398	2404.887483
362.502903	2406.180539
362.891344	2406.321692
363.279722	2406.561147
363.668037	2405.948646
364.056289	2407.045097
364.444478	2406.886301
364.832603	2410.430232
365.220665	2406.760272
365.608665	2410.422670
365.996601	2410.163051
366.384474	2411.196487
366.772284	2410.689852
367.160031	2410.243709
367.547715	2408.688513
367.935336	2407.836558
368.322893	2408.983421
368.710388	2410.097516
369.097820	2414.362332
369.485189	2409.921076
369.872495	2414.493402
370.259738	2413.550706
370.646918	2415.156314
371.034035	2413.185223
371.421090	2414.556417
371.808081	2413.890984
372.195010	2410.316806
372.581875	2411.080541
372.968678	2414.735377
373.355418	2413.044070
373.742096	2415.274781
374.128710	2412.602969
374.515262	2414.632034
374.901751	2416.663619
375.288177	2414.773186
375.674540	2416.406520
376.060841	2417.603794
376.447079	2415.826787
376.833254	2414.813515
377.219367	2414.926941
377.605417	2417.603794
377.991404	2409.389234
378.377329	2414.576581
378.763191	2414.742939
379.148991	2416.918197
379.534727	2419.761408
379.920402	2420.255441
380.306013	2417.666808
380.691563	2420.434402
381.077049	2419.176634
381.462474	2419.277457
381.847835	2418.740574
382.233134	2421.553538
382.618371	2418.397776
383.003545	2422.173600
383.388657	2420.820050
383.773706	2417.427354
384.158693	2420.066398
384.543618	2420.935997
384.928480	2418.186047
385.313280	2421.251069
385.698017	2419.370718
386.082692	2420.164700
386.467305	2419.663105
386.851856	2424.081677
387.236344	2423.617891
387.620770	2425.024372
388.005133	2423.471697
388.389435	2423.280133
388.773674	2422.034968
389.157851	2425.609146
389.541965	2428.011256
389.926018	2425.437747
390.310008	2423.373395
390.693936	2424.283323
391.077802	2425.185689
391.461606	2424.452202
391.845348	2425.044537
392.229027	2428.089394
392.612645	2428.026380
392.996200	2426.766091
393.379694	2428.412028
393.763125	2428.470001
394.146494	2426.556883
394.529801	2429.742892
394.913047	2428.646442
395.296230	2429.284148
395.679351	2428.838005
396.062410	2430.534354
396.445408	2429.967224
396.828343	2431.187183
397.211217	2424.623601
397.594028	2431.938315
397.976778	2427.408838
398.359466	2430.728438
398.742092	2424.152253
399.124656	2432.394539
399.507158	2431.983685
399.889598	2432.276072
400.271977	2429.684919
400.654294	2435.083995
401.036549	2434.584921
401.418742	2433.206165
401.800874	2433.218768
402.182944	2431.076278
402.564952	2433.841351
402.946898	2432.316402
403.328783	2432.013932
403.710606	2432.886052
404.092367	2431.875301
404.474067	2434.738676
404.855705	2433.342276
405.237282	2435.406629
405.618797	2433.463264
406.000250	2434.151382
406.381642	2434.552153
406.762972	2435.018460
407.144240	2432.742379
407.525447	2438.028029
407.906593	2436.324119
408.287677	2434.763882
408.668700	2437.455858
409.049661	2437.614654
409.430560	2434.852102
409.811399	2436.266146
410.192176	2436.540888
410.572891	2437.302103
410.953545	2436.314037
411.334138	2437.594490
411.714669	2435.890580
412.095139	2439.210179
412.475547	2438.373348
412.855894	2437.586928
413.236180	2437.234047
413.616405	2440.162958
413.996568	2439.626075
414.376670	2438.005344
414.756711	2437.546599
415.136691	2441.302258
415.516609	2438.600200
415.896466	2438.212031
416.276262	2439.056424
416.655997	2438.501897
417.035670	2433.997626
417.415283	2437.614654
417.794834	2436.235899
418.174324	2441.254367
418.553753	2439.585745
418.933121	2439.716815
419.312428	2441.418205
419.691674	2439.489963
420.070859	2440.281425
420.449983	2443.963987
420.829045	2442.144131
421.208047	2442.486929
421.586988	2443.477516
421.965867	2441.924841
422.344686	2440.843513
422.723444	2443.442228
423.102141	2441.869388
423.480777	2441.317382
423.859352	2440.593976
424.237866	2444.021961
424.616319	2443.001127
424.994712	2444.543720
425.373044	2440.931733
425.751314	2442.116405
426.129524	2442.340736
426.507673	2443.248144
426.885762	2442.620520
427.263789	2443.711930
427.641756	2444.957095
428.019662	2443.719492
428.397508	2444.919286
428.775292	2445.055397
429.153016	2444.246292
429.530679	2444.251333
429.908282	2443.984152
430.285824	2443.283432
430.663305	2444.153031
431.040726	2442.020623
431.418086	2445.378031
431.795385	2446.512291
432.172624	2446.093875
432.549802	2446.441715
432.926920	2446.850048
433.303977	2445.194029
433.680974	2444.289142
434.057910	2444.861313
434.434786	2445.917435
434.811601	2448.470779
435.188355	2449.093362
435.565050	2447.308793
435.941683	2447.495316
436.318257	2446.855089
436.694770	2443.590942
437.071222	2445.551951
437.447614	2443.222938
437.823946	2442.653287
438.200218	2450.658640
438.576429	2446.441715
438.952580	2447.336519
439.328670	2447.114709
439.704700	2449.942796
440.080670	2445.483895
440.456580	2449.859617
440.832429	2449.708382
441.208218	2448.735440
441.583947	2451.934052
441.959616	2448.589246
442.335224	2450.199895
442.710773	2450.376335
443.086261	2452.549073
443.461689	2444.039605
443.837057	2449.123608
444.212365	2451.813064
444.587612	2451.170317
444.962800	2453.073352
445.337927	2450.638475
445.712995	2447.376849
446.088002	2453.423713
446.462949	2453.247272
446.837837	2454.338682
447.212664	2454.331120
447.587431	2453.816923
447.962139	2455.866152
448.336786	2461.487038
448.711374	2459.702470
449.085901	2456.219033
449.460369	2457.073508
449.834776	2460.146091
450.209124	2458.343879
450.583412	2459.178190
450.957640	2459.780608
451.331808	2459.944445
451.705917	2457.678447
452.079965	2457.897737
452.453954	2458.953858
452.827883	2459.218519
453.201752	2457.423868
453.575562	2458.943776
453.949311	2461.219857
454.323001	2458.911009
454.696632	2460.191462
455.070202	2461.373612
455.443713	2461.938222
455.817164	2464.020218
456.190556	2461.388736
456.563888	2462.389405
456.937160	2459.546194
457.310373	2463.707667
457.683526	2464.320167
458.056619	2464.781432
458.429653	2464.562142
458.802628	2463.926957
459.175542	2464.461319
459.548398	2469.124386
459.921194	2467.294448
460.293930	2470.606486
460.666607	2469.492391
461.039224	2472.895169
461.411782	2475.992958
461.784280	2473.295941
462.156719	2471.269397
462.529099	2475.524131
462.901419	2472.466671
463.273680	2472.572536
463.645882	2469.865436
464.018024	2471.468523
464.390106	2475.695530
464.762130	2477.356591
465.134094	2478.299286
465.505999	2485.747591
465.877845	2490.410658
466.249631	2491.013076
466.621358	2491.607933
466.993026	2489.140288
467.364634	2492.142295
467.736184	2484.870430
468.107674	2486.352530
468.479105	2484.235245
468.850477	2483.433702
469.221790	2481.321458
469.593043	2479.075624
469.964238	2480.280460
470.335373	2480.290542
470.706449	2483.468990
471.077467	2484.646099
471.448425	2491.340751
471.819324	2494.057933
472.190164	2491.847387
472.560945	2489.420072
472.931667	2487.895123
473.302330	2484.467138
473.672934	2484.109216
474.043479	2486.470997
474.413965	2481.139977
474.784393	2480.214925
475.154761	2484.749443
475.525070	2479.501602
475.895321	2480.950933
476.265513	2481.321458
476.635645	2486.939824
477.005719	2483.700883
477.375734	2485.959320
477.745691	2489.505771
478.115588	2491.910402
478.485427	2495.887872
478.855207	2498.322749
479.224928	2501.914572
479.594591	2505.796260
479.964194	2504.457834
480.333739	2508.122753
480.703226	2505.685355
481.072653	2508.702485
481.442022	2508.594100
481.811333	2515.145080
482.180584	2511.127280
482.549777	2511.971673
482.918912	2513.491581
483.287988	2512.856396
483.657005	2513.715913
484.025964	2514.593073
484.394864	2516.942251
484.763706	2517.464011
485.132489	2515.250944
485.501213	2519.583816
485.869879	2518.787313
486.238487	2525.706297
486.607036	2524.365350
486.975527	2525.371060
487.343959	2525.595392
487.712333	2528.418438
488.080648	2524.846780
488.448905	2532.834489
488.817104	2534.198121
489.185244	2536.401105
489.553326	2543.809081
489.921350	2551.708569
490.289315	2561.324570
490.657222	2568.377144
491.025070	2565.705332
491.392861	2571.331260
491.760593	2569.395457
492.128267	2571.197669
492.495883	2568.137689
492.863440	2566.090981
493.230939	2566.297668
493.598380	2566.416135
493.965763	2564.503017
494.333088	2566.083419
494.700354	2567.573080
495.067563	2572.067268
495.434713	2567.797411
495.801805	2575.737228
496.168839	2577.426015
496.535815	2583.455235
496.902733	2582.948599
497.269593	2589.171903
497.636395	2587.750298
498.003139	2591.861359
498.369825	2593.663572
498.736453	2598.056937
499.103023	2598.934098
499.469535	2602.566249
499.835989	2603.831579
500.202385	2606.087495
500.568723	2608.240068
500.935003	2612.298197
501.301226	2615.890019
501.667390	2620.424537
502.033497	2625.926956
502.399546	2627.628346
502.765537	2626.599950
503.131470	2631.731845
503.497345	2635.409367
503.863163	2634.141516
504.228923	2641.010088
504.594625	2643.339102
504.960269	2645.660553
505.325856	2652.599701
505.691385	2650.704227
506.056856	2654.868220
506.422270	2658.996925
506.787625	2659.155722
507.152924	2663.927174
507.518164	2665.923471
507.883347	2668.426404
508.248472	2670.697443
508.613540	2676.169616
508.978550	2685.531039
509.343503	2686.251924
509.708398	2691.209898
510.073236	2696.666947
510.438016	2700.362113
510.802738	2696.578727
511.167403	2705.126004
511.532010	2707.122301
511.896561	2712.750749
512.261053	2722.467573
512.625488	2719.813405
512.989866	2720.246945
513.354186	2720.549414
513.718449	2720.977912
514.082655	2736.360993
514.446803	2732.592730
514.810894	2741.356776
515.174927	2743.002713
515.538904	2742.972466
515.902822	2753.165679
516.266684	2752.999321
516.630488	2755.653489
516.994235	2759.603233
517.357925	2765.403080
517.721558	2767.958945
518.085133	2772.422887
518.448651	2778.487395
518.812112	2779.293980
519.175516	2781.950668
519.538863	2785.892850
519.902152	2790.278654
520.265385	2796.771660
520.628560	2802.873977
520.991678	2799.398101
521.354739	2804.628298
521.717743	2810.196253
522.080690	2811.600214
522.443580	2819.960968
522.806413	2823.678819
523.169189	2827.242914
523.531908	2832.417659
523.894569	2836.548884
524.257174	2838.209945
524.619722	2845.849813
524.982213	2850.258302
525.344647	2851.541276
525.707025	2860.088552
526.069345	2865.981661
526.431608	2870.102804
526.793815	2875.920296
527.155964	2877.349463
527.518057	2882.516646
527.880093	2889.150804
528.242072	2897.856877
528.603995	2898.413924
528.965860	2905.227044
529.327669	2910.104360
529.689421	2913.668456
530.051117	2922.520722
530.412755	2932.108997
530.774337	2936.514965
531.135862	2941.503187
531.497331	2947.456790
531.858743	2951.666153
532.220098	2965.884728
532.581396	2968.385140
532.942638	2972.186170
533.303824	2984.335351
533.664953	2995.148626
534.026025	3002.783453
534.387040	3016.399610
534.747999	3027.638862
535.108902	3035.344266
535.469748	3042.721994
535.830537	3052.406051
536.191270	3070.783577
536.551947	3078.700709
536.912567	3093.483893
537.273131	3106.366562
537.633638	3112.922582
537.994089	3130.564100
538.354483	3139.716315
538.714821	3162.572907
539.075103	3183.309693
539.435328	3199.814431
539.795497	3210.668035
540.155609	3228.922053
540.515665	3252.025661
540.875665	3265.551077
541.235609	3286.227369
541.595496	3304.088177
541.955328	3337.684947
542.315102	3348.815815
542.674821	3365.217209
543.034483	3384.882750
543.394090	3408.170360
543.753640	3434.190276
544.113134	3475.366420
544.472571	3483.160044
544.831953	3533.347251
545.191278	3544.412584
545.550548	3567.339752
545.909761	3606.635546
546.268918	3642.120228
546.628019	3680.823687
546.987064	3699.596943
547.346053	3710.972307
547.704986	3771.430865
548.063863	3792.686890
548.422684	3833.121985
548.781449	3866.781770
549.140158	3914.256836
549.498811	3949.302937
549.857408	3970.160712
550.215949	4036.383829
550.574434	4074.154674
550.932864	4114.788895
551.291237	4183.633412
551.649555	4216.058114
552.007817	4273.280251
552.366022	4308.238132
552.724173	4362.516236
553.082267	4431.872431
553.440305	4497.800641
553.798288	4521.173950
554.156215	4592.954940
554.514086	4662.036392
554.871902	4706.206982
555.229661	4766.663019
555.587365	4817.278724
555.945014	4885.840937
556.302606	4938.881437
556.660143	5022.519221
557.017625	5089.536320
557.375050	5145.704856
557.732421	5234.230038
558.089735	5306.389115
558.446994	5367.898753
558.804197	5473.430268
559.161345	5542.620104
559.518437	5560.226334
559.875474	5658.808618
560.232455	5748.193317
560.589381	5838.803016
560.946251	5903.521349
561.303065	6032.511873
561.659825	6099.566781
562.016528	6162.540875
562.373177	6226.379527
562.729770	6353.015832
563.086307	6400.571557
563.442789	6533.390837
563.799216	6635.617876
564.155587	6707.030861
564.511904	6805.492157
564.868164	6910.890081
565.224370	7034.284925
565.580520	7110.645803
565.936615	7238.005513
566.292654	7311.523180
566.648638	7451.216074
567.004567	7554.030407
567.360441	7669.341760
567.716260	7767.329188
568.072023	7920.373577
568.427732	8033.746607
568.783385	8099.027028
569.138982	8263.794621
569.494525	8384.704176
569.850013	8475.182805
570.205445	8592.908871
570.560823	8719.401503
570.916145	8830.400149
571.271412	8961.588616
571.626625	9056.785765
571.981782	9189.723513
572.336884	9277.553016
572.691931	9457.865007
573.046923	9523.941931
573.401860	9643.286207
573.756743	9773.506772
574.111570	9929.651472
574.466342	10046.172702
574.821059	10203.688595
575.175722	10254.258929
575.530330	10398.546835
575.884882	10491.193160
576.239380	10626.036464
576.593823	10767.823957
576.948211	10898.437733
577.302544	10950.195259
577.656823	11109.901533
578.011047	11303.887654
578.365216	11404.108313
578.719330	11517.274655
579.073389	11628.570729
579.427394	11811.710807
579.781344	11963.888118
580.135239	12043.034234
580.489080	12219.696429
580.842866	12265.157555
581.196597	12549.188765
581.550273	12700.032691
581.903895	12837.159637
582.257463	13119.741516
582.610975	13141.920073
582.964434	13387.855284
583.317837	13468.221358
583.671186	13586.970778
584.024481	13823.965503
584.377721	13859.994629
584.730906	14109.700623
585.084037	14290.045382
585.437113	14378.505029
585.790135	14560.883893
586.143103	14607.557416
586.496016	14816.195650
586.848874	15001.533671
587.201679	15189.142732
587.554428	15196.333938
587.907124	15435.181287
588.259765	15537.491504
588.612352	15809.930581
588.964884	15770.102945
589.317362	16059.634055
589.669786	16219.446193
590.022155	16317.736090
590.374470	16640.112838
590.726731	16646.308416
591.078937	16648.153478
591.431090	16856.017895
591.783188	16901.456335
592.135232	16953.203780
592.487222	17223.573463
592.839157	17437.910722
593.191038	17484.075088
593.542866	17567.508705
593.894639	17500.763828
594.246358	17786.115821
594.598022	17956.834496
594.949633	17971.947875
595.301190	18120.246018
595.652692	18222.271411
596.004141	18543.556748
596.355535	18292.474519
596.706876	18439.298125
597.058162	18529.310447
597.409395	18901.334998
597.760573	19109.569940
598.111698	19097.347663
598.462768	19255.768443
598.813785	19439.379869
599.164748	19366.325988
599.515657	19706.954233
599.866511	19628.191245
600.217312	20097.321022
600.568060	19759.357027
600.918753	20287.954775
601.269392	20447.678694
601.619978	20436.625964
601.970510	20685.850528
602.320988	20951.773914
602.671412	21272.078747
603.021783	21303.727111
603.372100	21298.421296
603.722363	21516.836848
604.072572	21715.730532
604.422728	21885.095657
604.772830	21939.323349
605.122878	22147.966625
605.472872	22283.775309
605.822813	22581.389909
606.172701	22653.856495
606.522534	22966.566830
606.872314	23259.301593
607.222041	23289.175471
607.571714	23670.914325
607.921333	23507.815354
608.270899	23837.842052
608.620411	24192.903121
608.969870	24236.332661
609.319276	24386.864035
609.668627	24581.722276
610.017926	25007.823284
610.367171	25276.302535
610.716362	25483.403217
611.065500	25609.835356
611.414585	25886.546811
611.763616	26222.680867
612.112594	26324.920508
612.461518	26629.338145
612.810389	26947.873533
613.159207	27026.583588
613.507971	27209.022946
613.856682	27688.965998
614.205340	27751.257016
614.553945	28358.937865
614.902496	28146.584300
615.250994	28628.019534
615.599439	28808.354210
615.947830	29111.042731
616.296169	29288.188877
616.644454	29516.943835
616.992686	29779.986202
617.340864	30273.676480
617.688990	30222.445754
618.037063	30794.309206
618.385082	30906.058983
618.733048	31256.769536
619.080961	31399.182132
619.428821	31548.032282
619.776628	31755.687491
620.124382	31756.877203
620.472083	31992.999808
620.819731	32214.682028
621.167326	32107.227313
621.514868	32245.375093
621.862357	32044.399413
622.209793	32196.657382
622.557176	32088.741402
622.904506	32026.999870
623.251783	31883.460576
623.599007	31857.223891
623.946179	31807.891160
624.293297	31888.060629
624.640363	31557.484445
624.987376	31668.162978
625.334336	31596.306371
625.681243	31433.366196
626.028097	31520.394156
626.374899	31528.097039
626.721647	31598.521958
627.068343	31636.423873
627.414987	31552.057643
627.761577	31480.185913
628.108115	31829.527792
628.454600	31504.068379
628.801032	31743.797930
629.147412	31816.602273
629.493739	31922.302667
629.840014	31733.322412
630.186236	32107.391151
630.532405	31870.898021
630.878521	32142.709475
631.224585	32125.577113
631.570597	31969.893680
631.916556	32187.537935
632.262462	32254.020672
632.608316	32338.606193
632.954117	32321.940138
633.299866	32411.866761
633.645562	32424.981323
633.991206	32105.634309
634.336797	31836.577846
634.682336	31933.998144
635.027823	31809.907621
635.373257	31739.916241
635.718639	31623.432820
636.063968	31585.755236
636.409245	31175.120488
636.754470	31303.821145
637.099642	31176.426147
637.444762	30855.758350
637.789829	31038.601000
638.134845	30814.466259
638.479808	30830.865133
638.824719	30821.975058
639.169577	30555.776929
639.514383	30688.838185
639.859137	30484.063995
640.203839	30761.461047
640.548489	30496.455151
640.893086	30615.680960
641.237632	30471.899691
641.582125	30630.161675
641.926566	30614.118203
642.270955	30649.161783
642.615292	30729.908465
642.959576	30757.886869
643.303809	30808.860496
643.647990	31006.259478
643.992118	31011.555210
644.336195	31059.826779
644.680219	31194.496163
645.024192	31511.980470
645.368112	31994.943173
645.711981	32071.523341
646.055797	32886.325037
646.399562	32864.590102
646.743274	33736.003956
647.086935	34162.989687
647.430544	34115.864981
647.774101	34276.660145
648.117606	34542.376843
648.461059	34858.114391
648.804460	34562.037343
649.147810	34079.732511
649.491108	33907.219185
649.834354	33623.230824
650.177548	32915.833431
650.520690	32563.197158
650.863781	32628.016314
651.206820	32531.382436
651.549807	32170.332477
651.892742	31781.316717
652.235626	31654.685453
652.578458	31564.090877
652.921238	31053.958876
653.263967	31404.571126
653.606644	31150.131488
653.949269	31148.344399
654.291843	30821.022280
654.634365	31214.665819
654.976836	30881.211136
655.319255	30892.284031
655.661622	30932.635947
656.003938	30766.378693
656.346203	30667.211635
656.688416	30909.892781
657.030577	30775.440167
657.372687	30639.964198
657.714746	30914.087021
658.056753	31070.859344
658.398708	30594.399729
658.740612	30677.672029
659.082465	30950.302670
659.424266	30813.768059
659.766016	30950.728648
660.107715	30865.787726
660.449362	31020.851098
660.790958	31017.516374
661.132503	31072.321278
661.473996	31106.833018
661.815438	31229.201986
662.156829	31447.909925
662.498168	31270.829314
662.839456	31319.196665
663.180693	31474.159213
663.521879	31661.087718
663.863013	31650.652530
664.204097	31656.044044
664.545129	32121.150980
664.886110	32112.356687
665.227040	32196.579245
665.567918	32318.643223
665.908746	32405.073806
666.249522	32580.826073
666.590248	32591.581375
666.930922	32731.231419
667.271545	32709.317523
667.612118	32807.047852
667.952639	32627.504637
668.293109	32707.119580
668.633528	32642.174395
668.973896	32577.201483
669.314213	32633.221306
669.654480	32417.207863
669.994695	32448.387400
670.334859	32368.583414
670.674973	32288.449232
671.015035	32465.860039
671.355047	32454.469552
671.695008	32403.266552
672.034918	32327.434996
672.374777	32425.850922
672.714585	32288.315642
673.054342	32523.931611
673.394049	32315.452173
673.733705	32595.213526
674.073310	32295.960552
674.412864	32369.833620
674.752368	32007.170492
675.091820	32312.528304
675.431223	31919.305701
675.770574	31668.271363
676.109875	31574.664697
676.449125	31313.124595
676.788324	31254.311973
677.127473	30765.057910
677.466571	30705.121112
677.805619	30387.387267
678.144616	30395.594266
678.483562	30332.536993
678.822458	30029.810663
679.161303	29992.249026
679.500098	29898.977597
679.838842	29814.815534
680.177535	29970.004934
680.516179	30252.803583
680.854771	30496.492960
681.193314	31351.225636
681.531805	32428.452157
681.870247	33201.419838
682.208638	33934.292702
682.546978	34169.341541
682.885268	34246.009929
683.223508	33745.440996
683.561697	33430.351237
683.899836	33262.059877
684.237925	32782.618420
684.575963	32641.025012
684.913951	32205.365976
685.251889	32362.995295
685.589776	32364.553011
685.927614	32351.153624
686.265401	32507.439476
686.603137	32619.610190
686.940824	33118.177785
687.278460	33489.438601
687.616046	33628.571927
687.953582	34224.597628
688.291068	34095.584419
688.628504	34379.010691
688.965889	34325.390458
689.303224	33957.650888
689.640510	33632.798934
689.977745	32935.514096
690.314930	32154.684736
690.652065	31665.105518
690.989150	30926.236202
691.326185	30068.241899
691.663170	29389.465658
692.000105	28664.638475
692.336990	28006.218413
692.673825	27579.363752
693.010610	27073.148727
693.347345	26527.658072
693.684030	25887.338272
694.020665	25624.734486
694.357251	24969.029084
694.693786	24930.887714
695.030272	24703.821542
695.366707	24178.248486
695.703093	23895.832966
696.039429	23896.745414
696.375716	23641.680674
696.711952	23613.745120
697.048139	23464.005207
697.384276	23290.912148
697.720363	23425.896604
698.056400	23232.409558
698.392388	23012.645497
698.728326	22977.942194
699.064214	22787.389099
699.400053	22717.324622
699.735842	22382.733159
700.071581	22105.026076
700.407270	21834.369047
700.742910	21647.657311
701.078501	21399.473746
701.414042	21117.484202
701.749533	20824.532670
702.084974	20490.362143
702.420366	20688.043430
702.755709	20264.011815
703.091002	19978.238886
703.426246	20005.599748
703.761440	19902.987062
704.096584	19630.212748
704.431679	19606.622668
704.766725	19501.789353
705.101721	19455.546849
705.436668	19543.242762
705.771565	19226.229802
706.106413	19569.807122
706.441212	19567.911648
706.775961	19690.721717
707.110661	19754.986347
707.445311	20125.962337
707.779913	19955.556214
708.114465	20202.111487
708.448967	20481.862758
708.783421	21179.054335
709.117825	21443.535951
709.452180	21654.614103
709.786485	22059.907749
710.120742	22852.760262
710.454949	22870.432026
710.789107	23342.596578
711.123216	24038.830336
711.457275	24152.667151
711.791286	24681.716083
712.125247	24751.699901
712.459159	24455.343069
712.793023	25097.563384
713.126837	24005.893957
713.460602	24257.298820
713.794318	23877.215984
714.127985	23494.035360
714.461602	22622.371969
714.795171	22584.107091
715.128691	21576.025036
715.462162	21053.607742
715.795584	20637.294134
716.128957	20377.473065
716.462281	19976.298042
716.795556	19740.656867
717.128782	19253.051261
717.461960	18722.618533
717.795088	18651.888624
718.128167	18244.018948
718.461198	17794.474054
718.794180	17650.181107
719.127113	17294.114329
719.459997	17098.081500
719.792833	16752.283552
720.125619	16729.474851
720.458357	16411.872077
720.791046	16243.401756
721.123686	16077.872949
721.456278	15855.225348
721.788821	15822.190667
722.121315	15555.672425
722.453761	15638.594365
722.786158	15568.577779
723.118506	15573.369396
723.450805	15434.679692
723.783056	15593.402941
724.115259	15490.283619
724.447412	15440.078767
724.779518	15674.419325
725.111574	15702.140630
725.443582	15890.997376
725.775542	15877.101436
726.107453	16339.791138
726.439315	16219.781430
726.771129	16621.558871
727.102895	16988.146537
727.434612	17176.405907
727.766281	17303.551369
728.097901	17565.656081
728.429473	17605.370291
728.760996	17584.943536
729.092471	17673.496444
729.423897	17544.715128
729.755276	17415.117145
730.086606	17531.119136
730.417887	18057.879384
730.749120	18571.530111
731.080305	18736.438856
731.411442	19060.968176
731.742530	19131.158682
732.073570	19245.083717
732.404562	19518.553711
732.735506	19341.241206
733.066401	19054.122289
733.397249	18536.957878
733.728048	17892.481647
734.058798	17079.988799
734.389501	16401.280613
734.720156	15949.631037
735.050762	15431.380257
735.381320	15074.728704
735.711831	14836.269524
736.042293	14494.098687
736.372707	14506.535213
736.703073	14306.149348
737.033391	14480.230472
737.363661	14453.885402
737.693883	14555.202512
738.024056	14729.376898
738.354182	14914.102419
738.684260	15196.492734
739.014290	15415.006589
739.344272	15602.061123
739.674207	15874.906013
740.004093	15983.973897
740.333931	15981.266798
740.663722	16018.904052
740.993464	16014.976993
741.323159	15835.093501
741.652806	15566.016873
741.982405	15355.289080
742.311956	15020.279202
742.641460	14895.145160
742.970915	14585.693931
743.300323	14262.699643
743.629683	14048.102765
743.958996	13773.952216
744.288260	13506.093027
744.617477	13205.539434
744.946647	13135.013692
745.275768	12874.106254
745.604842	12682.509640
745.933869	12516.171728
746.262847	12464.174747
746.591778	12389.515258
746.920662	12302.986373
747.249498	12295.291052
747.578286	12408.326324
747.907027	12549.460987
748.235720	12771.148248
748.564365	12805.594453
748.892963	12704.060573
749.221514	12761.013009
749.550017	12610.766459
749.878473	12572.118453
750.206881	12357.357738
750.535242	12270.607042
750.863555	12189.174763
751.191821	12088.071902
751.520039	12109.431271
751.848210	12015.832168
752.176334	12051.924309
752.504411	11958.239506
752.832440	11800.776545
753.160421	11866.987059
753.488356	11745.565828
753.816243	11646.882721
754.144082	11506.559683
754.471875	11453.173863
754.799620	11396.871737
755.127318	11365.737571
755.454969	11333.242293
755.782572	11291.751076
756.110129	11294.203598
756.437638	11214.381968
756.765100	11206.069105
757.092515	11213.134282
757.419882	11230.254040
757.747203	11232.328475
758.074477	11309.891668
758.401703	11260.387538
758.728882	11426.057497
759.056014	11462.855399
759.383099	11583.550705
759.710138	11683.758761
760.037129	11754.765933
760.364073	11775.981629
760.690970	11767.119281
761.017820	11765.712799
761.344623	11946.526385
761.671379	12270.551589
761.998088	12891.183163
762.324751	14436.425366
762.651366	17284.712577
762.977935	20919.898698
763.304456	23115.288430
763.630931	23587.261418
763.957359	22405.052868
764.283740	20506.841675
764.610074	18643.343868
764.936362	16535.196344
765.262602	15025.287588
765.588796	13574.493923
765.914943	12543.083928
766.241044	11703.547810
766.567097	11077.134033
766.893104	10538.665706
767.219064	10176.065592
767.544978	9798.531060
767.870845	9485.964398
768.196665	9297.669740
768.522438	9109.730484
768.848165	8944.935164
769.173846	8782.559599
769.499479	8658.925301
769.825066	8504.776899
770.150607	8322.564393
770.476101	8256.197603
770.801548	8148.982342
771.126949	8008.180395
771.452303	7922.826099
771.777611	7758.202179
772.102872	7741.389931
772.428087	7621.196220
772.753256	7496.165522
773.078378	7411.365753
773.403453	7273.228055
773.728482	7164.389544
774.053465	7106.766635
774.378401	7025.278903
774.703291	6924.659993
775.028135	6830.035015
775.352932	6791.139992
775.677683	6713.891871
776.002388	6630.551516
776.327046	6628.240147
776.651658	6540.292177
776.976224	6461.352749
777.300743	6450.085770
777.625216	6380.185131
777.949643	6333.892215
778.274024	6344.037537
778.598359	6279.241066
778.922647	6279.145284
779.246889	6243.143884
779.571086	6250.267034
779.895236	6256.316419
780.219339	6250.481283
780.543397	6253.412714
780.867409	6300.139169
781.191374	6298.485671
781.515294	6261.405464
781.839167	6316.003681
782.162995	6287.299351
782.486776	6241.485344
782.810511	6202.476896
783.134201	6121.760461
783.457844	6109.762515
783.781441	6061.062448
784.104993	6021.736407
784.428498	5991.376058
784.751958	5975.607329
785.075372	5953.688392
785.398739	5912.943266
785.722061	5936.629127
786.045337	5929.173261
786.368568	6046.929573
786.691752	6065.453293
787.014891	6315.297919
787.337983	6593.514159
787.661030	7027.917947
787.984031	7447.483100
788.306987	7712.700724
788.629897	7793.384391
788.952760	7707.616720
789.275579	7530.848661
789.598351	7235.948722
789.921078	6969.385110
790.243759	6695.416043
790.566395	6492.000444
790.888984	6303.529345
791.211529	6162.243447
791.534027	5997.516183
791.856480	5860.439649
792.178888	5795.696110
792.501249	5738.080762
792.823566	5637.028313
793.145836	5630.343743
793.468062	5612.193069
793.790241	5570.356533
794.112375	5612.913954
794.434464	5706.487851
794.756507	5738.786524
795.078505	5857.319174
795.400457	6067.890691
795.722364	6309.596374
796.044226	6501.162741
796.366042	6657.935064
796.687812	6603.911538
797.009538	6632.106712
797.331218	6541.938114
797.652852	6471.697197
797.974442	6352.867118
798.295986	6277.758967
798.617484	6153.996119
798.938938	6046.569131
799.260346	5982.221323
799.581709	5842.110013
799.903026	5791.824504
800.224299	5719.443617
800.545526	5601.069763
800.866708	5539.464342
801.187845	5491.356611
801.508936	5419.810035
801.829983	5385.484818
802.150984	5280.971617
802.471940	5254.790384
802.792851	5239.109875
803.113717	5217.914344
803.434538	5191.297052
803.755314	5159.492412
804.076045	5149.427748
804.396731	5110.812510
804.717372	5126.051918
805.037967	5125.567967
805.358518	5155.948481
805.679024	5214.430907
805.999485	5226.539758
806.319901	5246.535495
806.640272	5260.706178
806.960598	5307.367098
807.280879	5299.712106
807.601115	5339.088559
807.921306	5301.206808
808.241453	5298.585408
808.561554	5309.000432
808.881611	5271.209422
809.201623	5269.036685
809.521590	5219.986258
809.841513	5202.687539
810.161390	5218.720929
810.481223	5133.306138
810.801011	5116.158654
811.120755	5091.078913
811.440453	5036.967168
811.760107	5010.899361
812.079716	4987.889015
812.399281	4934.767856
812.718801	4928.809212
813.038276	4892.563316
813.357707	4862.548286
813.677093	4885.319178
813.996434	4821.936751
814.315731	4844.687478
814.634983	4836.319162
814.954191	4842.416438
815.273354	4906.229884
815.592473	4946.922078
815.911547	5018.476216
816.230577	5069.437240
816.549562	5158.736239
816.868502	5207.035534
817.187399	5259.471096
817.506250	5341.800700
817.825058	5368.513774
818.143821	5518.823338
818.462539	5687.109656
818.781213	5910.193317
819.099843	6274.736795
819.418429	6897.568832
819.736970	7505.884867
820.055466	8211.613638
820.373919	9115.263150
820.692327	10547.822962
821.010691	13221.963513
821.329011	19377.686228
821.647286	28844.413583
821.965517	39065.451309
822.283704	44476.139376
822.601847	45929.236848
822.919945	41358.309230
823.237999	36324.573442
823.556010	31175.332216
823.873976	26533.851129
824.191897	22365.706662
824.509775	19317.328493
824.827609	16585.678458
825.145398	15046.634354
825.463144	14306.603052
825.780845	14596.986116
826.098502	15837.704818
826.416116	18272.259492
826.733685	20527.749861
827.051210	21047.074407
827.368692	19639.256578
827.686129	17093.615038
828.003522	14646.051666
828.320872	12441.668515
828.638177	10817.383540
828.955439	9587.616745
829.272656	8536.140437
829.589830	7706.174950
829.906960	6981.453632
830.224046	6454.874866
830.541088	6050.685233
830.858086	5797.994876
831.175041	5593.576087
831.491952	5540.646493
831.808819	5568.564403
832.125642	5810.769160
832.442421	6352.327715
832.759157	7446.174920
833.075849	9195.742651
833.392497	11027.990345
833.709101	12133.409519
834.025662	11883.166642
834.342179	10836.340799
834.658653	9544.971104
834.975083	8451.774207
835.291469	7557.435706
835.607811	6825.424880
835.924110	6314.846736
836.240366	5833.567778
836.556578	5393.238113
836.872746	5039.921284
837.188871	4771.265593
837.504952	4547.710584
837.820990	4387.439701
838.136984	4273.620529
838.452935	4225.842993
838.768842	4253.818877
839.084706	4529.602760
839.400526	5263.352784
839.716303	6156.647766
840.032037	6717.483693
840.347727	6573.702424
840.663373	5984.046220
840.978977	5406.274537
841.294537	4970.502075
841.610054	4644.034431
841.925527	4407.158174
842.240957	4204.723079
842.556344	4023.249103
842.871687	3865.408055
843.186987	3717.200653
843.502244	3599.862756
843.817458	3511.987883
844.132629	3441.958694
844.447756	3397.087383
844.762840	3352.049715
845.077881	3312.358190
845.392879	3281.544137
845.707833	3253.782503
846.022745	3229.834502
846.337613	3217.834035
846.652438	3196.283102
846.967221	3184.759025
847.281960	3164.667506
847.596656	3155.709376
847.911309	3146.421050
848.225919	3133.629122
848.540485	3120.305352
848.855009	3114.223200
849.169490	3101.542177
849.483928	3095.482711
849.798323	3090.718820
850.112675	3077.153075
850.426984	3080.139959
850.741251	3070.465985
851.055474	3071.675862
851.369654	3071.842220
851.683792	3066.551529
851.997887	3071.068403
852.311938	3072.265677
852.625947	3071.620409
852.939914	3064.714028
853.253837	3071.756520
853.567718	3065.944070
853.881555	3065.069429
854.195350	3067.509348
854.509103	3062.800910
854.822812	3062.198492
855.136479	3055.216494
855.450103	3060.469377
855.763685	3056.451577
856.077224	3055.886968
856.390720	3066.276786
856.704173	3078.332705
857.017584	3078.037798
857.330953	3087.290836
857.644278	3094.035899
857.957561	3100.770881
858.270802	3092.233687
858.584000	3094.570262
858.897155	3088.707400
859.210268	3075.885225
859.523339	3064.393915
859.836367	3062.901733
860.149352	3059.370405
860.462295	3054.964437
860.775195	3046.180226
861.088054	3042.227961
861.400869	3043.654608
861.713642	3038.391643
862.026373	3053.328582
862.339062	3052.002759
862.651708	3058.210940
862.964312	3075.305492
863.276873	3081.238930
863.589392	3113.111626
863.901869	3140.527941
864.214303	3164.007115
864.526696	3180.605114
864.839045	3199.930377
865.151353	3210.567212
865.463619	3210.282387
865.775842	3211.729198
866.088023	3216.402347
866.400162	3208.946481
866.712258	3211.608210
867.024313	3209.470761
867.336325	3210.229454
867.648296	3207.933209
867.960224	3203.670913
868.272110	3210.501677
868.583954	3210.126111
868.895755	3219.205229
869.207515	3216.029302
869.519233	3234.769791
869.830909	3239.483270
870.142542	3248.910228
870.454134	3258.785848
870.765684	3266.168618
871.077191	3289.153759
871.388657	3298.631128
871.700081	3317.747184
872.011463	3336.896007
872.322803	3353.990559
872.634101	3373.376316
872.945357	3390.778379
873.256571	3417.488933
873.567744	3434.119700
873.878874	3437.502314
874.189963	3453.722226
874.501010	3457.545942
874.812015	3453.918831
875.122979	3470.269814
875.433900	3466.201603
875.744780	3470.156388
876.055618	3476.543530
876.366415	3479.754745
876.677169	3480.737770
876.987882	3498.528002
877.298554	3519.743698
877.609183	3555.235941
877.919771	3599.913167
878.230317	3668.256090
878.540822	3767.251749
878.851285	3915.421342
879.161707	4128.581492
879.472087	4504.054192
879.782425	5119.894149
880.092722	6288.355472
880.402977	8187.179165
880.713191	10528.704386
881.023363	12880.095145
881.333494	14200.688409
881.643583	14647.700124
881.953631	14244.624586
882.263637	13413.355960
882.573602	12383.150802
882.883526	11453.211672
883.193408	10505.086580
883.503248	9606.367317
883.813048	8791.948748
884.122806	8035.395064
884.432522	7277.591174
884.742197	6628.479602
885.051831	6075.215488
885.361424	5588.436631
885.670975	5201.515471
885.980485	4880.222571
886.289954	4616.590390
886.599382	4404.592227
886.908768	4227.806523
887.218113	4066.545052
887.527417	3939.182821
887.836680	3814.205056
888.145901	3716.326013
888.455082	3640.403715
888.764221	3574.803180
889.073319	3515.579705
889.382376	3485.526866
889.691392	3460.056436
890.000366	3452.799695
890.309300	3447.398099
890.618193	3449.165023
890.927044	3443.728139
891.235855	3449.651495
891.544625	3464.313691
891.853353	3491.843432
892.162041	3553.403482
892.470687	3644.310609
892.779293	3761.358640
893.087858	3936.987399
893.396381	4205.711146
893.704864	4609.711735
894.013306	5169.632693
894.321707	5734.478858
894.630068	6084.067754
894.938387	6122.037725
895.246665	5945.718328
895.554903	5634.701821
895.863100	5298.154390
896.171256	5031.840314
896.479371	4798.689470
896.787446	4577.531530
897.095480	4388.170668
897.403473	4237.188110
897.711425	4095.319959
898.019336	3974.259170
898.327207	3854.057897
898.635038	3754.411930
898.942827	3649.694562
899.250576	3566.024011
899.558284	3481.572081
899.865952	3430.568207
900.173579	3370.155019
900.481165	3324.048626
900.788711	3281.934827
901.096216	3249.520207
901.403681	3225.093297
901.711105	3210.796584
902.018489	3207.545040
902.325832	3238.212899
902.633135	3298.948721
902.940397	3469.027169
903.247619	3862.141387
903.554800	4597.159262
903.861941	5548.379623
904.169041	6240.406538
904.476101	6443.406241
904.783121	6175.355488
905.090100	5778.344458
905.397039	5372.357654
905.703938	5021.427811
906.010796	4702.965520
906.317614	4453.509063
906.624391	4224.101275
906.931129	4029.409393
907.237826	3852.729553
907.544483	3682.376362
907.851099	3514.621885
908.157675	3359.029193
908.464211	3222.348388
908.770707	3121.328706
909.077163	3041.572611
909.383578	2985.676298
909.689954	2938.748196
909.996289	2911.684762
910.302584	2889.722975
910.608839	2880.220400
910.915054	2865.225488
911.221229	2863.390508
911.527363	2866.503421
911.833458	2872.842672
912.139513	2886.176523
912.445527	2897.531722
912.751502	2932.882814
913.057436	2975.684731
913.363331	3027.946373
913.669186	3116.917697
913.975000	3232.685274
914.280775	3413.922317
914.586510	3676.079961
914.892205	4043.519582
915.197859	4532.635014
915.503475	5104.211119
915.809050	5590.180870
916.114585	5875.560590
916.420081	5940.374705
916.725536	5872.543459
917.030952	5639.443026
917.336328	5442.959013
917.641665	5233.045367
917.946961	5008.625801
918.252218	4812.638342
918.557435	4584.294238
918.862612	4395.462697
919.167750	4226.780648
919.472848	4038.599416
919.777906	3875.858367
920.082925	3718.970098
920.387904	3569.638518
920.692843	3460.855459
920.997743	3361.688401
921.302603	3269.407559
921.607423	3208.492777
921.912204	3142.559526
922.216946	3094.272834
922.521647	3048.884805
922.826310	3005.714884
923.130932	2969.756334
923.435516	2932.744182
923.740059	2903.543298
924.044564	2872.237733
924.349028	2851.193436
924.653454	2820.447439
924.957840	2796.706125
925.262186	2776.879267
925.566493	2755.865217
925.870761	2734.457957
926.174989	2722.253324
926.479178	2707.213041
926.783328	2690.005063
927.087438	2678.680111
927.391509	2666.185611
927.695541	2656.183962
927.999533	2646.389000
928.303486	2636.616723
928.607400	2633.760909
928.911275	2624.081894
929.215110	2620.754732
929.518906	2614.879267
929.822663	2616.686521
930.126381	2617.455297
930.430060	2619.199536
930.733699	2623.781945
931.037299	2626.486524
931.340861	2621.765484
931.644383	2627.580455
931.947866	2626.998201
932.251309	2624.001235
932.554714	2620.810185
932.858080	2621.052160
933.161407	2616.379011
933.464694	2612.683845
933.767943	2608.204780
934.071153	2608.900459
934.374323	2600.353183
934.677455	2599.901999
934.980548	2598.777822
935.283602	2593.456884
935.586617	2592.312542
935.889593	2595.042327
936.192530	2594.442430
936.495428	2601.820158
936.798287	2611.078237
937.101108	2626.355454
937.403890	2647.016623
937.706632	2670.528565
938.009336	2703.651466
938.312002	2735.982906
938.614628	2759.656165
938.917216	2774.154523
939.219765	2781.622993
939.522275	2792.907616
939.824747	2795.208902
940.127179	2790.132460
940.429573	2782.265740
940.731929	2780.632406
941.034246	2770.416508
941.336524	2770.920623
941.638763	2763.565580
941.940964	2757.652306
942.243126	2740.167064
942.545250	2733.585838
942.847335	2717.794423
943.149381	2703.172557
943.451389	2691.749302
943.753359	2679.330419
944.055290	2671.098215
944.357182	2661.386432
944.659036	2659.279230
944.960851	2653.497027
945.262628	2646.651140
945.564367	2649.063332
945.866067	2646.825059
946.167729	2645.789102
946.469352	2646.472179
946.770937	2642.023360
947.072484	2637.940026
947.373992	2635.437093
947.675462	2633.140847
947.976893	2628.762605
948.278286	2627.088942
948.579641	2623.744137
948.880958	2619.144084
949.182236	2619.570061
949.483476	2613.563526
949.784678	2614.869185
950.085841	2613.873557
950.386967	2621.243724
950.688054	2624.054167
950.989103	2631.895682
951.290114	2641.788947
951.591087	2654.633807
951.892021	2665.414314
952.192917	2675.151303
952.493776	2684.482479
952.794596	2690.403314
953.095378	2693.170907
953.396122	2691.378777
953.696828	2686.188909
953.997496	2681.505677
954.298126	2674.795902
954.598718	2667.609737
954.899272	2655.241266
955.199788	2646.716675
955.500266	2630.831999
955.800706	2614.682662
956.101108	2601.157247
956.401472	2593.693818
956.701798	2576.750500
957.002087	2562.819272
957.302337	2551.958106
957.602550	2544.477033
957.902724	2529.618233
958.202861	2524.685463
958.502960	2515.339164
958.803022	2509.123422
959.103045	2500.951711
959.403031	2492.548108
959.702979	2492.187665
960.002889	2485.414875
960.302762	2478.770634
960.602596	2478.614358
960.902393	2474.901549
961.202153	2471.796198
961.501875	2466.772688
961.801559	2466.833182
962.101205	2463.437965
962.400814	2462.611216
962.700385	2458.437140
962.999918	2458.747171
963.299414	2456.314814
963.598873	2457.451595
963.898293	2454.986470
964.197677	2450.222580
964.497022	2454.941100
964.796331	2452.380194
965.095601	2449.214349
965.394835	2450.164607
965.694030	2450.751901
965.993189	2449.552107
966.292309	2445.960284
966.591393	2447.848197
966.890439	2445.781323
967.189447	2447.775100
967.488419	2447.538166
967.787353	2446.630758
968.086249	2448.135542
968.385108	2450.033537
968.683930	2446.502208
968.982714	2452.977571
969.281462	2449.973043
969.580172	2453.567386
969.878844	2454.356326
970.177480	2455.679629
970.476078	2458.782459
970.774639	2464.733541
971.073162	2466.475260
971.371649	2465.487194
971.670098	2465.608182
971.968510	2467.274283
972.266885	2466.868470
972.565223	2475.307362
972.863524	2473.941209
973.161788	2476.950778
973.460014	2475.877012
973.758204	2477.666622
974.056356	2477.260809
974.354471	2480.582929
974.652550	2479.252064
974.950591	2480.081334
975.248595	2477.260809
975.546563	2474.790643
975.844493	2476.335757
976.142386	2474.120170
976.440243	2471.075313
976.738062	2470.034315
977.035845	2465.671196
977.333590	2462.777574
977.631299	2463.977368
977.928971	2461.257666
978.226606	2457.328086
978.524204	2457.292798
978.821765	2457.759105
979.119290	2455.238528
979.416777	2456.652572
979.714228	2456.176183
980.011642	2458.364043
980.309020	2464.972996
980.606360	2463.427882
980.903664	2473.651342
981.200931	2485.634165
981.498162	2505.531599
981.795356	2532.721063
982.092513	2568.886300
982.389633	2614.135697
982.686717	2655.584064
982.983764	2686.798889
983.280775	2705.496528
983.577749	2703.374203
983.874686	2696.130065
984.171587	2679.138856
984.468451	2663.627225
984.765279	2647.760193
985.062070	2626.904940
985.358824	2610.082610
985.655543	2586.603436
985.952224	2567.313460
986.248869	2540.343287
986.545478	2514.819925
986.842050	2497.410301
987.138586	2477.023874
987.435086	2464.294961
987.731549	2453.320369
988.027975	2451.578650
988.324366	2444.896601
988.620719	2439.926023
988.917037	2435.464602
989.213318	2432.976793
989.509563	2431.555187
989.805772	2429.170722
990.101944	2429.442944
990.398080	2428.747265
990.694180	2427.393715
990.990244	2429.939497
991.286271	2424.341296
991.582262	2426.214085
991.878217	2427.736513
992.174136	2429.657193
992.470019	2429.473191
992.765865	2431.963521
993.061676	2435.182297
993.357450	2438.514500
993.653188	2439.976435
993.948890	2441.559357
994.244556	2450.111675
994.540186	2459.611729
994.835780	2470.462813
995.131337	2484.749443
995.426859	2496.669251
995.722345	2520.226563
996.017795	2534.382123
996.313208	2552.162272
996.608586	2558.930022
996.903928	2565.236505
997.199234	2560.182748
997.494504	2556.477500
997.789738	2550.470965
998.084936	2542.389996
998.380099	2531.566638
998.675225	2517.131294
998.970316	2507.119563
999.265371	2494.259579
999.560390	2480.741725
999.855373	2470.475416
1000.150320	2463.478294
1000.445232	2452.390276
1000.740108	2444.936930
1001.034948	2440.891404
1001.329752	2435.217586
1001.624521	2433.606937
1001.919254	2423.217119
1002.213951	2424.394228
1002.508613	2420.820050
1002.803239	2420.646130
1003.097829	2419.196799
1003.392384	2419.201840
1003.686903	2417.681932
1003.981386	2415.254616
1004.275834	2414.561458
1004.570246	2417.079514
1004.864623	2415.042888
1005.158964	2414.437949
1005.453270	2413.172620
1005.747540	2413.308731
1006.041775	2409.074162
1006.335974	2412.171951
1006.630138	2410.543658
1006.924266	2410.261353
1007.218359	2411.803947
1007.512416	2409.946281
1007.806438	2411.529204
1008.100425	2411.740932
1008.394376	2411.435942
1008.688292	2407.932340
1008.982172	2407.561816
1009.276017	2409.933678
1009.569827	2407.987793
1009.863602	2407.781106
1010.157341	2407.846641
1010.451045	2407.871847
1010.744714	2406.931671
1011.038347	2406.210786
1011.331945	2406.490570
1011.625508	2410.329409
1011.919036	2404.398492
1012.212528	2408.617937
1012.505986	2407.085427
1012.799408	2404.269942
1013.092795	2407.828997
1013.386147	2405.994017
1013.679464	2404.388409
1013.972745	2406.281363
1014.265992	2404.859757
1014.559204	2407.193811
1014.852380	2406.397309
1015.145521	2407.173647
1015.438628	2408.012999
1015.731699	2407.503842
1016.024736	2404.832031
1016.317737	2406.165416
1016.610703	2407.992834
1016.903635	2404.620302
1017.196531	2404.895045
1017.489393	2406.009140
1017.782219	2403.440672
1018.075011	2406.959398
1018.367768	2407.183729
1018.660490	2407.740777
1018.953177	2407.740777
1019.245829	2407.740777
