Dividing Wavelength (nm)	Counts (n)	Blue Motor Position (mm): 11.800000	Red Motor Position (mm): 0.000000	
326.493990	1975.494602
326.888308	1975.494602
327.282561	1975.494602
327.676750	1950.755139
328.070874	1954.563731
328.464933	1958.364761
328.858929	1966.526389
329.252859	1980.815540
329.646726	1993.947745
330.040528	2010.097082
330.434265	2028.552746
330.827938	2048.414892
331.221547	2069.189487
331.615091	2086.357137
332.008571	2110.083327
332.401986	2131.538478
332.795338	2149.754687
333.188625	2169.972235
333.581847	2189.216840
333.975006	2206.341639
334.368100	2225.961810
334.761129	2240.182905
335.154095	2257.763929
335.546996	2286.788372
335.939833	2336.310147
336.332606	2349.543176
336.725315	2362.168746
337.117960	2368.800384
337.510540	2378.242465
337.903056	2386.212529
338.295508	2393.819630
338.687896	2398.218037
339.080220	2405.928482
339.472480	2410.223545
339.864676	2414.788310
340.256807	2416.076324
340.648875	2420.958682
341.040879	2424.679053
341.432818	2423.509506
341.824694	2425.082346
342.216506	2422.564289
342.608253	2422.148394
342.999937	2422.816347
343.391557	2418.604463
343.783113	2417.427354
344.174605	2418.947262
344.566033	2417.623959
344.957397	2414.455593
345.348697	2413.916190
345.739934	2410.110119
346.131106	2411.103226
346.522215	2409.099368
346.913260	2405.890673
347.304241	2405.615930
347.695159	2400.219375
348.086012	2400.794067
348.476802	2401.474622
348.867528	2396.786349
349.258191	2394.117058
349.648789	2395.712583
350.039324	2393.496996
350.429796	2396.589744
350.820203	2389.852242
351.210548	2390.938611
351.600828	2393.209651
351.991045	2389.534649
352.381198	2387.492982
352.771288	2392.191338
353.161314	2387.447612
353.551276	2386.535163
353.941175	2388.009700
354.331010	2390.724362
354.720782	2392.914743
355.110490	2392.634959
355.500135	2392.007335
355.889717	2390.648744
356.279235	2390.900802
356.668689	2393.101266
357.058080	2391.914074
357.447408	2387.273692
357.836672	2387.185472
358.225873	2392.445916
358.615010	2388.158414
359.004084	2395.649569
359.393095	2395.710063
359.782043	2393.658313
360.170927	2394.863149
360.559748	2394.316184
360.948505	2397.242574
361.337199	2395.228633
361.725830	2396.125958
362.114398	2399.553943
362.502903	2397.882800
362.891344	2400.294992
363.279722	2400.277348
363.668037	2401.013357
364.056289	2400.418501
364.444478	2400.912534
364.832603	2400.360527
365.220665	2400.264745
365.608665	2401.388923
365.996601	2402.707184
366.384474	2403.614592
366.772284	2401.235168
367.160031	2401.956052
367.547715	2405.154665
367.935336	2401.643501
368.322893	2401.318347
368.710388	2404.106105
369.097820	2404.274983
369.485189	2404.897566
369.872495	2404.461506
370.259738	2404.675755
370.646918	2406.160375
371.034035	2405.938564
371.421090	2405.396640
371.808081	2405.343708
372.195010	2405.310940
372.581875	2404.864798
372.968678	2404.000240
373.355418	2404.466547
373.742096	2409.749676
374.128710	2406.402350
374.515262	2406.649367
374.901751	2407.944943
375.288177	2408.040725
375.674540	2409.419481
376.060841	2405.580642
376.447079	2408.663308
376.833254	2411.020047
377.219367	2404.383368
377.605417	2407.065262
377.991404	2406.798081
378.377329	2406.780437
378.763191	2402.792884
379.148991	2409.714388
379.534727	2410.911662
379.920402	2409.621127
380.306013	2412.766807
380.691563	2410.132804
381.077049	2410.067269
381.462474	2411.796385
381.847835	2412.355953
382.233134	2412.418967
382.618371	2411.221693
383.003545	2411.067938
383.388657	2412.585325
383.773706	2411.909811
384.158693	2412.955850
384.543618	2414.682445
384.928480	2417.749987
385.313280	2413.268402
385.698017	2413.132291
386.082692	2413.870820
386.467305	2412.487023
386.851856	2417.301325
387.236344	2412.290418
387.620770	2417.059349
388.005133	2416.222518
388.389435	2417.654206
388.773674	2412.522311
389.157851	2417.407189
389.541965	2414.690007
389.926018	2414.826118
390.310008	2414.813515
390.693936	2416.444329
391.077802	2418.705286
391.461606	2416.630851
391.845348	2417.742426
392.229027	2417.976839
392.612645	2419.247210
392.996200	2417.303845
393.379694	2417.402148
393.763125	2419.174113
394.146494	2421.016655
394.529801	2420.346182
394.913047	2419.642941
395.296230	2421.608991
395.679351	2420.714186
396.062410	2418.992632
396.445408	2422.385328
396.828343	2423.862387
397.211217	2418.503640
397.594028	2420.963723
397.976778	2419.814340
398.359466	2420.288208
398.742092	2419.630338
399.124656	2422.531522
399.507158	2424.248035
399.889598	2421.233425
400.271977	2419.262334
400.654294	2425.286513
401.036549	2422.148394
401.418742	2422.652510
401.800874	2422.193765
402.182944	2425.573858
402.564952	2423.648138
402.946898	2422.123188
403.328783	2423.449012
403.710606	2425.462953
404.092367	2427.073602
404.474067	2423.222160
404.855705	2423.917839
405.237282	2425.412541
405.618797	2425.021852
406.000250	2426.796338
406.381642	2423.489341
406.762972	2428.233067
407.144240	2425.684764
407.525447	2428.747265
407.906593	2423.980854
408.287677	2425.223498
408.668700	2426.264496
409.049661	2425.001687
409.430560	2427.519744
409.811399	2430.967893
410.192176	2429.037131
410.572891	2427.560073
410.953545	2428.709456
411.334138	2428.117120
411.714669	2426.713159
412.095139	2431.136772
412.475547	2430.194076
412.855894	2430.229364
413.236180	2427.615526
413.616405	2427.368509
413.996568	2425.949424
414.376670	2430.022677
414.756711	2426.904723
415.136691	2429.054775
415.516609	2431.819848
415.896466	2430.904878
416.276262	2431.658531
416.655997	2427.282809
417.035670	2426.824064
417.415283	2428.089394
417.794834	2427.388674
418.174324	2434.171546
418.553753	2432.656679
418.933121	2428.651483
419.312428	2431.146854
419.691674	2433.186001
420.070859	2432.326484
420.449983	2432.061823
420.829045	2432.840682
421.208047	2431.658531
421.586988	2431.582914
421.965867	2433.715322
422.344686	2432.170208
422.723444	2431.073757
423.102141	2432.810435
423.480777	2432.613830
423.859352	2432.873449
424.237866	2433.478388
424.616319	2431.915630
424.994712	2433.642225
425.373044	2436.563574
425.751314	2433.979982
426.129524	2434.035435
426.507673	2433.145671
426.885762	2432.780188
427.263789	2435.005857
427.641756	2434.398398
428.019662	2435.275559
428.397508	2432.936463
428.775292	2434.844540
429.153016	2433.801021
429.530679	2437.244129
429.908282	2434.463933
430.285824	2436.412339
430.663305	2435.141968
431.040726	2433.586772
431.418086	2432.697009
431.795385	2435.653645
432.172624	2435.472164
432.549802	2434.516865
432.926920	2433.795980
433.303977	2437.118101
433.680974	2436.379572
434.057910	2434.592482
434.434786	2434.867225
434.811601	2436.581218
435.188355	2439.096753
435.565050	2435.273038
435.941683	2435.419232
436.318257	2434.242122
436.694770	2431.935794
437.071222	2435.973759
437.447614	2433.896803
437.823946	2432.177770
438.200218	2432.923861
438.576429	2438.164140
438.952580	2437.468461
439.328670	2436.606423
439.704700	2434.695826
440.080670	2437.717998
440.456580	2442.116405
440.832429	2436.253543
441.208218	2437.551640
441.583947	2437.581887
441.959616	2438.398554
442.335224	2436.359407
442.710773	2436.981989
443.086261	2441.017433
443.461689	2437.758327
443.837057	2439.089192
444.212365	2438.368307
444.587612	2441.909717
444.962800	2435.799839
445.337927	2438.401074
445.712995	2440.067176
446.088002	2440.089861
446.462949	2441.249326
446.837837	2440.909048
447.212664	2440.677155
447.587431	2442.229831
447.962139	2447.026488
448.336786	2445.264605
448.711374	2445.151179
449.085901	2444.662187
449.460369	2443.679162
449.834776	2442.401230
450.209124	2445.118412
450.583412	2444.740325
450.957640	2443.785027
451.331808	2447.402054
451.705917	2446.605552
452.079965	2443.991714
452.453954	2444.901642
452.827883	2447.507919
453.201752	2446.736622
453.575562	2449.337858
453.949311	2444.871395
454.323001	2446.124122
454.696632	2447.364246
455.070202	2449.083279
455.443713	2446.867692
455.817164	2446.227466
456.190556	2448.364915
456.563888	2445.408278
456.937160	2442.355859
457.310373	2447.409616
457.683526	2449.857096
458.056619	2451.465224
458.429653	2448.934565
458.802628	2450.698969
459.175542	2451.394648
459.548398	2450.439350
459.921194	2451.876078
460.293930	2453.700976
460.666607	2453.635441
461.039224	2456.967644
461.411782	2459.601647
461.784280	2458.419496
462.156719	2455.238528
462.529099	2457.363374
462.901419	2457.257510
463.273680	2454.726851
463.645882	2455.377160
464.018024	2459.213478
464.390106	2459.460494
464.762130	2460.015021
465.134094	2461.237501
465.505999	2464.920064
465.877845	2470.858543
466.249631	2471.143368
466.621358	2466.951649
466.993026	2471.314768
467.364634	2471.586990
467.736184	2465.842595
468.107674	2466.649180
468.479105	2465.484673
468.850477	2462.855712
469.221790	2463.138016
469.593043	2461.240022
469.964238	2464.110959
470.335373	2462.180197
470.706449	2462.109621
471.077467	2464.547019
471.448425	2469.744448
471.819324	2471.158492
472.190164	2474.404995
472.560945	2469.515076
472.931667	2468.940384
473.302330	2462.545681
473.672934	2466.777729
474.043479	2466.883593
474.413965	2463.223716
474.784393	2461.882769
475.154761	2462.646504
475.525070	2461.918057
475.895321	2461.358489
476.265513	2462.641462
476.635645	2468.322843
477.005719	2465.484673
477.375734	2467.813686
477.745691	2467.150775
478.115588	2468.647997
478.485427	2470.558595
478.855207	2473.898359
479.224928	2475.209059
479.594591	2478.616879
479.964194	2477.822897
480.333739	2475.819039
480.703226	2478.652167
481.072653	2479.420943
481.442022	2479.549493
481.811333	2477.470017
482.180584	2480.983701
482.549777	2477.321302
482.918912	2475.987917
483.287988	2477.144862
483.657005	2479.078145
484.025964	2477.011272
484.394864	2476.366004
484.763706	2476.968422
485.132489	2474.145376
485.501213	2476.325675
485.869879	2478.909266
486.238487	2478.188381
486.607036	2473.802577
486.975527	2476.262660
487.343959	2477.286014
487.712333	2476.625623
488.080648	2476.423977
488.448905	2480.151910
488.817104	2479.899853
489.185244	2483.342961
489.553326	2486.337406
489.921350	2489.566265
490.289315	2493.647079
490.657222	2498.002636
491.025070	2497.322080
491.392861	2496.543222
491.760593	2495.726555
492.128267	2493.505927
492.495883	2494.657831
492.863440	2494.829230
493.230939	2492.439723
493.598380	2492.810248
493.965763	2490.158601
494.333088	2491.297902
494.700354	2490.539208
495.067563	2494.539363
495.434713	2492.795124
495.801805	2497.135558
496.168839	2499.943480
496.535815	2500.923985
496.902733	2502.718636
497.269593	2505.692916
497.636395	2508.049656
498.003139	2509.957732
498.369825	2507.747187
498.736453	2511.906138
499.103023	2510.895387
499.469535	2515.371932
499.835989	2515.412261
500.202385	2519.724968
500.568723	2520.203878
500.935003	2522.764784
501.301226	2521.577592
501.667390	2530.036648
502.033497	2533.449509
502.399546	2531.054961
502.765537	2531.478418
503.131470	2533.799870
503.497345	2539.123328
503.863163	2541.132228
504.228923	2542.611807
504.594625	2544.867723
504.960269	2545.553320
505.325856	2550.266799
505.691385	2551.567416
506.056856	2555.093703
506.422270	2560.908674
506.787625	2562.816751
507.152924	2564.132492
507.518164	2566.771536
507.883347	2566.811866
508.248472	2571.369069
508.613540	2576.017013
508.978550	2580.251582
509.343503	2583.372056
509.708398	2586.411872
510.073236	2589.048395
510.438016	2589.701225
510.802738	2590.250710
511.167403	2601.157247
511.532010	2600.219592
511.896561	2607.738473
512.261053	2611.579832
512.625488	2611.647888
512.989866	2614.231479
513.354186	2619.260030
513.718449	2616.651233
514.082655	2626.398304
514.446803	2628.351751
514.810894	2634.575056
515.174927	2637.193935
515.538904	2637.088071
515.902822	2644.269194
516.266684	2645.736170
516.630488	2651.878816
516.994235	2654.303611
517.357925	2661.477173
517.721558	2661.683860
518.085133	2664.718635
518.448651	2669.031342
518.812112	2668.038235
519.175516	2669.331291
519.538863	2677.843279
519.902152	2678.995183
520.265385	2685.586491
520.628560	2689.143025
520.991678	2690.947758
521.354739	2691.519929
521.717743	2696.475384
522.080690	2700.064685
522.443580	2706.255222
522.806413	2708.291848
523.169189	2710.847713
523.531908	2713.043136
523.894569	2715.236038
524.257174	2716.650081
524.619722	2722.959085
524.982213	2726.530743
525.344647	2727.261710
525.707025	2731.382853
526.069345	2733.444685
526.431608	2735.947618
526.793815	2741.235789
527.155964	2741.046745
527.518057	2741.334091
527.880093	2745.767786
528.242072	2751.237438
528.603995	2751.071080
528.965860	2751.945720
529.327669	2756.477717
529.689421	2756.449991
530.051117	2758.158942
530.412755	2758.166504
530.774337	2762.597678
531.135862	2763.555497
531.497331	2768.221085
531.858743	2764.107504
532.220098	2767.563215
532.581396	2768.642022
532.942638	2769.819131
533.303824	2773.219389
533.664953	2781.335647
534.026025	2775.319030
534.387040	2784.365380
534.747999	2783.909156
535.108902	2787.924435
535.469748	2785.744136
535.830537	2789.325876
536.191270	2793.406690
536.551947	2789.121709
536.912567	2796.189407
537.273131	2797.520271
537.633638	2795.077832
537.994089	2798.785601
538.354483	2800.784418
538.714821	2804.860191
539.075103	2809.069555
539.435328	2810.158444
539.795497	2809.311530
540.155609	2811.249854
540.515665	2817.805874
540.875665	2813.856130
541.235609	2817.369815
541.595496	2821.463232
541.955328	2831.500169
542.315102	2828.702328
542.674821	2829.173676
543.034483	2828.770384
543.394090	2830.978409
543.753640	2833.448575
544.113134	2844.307220
544.472571	2839.510562
544.831953	2849.227386
545.191278	2850.480113
545.550548	2847.886439
545.909761	2854.185361
546.268918	2857.031093
546.628019	2863.907226
546.987064	2863.526619
547.346053	2858.608974
547.704986	2870.256560
548.063863	2869.371837
548.422684	2873.210676
548.781449	2874.251674
549.140158	2884.170144
549.498811	2883.426574
549.857408	2883.227448
550.215949	2891.792369
550.574434	2894.885117
550.932864	2896.342010
551.291237	2904.836354
551.649555	2911.457910
552.007817	2920.894950
552.366022	2923.130702
552.724173	2930.730241
553.082267	2937.235850
553.440305	2948.850669
553.798288	2949.753035
554.156215	2956.059519
554.514086	2965.841878
554.871902	2974.487457
555.229661	2980.829228
555.587365	2986.054384
555.945014	2996.056033
556.302606	3002.261694
556.660143	3015.414064
557.017625	3023.742050
557.375050	3031.404604
557.732421	3044.768703
558.089735	3056.708676
558.446994	3065.117320
558.804197	3083.857810
559.161345	3094.398862
559.518437	3092.558841
559.875474	3111.422839
560.232455	3124.033285
560.589381	3142.741007
560.946251	3151.192502
561.303065	3176.385668
561.659825	3189.802699
562.016528	3198.491128
562.373177	3211.797253
562.729770	3232.047568
563.086307	3240.073085
563.442789	3266.781118
563.799216	3288.327010
564.155587	3303.410142
564.511904	3324.353616
564.868164	3343.903210
565.224370	3367.687374
565.580520	3389.147566
565.936615	3414.088675
566.292654	3430.371602
566.648638	3463.857466
567.004567	3485.269767
567.360441	3517.765045
567.716260	3535.840102
568.072023	3570.314033
568.427732	3604.205710
568.783385	3620.566775
569.138982	3663.245183
569.494525	3693.363557
569.850013	3716.497412
570.205445	3754.663987
570.560823	3786.672794
570.916145	3819.760407
571.271412	3857.460676
571.626625	3887.974780
571.981782	3929.760905
572.336884	3957.570430
572.691931	4009.585055
573.046923	4035.244528
573.401860	4069.168973
573.756743	4111.759161
574.111570	4157.668949
574.466342	4196.916853
574.821059	4245.165736
575.175722	4269.086011
575.530330	4316.210717
575.884882	4354.094988
576.239380	4398.084097
576.593823	4449.811377
576.948211	4492.406606
577.302544	4520.311913
577.656823	4570.917536
578.011047	4641.065192
578.365216	4682.458106
578.719330	4728.420826
579.073389	4776.934370
579.427394	4837.738247
579.781344	4895.749325
580.135239	4937.727013
580.489080	5002.692363
580.842866	5033.060274
581.196597	5125.021002
581.550273	5191.405437
581.903895	5250.790229
582.257463	5350.257235
582.610975	5378.278489
582.964434	5468.192509
583.317837	5515.254201
583.671186	5571.170679
584.024481	5658.438093
584.377721	5691.382034
584.730906	5779.912257
585.084037	5854.619637
585.437113	5903.556637
585.790135	5977.114634
586.143103	6011.901116
586.496016	6101.245486
586.848874	6171.652761
587.201679	6257.954794
587.554428	6291.120545
587.907124	6387.686368
588.259765	6450.451254
588.612352	6559.393109
588.964884	6578.947745
589.317362	6686.452871
589.669786	6766.697958
590.022155	6821.737276
590.374470	6947.423323
590.726731	6974.776624
591.078937	7001.008268
591.431090	7091.071002
591.783188	7134.692106
592.135232	7171.510173
592.487222	7279.060670
592.839157	7374.023406
593.191038	7417.309273
593.542866	7470.916903
593.894639	7479.522153
594.246358	7596.993640
594.598022	7675.897780
594.949633	7712.199129
595.301190	7785.003473
595.652692	7847.412958
596.004141	7973.829973
596.355535	7918.359636
596.706876	7988.842529
597.058162	8052.764360
597.409395	8200.069396
597.760573	8298.951628
598.111698	8324.316194
598.462768	8412.571674
598.813785	8504.106425
599.164748	8511.423660
599.515657	8657.460846
599.866511	8669.751179
600.217312	8861.002473
600.568060	8776.974001
600.918753	8991.364191
601.269392	9087.052853
601.619978	9111.797357
601.970510	9239.041121
602.320988	9369.032314
602.671412	9519.435139
603.021783	9570.439013
603.372100	9603.942522
603.722363	9714.237927
604.072572	9825.105503
604.422728	9927.322458
604.772830	9983.632147
605.122878	10097.713458
605.472872	10191.380617
605.822813	10344.931643
606.172701	10412.127703
606.522534	10564.786445
606.872314	10720.391740
607.222041	10782.337439
607.571714	10971.806686
607.921333	10951.740373
608.270899	11124.024326
608.620411	11310.108438
608.969870	11375.782070
609.319276	11480.481794
609.668627	11604.166503
610.017926	11826.705719
610.367171	11989.502221
610.716362	12131.710651
611.065500	12233.703275
611.414585	12400.278122
611.763616	12604.691869
612.112594	12703.208618
612.461518	12888.037483
612.810389	13100.141510
613.159207	13184.913553
613.507971	13340.632275
613.856682	13588.664606
614.205340	13683.564327
614.553945	14002.061907
614.902496	13976.314213
615.250994	14246.772117
615.599439	14405.928906
615.947830	14597.424696
616.296169	14752.432615
616.644454	14918.659622
616.992686	15122.889368
617.340864	15434.503251
617.688990	15473.365506
618.037063	15818.787888
618.385082	15956.812160
618.733048	16197.101279
619.080961	16347.254567
619.428821	16483.332953
619.776628	16651.679765
620.124382	16713.111266
620.472083	16881.816000
620.819731	17060.103968
621.167326	17063.368115
621.514868	17183.085436
621.862357	17137.367212
622.209793	17264.908404
622.557176	17261.485461
622.904506	17277.707894
623.251783	17270.892254
623.599007	17308.136298
623.946179	17337.347264
624.293297	17434.654137
624.640363	17328.946182
624.987376	17443.337524
625.334336	17464.434753
625.681243	17446.765509
626.028097	17564.272284
626.374899	17630.883571
626.721647	17740.755519
627.068343	17822.825503
627.414987	17856.389506
627.761577	17882.464874
628.108115	18154.420000
628.454600	18038.710396
628.801032	18245.178414
629.147412	18354.044652
629.493739	18490.304519
629.840014	18458.598182
630.186236	18734.187981
630.532405	18681.800310
630.878521	18901.135873
631.224585	18972.286718
631.570597	18953.566393
631.916556	19146.967740
632.262462	19244.055322
632.608316	19369.312872
632.954117	19439.205949
633.299866	19550.791889
633.645562	19611.754563
633.991206	19496.506224
634.336797	19389.089318
634.682336	19499.261215
635.027823	19479.149532
635.373257	19503.798253
635.718639	19498.827676
636.063968	19519.445995
636.409245	19334.289455
636.754470	19477.047370
637.099642	19449.747002
637.444762	19316.932763
637.789829	19476.326485
638.134845	19418.501930
638.479808	19490.759309
638.824719	19541.206135
639.169577	19448.224573
639.514383	19578.505633
639.859137	19517.270737
640.203839	19735.827441
640.548489	19644.517022
640.893086	19778.233627
641.237632	19748.531149
641.582125	19900.320291
641.926566	19961.192224
642.270955	20022.273365
642.615292	20135.704367
642.959576	20221.159487
643.303809	20321.299487
643.647990	20488.441464
643.992118	20552.577543
644.336195	20650.146556
644.680219	20790.464552
645.024192	21053.385931
645.368112	21433.327614
645.711981	21541.409953
646.055797	22140.180563
646.399562	22189.137728
646.743274	22828.320748
647.086935	23192.297097
647.430544	23209.305950
647.774101	23398.051791
648.117606	23620.127221
648.461059	23905.784203
648.804460	23771.061887
649.147810	23481.009018
649.491108	23439.137195
649.834354	23310.121465
650.177548	22888.549933
650.520690	22702.579247
650.863781	22800.140698
651.206820	22796.513588
651.549807	22620.940281
651.892742	22406.953383
652.235626	22379.680741
652.578458	22381.906410
652.921238	22090.061411
653.263967	22376.794680
653.606644	22258.385538
653.949269	22294.029016
654.291843	22127.454170
654.634365	22462.617804
654.976836	22277.761213
655.319255	22358.959078
655.661622	22437.870779
656.003938	22368.156663
656.346203	22353.499508
656.688416	22574.128127
657.030577	22510.831399
657.372687	22478.648673
657.714746	22736.685174
658.056753	22886.339387
658.398708	22585.596752
658.740612	22706.350030
659.082465	22948.050672
659.424266	22911.204879
659.766016	23061.595101
660.107715	23058.603176
660.449362	23209.164797
660.790958	23273.210136
661.132503	23340.867462
661.473996	23438.348254
661.815438	23587.563887
662.156829	23787.667448
662.498168	23696.951885
662.839456	23788.721049
663.180693	23955.336225
663.521879	24139.895388
663.863013	24177.353682
664.204097	24239.753084
664.545129	24618.343738
664.886110	24675.563354
665.227040	24786.400683
665.567918	24924.394708
665.908746	25029.318764
666.249522	25212.839449
666.590248	25274.054180
666.930922	25425.452633
667.271545	25455.200482
667.612118	25574.055766
667.952639	25491.620298
668.293109	25596.859426
668.633528	25579.535500
668.973896	25597.978562
669.314213	25688.426944
669.654480	25558.057664
669.994695	25641.287114
670.334859	25622.234073
670.674973	25622.415555
671.015035	25786.719362
671.355047	25823.628170
671.695008	25849.176737
672.034918	25814.783465
672.374777	25938.412722
672.714585	25874.795881
673.054342	26102.900531
673.394049	25962.902647
673.733705	26239.162919
674.073310	26035.981734
674.412864	26160.478070
674.752368	25909.713433
675.091820	26188.574941
675.431223	25921.403869
675.770574	25766.090960
676.109875	25729.590486
676.449125	25566.584776
676.788324	25554.496089
677.127473	25213.711569
677.466571	25204.135897
677.805619	24992.112528
678.144616	25045.846187
678.483562	25032.570308
678.822458	24830.621685
679.161303	24825.903165
679.500098	24804.387520
679.838842	24748.448357
680.177535	24913.916670
680.516179	25191.931263
680.854771	25428.648725
681.193314	26138.531406
681.531805	27071.442296
681.870247	27727.336741
682.208638	28351.827317
682.546978	28575.243694
682.885268	28698.071408
683.223508	28311.830803
683.561697	28085.823273
683.899836	27973.501324
684.237925	27593.428571
684.575963	27512.326488
684.913951	27180.041353
685.251889	27344.869439
685.589776	27370.324746
685.927614	27391.648827
686.265401	27536.100569
686.603137	27650.484350
686.940824	28081.601307
687.278460	28424.215766
687.616046	28545.856288
687.953582	29060.845441
688.291068	28985.896086
688.628504	29247.612629
688.965889	29235.589478
689.303224	28968.867069
689.640510	28713.270486
689.977745	28159.199788
690.314930	27533.481690
690.652065	27162.987129
690.989150	26601.372344
691.326185	25894.587451
691.663170	25360.323446
692.000105	24772.950885
692.336990	24255.363017
692.673825	23930.740435
693.010610	23538.183265
693.347345	23093.061983
693.684030	22579.812028
694.020665	22363.599460
694.357251	21842.059327
694.693786	21825.463848
695.030272	21657.117036
695.366707	21219.290304
695.703093	21008.131493
696.039429	21025.163031
696.375716	20805.469547
696.711952	20799.251283
697.048139	20695.101045
697.384276	20557.918646
697.720363	20681.799961
698.056400	20527.691887
698.392388	20364.799604
698.728326	20352.030361
699.064214	20203.016374
699.400053	20173.346663
699.735842	19889.239835
700.071581	19673.327216
700.407270	19457.898547
700.742910	19323.919802
701.078501	19106.593139
701.414042	18880.320948
701.749533	18644.379825
702.084974	18361.918934
702.420366	18564.452331
702.755709	18201.353143
703.091002	17947.737734
703.426246	17991.898242
703.761440	17913.319256
704.096584	17694.691975
704.431679	17671.560641
704.766725	17605.156042
705.101721	17566.946616
705.436668	17665.692738
705.771565	17398.597284
706.106413	17713.256024
706.441212	17709.870890
706.775961	17845.558587
707.110661	17921.349814
707.445311	18249.864166
707.779913	18116.341645
708.114465	18342.535697
708.448967	18619.443758
708.783421	19224.306602
709.117825	19491.442385
709.452180	19678.985911
709.786485	20035.219048
710.120742	20741.000751
710.454949	20757.944069
710.789107	21168.621667
711.123216	21782.999689
711.457275	21890.832490
711.791286	22371.493907
712.125247	22437.245676
712.459159	22176.451664
712.793023	22776.467439
713.126837	21811.986324
713.460602	22054.760731
713.794318	21743.381261
714.127985	21417.833628
714.461602	20656.964716
714.795171	20644.044239
715.128691	19761.527244
715.462162	19301.406009
715.795584	18950.682853
716.128957	18737.752077
716.462281	18393.811794
716.795556	18186.786729
717.128782	17744.581754
717.461960	17266.866892
717.795088	17215.217751
718.128167	16866.183382
718.461198	16466.039275
718.794180	16347.418404
719.127113	16039.487083
719.459997	15883.002106
719.792833	15572.267904
720.125619	15549.986004
720.458357	15284.329799
720.791046	15138.043076
721.123686	14994.284492
721.456278	14795.131188
721.788821	14758.678605
722.121315	14535.242064
722.453761	14607.428866
722.786158	14549.493406
723.118506	14561.516557
723.450805	14440.760758
723.783056	14592.078553
724.115259	14508.516387
724.447412	14453.575371
724.779518	14679.204815
725.111574	14715.236462
725.443582	14894.918308
725.775542	14872.260842
726.107453	15304.433920
726.439315	15197.710173
726.771129	15566.263889
727.102895	15906.168729
727.434612	16090.425422
727.766281	16195.619180
728.097901	16442.590348
728.429473	16467.896940
728.760996	16461.287987
729.092471	16557.475723
729.423897	16456.025023
729.755276	16349.061820
730.086606	16464.899974
730.417887	16937.702232
730.749120	17424.236592
731.080305	17589.692303
731.411442	17912.280778
731.742530	17988.364393
732.073570	18094.798274
732.404562	18376.979381
732.735506	18199.160241
733.066401	17938.593081
733.397249	17469.475907
733.728048	16891.762197
734.058798	16155.771379
734.389501	15539.056782
734.720156	15121.508091
735.050762	14631.754954
735.381320	14324.047964
735.711831	14115.392086
736.042293	13787.107107
736.372707	13808.085868
736.703073	13614.674439
737.033391	13785.478814
737.363661	13770.274694
737.693883	13859.417417
738.024056	14019.683260
738.354182	14195.889231
738.684260	14450.127222
739.014290	14658.805786
739.344272	14835.720039
739.674207	15092.599595
740.004093	15197.213619
740.333931	15200.293764
740.663722	15227.561365
740.993464	15232.552108
741.323159	15074.912706
741.652806	14821.945086
741.982405	14644.972859
742.311956	14331.541640
742.641460	14222.672881
742.970915	13956.099186
743.300323	13649.702897
743.629683	13451.320890
743.958996	13189.836240
744.288260	12936.850975
744.617477	12660.159685
744.946647	12598.292124
745.275768	12335.821929
745.604842	12185.189731
745.933869	12029.954960
746.262847	11984.748413
746.591778	11924.609968
746.920662	11834.731236
747.249498	11839.747184
747.578286	11952.638784
747.907027	12082.269534
748.235720	12273.525870
748.564365	12311.236221
748.892963	12236.332237
749.221514	12285.727983
749.550017	12153.957263
749.878473	12115.596602
750.206881	11921.381109
750.535242	11836.667039
750.863555	11762.282294
751.191821	11673.943634
751.520039	11694.093126
751.848210	11617.003802
752.176334	11642.564972
752.504411	11555.668083
752.832440	11400.219063
753.160421	11468.541821
753.488356	11351.007319
753.816243	11271.967068
754.144082	11131.704524
754.471875	11086.760117
754.799620	11038.317149
755.127318	11013.330670
755.454969	10979.544857
755.782572	10932.624317
756.110129	10936.707652
756.437638	10870.025789
756.765100	10867.719462
757.092515	10865.017403
757.419882	10884.014991
757.747203	10885.061031
758.074477	10956.448810
758.401703	10917.100084
758.728882	11070.540204
759.056014	11105.518250
759.383099	11212.032790
759.710138	11320.319295
760.037129	11397.867365
760.364073	11425.243351
760.690970	11405.988663
761.017820	11406.331462
761.344623	11590.013464
761.671379	11903.313614
761.998088	12501.086075
762.324751	14005.376465
762.651366	16725.721712
762.977935	20213.635565
763.304456	22343.006346
763.630931	22793.617445
763.957359	21672.157319
764.283740	19854.675164
764.610074	18056.172953
764.936362	16033.137750
765.262602	14587.148304
765.588796	13191.751878
765.914943	12194.147862
766.241044	11401.222253
766.567097	10791.406475
766.893104	10263.764025
767.219064	9926.241131
767.544978	9553.843535
767.870845	9264.415769
768.196665	9084.880116
768.522438	8897.288699
768.848165	8742.585770
769.173846	8584.230524
769.499479	8465.740724
769.825066	8321.835946
770.150607	8139.943554
770.476101	8087.644103
770.801548	7975.664953
771.126949	7841.706372
771.452303	7756.765450
771.777611	7600.986234
772.102872	7580.055363
772.428087	7464.406253
772.753256	7356.520520
773.078378	7268.854854
773.403453	7130.533154
773.728482	7039.971346
774.053465	6971.265460
774.378401	6893.238481
774.703291	6804.151210
775.028135	6714.559824
775.352932	6674.727147
775.677683	6594.771927
776.002388	6514.743609
776.327046	6513.395101
776.651658	6431.378048
776.976224	6357.525144
777.300743	6336.609397
777.625216	6279.533453
777.949643	6231.375310
778.274024	6242.574234
778.598359	6174.947155
778.922647	6181.740110
779.246889	6145.479090
779.571086	6146.363813
779.895236	6157.451830
780.219339	6149.486807
780.543397	6151.460419
780.867409	6202.363470
781.191374	6200.513367
781.515294	6163.523900
781.839167	6217.093722
782.162995	6191.025915
782.486776	6146.600747
782.810511	6105.865703
783.134201	6032.637902
783.457844	6023.725142
783.781441	5975.345189
784.104993	5933.165855
784.428498	5905.663840
784.751958	5887.583742
785.075372	5867.262850
785.398739	5828.796326
785.722061	5852.988823
786.045337	5851.448751
786.368568	5958.913548
786.691752	5979.327700
787.014891	6223.304423
787.337983	6492.875084
787.661030	6919.790238
787.984031	7324.917526
788.306987	7580.836742
788.629897	7669.873602
788.952760	7578.774910
789.275579	7410.627224
789.598351	7125.857484
789.921078	6868.778803
790.243759	6600.090344
790.566395	6404.012144
790.888984	6212.400407
791.211529	6077.615077
791.534027	5919.204379
791.856480	5785.802845
792.178888	5724.900666
792.501249	5664.311038
792.823566	5562.547786
793.145836	5560.806067
793.468062	5547.431886
793.790241	5501.605277
794.112375	5544.452564
794.434464	5639.596781
794.756507	5668.142315
795.078505	5787.214368
795.400457	5993.412684
795.722364	6226.883642
796.044226	6417.867756
796.366042	6571.547331
796.687812	6517.546491
797.009538	6549.925822
797.331218	6455.898220
797.652852	6392.256174
797.974442	6269.632627
798.295986	6199.258119
798.617484	6080.861580
798.938938	5976.665971
799.260346	5908.065950
799.581709	5771.750629
799.903026	5722.801025
800.224299	5653.165047
800.545526	5538.231780
800.866708	5473.533612
801.187845	5430.028454
801.508936	5351.651114
801.829983	5326.339481
802.150984	5220.709664
802.471940	5200.199729
802.792851	5181.146688
803.113717	5160.064583
803.434538	5136.381242
803.755314	5106.643476
804.076045	5090.284932
804.396731	5057.250250
804.717372	5076.147016
805.037967	5074.788425
805.358518	5102.222384
805.679024	5163.696734
805.999485	5171.971788
806.319901	5186.429818
806.640272	5205.044278
806.960598	5249.749231
807.280879	5243.556173
807.601115	5281.034631
807.921306	5248.383078
808.241453	5242.260597
808.561554	5249.804683
808.881611	5211.920412
809.201623	5216.122214
809.521590	5165.362836
809.841513	5149.490763
810.161390	5168.321993
810.481223	5080.119445
810.801011	5064.045726
811.120755	5044.077715
811.440453	4989.814735
811.760107	4959.671156
812.079716	4933.278195
812.399281	4885.437645
812.718801	4884.353797
813.038276	4850.683930
813.357707	4816.308302
813.677093	4837.274461
813.996434	4775.225419
814.315731	4797.671157
814.634983	4796.385662
814.954191	4798.286177
815.273354	4860.967884
815.592473	4899.991456
815.911547	4970.875120
816.230577	5019.139127
816.549562	5106.217498
816.868502	5160.387217
817.187399	5213.294127
817.506250	5292.498215
817.825058	5314.250794
818.143821	5466.924659
818.462539	5628.032374
818.781213	5853.780284
819.099843	6208.957299
819.418429	6822.954714
819.736970	7422.657938
820.055466	8119.146273
820.373919	9015.110547
820.692327	10428.735785
821.010691	13054.009911
821.329011	19104.879147
821.647286	28405.631552
821.965517	38459.968403
822.283704	43770.362714
822.601847	45231.601650
822.919945	40744.410118
823.237999	35766.628617
823.556010	30698.754134
823.873976	26114.830422
824.191897	22017.345287
824.509775	19031.389206
824.827609	16347.652818
825.145398	14839.221120
825.463144	14112.291777
825.780845	14410.934772
826.098502	15623.821263
826.416116	18013.416407
826.733685	20250.516646
827.051210	20765.299112
827.368692	19357.556901
827.686129	16869.634052
828.003522	14460.280106
828.320872	12284.409721
828.638177	10686.318582
828.955439	9472.433941
829.272656	8439.950181
829.589830	7614.425950
829.906960	6911.031234
830.224046	6389.203755
830.541088	5988.863043
830.858086	5738.345423
831.175041	5541.296802
831.491952	5485.634901
831.808819	5517.409294
832.125642	5759.165388
832.442421	6299.773686
832.759157	7376.975001
833.075849	9102.781253
833.392497	10906.125492
833.709101	11995.445742
834.025662	11742.621794
834.342179	10712.560308
834.658653	9437.254249
834.975083	8355.689815
835.291469	7482.105744
835.607811	6760.023470
835.924110	6251.981027
836.240366	5776.698522
836.556578	5340.149722
836.872746	4991.364890
837.188871	4725.859920
837.504952	4513.231613
837.820990	4351.370245
838.136984	4242.020056
838.452935	4194.184547
838.768842	4222.735122
839.084706	4496.658819
839.400526	5219.194797
839.716303	6105.321258
840.032037	6653.884497
840.347727	6506.468555
840.663373	5920.247898
840.978977	5359.386765
841.294537	4925.822328
841.610054	4606.467753
841.925527	4370.526629
842.240957	4171.930374
842.556344	3999.026358
842.871687	3838.274045
843.186987	3690.265768
843.502244	3576.827203
843.817458	3489.330417
844.132629	3419.722164
844.447756	3375.957387
844.762840	3331.849812
845.077881	3293.295067
845.392879	3261.119902
845.707833	3233.869945
846.022745	3210.231975
846.337613	3200.857949
846.652438	3173.479443
846.967221	3166.867970
847.281960	3150.983294
847.596656	3139.028197
847.911309	3124.255096
848.225919	3110.903600
848.540485	3103.540995
848.855009	3097.156374
849.169490	3086.791761
849.483928	3078.660380
849.798323	3072.787436
850.112675	3065.664286
850.426984	3064.383832
850.741251	3059.204047
851.055474	3052.171637
851.369654	3052.932852
851.683792	3052.055691
851.997887	3055.271947
852.311938	3056.532235
852.625947	3054.964437
852.939914	3049.202398
853.253837	3056.350754
853.567718	3053.091648
853.881555	3046.691903
854.195350	3052.486709
854.509103	3050.250958
854.822812	3047.906821
855.136479	3042.656459
855.450103	3045.978580
855.763685	3039.999771
856.077224	3043.737787
856.390720	3049.804816
856.704173	3061.442319
857.017584	3065.843247
857.330953	3071.685944
857.644278	3080.702047
857.957561	3080.944023
858.270802	3076.835482
858.584000	3079.630802
858.897155	3074.851788
859.210268	3063.680592
859.523339	3050.810526
859.836367	3050.387069
860.149352	3042.316182
860.462295	3039.566232
860.775195	3029.899820
861.088054	3025.970240
861.400869	3025.088038
861.713642	3024.450332
862.026373	3031.906199
862.339062	3034.363761
862.651708	3048.131152
862.964312	3064.449368
863.276873	3069.109914
863.589392	3098.688884
863.901869	3124.416413
864.214303	3147.673776
864.526696	3164.279337
864.839045	3182.800536
865.151353	3191.930066
865.463619	3191.854449
865.775842	3195.947866
866.088023	3201.341900
866.400162	3194.669933
866.712258	3194.090200
867.024313	3193.177752
867.336325	3192.474511
867.648296	3189.976619
867.960224	3191.173893
868.272110	3193.157587
868.583954	3191.433512
868.895755	3199.370809
869.207515	3197.583720
869.519233	3218.945609
869.830909	3221.511557
870.142542	3235.263824
870.454134	3240.902355
870.765684	3251.032554
871.077191	3269.392436
871.388657	3280.757717
871.700081	3298.353865
872.011463	3318.783141
872.322803	3337.551357
872.634101	3350.986032
872.945357	3373.535113
873.256571	3401.944535
873.567744	3415.686721
873.878874	3420.596804
874.189963	3439.612037
874.501010	3438.092129
874.812015	3435.604319
875.122979	3450.213583
875.433900	3450.115281
875.744780	3449.258285
876.055618	3462.148515
876.366415	3456.842701
876.677169	3465.541212
876.987882	3479.043942
877.298554	3498.351561
877.609183	3535.719114
877.919771	3582.057400
878.230317	3645.223058
878.540822	3751.031836
878.851285	3895.947365
879.161707	4110.420735
879.472087	4473.129234
879.782425	5090.320220
880.092722	6247.680922
880.402977	8137.448182
880.713191	10444.053331
881.023363	12767.937033
881.333494	14081.291201
881.643583	14525.444581
881.953631	14127.994971
882.263637	13303.821770
882.573602	12288.813169
882.883526	11360.807322
883.193408	10425.259909
883.503248	9533.961224
883.813048	8721.082728
884.122806	7969.408881
884.432522	7222.803914
884.742197	6582.554690
885.051831	6028.370566
885.361424	5547.245363
885.670975	5163.888298
885.980485	4853.718705
886.289954	4586.182150
886.599382	4376.681878
886.908768	4206.139644
887.218113	4040.923388
887.527417	3912.240374
887.836680	3795.608239
888.145901	3697.267930
888.455082	3624.128350
888.764221	3553.584963
889.073319	3499.495903
889.382376	3467.696305
889.691392	3446.624282
890.000366	3436.627674
890.309300	3430.270779
890.618193	3433.786983
890.927044	3428.299687
891.235855	3433.010646
891.544625	3444.388530
891.853353	3478.166781
892.162041	3535.522509
892.470687	3624.332517
892.779293	3740.422728
893.087858	3908.701484
893.396381	4181.349770
893.704864	4587.240792
894.013306	5138.642200
894.321707	5697.607859
894.630068	6046.324635
894.938387	6083.619091
895.246665	5910.616773
895.554903	5596.631027
895.863100	5272.252941
896.171256	5005.356613
896.479371	4772.598978
896.787446	4551.163775
897.095480	4360.482130
897.403473	4216.085840
897.711425	4073.781629
898.019336	3953.592959
898.327207	3832.597705
898.635038	3738.665886
898.942827	3628.703197
899.250576	3545.725805
899.558284	3463.852425
899.865952	3414.870054
900.173579	3352.090044
900.481165	3308.852068
900.788711	3265.714914
901.096216	3234.454719
901.403681	3205.364741
901.711105	3196.658668
902.018489	3193.863348
902.325832	3227.349213
902.633135	3282.610341
902.940397	3449.953964
903.247619	3842.191021
903.554800	4580.551181
903.861941	5522.463051
904.169041	6203.356577
904.476101	6409.186889
904.783121	6142.613194
905.090100	5748.904120
905.397039	5342.478735
905.703938	4992.060569
906.010796	4675.781098
906.317614	4428.628448
906.624391	4198.522460
906.931129	4006.910723
907.237826	3831.382787
907.544483	3668.545956
907.851099	3500.027745
908.157675	3344.903879
908.464211	3205.909186
908.770707	3107.321860
909.077163	3030.802186
909.383578	2972.541571
909.689954	2931.657813
909.996289	2899.144892
910.302584	2879.008003
910.608839	2866.294213
910.915054	2854.795341
911.221229	2849.973477
911.527363	2856.743747
911.833458	2860.111237
912.139513	2875.448948
912.445527	2888.873541
912.751502	2919.536359
913.057436	2962.645786
913.363331	3016.409692
913.669186	3103.838423
913.975000	3218.151628
914.280775	3398.292219
914.586510	3663.739216
914.892205	4025.631048
915.197859	4512.291437
915.503475	5084.225465
915.809050	5569.050874
916.114585	5849.454974
916.420081	5915.088277
916.725536	5844.131516
917.030952	5615.099294
917.336328	5413.251494
917.641665	5208.240370
917.946961	4982.618488
918.252218	4790.036329
918.557435	4567.580292
918.862612	4374.040314
919.167750	4204.844067
919.472848	4021.761962
919.777906	3858.675594
920.082925	3706.105073
920.387904	3552.785941
920.692843	3443.203859
920.997743	3349.226669
921.302603	3257.139912
921.607423	3196.507434
921.912204	3135.138947
922.216946	3084.515680
922.521647	3036.034904
922.826310	2996.570231
923.130932	2961.380457
923.435516	2920.910073
923.740059	2893.060219
924.044564	2864.519727
924.349028	2841.743793
924.653454	2809.987045
924.957840	2784.483847
925.262186	2770.345932
925.566493	2748.336254
925.870761	2721.839949
926.174989	2710.051211
926.479178	2697.528985
926.783328	2681.392251
927.087438	2668.789367
927.391509	2659.954745
927.695541	2646.555358
927.999533	2635.991620
928.303486	2626.700773
928.607400	2622.282202
928.911275	2615.592591
929.215110	2612.494802
929.518906	2607.055397
929.822663	2609.754935
930.126381	2608.091354
930.430060	2612.068824
930.733699	2613.525718
931.037299	2616.933538
931.340861	2615.567385
931.644383	2620.933693
931.947866	2618.299690
932.251309	2613.336674
932.554714	2613.286263
932.858080	2613.049329
933.161407	2609.570933
933.464694	2603.546754
933.767943	2602.823348
934.071153	2596.307657
934.374323	2594.034096
934.677455	2591.057295
934.980548	2587.016810
935.283602	2584.387848
935.586617	2584.350040
935.889593	2587.311718
936.192530	2588.201481
936.495428	2593.598037
936.798287	2599.297061
937.101108	2616.547889
937.403890	2638.837351
937.706632	2664.728717
938.009336	2699.295909
938.312002	2725.714076
938.614628	2747.514546
938.917216	2767.570776
939.219765	2775.185439
939.522275	2782.714402
939.824747	2784.062911
940.127179	2777.887498
940.429573	2772.601848
940.731929	2771.434821
941.034246	2762.007863
941.336524	2759.971237
941.638763	2752.938827
941.940964	2749.432705
942.243126	2731.813872
942.545250	2724.398335
942.847335	2707.681869
943.149381	2695.129396
943.451389	2684.946265
943.753359	2671.498987
944.055290	2664.143943
944.357182	2653.807057
944.659036	2648.715492
944.960851	2645.897487
945.262628	2639.860705
945.564367	2642.802219
945.866067	2640.392547
946.167729	2639.515386
946.469352	2636.616723
946.770937	2635.590848
947.072484	2628.795373
947.373992	2629.299488
947.675462	2627.958541
947.976893	2621.795731
948.278286	2615.859772
948.579641	2613.709720
948.880958	2612.424226
949.182236	2613.044287
949.483476	2607.804008
949.784678	2608.469440
950.085841	2605.328802
950.386967	2611.859616
950.688054	2616.068980
950.989103	2624.938890
951.290114	2633.586989
951.591087	2645.963022
951.892021	2655.258910
952.192917	2669.825324
952.493776	2678.793537
952.794596	2685.077335
953.095378	2685.619259
953.396122	2681.261181
953.696828	2679.597601
953.997496	2674.823628
954.298126	2666.150323
954.598718	2657.381236
954.899272	2646.943527
955.199788	2638.678555
955.500266	2625.604322
955.800706	2609.339039
956.101108	2593.751792
956.401472	2582.903229
956.701798	2562.632749
957.002087	2555.030689
957.302337	2546.561551
957.602550	2535.755837
957.902724	2525.678571
958.202861	2516.523835
958.502960	2507.492608
958.803022	2500.661845
959.103045	2493.785711
959.403031	2487.396048
959.702979	2481.623927
960.002889	2478.647126
960.302762	2473.119501
960.602596	2470.344346
960.902393	2470.767802
961.202153	2465.245218
961.501875	2462.177676
961.801559	2461.300516
962.101205	2456.849177
962.400814	2455.614094
962.700385	2453.932869
962.999918	2452.090328
963.299414	2448.942127
963.598873	2448.977415
963.898293	2446.713937
964.197677	2448.879113
964.497022	2443.696806
964.796331	2442.935592
965.095601	2443.530448
965.394835	2440.440221
965.694030	2441.892073
965.993189	2440.994748
966.292309	2440.304110
966.591393	2440.533482
966.890439	2440.261260
967.189447	2437.138265
967.488419	2440.735128
967.787353	2442.640685
968.086249	2443.553133
968.385108	2443.003648
968.683930	2441.640016
968.982714	2445.539348
969.281462	2444.508432
969.580172	2445.599842
969.878844	2448.924483
970.177480	2452.254165
970.476078	2453.643003
970.774639	2458.089301
971.073162	2456.632407
971.371649	2457.852366
971.670098	2458.868159
971.968510	2461.282872
972.266885	2460.209106
972.565223	2466.525672
972.863524	2466.676906
973.161788	2471.755869
973.460014	2471.458441
973.758204	2473.290900
974.056356	2472.600262
974.354471	2472.559933
974.652550	2472.330560
974.950591	2473.663945
975.248595	2471.176136
975.546563	2470.941722
975.844493	2468.237143
976.142386	2463.463171
976.440243	2466.689509
976.738062	2462.248252
977.035845	2459.999898
977.333590	2459.397480
977.631299	2455.563683
977.928971	2457.486883
978.226606	2453.648044
978.524204	2454.666357
978.821765	2453.043106
979.119290	2447.379369
979.416777	2451.503033
979.714228	2449.761314
980.011642	2451.319031
980.309020	2459.452933
980.606360	2461.456791
980.903664	2469.104222
981.200931	2478.042187
981.498162	2498.441217
981.795356	2528.801566
982.092513	2564.054354
982.389633	2608.361056
982.686717	2650.850421
982.983764	2679.169102
983.280775	2696.926567
983.577749	2695.797348
983.874686	2690.496575
984.171587	2672.083761
984.468451	2657.950886
984.765279	2641.899852
985.062070	2621.238683
985.358824	2604.333174
985.655543	2583.089751
985.952224	2561.049827
986.248869	2534.440096
986.545478	2508.021929
986.842050	2488.505102
987.138586	2472.136476
987.435086	2458.938735
987.731549	2451.621500
988.027975	2443.661518
988.324366	2438.824531
988.620719	2435.462082
988.917037	2430.766247
989.213318	2428.870773
989.509563	2425.727613
989.805772	2425.861204
990.101944	2420.963723
990.398080	2424.134609
990.694180	2421.699732
990.990244	2422.372726
991.286271	2422.032448
991.582262	2423.383477
991.878217	2421.760225
992.174136	2424.129568
992.470019	2424.283323
992.765865	2426.526636
993.061676	2428.520413
993.357450	2431.245156
993.653188	2434.751279
993.948890	2439.552978
994.244556	2445.788885
994.540186	2453.506892
994.835780	2463.929477
995.131337	2478.102681
995.426859	2493.757985
995.722345	2513.935203
996.017795	2531.480939
996.313208	2545.696993
996.608586	2555.665874
996.903928	2558.486400
997.199234	2558.872048
997.494504	2553.523384
997.789738	2545.873433
998.084936	2536.537216
998.380099	2523.578930
998.675225	2514.088958
998.970316	2501.407936
999.265371	2491.013076
999.560390	2477.711992
999.855373	2463.138016
1000.150320	2458.129630
1000.445232	2447.407096
1000.740108	2442.807043
1001.034948	2435.343614
1001.329752	2433.891762
1001.624521	2428.293561
1001.919254	2417.689494
1002.213951	2420.527663
1002.508613	2416.958526
1002.803239	2417.878537
1003.097829	2410.447876
1003.392384	2414.536252
1003.686903	2412.945768
1003.981386	2412.388720
1004.275834	2409.888308
1004.570246	2409.316137
1004.864623	2406.107443
1005.158964	2409.424522
1005.453270	2409.361507
1005.747540	2408.769172
1006.041775	2406.465365
1006.335974	2406.165416
1006.630138	2404.075858
1006.924266	2410.097516
1007.218359	2405.663821
1007.512416	2404.872360
1007.806438	2405.058883
1008.100425	2405.527710
1008.394376	2408.602814
1008.688292	2404.050652
1008.982172	2404.285066
1009.276017	2404.567370
1009.569827	2407.249264
1009.863602	2403.917061
1010.157341	2403.624674
1010.451045	2403.591907
1010.744714	2404.816907
1011.038347	2401.832544
1011.331945	2406.062072
1011.625508	2405.694068
1011.919036	2402.997051
1012.212528	2403.400343
1012.505986	2402.729870
1012.799408	2402.966804
1013.092795	2400.773902
1013.386147	2404.799263
1013.679464	2401.940929
1013.972745	2399.271638
1014.265992	2399.445558
1014.559204	2402.407236
1014.852380	2402.422359
1015.145521	2403.153327
1015.438628	2401.386402
1015.731699	2401.053686
1016.024736	2402.873543
1016.317737	2401.177194
1016.610703	2404.418656
1016.903635	2401.421690
1017.196531	2400.988151
1017.489393	2402.082081
1017.782219	2401.484705
1018.075011	2403.712895
1018.367768	2407.937382
1018.660490	2405.104253
1018.953177	2405.104253
1019.245829	2405.104253
