Dividing Wavelength (nm)	Counts (n)	Blue Motor Position (mm): 11.200000	Red Motor Position (mm): 0.000000	
326.493990	1975.769345
326.888308	1975.769345
327.282561	1975.769345
327.676750	1950.072063
328.070874	1952.413679
328.464933	1955.458536
328.858929	1966.183591
329.252859	1978.607514
329.646726	1994.686274
330.040528	2009.295538
330.434265	2027.302540
330.827938	2051.041333
331.221547	2068.098077
331.615091	2087.481314
332.008571	2108.845724
332.401986	2130.739455
332.795338	2150.311735
333.188625	2169.223623
333.581847	2189.607529
333.975006	2207.919520
334.368100	2223.791593
334.761129	2242.854717
335.154095	2256.710328
335.546996	2284.487086
335.939833	2332.491473
336.332606	2346.190809
336.725315	2357.677078
337.117960	2365.092615
337.510540	2371.454551
337.903056	2383.165152
338.295508	2387.099772
338.687896	2397.653428
339.080220	2403.599469
339.472480	2410.543658
339.864676	2411.952661
340.256807	2416.857703
340.648875	2417.916346
341.040879	2420.036151
341.432818	2416.414082
341.824694	2418.175965
342.216506	2419.811819
342.608253	2419.322828
342.999937	2415.486509
343.391557	2417.629000
343.783113	2417.755029
344.174605	2415.151273
344.566033	2412.534914
344.957397	2410.720098
345.348697	2409.099367
345.739934	2408.547361
346.131106	2405.988976
346.522215	2404.514438
346.913260	2403.211300
347.304241	2401.777092
347.695159	2397.716442
348.086012	2398.573438
348.476802	2393.275186
348.867528	2393.887686
349.258191	2393.587737
349.648789	2392.997922
350.039324	2390.726882
350.429796	2386.973743
350.820203	2389.126316
351.210548	2392.113200
351.600828	2385.723537
351.991045	2384.632127
352.381198	2386.608260
352.771288	2387.155225
353.161314	2385.537014
353.551276	2385.325286
353.941175	2384.649771
354.331010	2384.254041
354.720782	2389.091028
355.110490	2388.556666
355.500135	2386.474669
355.889717	2386.988867
356.279235	2388.924670
356.668689	2388.297046
357.058080	2388.349978
357.447408	2388.153373
357.836672	2388.513816
358.225873	2389.022972
358.615010	2385.796634
359.004084	2392.627397
359.393095	2390.999105
359.782043	2391.014228
360.170927	2392.808879
360.559748	2394.056564
360.948505	2393.842315
361.337199	2393.565052
361.725830	2393.128992
362.114398	2396.128479
362.502903	2394.225443
362.891344	2392.801317
363.279722	2397.169477
363.668037	2395.717625
364.056289	2396.335166
364.444478	2395.465567
364.832603	2400.552091
365.220665	2397.494631
365.608665	2399.624519
365.996601	2401.368758
366.384474	2397.431617
366.772284	2397.837430
367.160031	2402.450086
367.547715	2397.885321
367.935336	2398.777605
368.322893	2398.399518
368.710388	2399.513613
369.097820	2402.223234
369.485189	2400.400857
369.872495	2400.078223
370.259738	2400.053017
370.646918	2402.203069
371.034035	2402.765158
371.421090	2403.546537
371.808081	2402.056876
372.195010	2400.360527
372.581875	2403.425549
372.968678	2403.385220
373.355418	2401.802297
373.742096	2403.601989
374.128710	2402.931516
374.515262	2405.835220
374.901751	2403.871691
375.288177	2403.226423
375.674540	2404.511918
376.060841	2405.089130
376.447079	2404.627864
376.833254	2405.323543
377.219367	2401.212482
377.605417	2405.515107
377.991404	2404.237175
378.377329	2404.721125
378.763191	2401.174674
379.148991	2407.284552
379.534727	2406.767834
379.920402	2407.937382
380.306013	2405.280693
380.691563	2408.144069
381.077049	2408.023081
381.462474	2407.173647
381.847835	2408.572567
382.233134	2411.239337
382.618371	2410.629358
383.003545	2407.730694
383.388657	2410.823442
383.773706	2408.408729
384.158693	2410.722619
384.543618	2410.586508
384.928480	2410.710016
385.313280	2410.110119
385.698017	2412.086251
386.082692	2411.788823
386.467305	2410.747825
386.851856	2413.331416
387.236344	2409.726991
387.620770	2412.739081
388.005133	2411.294790
388.389435	2412.285377
388.773674	2415.849473
389.157851	2415.423495
389.541965	2412.605490
389.926018	2414.629513
390.310008	2412.736560
390.693936	2414.732857
391.077802	2413.706982
391.461606	2412.318144
391.845348	2414.866448
392.229027	2415.451221
392.612645	2414.407702
392.996200	2415.363001
393.379694	2414.150604
393.763125	2415.103382
394.146494	2412.915521
394.529801	2416.855183
394.913047	2416.630851
395.296230	2416.940882
395.679351	2415.131108
396.062410	2415.615059
396.445408	2416.799730
396.828343	2416.595563
397.211217	2412.166910
397.594028	2414.057342
397.976778	2415.073135
398.359466	2415.957857
398.742092	2413.230593
399.124656	2417.838208
399.507158	2418.422982
399.889598	2417.722261
400.271977	2416.746798
400.654294	2420.842735
401.036549	2419.791655
401.418742	2419.131264
401.800874	2419.758887
402.182944	2421.014135
402.564952	2418.460790
402.946898	2419.887437
403.328783	2418.911973
403.710606	2421.077149
404.092367	2422.899526
404.474067	2422.387849
404.855705	2422.380287
405.237282	2421.389701
405.618797	2420.787283
406.000250	2422.592016
406.381642	2422.198806
406.762972	2423.973292
407.144240	2422.183682
407.525447	2426.667789
407.906593	2421.538415
408.287677	2421.281316
408.668700	2422.065215
409.049661	2426.125865
409.430560	2422.695359
409.811399	2423.363312
410.192176	2425.379774
410.572891	2426.395566
410.953545	2426.453540
411.334138	2426.899682
411.714669	2425.536050
412.095139	2424.134609
412.475547	2427.217274
412.855894	2426.072932
413.236180	2425.110072
413.616405	2424.479928
413.996568	2425.694846
414.376670	2426.670309
414.756711	2426.108221
415.136691	2428.953952
415.516609	2426.660227
415.896466	2423.930442
416.276262	2430.395722
416.655997	2422.178641
417.035670	2422.980185
417.415283	2426.786256
417.794834	2422.534043
418.174324	2427.106369
418.553753	2424.714342
418.933121	2426.967737
419.312428	2425.223498
419.691674	2426.597212
420.070859	2427.368509
420.449983	2431.177101
420.829045	2429.942018
421.208047	2428.507810
421.586988	2427.842377
421.965867	2426.987902
422.344686	2429.594178
422.723444	2427.378591
423.102141	2427.481935
423.480777	2428.931267
423.859352	2425.283992
424.237866	2426.947573
424.616319	2429.085022
424.994712	2429.175763
425.373044	2430.176432
425.751314	2428.414548
426.129524	2428.865732
426.507673	2427.605443
426.885762	2431.167018
427.263789	2428.386822
427.641756	2427.862542
428.019662	2431.739189
428.397508	2428.825402
428.775292	2430.582245
429.153016	2426.929929
429.530679	2430.642738
429.908282	2431.199786
430.285824	2427.618046
430.663305	2428.659044
431.040726	2430.476380
431.418086	2429.841195
431.795385	2433.271700
432.172624	2431.083839
432.549802	2430.955290
432.926920	2429.042172
433.303977	2431.368665
433.680974	2429.158119
434.057910	2431.897986
434.434786	2430.736000
434.811601	2432.407142
435.188355	2431.650969
435.565050	2433.117945
435.941683	2434.786567
436.318257	2430.196596
436.694770	2431.388829
437.071222	2429.879004
437.447614	2428.691812
437.823946	2430.821699
438.200218	2434.153902
438.576429	2431.976124
438.952580	2432.379416
439.328670	2431.900506
439.704700	2431.978644
440.080670	2431.610640
440.456580	2433.690116
440.832429	2435.300765
441.208218	2433.213727
441.583947	2435.464602
441.959616	2435.787236
442.335224	2432.944025
442.710773	2434.345466
443.086261	2432.334046
443.461689	2431.771957
443.837057	2433.775816
444.212365	2434.363110
444.587612	2437.430652
444.962800	2435.764551
445.337927	2433.780857
445.712995	2433.659869
446.088002	2433.876639
446.462949	2437.105498
446.837837	2437.808739
447.212664	2438.390992
447.587431	2437.665066
447.962139	2438.791764
448.336786	2438.499377
448.711374	2438.769078
449.085901	2439.520210
449.460369	2439.706733
449.834776	2441.259408
450.209124	2440.611620
450.583412	2439.739501
450.957640	2440.155396
451.331808	2438.113728
451.705917	2440.349480
452.079965	2441.491302
452.453954	2439.573142
452.827883	2439.794953
453.201752	2438.474171
453.575562	2440.934254
453.949311	2441.450972
454.323001	2441.887032
454.696632	2441.080448
455.070202	2442.484409
455.443713	2441.836621
455.817164	2441.340067
456.190556	2441.108174
456.563888	2441.614810
456.937160	2439.686568
457.310373	2443.298555
457.683526	2442.517176
458.056619	2444.233689
458.429653	2445.703186
458.802628	2443.858123
459.175542	2446.366097
459.548398	2446.892898
459.921194	2447.712085
460.293930	2451.447580
460.666607	2447.477672
461.039224	2453.141408
461.411782	2448.425409
461.784280	2452.284412
462.156719	2448.385079
462.529099	2450.913218
462.901419	2448.251489
463.273680	2450.948506
463.645882	2448.846345
464.018024	2450.094031
464.390106	2452.576799
464.762130	2451.936572
465.134094	2456.624845
465.505999	2457.907819
465.877845	2461.222378
466.249631	2460.859415
466.621358	2462.265897
466.993026	2466.162708
467.364634	2463.415280
467.736184	2458.359002
468.107674	2459.379836
468.479105	2458.817747
468.850477	2459.160546
469.221790	2458.661472
469.593043	2454.671398
469.964238	2452.433126
470.335373	2456.334979
470.706449	2459.929322
471.077467	2458.459825
471.448425	2463.967286
471.819324	2462.684312
472.190164	2463.569035
472.560945	2462.039045
472.931667	2458.636266
473.302330	2457.585185
473.672934	2460.907306
474.043479	2459.795731
474.413965	2454.184927
474.784393	2452.977571
475.154761	2458.500155
475.525070	2454.179886
475.895321	2457.002932
476.265513	2454.842798
476.635645	2460.859415
477.005719	2458.631225
477.375734	2460.619960
477.745691	2462.908644
478.115588	2460.201544
478.485427	2465.852677
478.855207	2467.957359
479.224928	2470.808132
479.594591	2470.543471
479.964194	2470.172946
480.333739	2468.085909
480.703226	2469.512555
481.072653	2469.746969
481.442022	2468.320322
481.811333	2472.138996
482.180584	2471.077833
482.549777	2472.557412
482.918912	2470.230920
483.287988	2468.980713
483.657005	2469.384006
484.025964	2470.561115
484.394864	2469.734366
484.763706	2470.074644
485.132489	2467.957359
485.501213	2469.368882
485.869879	2467.259159
486.238487	2472.567494
486.607036	2468.113635
486.975527	2467.707822
487.343959	2468.804273
487.712333	2468.373254
488.080648	2470.782926
488.448905	2469.893162
488.817104	2468.494242
489.185244	2472.108749
489.553326	2474.064717
489.921350	2475.599748
490.289315	2479.184009
490.657222	2482.982518
491.025070	2483.915132
491.392861	2482.465800
491.760593	2481.666777
492.128267	2477.941364
492.495883	2477.492702
492.863440	2475.493884
493.230939	2478.238793
493.598380	2478.531179
493.965763	2473.086733
494.333088	2475.501446
494.700354	2471.430714
495.067563	2478.639564
495.434713	2474.543627
495.801805	2480.194760
496.168839	2477.984214
496.535815	2481.437405
496.902733	2484.643578
497.269593	2483.957982
497.636395	2483.269864
498.003139	2486.904536
498.369825	2489.561224
498.736453	2493.127840
499.103023	2491.996101
499.469535	2492.462408
499.835989	2494.735968
500.202385	2492.931235
500.568723	2494.879641
500.935003	2496.966679
501.301226	2498.980620
501.667390	2500.891217
502.033497	2506.968328
502.399546	2504.475478
502.765537	2503.963801
503.131470	2511.485202
503.497345	2510.691220
503.863163	2511.056704
504.228923	2514.835049
504.594625	2518.250431
504.960269	2517.776562
505.325856	2521.116327
505.691385	2520.982736
506.056856	2526.966586
506.422270	2528.857018
506.787625	2529.487162
507.152924	2530.371885
507.518164	2536.620395
507.883347	2535.821372
508.248472	2538.339429
508.613540	2543.436035
508.978550	2546.122970
509.343503	2546.654812
509.708398	2550.634803
510.073236	2556.802655
510.438016	2559.706359
510.802738	2559.098900
511.167403	2563.925805
511.532010	2564.480332
511.896561	2573.882084
512.261053	2579.903742
512.625488	2575.699420
512.989866	2577.718402
513.354186	2582.935996
513.718449	2579.145048
514.082655	2591.999991
514.446803	2590.974116
514.810894	2597.363778
515.174927	2601.343769
515.538904	2601.542895
515.902822	2607.110849
516.266684	2610.291817
516.630488	2610.884153
516.994235	2616.315996
517.357925	2618.720627
517.721558	2624.495268
518.085133	2629.302009
518.448651	2632.490538
518.812112	2634.133955
519.175516	2636.145375
519.538863	2639.522948
519.902152	2642.726601
520.265385	2649.814464
520.628560	2650.454690
520.991678	2649.459062
521.354739	2654.855618
521.717743	2659.518685
522.080690	2662.339210
522.443580	2668.602844
522.806413	2670.631908
523.169189	2675.090809
523.531908	2677.939061
523.894569	2676.678772
524.257174	2682.216480
524.619722	2683.759073
524.982213	2688.356605
525.344647	2688.966585
525.707025	2693.705270
526.069345	2694.219467
526.431608	2696.873635
526.793815	2700.737679
527.155964	2704.586600
527.518057	2704.594162
527.880093	2708.715305
528.242072	2711.598845
528.603995	2714.169834
528.965860	2716.019937
529.327669	2719.132850
529.689421	2717.181923
530.051117	2718.568240
530.412755	2726.457646
530.774337	2724.620146
531.135862	2728.360682
531.497331	2726.724827
531.858743	2727.382698
532.220098	2734.178173
532.581396	2734.268914
532.942638	2730.906464
533.303824	2737.850654
533.664953	2739.993144
534.026025	2739.534399
534.387040	2745.177971
534.747999	2748.875657
535.108902	2750.813981
535.469748	2748.348857
535.830537	2753.722727
536.191270	2754.173910
536.551947	2753.455546
536.912567	2758.796648
537.273131	2758.138777
537.633638	2758.456370
537.994089	2760.815630
538.354483	2759.946031
538.714821	2765.095570
539.075103	2768.659666
539.435328	2772.221241
539.795497	2768.667227
540.155609	2774.474637
540.515665	2776.357507
540.875665	2775.649225
541.235609	2780.607200
541.595496	2779.881274
541.955328	2786.636420
542.315102	2782.699279
542.674821	2785.333282
543.034483	2786.878396
543.394090	2787.687501
543.753640	2787.926956
544.113134	2796.935497
544.472571	2793.691515
544.831953	2803.983031
545.191278	2798.004222
545.550548	2797.205199
545.909761	2801.311219
546.268918	2805.515541
546.628019	2811.396047
546.987064	2807.831952
547.346053	2805.472692
547.704986	2813.662046
548.063863	2810.198773
548.422684	2816.883343
548.781449	2815.499547
549.140158	2819.303097
549.498811	2821.891730
549.857408	2817.851245
550.215949	2824.462718
550.574434	2825.443222
550.932864	2827.386587
551.291237	2832.707525
551.649555	2836.831189
552.007817	2839.863443
552.366022	2841.269925
552.724173	2845.680935
553.082267	2852.022706
553.440305	2856.423633
553.798288	2852.320134
554.156215	2860.854808
554.514086	2868.129193
554.871902	2867.244470
555.229661	2872.663711
555.587365	2874.715460
555.945014	2880.613610
556.302606	2881.425236
556.660143	2889.173489
557.017625	2899.344017
557.375050	2897.410735
557.732421	2908.259298
558.089735	2910.522776
558.446994	2915.881523
558.804197	2928.222267
559.161345	2932.739141
559.518437	2931.481373
559.875474	2942.702982
560.232455	2947.555092
560.589381	2958.625466
560.946251	2963.195272
561.303065	2977.602890
561.659825	2982.795278
562.016528	2986.661843
562.373177	2992.559993
562.729770	3004.999040
563.086307	3010.796367
563.442789	3025.718183
563.799216	3034.981303
564.155587	3041.272663
564.511904	3052.897563
564.868164	3066.612022
565.224370	3080.931420
565.580520	3090.060950
565.936615	3106.028804
566.292654	3114.258488
566.648638	3133.404790
567.004567	3143.043477
567.360441	3163.099707
567.716260	3173.131603
568.072023	3196.756971
568.427732	3209.947150
568.783385	3221.312431
569.138982	3243.269177
569.494525	3260.802310
569.850013	3274.748662
570.205445	3300.761016
570.560823	3321.497802
570.916145	3339.933302
571.271412	3357.753781
571.626625	3378.740104
571.981782	3403.603075
572.336884	3422.658636
572.691931	3450.475723
573.046923	3469.377530
573.401860	3488.070128
573.756743	3511.597193
574.111570	3541.037532
574.466342	3561.509657
574.821059	3591.960747
575.175722	3610.471864
575.530330	3635.481028
575.884882	3658.824091
576.239380	3687.362063
576.593823	3718.382803
576.948211	3743.805342
577.302544	3764.920215
577.656823	3794.637817
578.011047	3839.607430
578.365216	3861.922097
578.719330	3895.917118
579.073389	3924.203032
579.427394	3964.817088
579.781344	4003.351668
580.135239	4031.597253
580.489080	4073.978234
580.842866	4096.187037
581.196597	4155.934792
581.550273	4199.293757
581.903895	4240.154829
582.257463	4307.464315
582.610975	4326.451821
582.964434	4387.298548
583.317837	4422.712654
583.671186	4463.465342
584.024481	4519.013816
584.377721	4546.762847
584.730906	4603.559007
585.084037	4656.912059
585.437113	4687.806770
585.790135	4739.768463
586.143103	4762.705713
586.496016	4828.691897
586.848874	4882.675093
587.201679	4940.678609
587.554428	4967.026199
587.907124	5032.515829
588.259765	5078.508796
588.612352	5157.712885
588.964884	5172.917005
589.317362	5251.579169
589.669786	5305.045647
590.022155	5350.617678
590.374470	5439.873827
590.726731	5462.874092
591.078937	5480.064426
591.431090	5547.441968
591.783188	5578.566052
592.135232	5607.575372
592.487222	5682.575138
592.839157	5753.330253
593.191038	5789.031704
593.542866	5832.209187
593.894639	5840.816957
594.246358	5924.026243
594.598022	5983.678216
594.949633	6007.966495
595.301190	6065.864147
595.652692	6110.848884
596.004141	6198.391041
596.355535	6168.794427
596.706876	6219.770574
597.058162	6265.612307
597.409395	6371.267330
597.760573	6447.393794
598.111698	6465.660415
598.462768	6533.405961
598.813785	6600.569253
599.164748	6606.543021
599.515657	6714.703497
599.866511	6726.381330
600.217312	6857.335383
600.568060	6816.126471
600.918753	6963.224820
601.269392	7029.543719
601.619978	7058.883235
601.970510	7153.036865
602.320988	7251.389777
602.671412	7356.691919
603.021783	7403.473827
603.372100	7431.237981
603.722363	7517.726537
604.072572	7595.788805
604.422728	7677.392483
604.772830	7725.051551
605.122878	7815.910787
605.472872	7881.178606
605.822813	7994.352510
606.172701	8053.298722
606.522534	8165.872728
606.872314	8281.821787
607.222041	8324.167480
607.571714	8467.323646
607.921333	8461.057492
608.270899	8593.019776
608.620411	8731.807783
608.969870	8785.654867
609.319276	8868.690233
609.668627	8961.127351
610.017926	9131.808217
610.367171	9252.097709
610.716362	9358.476138
611.065500	9441.692985
611.414585	9562.821830
611.763616	9712.281959
612.112594	9797.205237
612.461518	9926.084855
612.810389	10082.892466
613.159207	10155.003651
613.507971	10265.248645
613.856682	10466.287340
614.205340	10539.484893
614.553945	10780.842737
614.902496	10771.874524
615.250994	10970.574123
615.599439	11093.540469
615.947830	11244.785166
616.296169	11374.844415
616.644454	11518.267763
616.992686	11669.222594
617.340864	11905.740929
617.688990	11963.250413
618.037063	12217.753064
618.385082	12331.398316
618.733048	12527.010209
619.080961	12654.569045
619.428821	12773.494906
619.776628	12912.834918
620.124382	12977.475114
620.472083	13115.736320
620.819731	13249.238676
621.167326	13260.634205
621.514868	13352.514275
621.862357	13315.464314
622.209793	13420.453905
622.557176	13427.544288
622.904506	13442.730764
623.251783	13440.069035
623.599007	13479.909273
623.946179	13510.705682
624.293297	13587.421962
624.640363	13517.085263
624.987376	13607.064817
625.334336	13647.366322
625.681243	13652.541066
626.028097	13738.664139
626.374899	13799.747800
626.721647	13891.116193
627.068343	13969.357421
627.414987	14004.834541
627.761577	14037.874263
628.108115	14253.587757
628.454600	14186.323641
628.801032	14345.548486
629.147412	14445.270070
629.493739	14556.220825
629.840014	14564.256425
630.186236	14775.548826
630.532405	14755.253141
630.878521	14940.296255
631.224585	15015.069169
631.570597	15025.421178
631.916556	15185.770200
632.262462	15278.827379
632.608316	15396.724844
632.954117	15458.930162
633.299866	15551.843669
633.645562	15614.752228
633.991206	15540.473346
634.336797	15479.122504
634.682336	15560.695935
635.027823	15559.745678
635.373257	15588.679380
635.718639	15598.963334
636.063968	15628.895185
636.409245	15504.272821
636.754470	15608.982627
637.099642	15600.931904
637.444762	15514.319840
637.789829	15662.625545
638.134845	15614.129645
638.479808	15693.681573
638.824719	15747.899183
639.169577	15682.346539
639.514383	15801.814323
639.859137	15767.786535
640.203839	15956.035823
640.548489	15911.091415
640.893086	16014.049421
641.237632	16008.952814
641.582125	16143.188659
641.926566	16196.357709
642.270955	16274.795542
642.615292	16386.290742
642.959576	16453.839682
643.303809	16556.117132
643.647990	16705.768825
643.992118	16783.016946
644.336195	16866.387549
644.680219	16998.937127
645.024192	17238.835557
645.368112	17557.905307
645.711981	17674.567689
646.055797	18185.183642
646.399562	18256.667203
646.743274	18797.091498
647.086935	19104.052397
647.430544	19155.381426
647.774101	19321.976437
648.117606	19527.015287
648.461059	19762.545557
648.804460	19662.561832
649.147810	19455.060378
649.491108	19423.162477
649.834354	19335.761472
650.177548	19010.849024
650.520690	18872.295432
650.863781	18969.488878
651.206820	18975.704620
651.549807	18853.335652
651.892742	18692.611064
652.235626	18686.816258
652.578458	18691.759109
652.921238	18473.814905
653.263967	18730.991889
653.606644	18647.638931
653.949269	18702.537096
654.291843	18583.407069
654.634365	18869.510194
654.976836	18735.838959
655.319255	18814.624632
655.661622	18888.119613
656.003938	18855.687350
656.346203	18858.104583
656.688416	19060.605213
657.030577	19022.998205
657.372687	19016.837915
657.714746	19234.809846
658.056753	19366.409167
658.398708	19156.200613
658.740612	19261.903527
659.082465	19486.333176
659.424266	19465.833324
659.766016	19601.679817
660.107715	19615.999214
660.449362	19765.471947
660.790958	19821.277520
661.132503	19910.274050
661.473996	20003.495067
661.815438	20132.977103
662.156829	20321.707821
662.498168	20271.301323
662.839456	20362.203410
663.180693	20523.396824
663.521879	20682.477996
663.863013	20744.080896
664.204097	20805.000719
664.545129	21152.046353
664.886110	21203.902182
665.227040	21325.318372
665.567918	21442.615940
665.908746	21565.279816
666.249522	21737.639387
666.590248	21808.117238
666.930922	21960.218932
667.271545	21989.061894
667.612118	22119.784054
667.952639	22064.240621
668.293109	22158.593377
668.633528	22185.540865
668.973896	22190.831556
669.314213	22287.404940
669.654480	22199.875386
669.994695	22284.687758
670.334859	22293.973563
670.674973	22298.230818
671.015035	22459.777113
671.355047	22512.305937
671.695008	22541.690822
672.034918	22548.955125
672.374777	22649.337101
672.714585	22617.277883
673.054342	22837.311646
673.394049	22744.171287
673.733705	22982.978307
674.073310	22841.490762
674.412864	22944.605043
674.752368	22738.915884
675.091820	23011.473429
675.431223	22795.873361
675.770574	22673.393487
676.109875	22661.997959
676.449125	22538.900544
676.788324	22544.095453
677.127473	22264.429881
677.466571	22262.486517
677.805619	22098.921239
678.144616	22156.105567
678.483562	22160.105723
678.822458	22001.384994
679.161303	22014.459227
679.500098	22005.942197
679.838842	21994.586998
680.177535	22150.351090
680.516179	22406.303074
680.854771	22622.787864
681.193314	23272.975723
681.531805	24096.796043
681.870247	24702.856161
682.208638	25260.117910
682.546978	25479.266950
682.885268	25592.040083
683.223508	25273.877740
683.561697	25084.889923
683.899836	25016.796538
684.237925	24703.637540
684.575963	24655.418904
684.913951	24369.363670
685.251889	24525.984758
685.589776	24579.274795
685.927614	24608.730257
686.265401	24746.983902
686.603137	24860.203176
686.940824	25263.500525
687.278460	25580.208494
687.616046	25695.529930
687.953582	26170.905696
688.291068	26109.181809
688.628504	26356.165580
688.965889	26372.622426
689.303224	26139.307744
689.640510	25939.635202
689.977745	25443.797392
690.314930	24924.104842
690.652065	24612.800989
690.989150	24108.604946
691.326185	23498.877388
691.663170	23032.971429
692.000105	22523.104088
692.336990	22077.473650
692.673825	21797.064508
693.010610	21447.616765
693.347345	21059.185779
693.684030	20616.973243
694.020665	20447.620720
694.357251	19971.176229
694.693786	19977.021447
695.030272	19831.942081
695.366707	19456.023238
695.703093	19271.776627
696.039429	19293.420821
696.375716	19125.346231
696.711952	19118.661661
697.048139	19032.846099
697.384276	18917.441485
697.720363	19034.718888
698.056400	18912.052491
698.392388	18780.352347
698.728326	18770.345657
699.064214	18639.532756
699.400053	18630.519173
699.735842	18383.681595
700.071581	18199.666877
700.407270	17996.699941
700.742910	17883.523516
701.078501	17682.086570
701.414042	17503.039909
701.749533	17294.421839
702.084974	17045.933284
702.420366	17233.726347
702.755709	16915.039724
703.091002	16700.699945
703.426246	16748.754744
703.761440	16693.118050
704.096584	16503.643762
704.431679	16494.128584
704.766725	16441.040193
705.101721	16419.418684
705.436668	16512.488466
705.771565	16268.277330
706.106413	16570.444092
706.441212	16571.860656
706.775961	16698.348247
707.110661	16764.687311
707.445311	17080.734890
707.779913	16984.438769
708.114465	17193.344184
708.448967	17443.390456
708.783421	18022.215741
709.117825	18275.884082
709.452180	18463.891394
709.786485	18802.712385
710.120742	19461.379464
710.454949	19479.094079
710.789107	19858.110710
711.123216	20432.698905
711.457275	20531.326559
711.791286	20988.065180
712.125247	21041.700537
712.459159	20809.532717
712.793023	21374.744365
713.126837	20483.501133
713.460602	20726.106662
713.794318	20449.463262
714.127985	20165.089253
714.461602	19460.721594
714.795171	19466.350042
715.128691	18653.983223
715.462162	18227.065548
715.795584	17894.553561
716.128957	17704.063480
716.462281	17380.711270
716.795556	17203.255093
717.128782	16816.225547
717.461960	16381.302520
717.795088	16331.750498
718.128167	16014.719894
718.461198	15644.348842
718.794180	15541.138779
719.127113	15262.965389
719.459997	15117.991887
719.792833	14831.482949
720.125619	14817.471062
720.458357	14560.301639
720.791046	14436.790850
721.123686	14310.336026
721.456278	14126.238129
721.788821	14092.369137
722.121315	13880.229821
722.453761	13957.286378
722.786158	13909.566816
723.118506	13918.756839
723.450805	13805.809787
723.783056	13948.605511
724.115259	13878.961971
724.447412	13824.673785
724.779518	14047.759966
725.111574	14071.972628
725.443582	14245.239606
725.775542	14234.774171
726.107453	14637.043124
726.439315	14542.022416
726.771129	14889.249531
727.102895	15215.223141
727.434612	15380.820004
727.766281	15492.451315
728.097901	15703.678182
728.429473	15759.675318
728.760996	15748.282311
729.092471	15845.616909
729.423897	15750.132414
729.755276	15648.212886
730.086606	15761.107006
730.417887	16217.404526
730.749120	16675.577355
731.080305	16838.351172
731.411442	17146.622770
731.742530	17227.845841
732.073570	17311.428172
732.404562	17582.359944
732.735506	17416.911796
733.066401	17184.338163
733.397249	16736.577837
733.728048	16223.572378
734.058798	15528.056984
734.389501	14936.414566
734.720156	14540.270615
735.050762	14102.383389
735.381320	13798.603458
735.711831	13598.499897
736.042293	13288.584882
736.372707	13309.543479
736.703073	13129.458340
737.033391	13296.862457
737.363661	13273.474023
737.693883	13368.638405
738.024056	13513.989994
738.354182	13682.724975
738.684260	13933.101443
739.014290	14124.375422
739.344272	14288.656544
739.674207	14536.257856
740.004093	14640.692920
740.333931	14631.991888
740.663722	14670.828937
740.993464	14678.350339
741.323159	14529.603533
741.652806	14307.069358
741.982405	14116.491058
742.311956	13836.883460
742.641460	13733.592738
742.970915	13479.700066
743.300323	13178.947348
743.629683	12990.572031
743.958996	12748.606729
744.288260	12506.517918
744.617477	12239.684604
744.946647	12180.483814
745.275768	11945.538318
745.604842	11798.013992
745.933869	11661.444093
746.262847	11622.700306
746.591778	11559.486757
746.920662	11476.995836
747.249498	11483.579583
747.578286	11587.024060
747.907027	11714.761857
748.235720	11904.881413
748.564365	11934.692276
748.892963	11854.449710
749.221514	11904.526011
749.550017	11785.098556
749.878473	11757.049576
750.206881	11567.666029
750.535242	11490.911941
750.863555	11418.465519
751.191821	11331.682056
751.520039	11358.455624
751.848210	11283.430652
752.176334	11309.954683
752.504411	11225.540562
752.832440	11085.784653
753.160421	11141.547377
753.488356	11035.531911
753.816243	10951.815990
754.144082	10820.027626
754.471875	10777.407190
754.799620	10730.320293
755.127318	10703.856756
755.454969	10671.842908
755.782572	10632.050560
756.110129	10638.036931
756.437638	10562.555734
756.765100	10566.029089
757.092515	10567.876672
757.419882	10584.058776
757.747203	10590.476165
758.074477	10657.836062
758.401703	10618.724270
758.728882	10773.439802
759.056014	10810.363734
759.383099	10913.145299
759.710138	11012.471153
760.037129	11090.762793
760.364073	11110.665268
760.690970	11091.922258
761.017820	11103.136305
761.344623	11279.581731
761.671379	11581.630025
761.998088	12153.700164
762.324751	13609.272843
762.651366	16233.692494
762.977935	19593.918961
763.304456	21640.289665
763.630931	22078.166808
763.957359	21006.818273
764.283740	19254.528319
764.610074	17508.801948
764.936362	15577.808132
765.262602	14192.456205
765.588796	12824.778564
765.914943	11886.718135
766.241044	11112.616195
766.567097	10525.034426
766.893104	10018.038022
767.219064	9687.847486
767.544978	9332.751130
767.870845	9048.188077
768.196665	8876.128456
768.522438	8700.973565
768.848165	8550.089310
769.173846	8394.068119
769.499479	8284.750698
769.825066	8141.070252
770.150607	7973.361145
770.476101	7918.397445
770.801548	7816.543452
771.126949	7683.283071
771.452303	7600.855164
771.777611	7445.625434
772.102872	7429.546674
772.428087	7326.639080
772.753256	7207.937551
773.078378	7132.887373
773.403453	7000.713361
773.728482	6905.952271
774.053465	6846.043199
774.378401	6770.534276
774.703291	6682.563621
775.028135	6590.464261
775.352932	6560.297996
775.677683	6484.804197
776.002388	6405.242186
776.327046	6399.437297
776.651658	6322.826882
776.976224	6252.502786
777.300743	6237.966619
777.625216	6176.086456
777.949643	6133.791175
778.274024	6139.928780
778.598359	6079.117341
778.922647	6080.957362
779.246889	6043.809099
779.571086	6049.462753
779.895236	6063.104116
780.219339	6056.595986
780.543397	6054.385440
780.867409	6103.733295
781.191374	6101.966371
781.515294	6072.034520
781.839167	6120.908506
782.162995	6098.891267
782.486776	6047.126178
782.810511	6012.896744
783.134201	5942.068532
783.457844	5933.400268
783.781441	5888.465943
784.104993	5845.391804
784.428498	5822.101674
784.751958	5806.751360
785.075372	5781.999295
785.398739	5750.310602
785.722061	5769.073776
786.045337	5767.783241
786.368568	5873.529005
786.691752	5897.194701
787.014891	6132.853520
787.337983	6393.481174
787.661030	6800.887063
787.984031	7205.928651
788.306987	7452.705735
788.629897	7533.691872
788.952760	7456.829399
789.275579	7295.210007
789.598351	7019.892430
789.921078	6774.811695
790.243759	6508.106930
790.566395	6312.726931
790.888984	6129.680114
791.211529	6001.062635
791.534027	5844.552452
791.856480	5711.589499
792.178888	5655.252084
792.501249	5593.840748
792.823566	5501.380945
793.145836	5495.240820
793.468062	5478.703315
793.790241	5438.875679
794.112375	5477.531247
794.434464	5569.570113
794.756507	5602.491368
795.078505	5711.808789
795.400457	5922.566829
795.722364	6148.899513
796.044226	6329.624878
796.366042	6478.911088
796.687812	6431.488953
797.009538	6459.447193
797.331218	6367.988059
797.652852	6307.448842
797.974442	6188.989289
798.295986	6124.608713
798.617484	6004.561196
798.938938	5898.822994
799.260346	5837.502399
799.581709	5704.947779
799.903026	5652.718904
800.224299	5587.796405
800.545526	5478.688191
800.866708	5411.451802
801.187845	5371.384711
801.508936	5294.476868
801.829983	5268.091469
802.150984	5167.530532
802.471940	5144.633611
802.792851	5128.922855
803.113717	5107.946614
803.434538	5081.949384
803.755314	5051.561308
804.076045	5041.398342
804.396731	5003.927446
804.717372	5020.880846
805.037967	5020.752297
805.358518	5051.662131
805.679024	5107.863435
805.999485	5116.072954
806.319901	5132.648268
806.640272	5149.999919
806.960598	5194.682187
807.280879	5188.912586
807.601115	5225.672680
807.921306	5189.023491
808.241453	5187.004509
808.561554	5195.985325
808.881611	5157.206249
809.201623	5158.557278
809.521590	5115.556236
809.841513	5098.746508
810.161390	5109.433754
810.481223	5031.124471
810.801011	5018.090567
811.120755	4994.291280
811.440453	4938.959575
811.760107	4910.577879
812.079716	4890.405702
812.399281	4838.665820
812.718801	4835.295808
813.038276	4800.804234
813.357707	4770.075880
813.677093	4790.747132
813.996434	4732.582299
814.315731	4754.125670
814.634983	4753.878653
814.954191	4753.981997
815.273354	4815.237057
815.592473	4852.065207
815.911547	4927.276701
816.230577	4980.070185
816.549562	5062.551024
816.868502	5110.260504
817.187399	5162.446528
817.506250	5239.954269
817.825058	5260.456641
818.143821	5410.405762
818.462539	5572.075566
818.781213	5792.023629
819.099843	6141.504140
819.418429	6748.814465
819.736970	7335.032601
820.055466	8023.404680
820.373919	8902.486128
820.692327	10297.620414
821.010691	12859.479346
821.329011	18792.070509
821.647286	27817.109608
821.965517	37606.921993
822.283704	42779.526446
822.601847	44231.855143
822.919945	39880.018591
823.237999	35044.470725
823.556010	30086.450547
823.873976	25604.040549
824.191897	21603.080908
824.509775	18687.330456
824.827609	16059.029116
825.145398	14602.392753
825.463144	13898.264549
825.780845	14186.358929
826.098502	15391.086314
826.416116	17730.869816
826.733685	19931.197359
827.051210	20440.631161
827.368692	19055.632115
827.686129	16601.409379
828.003522	14236.989758
828.320872	12108.201230
828.638177	10535.197392
828.955439	9344.071041
829.272656	8330.715939
829.589830	7522.916405
829.906960	6829.190622
830.224046	6318.879659
830.541088	5926.589669
830.858086	5679.666392
831.175041	5485.259335
831.491952	5431.034164
831.808819	5467.302745
832.125642	5697.479309
832.442421	6231.188788
832.759157	7298.529606
833.075849	9000.617229
833.392497	10777.460123
833.709101	11844.034686
834.025662	11593.532189
834.342179	10574.387322
834.658653	9324.229059
834.975083	8259.227336
835.291469	7390.563432
835.607811	6685.472367
835.924110	6192.316450
836.240366	5718.894131
836.556578	5286.153923
836.872746	4949.238488
837.188871	4688.648643
837.504952	4477.699040
837.820990	4313.024708
838.136984	4210.134758
838.452935	4160.494516
838.768842	4191.674053
839.084706	4461.781596
839.400526	5178.270710
839.716303	6043.725920
840.032037	6587.671461
840.347727	6438.725530
840.663373	5866.085741
840.978977	5310.006142
841.294537	4883.879928
841.610054	4565.662133
841.925527	4336.254345
842.240957	4137.610198
842.556344	3960.537149
842.871687	3815.193122
843.186987	3671.479908
843.502244	3554.346178
843.817458	3468.757468
844.132629	3402.930081
844.447756	3357.257227
844.762840	3315.158551
845.077881	3277.725463
845.392879	3245.202459
845.707833	3220.163048
846.022745	3196.391487
846.337613	3184.383459
846.652438	3157.892195
846.967221	3153.796258
847.281960	3132.048720
847.596656	3124.607977
847.911309	3109.277828
848.225919	3100.216354
848.540485	3088.188161
848.855009	3084.276226
849.169490	3071.804411
849.483928	3067.582445
849.798323	3060.229922
850.112675	3050.729867
850.426984	3052.615259
850.741251	3046.492778
851.055474	3042.606048
851.369654	3044.221738
851.683792	3039.634288
851.997887	3042.530431
852.311938	3041.055893
852.625947	3043.949515
852.939914	3036.649925
853.253837	3045.197201
853.567718	3040.196376
853.881555	3034.928371
854.195350	3039.036911
854.509103	3038.240409
854.822812	3035.147661
855.136479	3030.925694
855.450103	3034.898124
855.763685	3028.158101
856.077224	3027.711959
856.390720	3034.061292
856.704173	3047.054866
857.017584	3052.204405
857.330953	3058.004252
857.644278	3064.850139
857.957561	3068.537743
858.270802	3066.196127
858.584000	3067.151426
858.897155	3059.400652
859.210268	3048.496636
859.523339	3039.079761
859.836367	3035.800490
860.149352	3028.536188
860.462295	3024.372194
860.775195	3020.097296
861.088054	3013.374917
861.400869	3013.662263
861.713642	3010.105729
862.026373	3023.074097
862.339062	3024.475538
862.651708	3032.417876
862.964312	3049.703993
863.276873	3054.646844
863.589392	3086.781679
863.901869	3110.071810
864.214303	3132.998977
864.526696	3149.475989
864.839045	3163.434944
865.151353	3179.576718
865.463619	3179.695186
865.775842	3179.322140
866.088023	3186.226000
866.400162	3177.214938
866.712258	3178.097140
867.024313	3178.807942
867.336325	3178.460103
867.648296	3179.022192
867.960224	3175.032118
868.272110	3178.530679
868.583954	3174.883404
868.895755	3182.787933
869.207515	3182.218283
869.519233	3199.348124
869.830909	3204.623691
870.142542	3217.808829
870.454134	3223.802761
870.765684	3237.237436
871.077191	3254.011876
871.388657	3263.806837
871.700081	3283.084210
872.011463	3303.037097
872.322803	3319.637616
872.634101	3336.515399
872.945357	3357.579861
873.256571	3382.679766
873.567744	3396.532857
873.878874	3401.339597
874.189963	3418.542534
874.501010	3418.887853
874.812015	3415.457348
875.122979	3433.479473
875.433900	3429.688525
875.744780	3431.389915
876.055618	3440.010288
876.366415	3437.431738
876.677169	3444.864919
876.987882	3458.745736
877.298554	3476.384733
877.609183	3511.781195
877.919771	3559.016807
878.230317	3623.059625
878.540822	3720.873133
878.851285	3866.227243
879.161707	4077.073502
879.472087	4437.697484
879.782425	5046.686513
880.092722	6180.759605
880.402977	8036.983027
880.713191	10308.073247
881.023363	12566.245509
881.333494	13858.169732
881.643583	14291.174600
881.953631	13902.388213
882.263637	13088.299840
882.573602	12098.247471
882.883526	11193.461179
883.193408	10280.556108
883.503248	9389.244820
883.813048	8602.852547
884.122806	7866.513890
884.432522	7132.859647
884.742197	6497.586042
885.051831	5959.437828
885.361424	5487.724460
885.670975	5113.058344
885.980485	4801.373884
886.289954	4542.041807
886.599382	4336.080425
886.908768	4170.256711
887.218113	4014.928678
887.527417	3883.165520
887.836680	3769.888272
888.145901	3670.781708
888.455082	3595.209771
888.764221	3531.731562
889.073319	3477.513952
889.382376	3446.480609
889.691392	3421.695776
890.000366	3412.304106
890.309300	3408.639188
890.618193	3413.723191
890.927044	3404.996954
891.235855	3415.220414
891.544625	3426.638627
891.853353	3455.940334
892.162041	3511.425794
892.470687	3602.000205
892.779293	3715.300138
893.087858	3883.097464
893.396381	4151.526303
893.704864	4546.354514
894.013306	5095.341209
894.321707	5650.626826
894.630068	5987.454040
894.938387	6022.800091
895.246665	5847.627556
895.554903	5543.078849
895.863100	5215.431576
896.171256	4953.891473
896.479371	4723.427563
896.787446	4513.236654
897.095480	4320.407478
897.403473	4180.485212
897.711425	4040.618398
898.019336	3923.961057
898.327207	3808.783295
898.635038	3707.251936
898.942827	3609.113273
899.250576	3523.675798
899.558284	3443.992799
899.865952	3394.221488
900.173579	3332.162363
900.481165	3289.085703
900.788711	3246.036770
901.096216	3220.614231
901.403681	3191.045343
901.711105	3180.940351
902.018489	3174.265863
902.325832	3205.848692
902.633135	3264.668875
902.940397	3426.910850
903.247619	3815.064572
903.554800	4541.794790
903.861941	5470.627386
904.169041	6135.734540
904.476101	6341.287588
904.783121	6065.254168
905.090100	5682.617988
905.397039	5285.120487
905.703938	4940.822282
906.010796	4633.606805
906.317614	4389.428436
906.624391	4164.051050
906.931129	3972.877893
907.237826	3802.615443
907.544483	3641.149806
907.851099	3476.084785
908.157675	3318.324396
908.464211	3187.456042
908.770707	3090.091197
909.077163	3016.790299
909.383578	2957.397945
909.689954	2914.107036
909.996289	2884.767521
910.302584	2867.579707
910.608839	2855.538911
910.915054	2846.427025
911.221229	2841.539627
911.527363	2843.001561
911.833458	2848.849300
912.139513	2862.881352
912.445527	2875.118753
912.751502	2908.350039
913.057436	2949.145576
913.363331	3003.796725
913.669186	3088.362081
913.975000	3199.799307
914.280775	3376.254815
914.586510	3639.745844
914.892205	3995.414372
915.197859	4476.842043
915.503475	5035.510274
915.809050	5512.625239
916.114585	5786.322084
916.420081	5846.858780
916.725536	5784.224964
917.030952	5553.602258
917.336328	5358.156723
917.641665	5151.708871
917.946961	4933.028658
918.252218	4741.981530
918.557435	4523.631513
918.862612	4331.644210
919.167750	4171.942977
919.472848	3987.371211
919.777906	3828.942869
920.082925	3678.063655
920.387904	3527.867517
920.692843	3423.208122
920.997743	3329.861076
921.302603	3238.016294
921.607423	3179.249043
921.912204	3115.400309
922.216946	3066.891807
922.521647	3022.322965
922.826310	2980.622541
923.130932	2948.439815
923.435516	2909.403640
923.740059	2882.582181
924.044564	2850.185206
924.349028	2831.774912
924.653454	2801.926240
924.957840	2775.598814
925.262186	2757.778335
925.566493	2737.643967
925.870761	2713.436346
926.174989	2700.543595
926.479178	2688.338961
926.783328	2673.578463
927.087438	2664.595127
927.391509	2650.006027
927.695541	2637.924902
927.999533	2632.329222
928.303486	2621.039557
928.607400	2617.553600
928.911275	2611.168978
929.215110	2605.132197
929.518906	2599.972576
929.822663	2603.997937
930.126381	2600.506938
930.430060	2604.396188
930.733699	2604.615478
931.037299	2609.260902
931.340861	2608.300562
931.644383	2613.008999
931.947866	2612.948506
932.251309	2608.003134
932.554714	2605.157402
932.858080	2607.362907
933.161407	2599.871752
933.464694	2596.579879
933.767943	2597.469643
934.071153	2592.725917
934.374323	2588.836667
934.677455	2586.361460
934.980548	2582.991449
935.283602	2579.886098
935.586617	2577.368042
935.889593	2582.504977
936.192530	2582.000862
936.495428	2588.075452
936.798287	2596.882348
937.101108	2608.572784
937.403890	2632.745117
937.706632	2657.683705
938.009336	2689.387521
938.312002	2717.933055
938.614628	2739.844430
938.917216	2755.933273
939.219765	2767.051537
939.522275	2773.471447
939.824747	2775.452620
940.127179	2769.728390
940.429573	2763.608429
940.731929	2763.028697
941.034246	2754.793972
941.336524	2751.928076
941.638763	2745.896335
941.940964	2740.908114
942.243126	2726.800445
942.545250	2715.641851
942.847335	2701.637525
943.149381	2687.595391
943.451389	2675.098371
943.753359	2665.384067
944.055290	2658.825526
944.357182	2645.209370
944.659036	2642.225007
944.960851	2639.439769
945.262628	2634.436424
945.564367	2638.663431
945.866067	2635.311064
946.167729	2632.861063
946.469352	2632.540950
946.770937	2630.771505
947.072484	2622.940072
947.373992	2620.515278
947.675462	2619.512088
947.976893	2613.984463
948.278286	2610.125459
948.579641	2607.625047
948.880958	2603.148502
949.182236	2605.517845
949.483476	2599.299582
949.784678	2600.186825
950.085841	2601.293358
950.386967	2605.739656
950.688054	2611.277363
950.989103	2617.483023
951.290114	2625.044754
951.591087	2636.994809
951.892021	2649.736326
952.192917	2661.167142
952.493776	2671.453617
952.794596	2675.846982
953.095378	2677.273629
953.396122	2676.809843
953.696828	2672.683658
953.997496	2667.327432
954.298126	2658.157573
954.598718	2650.379073
954.899272	2641.413381
955.199788	2629.491052
955.500266	2614.909514
955.800706	2604.139089
956.101108	2585.201995
956.401472	2576.233782
956.701798	2562.610064
957.002087	2547.090872
957.302337	2541.991745
957.602550	2530.162677
957.902724	2520.685308
958.202861	2511.727177
958.502960	2502.101094
958.803022	2498.060609
959.103045	2486.687766
959.403031	2485.543424
959.702979	2479.768783
960.002889	2477.437249
960.302762	2470.641774
960.602596	2465.981227
960.902393	2461.166925
961.202153	2460.554425
961.501875	2458.900926
961.801559	2458.522840
962.101205	2456.750874
962.400814	2451.961778
962.700385	2449.242076
962.999918	2448.594287
963.299414	2446.421550
963.598873	2447.984308
963.898293	2443.222938
964.197677	2442.108843
964.497022	2443.805191
964.796331	2439.653801
965.095601	2438.040632
965.394835	2439.429470
965.694030	2438.199428
965.993189	2437.763368
966.292309	2436.372010
966.591393	2439.263112
966.890439	2437.382761
967.189447	2437.982658
967.488419	2437.803697
967.787353	2438.506938
968.086249	2437.148348
968.385108	2439.275714
968.683930	2440.233534
968.982714	2441.740839
969.281462	2441.269491
969.580172	2444.974739
969.878844	2446.179575
970.177480	2452.307097
970.476078	2452.307097
970.774639	2455.125102
971.073162	2455.369598
971.371649	2456.307253
971.670098	2455.425051
971.968510	2459.836060
972.266885	2459.122737
972.565223	2463.092646
972.863524	2462.802779
973.161788	2466.334108
973.460014	2465.106587
973.758204	2470.964408
974.056356	2469.643625
974.354471	2470.896352
974.652550	2467.289406
974.950591	2468.340487
975.248595	2471.050107
975.546563	2467.337297
975.844493	2467.390229
976.142386	2463.105249
976.440243	2464.032821
976.738062	2457.121399
977.035845	2456.027469
977.333590	2457.005452
977.631299	2451.611418
977.928971	2452.665019
978.226606	2448.813577
978.524204	2449.098403
978.821765	2448.601849
979.119290	2449.068156
979.416777	2445.975408
979.714228	2449.322734
980.011642	2449.811726
980.309020	2452.975050
980.606360	2456.788683
980.903664	2465.983747
981.200931	2476.229893
981.498162	2497.475836
981.795356	2521.920391
982.092513	2557.808365
982.389633	2597.628439
982.686717	2641.594862
982.983764	2672.514779
983.280775	2690.650330
983.577749	2688.371729
983.874686	2681.606500
984.171587	2666.220899
984.468451	2651.026861
984.765279	2635.903400
985.062070	2614.168465
985.358824	2599.244129
985.655543	2577.978021
985.952224	2558.176369
986.248869	2531.521268
986.545478	2503.953718
986.842050	2487.252376
987.138586	2471.022381
987.435086	2460.577110
987.731549	2443.285952
988.027975	2443.225458
988.324366	2436.293872
988.620719	2431.860177
988.917037	2430.153747
989.213318	2425.009249
989.509563	2425.077305
989.805772	2420.809968
990.101944	2419.103537
990.398080	2421.888775
990.694180	2420.303332
990.990244	2421.931625
991.286271	2423.055802
991.582262	2420.477252
991.878217	2421.931625
992.174136	2420.023548
992.470019	2423.786769
992.765865	2426.418252
993.061676	2425.500762
993.357450	2432.381937
993.653188	2429.619384
993.948890	2437.526434
994.244556	2443.288473
994.540186	2452.072683
994.835780	2461.418983
995.131337	2476.277784
995.426859	2491.494507
995.722345	2510.865140
996.017795	2527.571524
996.313208	2543.340253
996.608586	2550.740667
996.903928	2550.912066
997.199234	2553.508261
997.494504	2546.185985
997.789738	2542.568957
998.084936	2532.708460
998.380099	2520.894516
998.675225	2509.826662
998.970316	2502.516989
999.265371	2485.309011
999.560390	2472.108749
999.855373	2463.349745
1000.150320	2454.583178
1000.445232	2445.809050
1000.740108	2438.721188
1001.034948	2434.937802
1001.329752	2427.786925
1001.624521	2427.184507
1001.919254	2416.184709
1002.213951	2418.208732
1002.508613	2414.435429
1002.803239	2415.335275
1003.097829	2411.264543
1003.392384	2414.964750
1003.686903	2412.333268
1003.981386	2411.564492
1004.275834	2411.254461
1004.570246	2411.072979
1004.864623	2403.788512
1005.158964	2407.831517
1005.453270	2407.201373
1005.747540	2407.372772
1006.041775	2406.137690
1006.335974	2406.714902
1006.630138	2407.317320
1006.924266	2402.790363
1007.218359	2406.306568
1007.512416	2405.825138
1007.806438	2406.329253
1008.100425	2405.525189
1008.394376	2406.354459
1008.688292	2402.992010
1008.982172	2407.549213
1009.276017	2403.377658
1009.569827	2404.300189
1009.863602	2402.024108
1010.157341	2404.401012
1010.451045	2403.992679
1010.744714	2404.670714
1011.038347	2402.220713
1011.331945	2400.695764
1011.625508	2399.443037
1011.919036	2402.099725
1012.212528	2402.089643
1012.505986	2402.019067
1012.799408	2399.627039
1013.092795	2399.806000
1013.386147	2400.940260
1013.679464	2404.151475
1013.972745	2398.626370
1014.265992	2399.760630
1014.559204	2399.952194
1014.852380	2401.262894
1015.145521	2401.590569
1015.438628	2400.826834
1015.731699	2403.720456
1016.024736	2400.262225
1016.317737	2401.630898
1016.610703	2402.719787
1016.903635	2401.872873
1017.196531	2398.333983
1017.489393	2399.919426
1017.782219	2397.340876
1018.075011	2403.748183
1018.367768	2402.618964
1018.660490	2404.779099
1018.953177	2404.779099
1019.245829	2404.779099
