Dividing Wavelength (nm)	Counts (n)	Blue Motor Position (mm): 12.800000	Red Motor Position (mm): 0.000000	
326.493990	1975.164406
326.888308	1975.164406
327.282561	1975.164406
327.676750	1950.619028
328.070874	1952.693463
328.464933	1958.319391
328.858929	1968.033694
329.252859	1982.383338
329.646726	1995.442447
330.040528	2009.925682
330.434265	2027.776408
330.827938	2051.089224
331.221547	2068.355176
331.615091	2086.649523
332.008571	2108.712133
332.401986	2129.554784
332.795338	2148.965747
333.188625	2170.829231
333.581847	2189.446212
333.975006	2206.472709
334.368100	2225.140102
334.761129	2241.730539
335.154095	2255.316449
335.546996	2288.104113
335.939833	2338.003975
336.332606	2352.348578
336.725315	2363.449199
337.117960	2375.394213
337.510540	2379.679194
337.903056	2387.230842
338.295508	2395.793242
338.687896	2401.419170
339.080220	2410.662125
339.472480	2413.480130
339.864676	2418.365008
340.256807	2420.527663
340.648875	2423.244845
341.040879	2424.810123
341.432818	2426.471184
341.824694	2427.678540
342.216506	2428.033941
342.608253	2429.500917
342.999937	2425.956986
343.391557	2422.105544
343.783113	2420.963723
344.174605	2423.398600
344.566033	2419.973136
344.957397	2418.175965
345.348697	2414.924421
345.739934	2413.124729
346.131106	2412.764286
346.522215	2410.369738
346.913260	2405.636095
347.304241	2406.659449
347.695159	2403.067627
348.086012	2404.375806
348.476802	2402.495456
348.867528	2402.563512
349.258191	2398.248284
349.648789	2396.536812
350.039324	2395.284085
350.429796	2398.795249
350.820203	2398.265928
351.210548	2395.208468
351.600828	2393.365926
351.991045	2395.858777
352.381198	2392.670247
352.771288	2395.004301
353.161314	2393.781822
353.551276	2391.382232
353.941175	2392.057747
354.331010	2392.599671
354.720782	2395.115207
355.110490	2392.816441
355.500135	2391.848539
355.889717	2394.285937
356.279235	2393.270144
356.668689	2394.618653
357.058080	2395.979765
357.447408	2392.576986
357.836672	2391.752757
358.225873	2392.934908
358.615010	2391.674619
359.004084	2399.284241
359.393095	2395.853736
359.782043	2399.755589
360.170927	2398.107132
360.559748	2400.075702
360.948505	2396.516648
361.337199	2400.990672
361.725830	2399.211144
362.114398	2401.154509
362.502903	2404.184243
362.891344	2401.366238
363.279722	2402.964283
363.668037	2403.856567
364.056289	2405.860426
364.444478	2404.113666
364.832603	2402.765158
365.220665	2403.176012
365.608665	2406.495612
365.996601	2403.670045
366.384474	2405.837741
366.772284	2404.816907
367.160031	2405.941085
367.547715	2407.710530
367.935336	2406.893863
368.322893	2406.036867
368.710388	2405.031156
369.097820	2408.575087
369.485189	2406.467885
369.872495	2410.463000
370.259738	2408.070972
370.646918	2409.454769
371.034035	2409.830335
371.421090	2409.689183
371.808081	2409.086765
372.195010	2407.745818
372.581875	2409.401837
372.968678	2410.800757
373.355418	2409.265726
373.742096	2408.832186
374.128710	2408.958215
374.515262	2411.816549
374.901751	2410.599111
375.288177	2408.996024
375.674540	2409.280849
376.060841	2411.483833
376.447079	2412.600449
376.833254	2412.948288
377.219367	2407.264387
377.605417	2413.233114
377.991404	2408.887639
378.377329	2407.108112
378.763191	2407.564336
379.148991	2413.414595
379.534727	2414.674884
379.920402	2413.946437
380.306013	2413.790161
380.691563	2415.879719
381.077049	2412.035840
381.462474	2415.983063
381.847835	2411.937537
382.233134	2417.823084
382.618371	2417.755029
383.003545	2414.037178
383.388657	2413.812846
383.773706	2416.267888
384.158693	2417.192940
384.543618	2414.992476
384.928480	2415.836870
385.313280	2416.081366
385.698017	2419.526994
386.082692	2416.010789
386.467305	2419.766449
386.851856	2419.814340
387.236344	2417.649164
387.620770	2419.799217
388.005133	2421.271233
388.389435	2419.365677
388.773674	2418.702766
389.157851	2423.186872
389.541965	2420.726789
389.926018	2421.251069
390.310008	2417.288722
390.693936	2421.598908
391.077802	2420.663774
391.461606	2422.070256
391.845348	2420.441964
392.229027	2423.353230
392.612645	2426.120823
392.996200	2422.864238
393.379694	2420.588157
393.763125	2421.677046
394.146494	2424.731986
394.529801	2421.813157
394.913047	2424.921029
395.296230	2424.996646
395.679351	2425.974630
396.062410	2424.409352
396.445408	2422.531522
396.828343	2424.600916
397.211217	2416.832498
397.594028	2424.694177
397.976778	2423.655699
398.359466	2426.531678
398.742092	2419.360636
399.124656	2430.209199
399.507158	2425.094949
399.889598	2428.517892
400.271977	2425.422624
400.654294	2428.643921
401.036549	2425.755340
401.418742	2426.667789
401.800874	2428.386822
402.182944	2426.703077
402.564952	2425.800710
402.946898	2427.865063
403.328783	2429.773139
403.710606	2428.059147
404.092367	2429.702563
404.474067	2431.053592
404.855705	2431.111566
405.237282	2430.030238
405.618797	2428.142326
406.000250	2429.079981
406.381642	2429.087543
406.762972	2432.024015
407.144240	2429.392532
407.525447	2429.326997
407.906593	2430.214240
408.287677	2430.463778
408.668700	2431.688778
409.049661	2431.358582
409.430560	2432.578542
409.811399	2431.857657
410.192176	2433.233892
410.572891	2431.756833
410.953545	2433.420414
411.334138	2429.692481
411.714669	2434.000147
412.095139	2430.703232
412.475547	2432.999478
412.855894	2435.220106
413.236180	2430.766247
413.616405	2434.363110
413.996568	2433.695157
414.376670	2434.539550
414.756711	2433.455702
415.136691	2431.056113
415.516609	2433.732966
415.896466	2432.938984
416.276262	2437.281938
416.655997	2429.732810
417.035670	2431.713984
417.415283	2432.694488
417.794834	2430.408325
418.174324	2435.978800
418.553753	2436.445107
418.933121	2435.134407
419.312428	2434.509303
419.691674	2436.155240
420.070859	2435.507452
420.449983	2437.418049
420.829045	2434.121135
421.208047	2434.252205
421.586988	2437.632298
421.965867	2436.704726
422.344686	2439.366455
422.723444	2437.854109
423.102141	2434.232040
423.480777	2435.842689
423.859352	2434.584921
424.237866	2438.358224
424.616319	2436.399736
424.994712	2438.222113
425.373044	2438.985848
425.751314	2438.355704
426.129524	2436.989551
426.507673	2436.495518
426.885762	2436.848399
427.263789	2438.338060
427.641756	2438.287648
428.019662	2437.894438
428.397508	2435.865374
428.775292	2436.712288
429.153016	2439.139603
429.530679	2440.291507
429.908282	2438.645570
430.285824	2441.292176
430.663305	2438.040632
431.040726	2437.715477
431.418086	2439.406784
431.795385	2440.382248
432.172624	2441.161106
432.549802	2436.926537
432.926920	2438.761517
433.303977	2440.324274
433.680974	2442.844851
434.057910	2439.883173
434.434786	2438.070879
434.811601	2438.466609
435.188355	2442.348298
435.565050	2441.574481
435.941683	2440.717484
436.318257	2438.902669
436.694770	2436.518203
437.071222	2439.356373
437.447614	2435.220106
437.823946	2439.807556
438.200218	2439.149686
438.576429	2443.517845
438.952580	2443.732094
439.328670	2442.764193
439.704700	2442.287804
440.080670	2440.324274
440.456580	2443.873247
440.832429	2441.879470
441.208218	2439.870571
441.583947	2446.819801
441.959616	2440.689758
442.335224	2443.595983
442.710773	2444.021961
443.086261	2443.575819
443.461689	2440.644388
443.837057	2444.763010
444.212365	2443.182609
444.587612	2445.224276
444.962800	2443.885850
445.337927	2443.260747
445.712995	2443.424584
446.088002	2443.767383
446.462949	2444.006837
446.837837	2445.070521
447.212664	2447.976746
447.587431	2444.248813
447.962139	2448.513629
448.336786	2451.568568
448.711374	2452.682663
449.085901	2447.717127
449.460369	2451.180399
449.834776	2448.773248
450.209124	2450.061263
450.583412	2449.295008
450.957640	2451.346757
451.331808	2451.228290
451.705917	2449.322734
452.079965	2451.835749
452.453954	2451.286263
452.827883	2450.325924
453.201752	2452.420523
453.575562	2450.325924
453.949311	2450.893053
454.323001	2451.203084
454.696632	2453.625359
455.070202	2455.039403
455.443713	2453.897581
455.817164	2450.918259
456.190556	2451.331634
456.563888	2452.700307
456.937160	2450.237703
457.310373	2454.744495
457.683526	2454.880606
458.056619	2459.561317
458.429653	2456.443364
458.802628	2456.004783
459.175542	2455.271296
459.548398	2457.852366
459.921194	2459.833540
460.293930	2462.911164
460.666607	2461.209775
461.039224	2463.480815
461.411782	2465.537605
461.784280	2464.733541
462.156719	2463.140537
462.529099	2462.893520
462.901419	2461.991154
463.273680	2465.993830
463.645882	2461.844960
464.018024	2462.356637
464.390106	2462.515434
464.762130	2466.371916
465.134094	2469.651187
465.505999	2473.694192
465.877845	2480.482106
466.249631	2478.153093
466.621358	2478.972280
466.993026	2479.804071
467.364634	2476.900366
467.736184	2475.970273
468.107674	2470.772844
468.479105	2475.627475
468.850477	2473.401805
469.221790	2472.330560
469.593043	2468.804273
469.964238	2470.508183
470.335373	2468.368213
470.706449	2471.110601
471.077467	2473.951291
471.448425	2479.471355
471.819324	2481.422281
472.190164	2480.870275
472.560945	2475.171250
472.931667	2474.238637
473.302330	2472.519603
473.672934	2471.488687
474.043479	2472.549850
474.413965	2469.835189
474.784393	2468.098512
475.154761	2469.996506
475.525070	2470.258646
475.895321	2471.634881
476.265513	2470.924078
476.635645	2474.891466
477.005719	2475.128401
477.375734	2475.927423
477.745691	2475.451034
478.115588	2479.420943
478.485427	2481.402117
478.855207	2484.106696
479.224928	2486.796151
479.594591	2490.297233
479.964194	2486.476038
480.333739	2490.110710
480.703226	2487.622900
481.072653	2490.808910
481.442022	2489.712459
481.811333	2487.403610
482.180584	2489.946872
482.549777	2485.523260
482.918912	2487.116264
483.287988	2490.821512
483.657005	2486.811275
484.025964	2490.004846
484.394864	2489.160452
484.763706	2488.298415
485.132489	2485.687097
485.501213	2491.048364
485.869879	2491.192037
486.238487	2492.948879
486.607036	2489.961996
486.975527	2491.161790
487.343959	2491.660865
487.712333	2495.464415
488.080648	2491.464260
488.448905	2498.680671
488.817104	2499.043634
489.185244	2501.418018
489.553326	2504.823317
489.921350	2510.088803
490.289315	2516.251613
490.657222	2519.241017
491.025070	2524.756040
491.392861	2520.463497
491.760593	2518.648682
492.128267	2520.526512
492.495883	2516.990142
492.863440	2518.918383
493.230939	2517.368229
493.598380	2515.971829
493.965763	2511.966632
494.333088	2518.184896
494.700354	2517.847138
495.067563	2523.687315
495.434713	2520.191275
495.801805	2528.241998
496.168839	2526.853160
496.535815	2526.628828
496.902733	2532.408511
497.269593	2533.757020
497.636395	2536.312885
498.003139	2540.086188
498.369825	2541.858154
498.736453	2543.191539
499.103023	2544.706406
499.469535	2544.414019
499.835989	2551.022972
500.202385	2552.618497
500.568723	2556.238045
500.935003	2558.519167
501.301226	2558.483879
501.667390	2564.243398
502.033497	2574.038360
502.399546	2571.931157
502.765537	2569.072823
503.131470	2577.274780
503.497345	2578.993814
503.863163	2579.487847
504.228923	2582.119329
504.594625	2586.197623
504.960269	2588.750967
505.325856	2592.385639
505.691385	2589.912953
506.056856	2596.547112
506.422270	2600.993409
506.787625	2604.065992
507.152924	2607.473812
507.518164	2609.961622
507.883347	2608.492126
508.248472	2613.800461
508.613540	2617.435132
508.978550	2621.969650
509.343503	2627.381329
509.708398	2627.288068
510.073236	2635.048924
510.438016	2639.399440
510.802738	2635.691671
511.167403	2645.658032
511.532010	2649.353198
511.896561	2654.671615
512.261053	2660.559683
512.625488	2657.897954
512.989866	2661.978768
513.354186	2663.299550
513.718449	2664.915240
514.082655	2674.364883
514.446803	2674.309430
514.810894	2681.039371
515.174927	2684.638754
515.538904	2684.863086
515.902822	2692.087059
516.266684	2694.249714
516.630488	2697.685261
516.994235	2698.466639
517.357925	2703.601055
517.721558	2707.596169
518.085133	2714.522714
518.448651	2717.983467
518.812112	2718.013713
519.175516	2720.814074
519.538863	2726.051833
519.902152	2727.677605
520.265385	2738.027094
520.628560	2737.044069
520.991678	2738.029615
521.354739	2741.134966
521.717743	2746.072776
522.080690	2746.823908
522.443580	2754.995618
522.806413	2756.848242
523.169189	2760.061978
523.531908	2764.687236
523.894569	2763.502565
524.257174	2768.750406
524.619722	2771.553288
524.982213	2776.231479
525.344647	2777.121242
525.707025	2781.204577
526.069345	2783.276491
526.431608	2786.830505
526.793815	2790.427368
527.155964	2788.927625
527.518057	2793.184879
527.880093	2793.066412
528.242072	2797.243008
528.603995	2800.328194
528.965860	2803.519244
529.327669	2806.952270
529.689421	2804.771971
530.051117	2809.775316
530.412755	2813.732622
530.774337	2817.044660
531.135862	2815.514670
531.497331	2815.522232
531.858743	2817.097592
532.220098	2823.547749
532.581396	2824.457677
532.942638	2824.498006
533.303824	2832.112669
533.664953	2834.542505
534.026025	2837.335304
534.387040	2839.142558
534.747999	2842.845286
535.108902	2848.030112
535.469748	2843.435101
535.830537	2848.748477
536.191270	2854.792820
536.551947	2854.321472
536.912567	2859.188706
537.273131	2866.137937
537.633638	2862.268851
537.994089	2865.548122
538.354483	2867.947711
538.714821	2878.138404
539.075103	2883.275339
539.435328	2885.385062
539.795497	2888.634086
540.155609	2892.888820
540.515665	2901.731004
540.875665	2900.720252
541.235609	2909.138979
541.595496	2912.952612
541.955328	2920.942841
542.315102	2925.313521
542.674821	2925.558017
543.034483	2929.422062
543.394090	2935.678134
543.753640	2939.345573
544.113134	2958.655713
544.472571	2956.346864
544.831953	2975.041983
545.191278	2972.584421
545.550548	2973.638022
545.909761	2987.017244
546.268918	2998.690036
546.628019	3011.665966
546.987064	3011.597911
547.346053	3013.979856
547.704986	3033.660520
548.063863	3038.016077
548.422684	3046.790206
548.781449	3052.501833
549.140158	3066.949780
549.498811	3077.906728
549.857408	3080.737336
550.215949	3101.769029
550.574434	3110.192798
550.932864	3123.085548
551.291237	3145.932058
551.649555	3158.822288
552.007817	3173.179494
552.366022	3179.274249
552.724173	3199.080943
553.082267	3219.200188
553.440305	3242.313878
553.798288	3247.544075
554.156215	3269.674741
554.514086	3295.374543
554.871902	3309.225113
555.229661	3325.775221
555.587365	3346.343129
555.945014	3369.565204
556.302606	3388.035992
556.660143	3415.147317
557.017625	3441.658745
557.375050	3460.653813
557.732421	3493.741426
558.089735	3519.239582
558.446994	3545.687996
558.804197	3584.061259
559.161345	3609.559415
559.518437	3619.984521
559.875474	3657.125222
560.232455	3691.899102
560.589381	3725.377404
560.946251	3752.337495
561.303065	3803.001091
561.659825	3834.299095
562.016528	3858.264740
562.373177	3888.471334
562.729770	3938.787091
563.086307	3962.793065
563.442789	4020.413454
563.799216	4059.472314
564.155587	4096.494548
564.511904	4138.361330
564.868164	4188.266233
565.224370	4244.359152
565.580520	4283.475985
565.936615	4339.382381
566.292654	4378.479050
566.648638	4440.507927
567.004567	4492.714116
567.360441	4549.369124
567.716260	4601.330817
568.072023	4669.245242
568.427732	4724.904621
568.783385	4769.107979
569.138982	4845.854505
569.494525	4910.696346
569.850013	4961.485971
570.205445	5025.231362
570.560823	5094.963122
570.916145	5155.023429
571.271412	5221.203697
571.626625	5277.306698
571.981782	5355.837793
572.336884	5407.590278
572.691931	5500.531511
573.046923	5546.728645
573.401860	5613.712977
573.756743	5685.683009
574.111570	5771.571668
574.466342	5835.644733
574.821059	5925.387354
575.175722	5969.073993
575.530330	6050.554163
575.884882	6107.922494
576.239380	6182.715573
576.593823	6270.144304
576.948211	6343.533422
577.302544	6391.053858
577.656823	6479.821016
578.011047	6588.200783
578.365216	6659.981772
578.719330	6724.155661
579.073389	6801.199615
579.427394	6908.941675
579.781344	6996.274625
580.135239	7058.432052
580.489080	7168.598907
580.842866	7212.835032
581.196597	7361.909513
581.550273	7458.855943
581.903895	7544.190074
582.257463	7711.528656
582.610975	7747.913184
582.964434	7890.731593
583.317837	7953.403217
583.671186	8039.143162
584.024481	8180.116509
584.377721	8220.395328
584.730906	8366.336732
585.084037	8477.010223
585.437113	8540.364924
585.790135	8654.244590
586.143103	8708.590749
586.496016	8840.434566
586.848874	8954.667112
587.201679	9078.087161
587.554428	9112.553530
587.907124	9261.847301
588.259765	9345.464920
588.612352	9506.756637
588.964884	9523.652064
589.317362	9691.424185
589.669786	9800.013159
590.022155	9880.253205
590.374470	10077.657228
590.726731	10111.064954
591.078937	10135.985898
591.431090	10270.244428
591.783188	10318.715122
592.135232	10376.017918
592.487222	10534.320231
592.839157	10683.596358
593.191038	10735.179965
593.542866	10802.323093
593.894639	10796.054418
594.246358	10972.767025
594.598022	11087.155847
594.949633	11126.728905
595.301190	11237.268806
595.652692	11323.144862
596.004141	11515.779953
596.355535	11415.264387
596.706876	11517.365396
597.058162	11598.752304
597.409395	11825.011892
597.760573	11974.686270
598.111698	11995.723005
598.462768	12120.156326
598.813785	12258.891400
599.164748	12244.922363
599.515657	12475.686222
599.866511	12464.376393
600.217312	12767.362342
600.568060	12610.973147
600.918753	12954.212709
601.269392	13081.708531
601.619978	13107.766255
601.970510	13307.146411
602.320988	13484.242145
602.671412	13712.135067
603.021783	13771.361063
603.372100	13804.945229
603.722363	13974.839676
604.072572	14125.774343
604.422728	14268.527217
604.772830	14331.904603
605.122878	14503.155119
605.472872	14612.417088
605.822813	14836.766078
606.172701	14926.967444
606.522534	15141.307223
606.872314	15376.285486
607.222041	15430.808086
607.571714	15714.549430
607.921333	15657.460883
608.270899	15901.122534
608.620411	16182.917992
608.969870	16243.434524
609.319276	16386.192439
609.668627	16547.383333
610.017926	16876.142181
610.367171	17090.565140
610.716362	17276.563552
611.065500	17415.729645
611.414585	17638.805744
611.763616	17913.639369
612.112594	18036.444397
612.461518	18283.493703
612.810389	18561.941836
613.159207	18651.455084
613.507971	18834.910235
613.856682	19205.069559
614.205340	19314.008893
614.553945	19769.746845
614.902496	19668.724642
615.250994	20035.917247
615.599439	20243.554813
615.947830	20483.276802
616.296169	20677.325937
616.644454	20899.358517
616.992686	21134.402315
617.340864	21535.869725
617.688990	21564.803427
618.037063	22016.148013
618.385082	22167.105365
618.733048	22470.376139
619.080961	22640.976347
619.428821	22788.218369
619.776628	22995.588753
620.124382	23047.641187
620.472083	23272.360702
620.819731	23483.403567
621.167326	23455.828455
621.514868	23588.408281
621.862357	23485.283917
622.209793	23651.042097
622.557176	23613.208237
622.904506	23617.609164
623.251783	23552.008629
623.599007	23579.399739
623.946179	23591.150668
624.293297	23698.650753
624.640363	23506.179500
624.987376	23643.732423
625.334336	23631.762204
625.681243	23576.768256
626.028097	23685.304299
626.374899	23726.845927
626.721647	23852.020298
627.068343	23920.978241
627.414987	23919.473457
627.761577	23920.254835
628.108115	24229.786723
628.454600	24040.050295
628.801032	24276.493013
629.147412	24376.118816
629.493739	24509.086810
629.840014	24422.646145
630.186236	24764.353197
630.532405	24635.816377
630.878521	24894.790532
631.224585	24941.267450
631.570597	24877.128850
631.916556	25089.323618
632.262462	25164.020915
632.608316	25306.912421
632.954117	25345.189902
633.299866	25460.934794
633.645562	25507.434397
633.991206	25318.033206
634.336797	25155.130840
634.682336	25255.969041
635.027823	25202.583222
635.373257	25197.811769
635.718639	25156.827189
636.063968	25161.570914
636.409245	24884.229315
636.754470	25026.286510
637.099642	24973.878674
637.444762	24754.827937
637.789829	24950.122237
638.134845	24818.074253
638.479808	24883.009356
638.824719	24915.474387
639.169577	24740.135494
639.514383	24876.879313
639.859137	24764.582570
640.203839	25023.592013
640.548489	24862.075964
640.893086	25014.225549
641.237632	24925.183649
641.582125	25094.536171
641.926566	25128.929443
642.270955	25196.324629
642.615292	25295.000174
642.959576	25364.895773
643.303809	25461.857326
643.647990	25637.037422
643.992118	25697.657297
644.336195	25783.132581
644.680219	25927.657420
645.024192	26233.937763
645.368112	26686.787134
645.711981	26765.207323
646.055797	27488.776738
646.399562	27522.537345
646.743274	28281.147820
647.086935	28696.264154
647.430544	28681.034828
647.774101	28856.373721
648.117606	29130.642737
648.461059	29439.027762
648.804460	29230.646626
649.147810	28860.028557
649.491108	28752.359593
649.834354	28563.104596
650.177548	28020.832717
650.520690	27736.287309
650.863781	27851.946502
651.206820	27800.299881
651.549807	27550.777889
651.892742	27251.582888
652.235626	27181.193256
652.578458	27142.310837
652.921238	26752.463286
653.263967	27081.726250
653.606644	26890.543011
653.949269	26918.292042
654.291843	26680.568871
654.634365	27055.837404
654.976836	26796.953990
655.319255	26864.787756
655.661622	26929.659844
656.003938	26810.000496
656.346203	26772.915248
656.688416	27005.572059
657.030577	26915.458914
657.372687	26841.333788
657.714746	27108.220034
658.056753	27269.221885
658.398708	26877.277214
658.740612	26995.759453
659.082465	27274.018543
659.424266	27188.205501
659.766016	27350.581067
660.107715	27301.041648
660.449362	27451.053783
660.790958	27496.424168
661.132503	27577.891735
661.473996	27632.540363
661.815438	27786.257747
662.156829	27998.845725
662.498168	27868.635242
662.839456	27945.964021
663.180693	28123.097564
663.521879	28295.789851
663.863013	28337.270986
664.204097	28370.325831
664.545129	28815.081629
664.886110	28828.750718
665.227040	28931.993549
665.567918	29071.638552
665.908746	29170.369550
666.249522	29356.980462
666.590248	29398.937986
666.930922	29556.960515
667.271545	29549.953311
667.612118	29674.830253
667.952639	29544.647496
668.293109	29630.720157
668.633528	29594.890156
668.973896	29578.425748
669.314213	29670.177268
669.654480	29476.168462
669.994695	29539.399655
670.334859	29507.216929
670.674973	29466.005496
671.015035	29640.217691
671.355047	29650.668003
671.695008	29638.203750
672.034918	29586.378168
672.374777	29708.858042
672.714585	29592.155330
673.054342	29845.710245
673.394049	29655.898200
673.733705	29944.940317
674.073310	29687.196204
674.412864	29782.330338
674.752368	29476.153339
675.091820	29780.434865
675.431223	29449.596541
675.770574	29241.911084
676.109875	29161.958384
676.449125	28950.824779
676.788324	28914.883873
677.127473	28484.649118
677.466571	28449.471947
677.805619	28183.155351
678.144616	28213.674496
678.483562	28182.303396
678.822458	27914.174505
679.161303	27884.514876
679.500098	27812.242374
679.838842	27766.105734
680.177535	27922.948633
680.516179	28201.847949
680.854771	28462.336971
681.193314	29256.895914
681.531805	30292.984100
681.870247	31004.472389
682.208638	31695.160877
682.546978	31920.966761
682.885268	32036.202497
683.223508	31570.351990
683.561697	31300.224282
683.899836	31147.278195
684.237925	30720.456302
684.575963	30610.566710
684.913951	30215.985516
685.251889	30380.584230
685.589776	30382.966175
685.927614	30385.411135
686.265401	30544.714117
686.603137	30636.490843
686.940824	31127.143827
687.278460	31498.182832
687.616046	31623.092542
687.953582	32185.690352
688.291068	32080.373087
688.628504	32342.840762
688.965889	32317.516525
689.303224	31992.914109
689.640510	31703.367876
689.977745	31055.365357
690.314930	30349.306391
690.652065	29900.046322
690.989150	29240.915457
691.326185	28431.459904
691.663170	27795.054560
692.000105	27124.122354
692.336990	26540.807922
692.673825	26144.177499
693.010610	25698.237029
693.347345	25183.106724
693.684030	24586.770991
694.020665	24361.199521
694.357251	23757.594445
694.693786	23729.023705
695.030272	23530.187995
695.366707	23033.949413
695.703093	22781.768213
696.039429	22783.588069
696.375716	22556.022823
696.711952	22530.146580
697.048139	22387.973439
697.384276	22249.992017
697.720363	22358.969160
698.056400	22189.989683
698.392388	21992.752018
698.728326	21971.531281
699.064214	21790.183333
699.400053	21756.367273
699.735842	21436.974889
700.071581	21188.423319
700.407270	20932.695667
700.742910	20764.978999
701.078501	20529.824296
701.414042	20273.123701
701.749533	20001.186218
702.084974	19691.089722
702.420366	19897.255270
702.755709	19497.002778
703.091002	19238.295804
703.426246	19256.315408
703.761440	19171.654270
704.096584	18934.228527
704.431679	18900.712416
704.766725	18821.215940
705.101721	18775.797665
705.436668	18857.789511
705.771565	18568.636488
706.106413	18901.392972
706.441212	18895.300737
706.775961	19029.216468
707.110661	19097.541747
707.445311	19461.991964
707.779913	19307.641916
708.114465	19551.348937
708.448967	19826.774898
708.783421	20488.693521
709.117825	20757.235787
709.452180	20973.445834
709.786485	21342.491063
710.120742	22115.771296
710.454949	22136.762660
710.789107	22570.150656
711.123216	23246.718873
711.457275	23364.341595
711.791286	23873.714903
712.125247	23940.774852
712.459159	23637.922494
712.793023	24294.925992
713.126837	23226.276994
713.460602	23485.621674
713.794318	23141.537718
714.127985	22777.561370
714.461602	21946.832148
714.795171	21904.776322
715.128691	20954.843976
715.462162	20460.634459
715.795584	20053.941893
716.128957	19828.224230
716.462281	19443.682494
716.795556	19230.424042
717.128782	18765.980017
717.461960	18238.093072
717.795088	18169.845931
718.128167	17796.661915
718.461198	17353.935181
718.794180	17214.333028
719.127113	16886.910086
719.459997	16700.768001
719.792833	16385.451389
720.125619	16349.029053
720.458357	16058.530042
720.791046	15894.851338
721.123686	15741.630508
721.456278	15516.069121
721.788821	15483.694831
722.121315	15229.744185
722.453761	15311.988089
722.786158	15246.803450
723.118506	15249.182874
723.450805	15127.693587
723.783056	15285.136383
724.115259	15193.609194
724.447412	15141.496266
724.779518	15368.403642
725.111574	15388.883330
725.443582	15584.631333
725.775542	15568.862604
726.107453	16020.577715
726.439315	15915.164668
726.771129	16303.570448
727.102895	16662.278791
727.434612	16857.245416
727.766281	16975.611708
728.097901	17221.776292
728.429473	17257.709637
728.760996	17245.159684
729.092471	17348.193307
729.423897	17226.835090
729.755276	17106.495186
730.086606	17219.142289
730.417887	17734.436432
730.749120	18245.690091
731.080305	18413.409279
731.411442	18746.357326
731.742530	18815.022883
732.073570	18910.943438
732.404562	19195.892138
732.735506	19012.381535
733.066401	18740.844824
733.397249	18225.427173
733.728048	17618.555429
734.058798	16823.131928
734.389501	16159.027964
734.720156	15722.864813
735.050762	15206.524630
735.381320	14872.170102
735.711831	14634.822496
736.042293	14301.609789
736.372707	14311.472806
736.703073	14115.818064
737.033391	14289.732830
737.363661	14265.303399
737.693883	14374.545202
738.024056	14534.654769
738.354182	14724.759201
738.684260	14997.311705
739.014290	15224.632455
739.344272	15397.944804
739.674207	15664.069836
740.004093	15780.391940
740.333931	15763.430978
740.663722	15809.711291
740.993464	15810.210365
741.323159	15644.185004
741.652806	15371.698036
741.982405	15165.232539
742.311956	14837.789432
742.641460	14720.237286
742.970915	14422.630248
743.300323	14104.863636
743.629683	13888.595616
743.958996	13622.309267
744.288260	13365.560781
744.617477	13067.636150
744.946647	12988.341321
745.275768	12722.962379
745.604842	12551.066595
745.933869	12390.069785
746.262847	12336.177330
746.591778	12266.669901
746.920662	12174.976353
747.249498	12169.902432
747.578286	12290.391050
747.907027	12427.833069
748.235720	12649.389260
748.564365	12672.722240
748.892963	12579.133219
749.221514	12640.529432
749.550017	12496.085251
749.878473	12458.684930
750.206881	12241.998494
750.535242	12157.138231
750.863555	12073.581106
751.191821	11978.585603
751.520039	12005.248265
751.848210	11919.442786
752.176334	11938.624376
752.504411	11857.179494
752.832440	11701.992614
753.160421	11762.073086
753.488356	11641.655044
753.816243	11551.743545
754.144082	11416.244891
754.471875	11363.096006
754.799620	11300.570575
755.127318	11271.120154
755.454969	11243.620660
755.782572	11194.653412
756.110129	11204.120699
756.437638	11128.712599
756.765100	11121.133224
757.092515	11115.426638
757.419882	11137.312808
757.747203	11141.428910
758.074477	11213.587986
758.401703	11171.733806
758.728882	11332.342447
759.056014	11372.212933
759.383099	11480.602782
759.710138	11589.174112
760.037129	11674.848522
760.364073	11688.091633
760.690970	11675.231649
761.017820	11672.456494
761.344623	11848.334790
761.671379	12176.004749
761.998088	12795.267649
762.324751	14331.612216
762.651366	17148.649314
762.977935	20757.568503
763.304456	22931.732457
763.630931	23384.329770
763.957359	22211.263352
764.283740	20341.852272
764.610074	18494.753338
764.936362	16393.217287
765.262602	14912.343057
765.588796	13455.767188
765.914943	12445.731685
766.241044	11621.825665
766.567097	11001.625111
766.893104	10455.262336
767.219064	10105.865004
767.544978	9724.224452
767.870845	9420.913349
768.196665	9235.204803
768.522438	9044.374445
768.848165	8887.902070
769.173846	8724.014159
769.499479	8603.354142
769.825066	8449.321686
770.150607	8268.666897
770.476101	8216.780821
770.801548	8099.052234
771.126949	7956.863969
771.452303	7867.559929
771.777611	7704.899538
772.102872	7682.471445
772.428087	7566.408960
772.753256	7448.839170
773.078378	7362.590069
773.403453	7225.077474
773.728482	7124.095601
774.053465	7063.448000
774.378401	6977.713096
774.703291	6886.410238
775.028135	6792.647297
775.352932	6757.628922
775.677683	6669.562485
776.002388	6588.152892
776.327046	6585.841523
776.651658	6505.019223
776.976224	6425.706750
777.300743	6408.546662
777.625216	6342.787331
777.949643	6302.284180
778.274024	6306.818698
778.598359	6243.469038
778.922647	6241.361836
779.246889	6208.889244
779.571086	6213.658175
779.895236	6224.166460
780.219339	6213.222115
780.543397	6215.651952
780.867409	6266.212204
781.191374	6261.052583
781.515294	6228.315330
781.839167	6282.588392
782.162995	6253.269042
782.486776	6202.935641
782.810511	6162.067007
783.134201	6088.045224
783.457844	6077.630200
783.781441	6025.297982
784.104993	5989.394885
784.428498	5959.876408
784.751958	5938.602739
785.075372	5920.104225
785.398739	5878.764243
785.722061	5901.051184
786.045337	5904.431278
786.368568	6009.695611
786.691752	6030.926431
787.014891	6275.142608
787.337983	6554.979579
787.661030	6986.300702
787.984031	7407.151348
788.306987	7666.919485
788.629897	7743.978563
788.952760	7656.799369
789.275579	7482.977864
789.598351	7195.458175
789.921078	6934.689369
790.243759	6657.614950
790.566395	6453.722962
790.888984	6263.984014
791.211529	6126.957891
791.534027	5960.451100
791.856480	5830.903528
792.178888	5767.170741
792.501249	5706.434919
792.823566	5606.907419
793.145836	5597.838383
793.468062	5580.554787
793.790241	5540.560793
794.112375	5584.060910
794.434464	5679.356361
794.756507	5708.022883
795.078505	5829.945709
795.400457	6047.128699
795.722364	6277.630417
796.044226	6465.284849
796.366042	6621.237984
796.687812	6566.947278
797.009538	6600.226455
797.331218	6507.600294
797.652852	6438.652433
797.974442	6319.429145
798.295986	6250.057827
798.617484	6118.327435
798.938938	6015.261045
799.260346	5946.408966
799.581709	5810.527184
799.903026	5762.343836
800.224299	5688.972362
800.545526	5576.335341
800.866708	5510.702039
801.187845	5463.784020
801.508936	5385.192432
801.829983	5357.758472
802.150984	5252.889869
802.471940	5230.776848
802.792851	5216.543150
803.113717	5191.014747
803.434538	5165.294780
803.755314	5136.028362
804.076045	5122.583604
804.396731	5091.782154
804.717372	5102.416468
805.037967	5102.918063
805.358518	5133.764883
805.679024	5190.124983
805.999485	5200.313155
806.319901	5222.020364
806.640272	5241.174228
806.960598	5284.094612
807.280879	5275.759064
807.601115	5314.943953
807.921306	5275.378457
808.241453	5270.652375
808.561554	5282.536895
808.881611	5246.661524
809.201623	5245.398715
809.521590	5198.190830
809.841513	5176.833981
810.161390	5196.713772
810.481223	5106.424186
810.801011	5091.255354
811.120755	5069.941355
811.440453	5019.141648
811.760107	4991.783306
812.079716	4956.785095
812.399281	4909.388167
812.718801	4905.388011
813.038276	4869.411817
813.357707	4840.747816
813.677093	4860.204149
813.996434	4799.705262
814.315731	4816.232685
814.634983	4812.620698
814.954191	4822.271987
815.273354	4883.864805
815.592473	4922.931227
815.911547	4993.971167
816.230577	5048.551739
816.549562	5133.389318
816.868502	5184.678017
817.187399	5237.514350
817.506250	5313.897913
817.825058	5340.613508
818.143821	5490.983566
818.462539	5660.000851
818.781213	5881.670468
819.099843	6237.074335
819.418429	6862.842844
819.736970	7467.385575
820.055466	8167.904313
820.373919	9059.024038
820.692327	10491.800619
821.010691	13131.810039
821.329011	19246.223018
821.647286	28638.764753
821.965517	38781.488154
822.283704	44123.384635
822.601847	45559.100210
822.919945	41026.228262
823.237999	36005.748188
823.556010	30894.918033
823.873976	26284.056915
824.191897	22165.540087
824.509775	19154.942845
824.827609	16437.511385
825.145398	14934.645121
825.463144	14198.442575
825.780845	14488.608870
826.098502	15725.304732
826.416116	18153.988982
826.733685	20383.663602
827.051210	20904.195504
827.368692	19494.441872
827.686129	16968.700287
828.003522	14536.194842
828.320872	12352.082170
828.638177	10743.298743
828.955439	9524.866982
829.272656	8477.718505
829.589830	7651.004563
829.906960	6941.840245
830.224046	6417.477066
830.541088	6015.533267
830.858086	5755.976859
831.175041	5561.065686
831.491952	5505.776832
831.808819	5536.197674
832.125642	5779.824037
832.442421	6321.942160
832.759157	7413.568737
833.075849	9148.433942
833.392497	10969.480193
833.709101	12058.540823
834.025662	11814.072588
834.342179	10766.987125
834.658653	9486.614707
834.975083	8399.081547
835.291469	7507.314034
835.607811	6790.267873
835.924110	6274.444408
836.240366	5800.361698
836.556578	5354.164130
836.872746	5013.533364
837.188871	4744.429010
837.504952	4524.647305
837.820990	4365.329200
838.136984	4253.816356
838.452935	4205.179304
838.768842	4236.510075
839.084706	4509.632229
839.400526	5241.385956
839.716303	6128.157685
840.032037	6685.195103
840.347727	6539.941817
840.663373	5945.025169
840.978977	5380.279827
841.294537	4943.874700
841.610054	4618.644660
841.925527	4386.960791
842.240957	4184.437476
842.556344	4005.035414
842.871687	3849.775437
843.186987	3703.103066
843.502244	3586.120570
843.817458	3502.661748
844.132629	3428.949996
844.447756	3384.171947
844.762840	3340.608816
845.077881	3305.008188
845.392879	3268.018722
845.707833	3241.293044
846.022745	3214.332954
846.337613	3207.713919
846.652438	3182.798016
846.967221	3174.916172
847.281960	3152.046977
847.596656	3144.759989
847.911309	3133.835809
848.225919	3120.073459
848.540485	3111.463168
848.855009	3102.966303
849.169490	3091.767380
849.483928	3088.609097
849.798323	3079.903025
850.112675	3070.244174
850.426984	3069.740058
850.741251	3062.334603
851.055474	3061.694377
851.369654	3064.703946
851.683792	3057.036351
851.997887	3060.141702
852.311938	3060.565158
852.625947	3062.107752
852.939914	3058.120199
853.253837	3062.059861
853.567718	3056.953172
853.881555	3049.761966
854.195350	3058.954510
854.509103	3055.304714
854.822812	3053.643654
855.136479	3048.741132
855.450103	3051.526370
855.763685	3048.181564
856.077224	3050.094682
856.390720	3058.284036
856.704173	3067.315263
857.017584	3071.592683
857.330953	3078.199115
857.644278	3083.482244
857.957561	3089.118254
858.270802	3087.207657
858.584000	3086.834611
858.897155	3078.113415
859.210268	3066.947259
859.523339	3055.065260
859.836367	3052.277502
860.149352	3048.327758
860.462295	3044.587221
860.775195	3037.214534
861.088054	3032.924512
861.400869	3030.847557
861.713642	3027.596012
862.026373	3039.115049
862.339062	3040.095553
862.651708	3051.675084
862.964312	3066.148236
863.276873	3076.603589
863.589392	3106.185080
863.901869	3132.893113
864.214303	3152.669560
864.526696	3171.909123
864.839045	3190.185827
865.151353	3202.660162
865.463619	3200.361396
865.775842	3200.618495
866.088023	3208.270966
866.400162	3199.660675
866.712258	3200.719318
867.024313	3200.500027
867.336325	3196.835109
867.648296	3195.537012
867.960224	3194.974923
868.272110	3199.053216
868.583954	3196.943493
868.895755	3204.797611
869.207515	3200.878114
869.519233	3222.625652
869.830909	3226.386352
870.142542	3238.210379
870.454134	3241.749269
870.765684	3257.134870
871.077191	3270.917385
871.388657	3285.246865
871.700081	3308.912562
872.011463	3326.312104
872.322803	3341.150740
872.634101	3360.571786
872.945357	3380.270094
873.256571	3406.050555
873.567744	3423.624017
873.878874	3423.969336
874.189963	3442.087243
874.501010	3445.553037
874.812015	3440.935340
875.122979	3456.930921
875.433900	3454.813636
875.744780	3459.741364
876.055618	3462.884523
876.366415	3465.553814
876.677169	3469.203610
876.987882	3484.569047
877.298554	3504.411028
877.609183	3540.293961
877.919771	3586.942278
878.230317	3651.254799
878.540822	3749.287597
878.851285	3899.813930
879.161707	4118.912559
879.472087	4477.308350
879.782425	5096.215849
880.092722	6251.358444
880.402977	8137.942216
880.713191	10458.768459
881.023363	12790.004684
881.333494	14094.047841
881.643583	14539.844637
881.953631	14128.763747
882.263637	13313.157987
882.573602	12285.848971
882.883526	11368.472397
883.193408	10427.825856
883.503248	9532.685812
883.813048	8728.130261
884.122806	7979.828946
884.432522	7232.734987
884.742197	6580.402118
885.051831	6032.486668
885.361424	5554.854985
885.670975	5168.929452
885.980485	4854.817677
886.289954	4595.397379
886.599382	4381.695306
886.908768	4206.810117
887.218113	4048.616189
887.527417	3922.879730
887.836680	3800.825833
888.145901	3700.199361
888.455082	3628.622538
888.764221	3557.607804
889.073319	3501.010770
889.382376	3470.053044
889.691392	3448.378603
890.000366	3439.365020
890.309300	3433.038372
890.618193	3435.579114
890.927044	3432.559463
891.235855	3437.774536
891.544625	3452.414047
891.853353	3480.316833
892.162041	3537.924619
892.470687	3629.373670
892.779293	3746.535127
893.087858	3915.912855
893.396381	4184.356818
893.704864	4591.918983
894.013306	5144.384074
894.321707	5703.838725
894.630068	6053.437703
894.938387	6092.236944
895.246665	5916.988792
895.554903	5602.776193
895.863100	5270.937200
896.171256	5002.699925
896.479371	4772.049492
896.787446	4552.769382
897.095480	4363.141339
897.403473	4217.449472
897.711425	4076.982762
898.019336	3956.607569
898.327207	3836.134075
898.635038	3739.369127
898.942827	3634.598826
899.250576	3549.572205
899.558284	3470.229485
899.865952	3416.720157
900.173579	3355.631455
900.481165	3313.502532
900.788711	3269.483177
901.096216	3236.892117
901.403681	3212.815566
901.711105	3197.931560
902.018489	3194.639686
902.325832	3229.320304
902.633135	3283.762245
902.940397	3451.012606
903.247619	3846.092874
903.554800	4580.483125
903.861941	5520.761661
904.169041	6202.406320
904.476101	6407.666981
904.783121	6142.398945
905.090100	5748.026959
905.397039	5343.650803
905.703938	4990.888501
906.010796	4679.372920
906.317614	4429.729940
906.624391	4199.780228
906.931129	4010.709232
907.237826	3832.569979
907.544483	3664.197961
907.851099	3501.530009
908.157675	3343.696523
908.464211	3207.013198
908.770707	3107.994854
909.077163	3034.230171
909.383578	2974.789926
909.689954	2930.820982
909.996289	2904.271745
910.302584	2881.236193
910.608839	2868.792104
910.915054	2858.815661
911.221229	2853.446832
911.527363	2859.576875
911.833458	2865.346476
912.139513	2876.124463
912.445527	2888.767677
912.751502	2924.610280
913.057436	2964.853812
913.363331	3021.597039
913.669186	3106.212807
913.975000	3218.620455
914.280775	3399.083680
914.586510	3662.123526
914.892205	4026.130122
915.197859	4512.021736
915.503475	5084.308644
915.809050	5566.149690
916.114585	5842.876269
916.420081	5907.171145
916.725536	5841.116906
917.030952	5612.382112
917.336328	5411.343417
917.641665	5202.672415
917.946961	4979.780319
918.252218	4788.360145
918.557435	4564.167431
918.862612	4371.197103
919.167750	4205.660734
919.472848	4019.437990
919.777906	3858.252137
920.082925	3704.012994
920.387904	3552.697720
920.692843	3447.458593
920.997743	3349.670290
921.302603	3258.775766
921.607423	3195.877289
921.912204	3132.434368
922.216946	3085.231524
922.521647	3037.549771
922.826310	2999.758761
923.130932	2963.205354
923.435516	2923.705393
923.740059	2895.580796
924.044564	2865.769933
924.349028	2843.334277
924.653454	2812.825214
924.957840	2787.720268
925.262186	2769.188987
925.566493	2747.035636
925.870761	2724.781462
926.174989	2713.897611
926.479178	2701.219109
926.783328	2684.275791
927.087438	2670.682320
927.391509	2661.134375
927.695541	2647.583753
927.999533	2639.611168
928.303486	2632.165384
928.607400	2624.452419
928.911275	2617.712396
929.215110	2613.742487
929.518906	2609.959101
929.822663	2612.225100
930.126381	2608.444235
930.430060	2613.341716
930.733699	2615.945472
931.037299	2621.072325
931.340861	2618.370267
931.644383	2625.168262
931.947866	2619.282715
932.251309	2618.508898
932.554714	2616.883126
932.858080	2612.799792
933.161407	2612.847682
933.464694	2608.051025
933.767943	2604.237392
934.071153	2599.765888
934.374323	2595.899323
934.677455	2592.284816
934.980548	2592.879672
935.283602	2588.786255
935.586617	2585.108733
935.889593	2587.556214
936.192530	2588.849270
936.495428	2594.800352
936.798287	2604.144130
937.101108	2618.461007
937.403890	2639.689306
937.706632	2668.640653
938.009336	2700.856146
938.312002	2729.263048
938.614628	2750.604773
938.917216	2769.617485
939.219765	2776.977569
939.522275	2786.265895
939.824747	2788.972995
940.127179	2778.588218
940.429573	2772.485901
940.731929	2772.352311
941.034246	2768.629419
941.336524	2762.723707
941.638763	2755.918149
941.940964	2752.832963
942.243126	2733.714387
942.545250	2722.848180
942.847335	2710.993907
943.149381	2699.232895
943.451389	2684.548014
943.753359	2674.276663
944.055290	2665.205106
944.357182	2656.007521
944.659036	2651.997283
944.960851	2649.310348
945.262628	2644.145686
945.564367	2644.412867
945.866067	2642.845068
946.167729	2642.230048
946.469352	2637.776188
946.770937	2640.216107
947.072484	2632.029273
947.373992	2630.489200
947.675462	2629.095321
947.976893	2620.575771
948.278286	2620.048971
948.579641	2617.969495
948.880958	2614.491099
949.182236	2611.710902
949.483476	2609.263422
949.784678	2609.991869
950.085841	2607.998092
950.386967	2613.497991
950.688054	2616.726850
950.989103	2624.427213
951.290114	2636.379789
951.591087	2646.338588
951.892021	2657.862666
952.192917	2671.435972
952.493776	2680.908301
952.794596	2684.495082
953.095378	2682.929803
953.396122	2683.539783
953.696828	2681.871161
953.997496	2674.259019
954.298126	2668.272648
954.598718	2661.497338
954.899272	2647.366983
955.199788	2640.788278
955.500266	2626.279837
955.800706	2614.160903
956.101108	2593.628283
956.401472	2583.155286
956.701798	2570.880077
957.002087	2558.133519
957.302337	2549.699669
957.602550	2537.258101
957.902724	2527.095135
958.202861	2518.076511
958.502960	2511.596108
958.803022	2501.405415
959.103045	2495.232522
959.403031	2491.555000
959.702979	2485.223311
960.002889	2481.215594
960.302762	2474.881384
960.602596	2470.377113
960.902393	2471.352576
961.202153	2470.969449
961.501875	2462.833026
961.801559	2462.654065
962.101205	2459.679785
962.400814	2457.643158
962.700385	2455.777932
962.999918	2453.537139
963.299414	2452.972529
963.598873	2452.627210
963.898293	2449.121088
964.197677	2447.805347
964.497022	2447.202929
964.796331	2446.401385
965.095601	2444.337033
965.394835	2443.795109
965.694030	2441.781168
965.993189	2445.582198
966.292309	2442.655808
966.591393	2443.757300
966.890439	2439.779830
967.189447	2444.400047
967.488419	2440.868719
967.787353	2443.109512
968.086249	2445.199070
968.385108	2443.066662
968.683930	2443.671601
968.982714	2446.761828
969.281462	2445.075562
969.580172	2447.422219
969.878844	2451.863476
970.177480	2452.612087
970.476078	2457.607870
970.774639	2462.764971
971.073162	2459.478138
971.371649	2462.495269
971.670098	2461.141719
971.968510	2467.266721
972.266885	2462.923767
972.565223	2469.404170
972.863524	2468.708491
973.161788	2472.060858
973.460014	2470.543471
973.758204	2472.620427
974.056356	2474.379789
974.354471	2473.580766
974.652550	2474.780561
974.950591	2471.521455
975.248595	2475.713174
975.546563	2472.862402
975.844493	2468.126238
976.142386	2469.953656
976.440243	2466.092132
976.738062	2464.181535
977.035845	2459.752881
977.333590	2463.962245
977.631299	2459.074846
977.928971	2455.987139
978.226606	2454.855400
978.524204	2453.181737
978.821765	2451.583692
979.119290	2453.146449
979.416777	2449.950358
979.714228	2455.498147
980.011642	2453.590071
980.309020	2456.927315
980.606360	2460.410752
980.903664	2467.854016
981.200931	2482.382621
981.498162	2499.590600
981.795356	2529.106555
982.092513	2563.872873
982.389633	2608.976076
982.686717	2650.565596
982.983764	2680.079031
983.280775	2699.353882
983.577749	2698.537216
983.874686	2689.543797
984.171587	2674.841272
984.468451	2659.944662
984.765279	2640.836169
985.062070	2621.798251
985.358824	2606.642022
985.655543	2583.530852
985.952224	2561.334652
986.248869	2536.650642
986.545478	2510.408916
986.842050	2491.388642
987.138586	2474.810808
987.435086	2458.215329
987.731549	2451.182920
988.027975	2441.703030
988.324366	2441.690427
988.620719	2435.235230
988.917037	2430.221802
989.213318	2430.836823
989.509563	2428.381781
989.805772	2426.740885
990.101944	2427.789445
990.398080	2425.594023
990.694180	2423.012952
990.990244	2423.965730
991.286271	2424.941193
991.582262	2424.840370
991.878217	2426.007397
992.174136	2426.965217
992.470019	2428.772470
992.765865	2429.175763
993.061676	2428.948911
993.357450	2432.664241
993.653188	2436.823193
993.948890	2441.856785
994.244556	2447.190326
994.540186	2453.073352
994.835780	2465.895527
995.131337	2479.161324
995.426859	2496.402070
995.722345	2514.048629
996.017795	2533.182328
996.313208	2545.346632
996.608586	2554.304763
996.903928	2559.817265
997.199234	2557.173179
997.494504	2554.642520
997.789738	2547.075748
998.084936	2540.103833
998.380099	2525.834847
998.675225	2513.819256
998.970316	2506.653256
999.265371	2490.211533
999.560390	2477.275932
999.855373	2468.844602
1000.150320	2460.985443
1000.445232	2450.008331
1000.740108	2442.300407
1001.034948	2438.726229
1001.329752	2435.020981
1001.624521	2430.985537
1001.919254	2424.341296
1002.213951	2421.709814
1002.508613	2417.505492
1002.803239	2420.091603
1003.097829	2412.572723
1003.392384	2415.305028
1003.686903	2415.413413
1003.981386	2417.444998
1004.275834	2416.464493
1004.570246	2412.096333
1004.864623	2411.614903
1005.158964	2410.810839
1005.453270	2410.697413
1005.747540	2410.062228
1006.041775	2409.651374
1006.335974	2407.317320
1006.630138	2409.774882
1006.924266	2407.231620
1007.218359	2406.876219
1007.512416	2406.367062
1007.806438	2408.653225
1008.100425	2407.526528
1008.394376	2407.486198
1008.688292	2408.338153
1008.982172	2404.791702
1009.276017	2407.932340
1009.569827	2405.671383
1009.863602	2406.069634
1010.157341	2406.697258
1010.451045	2406.563667
1010.744714	2403.022257
1011.038347	2406.752710
1011.331945	2405.328584
1011.625508	2406.291445
1011.919036	2404.637946
1012.212528	2404.690878
1012.505986	2403.148285
1012.799408	2406.538461
1013.092795	2403.607030
1013.386147	2404.348080
1013.679464	2403.826321
1013.972745	2404.252298
1014.265992	2402.402195
1014.559204	2402.976886
1014.852380	2399.806000
1015.145521	2402.989489
1015.438628	2403.498646
1015.731699	2403.901938
1016.024736	2402.508059
1016.317737	2405.222720
1016.610703	2406.193142
1016.903635	2401.772050
1017.196531	2401.220044
1017.489393	2402.855898
1017.782219	2401.061248
1018.075011	2407.098029
1018.367768	2406.175498
1018.660490	2402.989489
1018.953177	2402.989489
1019.245829	2402.989489
