Dividing Wavelength (nm)	Counts (n)	Blue Motor Position (mm): 35.400000	Red Motor Position (mm): 0.000000	
326.493990	1968.878087
326.888308	1968.878087
327.282561	1968.878087
327.676750	1943.566454
328.070874	1947.160797
328.464933	1952.317897
328.858929	1962.881635
329.252859	1975.865127
329.646726	1989.617394
330.040528	2003.626761
330.434265	2023.672909
330.827938	2042.509180
331.221547	2061.416028
331.615091	2082.954358
332.008571	2103.149220
332.401986	2123.223095
332.795338	2146.810653
333.188625	2163.131389
333.581847	2183.666529
333.975006	2200.057841
334.368100	2220.469473
334.761129	2236.707029
335.154095	2250.542476
335.546996	2291.549742
335.939833	2372.666949
336.332606	2386.215050
336.725315	2395.599158
337.117960	2406.997206
337.510540	2414.977353
337.903056	2425.914136
338.295508	2428.757347
338.687896	2437.995261
339.080220	2444.337033
339.472480	2451.034206
339.864676	2454.303394
340.256807	2455.004114
340.648875	2460.718262
341.040879	2460.070474
341.432818	2460.985443
341.824694	2462.540639
342.216506	2461.918057
342.608253	2463.690022
342.999937	2459.614250
343.391557	2458.598457
343.783113	2459.828499
344.174605	2455.893878
344.566033	2454.976388
344.957397	2454.421861
345.348697	2451.971860
345.739934	2450.323403
346.131106	2449.226952
346.522215	2447.386931
346.913260	2444.049687
347.304241	2447.117229
347.695159	2438.484253
348.086012	2442.842331
348.476802	2439.374017
348.867528	2437.029880
349.258191	2436.233378
349.648789	2434.000147
350.039324	2435.756989
350.429796	2436.039294
350.820203	2433.821186
351.210548	2433.105342
351.600828	2433.327153
351.991045	2430.957811
352.381198	2430.098294
352.771288	2431.046031
353.161314	2428.457398
353.551276	2430.362954
353.941175	2426.756009
354.331010	2430.521751
354.720782	2431.265321
355.110490	2432.576021
355.500135	2432.540733
355.889717	2431.104004
356.279235	2432.941505
356.668689	2432.248346
357.058080	2432.220620
357.447408	2429.526123
357.836672	2429.997471
358.225873	2429.342121
358.615010	2431.466967
359.004084	2434.521906
359.393095	2435.751948
359.782043	2437.634819
360.170927	2435.915785
360.559748	2433.556525
360.948505	2439.043821
361.337199	2440.223451
361.725830	2438.088523
362.114398	2443.671601
362.502903	2440.720005
362.891344	2441.140941
363.279722	2437.952412
363.668037	2440.152875
364.056289	2444.221086
364.444478	2443.704368
364.832603	2442.754111
365.220665	2443.079265
365.608665	2444.518514
365.996601	2448.924483
366.384474	2447.225614
366.772284	2447.873402
367.160031	2447.505398
367.547715	2445.632609
367.935336	2450.880451
368.322893	2449.902467
368.710388	2446.686211
369.097820	2452.347426
369.485189	2449.186623
369.872495	2451.495471
370.259738	2448.518670
370.646918	2450.348609
371.034035	2451.440019
371.421090	2450.855245
371.808081	2451.359360
372.195010	2450.451952
372.581875	2449.869699
372.968678	2453.428754
373.355418	2452.591922
373.742096	2452.594443
374.128710	2454.691563
374.515262	2455.203240
374.901751	2456.894547
375.288177	2459.057202
375.674540	2458.598457
376.060841	2458.732048
376.447079	2460.115844
376.833254	2458.623663
377.219367	2457.209619
377.605417	2460.153653
377.991404	2455.273816
378.377329	2460.214147
378.763191	2457.373457
379.148991	2462.107100
379.534727	2462.190279
379.920402	2463.085084
380.306013	2461.986113
380.691563	2466.001392
381.077049	2465.373768
381.462474	2467.632205
381.847835	2468.680765
382.233134	2467.339818
382.618371	2465.721608
383.003545	2468.738738
383.388657	2468.582462
383.773706	2470.856023
384.158693	2470.223358
384.543618	2470.172946
384.928480	2471.173615
385.313280	2473.169912
385.698017	2474.848617
386.082692	2476.857516
386.467305	2476.403812
386.851856	2477.772486
387.236344	2478.480768
387.620770	2477.931282
388.005133	2479.899853
388.389435	2479.249544
388.773674	2478.463124
389.157851	2484.320945
389.541965	2480.167034
389.926018	2482.022178
390.310008	2486.410503
390.693936	2482.637199
391.077802	2486.518888
391.461606	2486.375215
391.845348	2486.869248
392.229027	2488.971409
392.612645	2484.056284
392.996200	2489.515854
393.379694	2489.457880
393.763125	2491.829743
394.146494	2493.689929
394.529801	2492.036431
394.913047	2494.854436
395.296230	2495.517347
395.679351	2496.969200
396.062410	2495.003150
396.445408	2497.564056
396.828343	2497.405259
397.211217	2495.600526
397.594028	2500.876094
397.976778	2497.649755
398.359466	2501.763337
398.742092	2504.477998
399.124656	2505.861795
399.507158	2506.416322
399.889598	2509.667866
400.271977	2511.177692
400.654294	2511.651560
401.036549	2514.174658
401.418742	2517.784124
401.800874	2519.288908
402.182944	2520.677746
402.564952	2523.510875
402.946898	2522.858045
403.328783	2526.414579
403.710606	2529.522451
404.092367	2536.212062
404.474067	2537.900848
404.855705	2544.305634
405.237282	2547.751263
405.618797	2556.144784
406.000250	2563.209961
406.381642	2573.783781
406.762972	2583.311562
407.144240	2590.621235
407.525447	2606.205962
407.906593	2613.308948
408.287677	2629.624642
408.668700	2650.691624
409.049661	2667.095539
409.430560	2691.245187
409.811399	2715.566233
410.192176	2742.155799
410.572891	2772.669903
410.953545	2817.410144
411.334138	2835.805314
411.714669	2894.388563
412.095139	2910.220307
412.475547	2975.742704
412.855894	3015.711492
413.236180	3083.656164
413.616405	3124.280302
413.996568	3203.128989
414.376670	3265.427568
414.756711	3324.398986
415.136691	3423.024120
415.516609	3511.302286
415.896466	3599.340996
416.276262	3718.171075
416.655997	3857.601828
417.035670	3962.954382
417.415283	4151.261643
417.794834	4264.128036
418.174324	4345.550233
418.553753	4440.316363
418.933121	4638.295078
419.312428	4729.602977
419.691674	4840.188248
420.070859	5060.940375
420.449983	5126.084686
420.829045	5382.076998
421.208047	5462.984997
421.586988	5716.522268
421.965867	5933.543941
422.344686	6091.107725
422.723444	6407.051960
423.102141	6186.514082
423.480777	6690.866401
423.859352	6707.282919
424.237866	7227.368679
424.616319	7317.524674
424.994712	7716.582413
425.373044	7831.301430
425.751314	8268.172863
426.129524	8121.296326
426.507673	8734.950942
426.885762	8812.667890
427.263789	9079.952388
427.641756	9348.928193
428.019662	9563.252848
428.397508	9775.866032
428.775292	10108.425910
429.153016	10294.197471
429.530679	10524.610969
429.908282	10731.646116
430.285824	10761.477144
430.663305	11338.538025
431.040726	11316.041876
431.418086	11398.305945
431.795385	11939.879623
432.172624	12380.897406
432.549802	12309.859986
432.926920	12611.179834
433.303977	12721.235784
433.680974	13066.955594
434.057910	13441.961988
434.434786	13640.228048
434.811601	13759.569804
435.188355	14634.923319
435.565050	14577.681017
435.941683	14700.947311
436.318257	15494.130019
436.694770	15529.271902
437.071222	16135.984850
437.447614	15607.172853
437.823946	15766.004487
438.200218	16048.430090
438.576429	16016.617889
438.952580	16370.998401
439.328670	16480.484701
439.704700	16950.627750
440.080670	16732.897795
440.456580	17348.034511
440.832429	17630.208056
441.208218	16907.057057
441.583947	17385.563380
441.959616	17592.684227
442.335224	17916.059123
442.710773	18138.545407
443.086261	18707.404330
443.461689	18244.578516
443.837057	18458.230178
444.212365	19110.048850
444.587612	19210.085507
444.962800	18920.168749
445.337927	19372.934941
445.712995	18301.092372
446.088002	20047.670698
446.462949	20301.376847
446.837837	20522.383553
447.212664	20555.289684
447.587431	23231.318148
447.962139	26015.267633
448.336786	28294.166600
448.711374	26915.690807
449.085901	23536.716289
449.460369	23530.959291
449.834776	23500.707327
450.209124	25896.213223
450.583412	25516.934452
450.957640	26060.844705
451.331808	24817.968389
451.705917	23560.056831
452.079965	23613.445171
452.453954	23997.543286
452.827883	23917.734258
453.201752	23759.373972
453.575562	23934.138173
453.949311	25009.207081
454.323001	25105.341884
454.696632	24891.118052
455.070202	26390.281588
455.443713	26560.685191
455.817164	27128.019166
456.190556	27669.076126
456.563888	27153.807188
456.937160	27577.556498
457.310373	25973.317671
457.683526	26401.719966
458.056619	26392.376188
458.429653	26350.509405
458.802628	26920.177434
459.175542	27039.688068
459.548398	28321.547627
459.921194	29860.289262
460.293930	30536.900328
460.666607	32516.886598
461.039224	34249.984879
461.411782	34613.048779
461.784280	33422.368570
462.156719	32920.032713
462.529099	32354.432895
462.901419	31096.672572
463.273680	30081.623642
463.645882	30175.220225
464.018024	30162.216569
464.390106	30992.045945
464.762130	33644.383506
465.134094	37676.275667
465.505999	42914.233638
465.877845	47421.945188
466.249631	48532.841575
466.621358	46737.684170
466.993026	44581.197022
467.364634	42498.935823
467.736184	40594.125760
468.107674	39347.506387
468.479105	38609.584808
468.850477	37933.477857
469.221790	36535.132356
469.593043	34861.159248
469.964238	33990.902339
470.335373	33915.612706
470.706449	35549.680040
471.077467	38054.798265
471.448425	42574.129674
471.819324	45408.140337
472.190164	43608.004793
472.560945	40104.375143
472.931667	37064.869405
473.302330	35983.012584
473.672934	35174.852608
474.043479	35675.028331
474.413965	34908.596506
474.784393	34536.947521
475.154761	35415.907982
475.525070	35451.100277
475.895321	35007.662740
476.265513	35587.309733
476.635645	36528.099946
477.005719	36356.063009
477.375734	36817.744482
477.745691	37499.550457
478.115588	38777.382134
478.485427	40726.635009
478.855207	44048.800764
479.224928	46641.002401
479.594591	48245.412627
479.964194	47206.145994
480.333739	47302.237948
480.703226	47329.525714
481.072653	47991.693875
481.442022	48478.437443
481.811333	48737.603162
482.180584	47451.267059
482.549777	46937.210519
482.918912	46404.388284
483.287988	46129.300080
483.657005	45314.483260
484.025964	44660.280123
484.394864	44672.187328
484.763706	44237.115587
485.132489	43371.529307
485.501213	43218.668919
485.869879	43352.677912
486.238487	42959.903972
486.607036	43170.576312
486.975527	42645.963595
487.343959	42835.944519
487.712333	42920.028445
488.080648	42841.222607
488.448905	43263.890590
488.817104	43077.808998
489.185244	44010.251061
489.553326	45675.462643
489.921350	48392.337056
490.289315	51307.895945
490.657222	51949.034932
491.025070	52239.438161
491.392861	51294.012607
491.760593	50022.719307
492.128267	48299.370617
492.495883	46763.807429
492.863440	45380.298044
493.230939	44063.939349
493.598380	42999.648429
493.965763	42678.239583
494.333088	41891.242371
494.700354	41430.561568
495.067563	41155.808601
495.434713	41027.891842
495.801805	41089.706471
496.168839	40728.807747
496.535815	40404.482593
496.902733	40440.925094
497.269593	40054.402185
497.636395	39968.652158
498.003139	40373.509744
498.369825	39845.698416
498.736453	40138.667592
499.103023	39675.055358
499.469535	39566.967978
499.835989	39639.847940
500.202385	39321.194084
500.568723	39343.057569
500.935003	39542.152899
501.301226	39338.765026
501.667390	39947.247419
502.033497	40180.612513
502.399546	39615.433632
502.765537	38954.803023
503.131470	39330.736989
503.497345	39665.015900
503.863163	38363.884010
504.228923	38951.619534
504.594625	39358.662460
504.960269	38660.407200
505.325856	39319.558230
505.691385	38716.487516
506.056856	38844.379068
506.422270	39267.427658
506.787625	38847.567598
507.152924	39035.970641
507.518164	39134.941094
507.883347	38376.189467
508.248472	38601.760937
508.613540	39066.278058
508.978550	39361.654385
509.343503	39109.576528
509.708398	39301.871342
510.073236	39810.669958
510.438016	39815.244805
510.802738	39283.360225
511.167403	39881.815763
511.532010	40126.160489
511.896561	40409.632132
512.261053	41216.592313
512.625488	40775.471187
512.989866	40651.993165
513.354186	40506.971772
513.718449	40496.579433
514.082655	41157.981338
514.446803	40829.953457
514.810894	41340.385408
515.174927	41258.786771
515.538904	41165.301093
515.902822	41824.502535
516.266684	41272.838987
516.630488	41676.456449
516.994235	41525.531865
517.357925	42071.594691
517.721558	42231.610996
518.085133	42526.503373
518.448651	42676.802854
518.812112	42461.099443
519.175516	42555.817682
519.538863	42894.298396
519.902152	42855.017725
520.265385	43300.703616
520.628560	43338.759286
520.991678	43126.357831
521.354739	43370.637023
521.717743	43664.679965
522.080690	43564.580293
522.443580	44117.370539
522.806413	44165.601778
523.169189	44099.320688
523.531908	44280.431701
523.894569	44132.998116
524.257174	44296.646572
524.619722	44618.791427
524.982213	44577.169140
525.344647	44508.957287
525.707025	44551.033278
526.069345	44945.949708
526.431608	44873.788112
526.793815	45170.578483
527.155964	44715.846241
527.518057	44883.449483
527.880093	44686.806674
528.242072	45194.251741
528.603995	44909.529892
528.965860	44901.269962
529.327669	44981.431870
529.689421	44904.975210
530.051117	44874.506476
530.412755	44999.453995
530.774337	45073.594244
531.135862	44861.681781
531.497331	45086.749135
531.858743	45002.256876
532.220098	45333.664851
532.581396	45042.061827
532.942638	44725.681532
533.303824	45003.456671
533.664953	44979.866592
534.026025	44708.471033
534.387040	45171.498493
534.747999	45126.299508
535.108902	45273.463392
535.469748	44822.388507
535.830537	44933.394715
536.191270	45133.263862
536.551947	44785.204956
536.912567	45092.826246
537.273131	45199.572679
537.633638	44715.778186
537.994089	45050.462910
538.354483	44656.693342
538.714821	45218.482047
539.075103	45562.583647
539.435328	45336.808010
539.795497	45227.241052
540.155609	45234.515437
540.515665	45675.417273
540.875665	45151.399413
541.235609	45472.233567
541.595496	45451.690865
541.955328	46115.593183
542.315102	45487.586401
542.674821	45299.619418
543.034483	45316.968549
543.394090	45300.105890
543.753640	45255.380773
544.113134	46246.910199
544.472571	45294.600950
544.831953	46507.855446
545.191278	45745.620381
545.550548	45472.997302
545.909761	45910.808911
546.268918	46123.071734
546.628019	46445.330015
546.987064	45994.292939
547.346053	45291.407379
547.704986	46160.093968
548.063863	45735.031438
548.422684	45937.640452
548.781449	45782.647656
549.140158	46194.056222
549.498811	46029.848197
549.857408	45487.296535
550.215949	46305.203582
550.574434	46246.264932
550.932864	46039.335648
551.291237	46731.052532
551.649555	46358.755759
552.007817	46592.506501
552.366022	46248.714932
552.724173	46434.824250
553.082267	46820.792632
553.440305	47112.572097
553.798288	46452.143134
554.156215	46759.373735
554.514086	46956.407233
554.871902	46712.896817
555.229661	46732.338027
555.587365	46546.740386
555.945014	46649.925243
556.302606	46589.242354
556.660143	46819.555029
557.017625	46901.148625
557.375050	46690.748507
557.732421	47035.160138
558.089735	47013.825975
558.446994	46947.015563
558.804197	47404.326355
559.161345	47348.777881
559.518437	46635.167266
559.875474	46919.107735
560.232455	47058.888849
560.589381	47239.324348
560.946251	46945.601519
561.303065	47604.109802
561.659825	47440.209288
562.016528	47109.640666
562.373177	46831.845362
562.729770	47304.448494
563.086307	46836.321907
563.442789	47282.229609
563.799216	47330.382710
564.155587	47125.621123
564.511904	47145.321952
564.868164	47245.030934
565.224370	47496.493771
565.580520	47222.363386
565.936615	47430.121939
566.292654	47145.223650
566.648638	47381.545381
567.004567	47351.459774
567.360441	47374.432312
567.716260	47227.396978
568.072023	47539.908188
568.427732	47514.357099
568.783385	47069.588698
569.138982	47461.989593
569.494525	47443.528888
569.850013	47194.228707
570.205445	47160.105136
570.560823	47124.174312
570.916145	46979.261304
571.271412	47023.462141
571.626625	46774.156918
571.981782	46834.272678
572.336884	46533.943417
572.691931	46847.881273
573.046923	46456.274360
573.401860	46312.099880
573.756743	46292.552806
574.111570	46407.438182
574.466342	46254.287928
574.821059	46373.604478
575.175722	45888.466517
575.530330	45924.563699
575.884882	45632.756508
576.239380	45596.477845
576.593823	45570.775522
576.948211	45488.571947
577.302544	45024.430392
577.656823	45063.174179
578.011047	45281.549402
578.365216	45001.485580
578.719330	44806.392926
579.073389	44664.963355
579.427394	44745.679790
579.781344	44698.252614
580.135239	44363.502355
580.489080	44444.942195
580.842866	43939.566522
581.196597	44394.258434
581.550273	44337.084188
581.903895	44207.811359
582.257463	44622.418537
582.610975	44024.633473
582.964434	44310.991176
583.317837	43954.906753
583.671186	43780.858396
584.024481	43997.562477
584.377721	43550.644023
584.730906	43825.308770
585.084037	43843.320813
585.437113	43561.671547
585.790135	43607.788023
586.143103	43212.425450
586.496016	43334.176877
586.848874	43364.007905
587.201679	43364.607802
587.554428	42858.627191
587.907124	43061.097573
588.259765	42813.009790
588.612352	43063.222420
588.964884	42456.229688
589.317362	42741.964809
589.669786	42681.473483
590.022155	42444.955148
590.374470	42870.229407
590.726731	42392.174267
591.078937	41920.791094
591.431090	42015.310208
591.783188	41660.352483
592.135232	41356.338139
592.487222	41609.439350
592.839157	41688.257791
593.191038	41365.180323
593.542866	41129.942440
593.894639	40549.060365
594.246358	40815.069451
594.598022	40802.469087
594.949633	40404.888406
595.301190	40363.956758
595.652692	40195.642713
596.004141	40515.985355
596.355535	39545.104494
596.706876	39499.940797
597.058162	39329.196916
597.409395	39791.982401
597.760573	39866.223474
598.111698	39456.125608
598.462768	39466.354109
598.813785	39512.064772
599.164748	38972.338677
599.515657	39347.730718
599.866511	38832.749127
600.217312	39436.621384
600.568060	38410.988552
600.918753	39147.765789
601.269392	39112.197928
601.619978	38765.442161
601.970510	38965.734765
602.320988	39150.896346
602.671412	39460.639962
603.021783	39194.940907
603.372100	38848.893422
603.722363	38949.053587
604.072572	39041.042042
604.422728	39040.981548
604.772830	38859.159732
605.122878	38960.096234
605.472872	38900.857636
605.822813	39156.086214
606.172701	39000.100311
606.522534	39237.102597
606.872314	39484.164506
607.222041	39255.631358
607.571714	39648.367490
607.921333	39090.919218
608.270899	39393.748891
608.620411	39724.095703
608.969870	39513.516624
609.319276	39514.590390
609.668627	39558.639992
610.017926	40050.139889
610.367171	40206.425741
610.716362	40298.010903
611.065500	40243.735321
611.414585	40442.273603
611.763616	40725.094937
612.112594	40639.876752
612.461518	40868.326720
612.810389	41127.724333
613.159207	41016.632425
613.507971	41087.231264
613.856682	41544.418548
614.205340	41441.788217
614.553945	42149.399859
614.902496	41598.996600
615.250994	42052.561814
615.599439	42129.225162
615.947830	42342.415558
616.296169	42380.254458
616.644454	42513.968544
616.992686	42680.581199
617.340864	43198.408522
617.688990	42925.866101
618.037063	43521.836350
618.385082	43488.456350
618.733048	43806.739680
619.080961	43801.070902
619.428821	43813.144466
619.776628	43917.098099
620.124382	43740.937499
620.472083	43872.559505
620.819731	43996.029966
621.167326	43658.481866
621.514868	43634.314574
621.862357	43197.934653
622.209793	43225.688726
622.557176	42884.498392
622.904506	42647.428051
623.251783	42303.170175
623.599007	42082.952410
623.946179	41856.460930
624.293297	41822.866681
624.640363	41226.480537
624.987376	41227.811401
625.334336	40981.183032
625.681243	40637.615794
626.028097	40607.184869
626.374899	40459.673146
626.721647	40429.927817
627.068343	40312.274848
627.414987	40087.883008
627.761577	39858.162669
628.108115	40202.617149
628.454600	39666.175366
628.801032	39826.720992
629.147412	39802.510851
629.493739	39816.847892
629.840014	39478.868774
630.186236	39796.537083
630.532405	39417.827963
630.878521	39638.378443
631.224585	39519.598776
631.570597	39211.440603
631.916556	39387.066842
632.262462	39342.172846
632.608316	39364.346361
632.954117	39249.387889
633.299866	39237.642001
633.645562	39154.142849
633.991206	38653.427723
634.336797	38241.767099
634.682336	38244.454034
635.027823	37994.581682
635.373257	37792.383522
635.718639	37574.066272
636.063968	37423.156812
636.409245	36874.941413
636.754470	36914.776611
637.099642	36664.067427
637.444762	36203.840328
637.789829	36348.196289
638.134845	36005.334813
638.479808	35951.520496
638.824719	35858.733018
639.169577	35470.791024
639.514383	35532.376280
639.859137	35243.051857
640.203839	35481.594216
640.548489	35101.282008
640.893086	35190.306265
641.237632	34943.451043
641.582125	35052.287034
641.926566	34992.766131
642.270955	34952.121828
642.615292	34972.175538
642.959576	34953.858505
643.303809	34952.709122
643.647990	35086.713074
643.992118	35050.162188
644.336195	35060.204166
644.680219	35145.883617
645.024192	35462.896577
645.368112	35967.402651
645.711981	35987.259756
646.055797	36849.851590
646.399562	36785.886910
646.743274	37714.036430
647.086935	38164.027466
647.430544	38042.114722
647.774101	38158.237701
648.117606	38412.977287
648.461059	38701.512768
648.804460	38311.685383
649.147810	37701.196611
649.491108	37437.970242
649.834354	37094.014836
650.177548	36262.917610
650.520690	35812.634187
650.863781	35825.239592
651.206820	35678.138722
651.549807	35253.103918
651.892742	34761.848517
652.235626	34591.361735
652.578458	34456.715037
652.921238	33847.902448
653.263967	34179.993499
653.606644	33863.963564
653.949269	33829.996270
654.291843	33407.045983
654.634365	33818.951102
654.976836	33425.756225
655.319255	33418.131480
655.661622	33412.306427
656.003938	33192.665874
656.346203	33049.169430
656.688416	33274.095632
657.030577	33084.989349
657.372687	32916.713113
657.714746	33186.558516
658.056753	33317.043742
658.398708	32779.127421
658.740612	32820.094358
659.082465	33092.520832
659.424266	32918.190171
659.766016	33041.068296
660.107715	32915.364604
660.449362	33037.620147
660.790958	33024.039278
661.132503	33049.424008
661.473996	33080.485078
661.815438	33184.915100
662.156829	33381.457086
662.498168	33164.037162
662.839456	33179.463092
663.180693	33328.217460
663.521879	33487.217973
663.863013	33445.973773
664.204097	33444.867239
664.545129	33903.234153
664.886110	33878.232550
665.227040	33942.177066
665.567918	34065.884461
665.908746	34125.871671
666.249522	34285.333450
666.590248	34278.963952
666.930922	34400.735544
667.271545	34353.658728
667.612118	34456.669666
667.952639	34234.571551
668.293109	34274.053868
668.633528	34178.150957
668.973896	34084.662759
669.314213	34131.951303
669.654480	33872.115110
669.994695	33882.507449
670.334859	33781.873415
670.674973	33699.074984
671.015035	33850.407902
671.355047	33803.023576
671.695008	33730.267123
672.034918	33646.757889
672.374777	33736.293823
672.714585	33567.248811
673.054342	33791.653254
673.394049	33564.166145
673.733705	33830.220601
674.073310	33500.801362
674.412864	33578.465378
674.752368	33169.176618
675.091820	33459.862152
675.431223	33039.508059
675.770574	32770.635598
676.109875	32648.226300
676.449125	32364.449668
676.788324	32281.252985
677.127473	31748.408065
677.466571	31673.776303
677.805619	31332.964056
678.144616	31323.237149
678.483562	31245.926014
678.822458	30935.824476
679.161303	30859.450996
679.500098	30762.267632
679.838842	30649.988533
680.177535	30800.388837
680.516179	31084.815778
680.854771	31329.805773
681.193314	32192.102700
681.531805	33324.106399
681.870247	34102.248824
682.208638	34835.151935
682.546978	35063.564095
682.885268	35139.405734
683.223508	34611.536433
683.561697	34270.772077
683.899836	34085.890280
684.237925	33577.348762
684.575963	33435.374747
684.913951	32970.769405
685.251889	33124.270019
685.589776	33118.006386
685.927614	33123.559217
686.265401	33255.350102
686.603137	33364.135681
686.940824	33886.328643
687.278460	34260.813278
687.616046	34401.952982
687.953582	35010.016959
688.291068	34880.108945
688.628504	35158.380637
688.965889	35066.830763
689.303224	34678.979510
689.640510	34329.599822
689.977745	33603.325828
690.314930	32809.124807
690.652065	32260.924532
690.989150	31530.017718
691.326185	30647.054581
691.663170	29939.281622
692.000105	29183.166519
692.336990	28494.514656
692.673825	28039.588330
693.010610	27539.639459
693.347345	26950.232793
693.684030	26312.922562
694.020665	26033.425869
694.357251	25359.456368
694.693786	25322.048485
695.030272	25069.925258
695.366707	24543.583426
695.703093	24257.003912
696.039429	24246.969496
696.375716	23995.085723
696.711952	23960.354694
697.048139	23800.895436
697.384276	23634.171875
697.720363	23742.428133
698.056400	23544.656106
698.392388	23336.884951
698.728326	23285.997023
699.064214	23080.842226
699.400053	23030.730636
699.735842	22664.994925
700.071581	22388.424622
700.407270	22104.552208
700.742910	21925.404723
701.078501	21648.584883
701.414042	21363.706759
701.749533	21073.016184
702.084974	20719.167513
702.420366	20936.305133
702.755709	20481.459466
703.091002	20194.766526
703.426246	20215.795699
703.761440	20108.809812
704.096584	19837.023564
704.431679	19799.179622
704.766725	19710.833401
705.101721	19647.319903
705.436668	19739.623430
705.771565	19423.868238
706.106413	19762.729559
706.441212	19748.112733
706.775961	19876.866323
707.110661	19942.902918
707.445311	20305.732404
707.779913	20143.631582
708.114465	20392.094931
708.448967	20676.862150
708.783421	21381.769213
709.117825	21641.769243
709.452180	21870.682998
709.786485	22269.526488
710.120742	23076.146391
710.454949	23093.223300
710.789107	23558.095823
711.123216	24261.578759
711.457275	24390.939808
711.791286	24910.176134
712.125247	24986.819316
712.459159	24681.337996
712.793023	25334.737070
713.126837	24229.270004
713.460602	24487.946732
713.794318	24102.033802
714.127985	23712.644997
714.461602	22812.322646
714.795171	22764.038474
715.128691	21758.172006
715.462162	21212.762010
715.795584	20791.492948
716.128957	20530.562825
716.462281	20128.412338
716.795556	19891.052130
717.128782	19398.178518
717.461960	18853.217185
717.795088	18791.430283
718.128167	18372.480151
718.461198	17914.309843
718.794180	17786.090615
719.127113	17419.008916
719.459997	17220.838637
719.792833	16887.162144
720.125619	16850.676793
720.458357	16535.902105
720.791046	16365.548914
721.123686	16205.590582
721.456278	15966.103007
721.788821	15927.258396
722.121315	15678.248081
722.453761	15735.177831
722.786158	15672.304561
723.118506	15678.202711
723.450805	15544.597010
723.783056	15707.698502
724.115259	15605.577328
724.447412	15537.602409
724.779518	15777.158040
725.111574	15808.317412
725.443582	15997.879920
725.775542	15984.956922
726.107453	16456.955116
726.439315	16335.004563
726.771129	16733.560707
727.102895	17105.628107
727.434612	17326.342426
727.766281	17441.565558
728.097901	17687.891459
728.429473	17733.292090
728.760996	17720.243064
729.092471	17799.626113
729.423897	17672.589036
729.755276	17536.238428
730.086606	17648.562897
730.417887	18177.669802
730.749120	18690.803811
731.080305	18868.025574
731.411442	19202.685093
731.742530	19267.156409
732.073570	19368.589466
732.404562	19660.152160
732.735506	19456.227405
733.066401	19175.271298
733.397249	18654.056320
733.728048	18008.672681
734.058798	17176.297523
734.389501	16503.716859
734.720156	16039.237546
735.050762	15526.829463
735.381320	15169.325956
735.711831	14929.767805
736.042293	14591.168624
736.372707	14597.732207
736.703073	14379.712385
737.033391	14584.509260
737.363661	14548.674218
737.693883	14639.084792
738.024056	14820.155476
738.354182	15014.277708
738.684260	15294.066787
739.014290	15518.342681
739.344272	15704.870414
739.674207	15987.603528
740.004093	16099.512102
740.333931	16085.585915
740.663722	16122.504805
740.993464	16108.732373
741.323159	15938.686692
741.652806	15654.466438
741.982405	15437.694302
742.311956	15105.986379
742.641460	14988.804757
742.970915	14675.819680
743.300323	14346.435729
743.629683	14135.392864
743.958996	13859.654352
744.288260	13588.989760
744.617477	13293.928505
744.946647	13210.827605
745.275768	12940.493209
745.604842	12757.428748
745.933869	12581.943662
746.262847	12543.557796
746.591778	12468.961322
746.920662	12369.388452
747.249498	12360.097605
747.578286	12484.157881
747.907027	12629.844706
748.235720	12859.343235
748.564365	12876.175648
748.892963	12780.229887
749.221514	12841.416892
749.550017	12689.413501
749.878473	12655.476453
750.206881	12437.806992
750.535242	12340.971467
750.863555	12254.248498
751.191821	12162.466730
751.520039	12183.211078
751.848210	12084.916140
752.176334	12120.723456
752.504411	12027.303313
752.832440	11872.255065
753.160421	11935.274529
753.488356	11816.711632
753.816243	11710.517206
754.144082	11577.080384
754.471875	11521.040397
754.799620	11467.548714
755.127318	11442.637852
755.454969	11401.834753
755.782572	11349.762154
756.110129	11365.924093
756.437638	11289.835438
756.765100	11276.952769
757.092515	11276.930084
757.419882	11299.554782
757.747203	11303.721296
758.074477	11372.275947
758.401703	11329.980666
758.728882	11490.410346
759.056014	11531.997345
759.383099	11652.841364
759.710138	11749.886097
760.037129	11834.547234
760.364073	11851.208248
760.690970	11833.415495
761.017820	11840.382370
761.344623	12023.585462
761.671379	12338.922238
761.998088	12975.269609
762.324751	14532.406415
762.651366	17402.433602
762.977935	21073.303530
763.304456	23284.255304
763.630931	23744.222784
763.957359	22557.131877
764.283740	20636.570728
764.610074	18757.750334
764.936362	16627.671270
765.262602	15117.691938
765.588796	13648.931600
765.914943	12612.881223
766.241044	11778.149326
766.567097	11145.522327
766.893104	10595.978584
767.219064	10238.003729
767.544978	9858.276295
767.870845	9542.206031
768.196665	9356.857928
768.522438	9160.018514
768.848165	8995.409717
769.173846	8831.146240
769.499479	8711.718785
769.825066	8554.994353
770.150607	8367.256742
770.476101	8306.926734
770.801548	8196.858181
771.126949	8058.274341
771.452303	7970.008778
771.777611	7809.800909
772.102872	7789.641335
772.428087	7666.420411
772.753256	7541.644292
773.078378	7454.162628
773.403453	7314.189951
773.728482	7213.500464
774.053465	7146.377501
774.378401	7056.130765
774.703291	6970.284956
775.028135	6867.185798
775.352932	6837.092630
775.677683	6754.170691
776.002388	6663.949160
776.327046	6662.126783
776.651658	6576.598567
776.976224	6505.220870
777.300743	6483.007025
777.625216	6419.513692
777.949643	6374.541559
778.274024	6376.767228
778.598359	6315.242466
778.922647	6312.863042
779.246889	6279.810717
779.571086	6285.567714
779.895236	6299.161186
780.219339	6291.848992
780.543397	6286.707015
780.867409	6337.668039
781.191374	6337.872206
781.515294	6306.859027
781.839167	6351.163208
782.162995	6324.674465
782.486776	6279.049502
782.810511	6234.934365
783.134201	6156.546943
783.457844	6149.736344
783.781441	6104.557524
784.104993	6058.743518
784.428498	6032.327871
784.751958	6012.117886
785.075372	5993.198435
785.398739	5947.838133
785.722061	5973.600950
786.045337	5971.569365
786.368568	6082.873000
786.691752	6106.412668
787.014891	6354.883580
787.337983	6632.686445
787.661030	7071.281953
787.984031	7496.616706
788.306987	7760.667303
788.629897	7846.548400
788.952760	7759.344000
789.275579	7576.995383
789.598351	7284.258100
789.921078	7016.086359
790.243759	6738.772486
790.566395	6532.773296
790.888984	6338.830025
791.211529	6203.578388
791.534027	6040.003028
791.856480	5902.651750
792.178888	5840.756463
792.501249	5774.172903
792.823566	5665.513353
793.145836	5667.096275
793.468062	5648.186907
793.790241	5607.282985
794.112375	5651.178832
794.434464	5745.639973
794.756507	5772.300115
795.078505	5902.361884
795.400457	6116.696622
795.722364	6356.479105
796.044226	6547.876593
796.366042	6705.644544
796.687812	6650.658158
797.009538	6678.823085
797.331218	6588.258756
797.652852	6517.092787
797.974442	6397.277163
798.295986	6326.219579
798.617484	6199.432039
798.938938	6091.430359
799.260346	6016.324728
799.581709	5883.974275
799.903026	5835.526266
800.224299	5757.947950
800.545526	5641.134333
800.866708	5576.272327
801.187845	5528.605697
801.508936	5451.244150
801.829983	5423.853040
802.150984	5314.311288
802.471940	5293.148524
802.792851	5274.181183
803.113717	5252.297534
803.434538	5228.246189
803.755314	5198.883988
804.076045	5186.003840
804.396731	5150.544364
804.717372	5164.440305
805.037967	5164.946941
805.358518	5198.417682
805.679024	5254.311475
805.999485	5261.472434
806.319901	5283.658552
806.640272	5300.402744
806.960598	5350.020301
807.280879	5341.140309
807.601115	5376.927460
807.921306	5336.699052
808.241453	5333.621428
808.561554	5344.964024
808.881611	5308.133354
809.201623	5311.016894
809.521590	5258.573770
809.841513	5241.983333
810.161390	5255.123101
810.481223	5164.412578
810.801011	5152.046628
811.120755	5134.503412
811.440453	5074.649793
811.760107	5048.813879
812.079716	5021.972256
812.399281	4970.257579
812.718801	4962.615190
813.038276	4927.927010
813.357707	4894.612545
813.677093	4917.388478
813.996434	4859.858830
814.315731	4872.025655
814.634983	4875.325090
814.954191	4879.516810
815.273354	4935.453453
815.592473	4979.770236
815.911547	5054.959046
816.230577	5107.702118
816.549562	5194.520870
816.868502	5247.301750
817.187399	5302.499864
817.506250	5383.314602
817.825058	5409.286626
818.143821	5562.212549
818.462539	5729.740173
818.781213	5961.350946
819.099843	6324.240926
819.418429	6955.204344
819.736970	7574.646205
820.055466	8295.538767
820.373919	9203.284217
820.692327	10658.473768
821.010691	13360.411242
821.329011	19616.468042
821.647286	29239.181300
821.965517	39626.269592
822.283704	45093.862203
822.601847	46572.379694
822.919945	41942.888992
823.237999	36798.232696
823.556010	31561.451833
823.873976	26852.953647
824.191897	22621.182257
824.509775	19547.207629
824.827609	16775.359434
825.145398	15207.101843
825.463144	14463.486280
825.780845	14760.143060
826.098502	16025.024013
826.416116	18496.240478
826.733685	20790.010848
827.051210	21313.282618
827.368692	19875.175016
827.686129	17300.325031
828.003522	14816.611545
828.320872	12576.549628
828.638177	10933.297311
828.955439	9680.638636
829.272656	8627.523954
829.589830	7772.655167
829.906960	7043.240534
830.224046	6509.034503
830.541088	6104.605415
830.858086	5841.293346
831.175041	5639.947141
831.491952	5583.350107
831.808819	5616.596517
832.125642	5863.426532
832.442421	6419.531337
832.759157	7531.009978
833.075849	9311.611051
833.392497	11164.716520
833.709101	12283.701439
834.025662	12024.399609
834.342179	10959.506270
834.658653	9652.440942
834.975083	8544.407930
835.291469	7637.123746
835.607811	6899.691158
835.924110	6375.532146
836.240366	5892.970214
836.556578	5435.775369
836.872746	5085.266463
837.188871	4806.881345
837.504952	4588.012089
837.820990	4423.047891
838.136984	4303.953152
838.452935	4260.052263
838.768842	4288.123929
839.084706	4576.198145
839.400526	5315.498480
839.716303	6225.315843
840.032037	6788.180835
840.347727	6634.649974
840.663373	6039.319952
840.978977	5459.516683
841.294537	5015.282645
841.610054	4679.561963
841.925527	4441.748051
842.240957	4236.535281
842.556344	4053.609452
842.871687	3898.566245
843.186987	3743.898603
843.502244	3629.540028
843.817458	3538.554763
844.132629	3469.107828
844.447756	3419.664191
844.762840	3376.058210
845.077881	3335.502128
845.392879	3303.102632
845.707833	3277.387706
846.022745	3251.516504
846.337613	3236.521592
846.652438	3212.472768
846.967221	3202.690409
847.281960	3185.169879
847.596656	3176.700740
847.911309	3166.779749
848.225919	3151.212666
848.540485	3139.733959
848.855009	3132.431848
849.169490	3121.870630
849.483928	3117.260495
849.798323	3111.836214
850.112675	3098.792228
850.426984	3102.903289
850.741251	3094.136722
851.055474	3090.870055
851.369654	3091.963985
851.683792	3086.360743
851.997887	3090.242431
852.311938	3091.860642
852.625947	3094.834922
852.939914	3082.484095
853.253837	3090.088676
853.567718	3088.563727
853.881555	3083.262954
854.195350	3088.167996
854.509103	3084.021647
854.822812	3082.451328
855.136479	3077.589135
855.450103	3084.833273
855.763685	3073.815831
856.077224	3081.236410
856.390720	3084.006524
856.704173	3097.983123
857.017584	3102.099225
857.330953	3105.557457
857.644278	3116.194291
857.957561	3117.371401
858.270802	3114.818056
858.584000	3118.505660
858.897155	3109.875205
859.210268	3097.206785
859.523339	3085.982656
859.836367	3086.088520
860.149352	3078.730956
860.462295	3077.624423
860.775195	3066.062537
861.088054	3064.119172
861.400869	3060.257648
861.713642	3061.386867
862.026373	3072.061510
862.339062	3072.613516
862.651708	3083.966195
862.964312	3099.162753
863.276873	3106.278342
863.589392	3135.295223
863.901869	3163.457629
864.214303	3184.416226
864.526696	3205.762992
864.839045	3222.176989
865.151353	3234.757188
865.463619	3235.742734
865.775842	3236.819020
866.088023	3241.837489
866.400162	3233.917836
866.712258	3236.095615
867.024313	3233.945563
867.336325	3231.601426
867.648296	3235.268866
867.960224	3229.829461
868.272110	3234.434555
868.583954	3233.932960
868.895755	3242.709609
869.207515	3239.490832
869.519233	3256.892895
869.830909	3265.210799
870.142542	3276.321502
870.454134	3283.051442
870.765684	3296.496200
871.077191	3312.587563
871.388657	3324.986281
871.700081	3346.186853
872.011463	3363.281406
872.322803	3383.808984
872.634101	3397.422620
872.945357	3423.046805
873.256571	3451.098306
873.567744	3464.384267
873.878874	3470.781491
874.189963	3485.335302
874.501010	3491.432578
874.812015	3483.943944
875.122979	3502.573528
875.433900	3498.147395
875.744780	3498.792662
876.055618	3510.588962
876.366415	3507.652490
876.677169	3512.779344
876.987882	3529.241232
877.298554	3550.620765
877.609183	3587.763987
877.919771	3638.467912
878.230317	3704.852346
878.540822	3808.919406
878.851285	3963.713076
879.161707	4188.626675
879.472087	4564.464859
879.782425	5195.672773
880.092722	6395.827831
880.402977	8343.855706
880.713191	10736.422610
881.023363	13148.642451
881.333494	14500.710160
881.643583	14962.492455
881.953631	14551.106575
882.263637	13702.698027
882.573602	12653.076864
882.883526	11683.852022
883.193408	10725.707637
883.503248	9792.620307
883.813048	8962.465777
884.122806	8184.613218
884.432522	7413.160404
884.742197	6750.674650
885.051831	6177.215674
885.361424	5682.403739
885.670975	5276.016163
885.980485	4950.276966
886.289954	4680.608002
886.599382	4465.617914
886.908768	4284.297693
887.218113	4118.897435
887.527417	3983.547496
887.836680	3861.118033
888.145901	3758.883433
888.455082	3684.292000
888.764221	3614.532513
889.073319	3550.582956
889.382376	3520.053729
889.691392	3495.341992
890.000366	3489.297649
890.309300	3483.003768
890.618193	3487.313955
890.927044	3485.050477
891.235855	3488.932165
891.544625	3506.808097
891.853353	3534.176521
892.162041	3594.506530
892.470687	3683.591280
892.779293	3806.426555
893.087858	3979.832165
893.396381	4263.956637
893.704864	4678.011808
894.013306	5254.127473
894.321707	5828.319937
894.630068	6188.762437
894.938387	6234.455455
895.246665	6053.798146
895.554903	5725.316561
895.863100	5393.490171
896.171256	5114.076657
896.479371	4875.251994
896.787446	4647.580883
897.095480	4448.241057
897.403473	4297.389569
897.711425	4151.105367
898.019336	4030.130278
898.327207	3907.423552
898.635038	3803.948828
898.942827	3693.600491
899.250576	3607.590845
899.558284	3521.808050
899.865952	3469.710246
900.173579	3403.230029
900.481165	3356.929552
900.788711	3314.052018
901.096216	3283.684107
901.403681	3258.004469
901.711105	3242.535689
902.018489	3239.654669
902.325832	3271.918054
902.633135	3329.793021
902.940397	3506.848426
903.247619	3917.339502
903.554800	4676.990975
903.861941	5652.731507
904.169041	6364.910435
904.476101	6576.832981
904.783121	6295.481143
905.090100	5886.557867
905.397039	5469.215863
905.703938	5111.067088
906.010796	4780.838744
906.317614	4525.068242
906.624391	4283.717960
906.931129	4082.112136
907.237826	3903.846853
907.544483	3730.799165
907.851099	3556.362639
908.157675	3394.287023
908.464211	3252.872575
908.770707	3152.626710
909.077163	3070.728125
909.383578	3011.988600
909.689954	2966.388843
909.996289	2937.175356
910.302584	2916.826739
910.608839	2902.005747
910.915054	2891.197513
911.221229	2886.244579
911.527363	2890.378325
911.833458	2895.636249
912.139513	2912.309865
912.445527	2923.027358
912.751502	2958.791824
913.057436	3001.326560
913.363331	3062.798390
913.669186	3148.944147
913.975000	3268.527878
914.280775	3456.114254
914.586510	3726.821695
914.892205	4107.708594
915.197859	4612.660810
915.503475	5203.045461
915.809050	5705.086411
916.114585	5997.135576
916.420081	6062.600000
916.725536	6001.894426
917.030952	5755.792857
917.336328	5549.108069
917.641665	5336.285678
917.946961	5103.122230
918.252218	4899.278133
918.557435	4670.767670
918.862612	4474.011436
919.167750	4295.050474
919.472848	4104.134416
919.777906	3933.471194
920.082925	3774.120321
920.387904	3618.121815
920.692843	3503.773322
920.997743	3404.356727
921.302603	3310.243426
921.607423	3244.290010
921.912204	3176.355421
922.216946	3129.636528
922.521647	3076.215421
922.826310	3038.361396
923.130932	2997.160046
923.435516	2960.548666
923.740059	2931.776281
924.044564	2900.100190
924.349028	2876.220245
924.653454	2846.701768
924.957840	2820.641523
925.262186	2799.307360
925.566493	2776.042435
925.870761	2752.394383
926.174989	2741.381982
926.479178	2727.049982
926.783328	2707.137424
927.087438	2696.593851
927.391509	2684.837880
927.695541	2671.836744
927.999533	2663.846515
928.303486	2652.312355
928.607400	2649.171717
928.911275	2642.827424
929.215110	2635.361476
929.518906	2631.076495
929.822663	2631.331073
930.126381	2631.973820
930.430060	2634.174284
930.733699	2637.544295
931.037299	2643.611324
931.340861	2641.030253
931.644383	2644.806077
931.947866	2642.477064
932.251309	2638.401291
932.554714	2641.065541
932.858080	2635.018677
933.161407	2634.701084
933.464694	2630.763943
933.767943	2627.809827
934.071153	2624.351596
934.374323	2620.570730
934.677455	2615.607714
934.980548	2612.411623
935.283602	2610.183433
935.586617	2609.717126
935.889593	2611.037908
936.192530	2612.041098
936.495428	2619.754063
936.798287	2630.327883
937.101108	2643.966725
937.403890	2665.230312
937.706632	2690.859538
938.009336	2725.025958
938.312002	2752.845566
938.614628	2777.973197
938.917216	2799.138482
939.219765	2807.489153
939.522275	2818.980463
939.824747	2818.176399
940.127179	2811.146510
940.429573	2806.667445
940.731929	2804.167033
941.034246	2793.913326
941.336524	2793.174797
941.638763	2784.408230
941.940964	2780.491254
942.243126	2761.092894
942.545250	2752.598549
942.847335	2738.105232
943.149381	2724.753736
943.451389	2711.951726
943.753359	2697.370188
944.055290	2690.146215
944.357182	2681.956861
944.659036	2676.653567
944.960851	2672.139213
945.262628	2670.140396
945.564367	2668.935560
945.866067	2667.589572
946.167729	2663.904489
946.469352	2666.112514
946.770937	2659.311997
947.072484	2653.338230
947.373992	2653.376039
947.675462	2654.049033
947.976893	2646.018475
948.278286	2642.766931
948.579641	2639.338946
948.880958	2639.916158
949.182236	2635.313585
949.483476	2633.897020
949.784678	2633.208903
950.085841	2630.252266
950.386967	2635.764768
950.688054	2643.455048
950.989103	2651.359577
951.290114	2658.923829
951.591087	2670.616785
951.892021	2682.720595
952.192917	2692.369364
952.493776	2707.182794
952.794596	2705.410829
953.095378	2711.883670
953.396122	2708.380068
953.696828	2707.059286
953.997496	2701.773636
954.298126	2690.922553
954.598718	2684.721933
954.899272	2672.328257
955.199788	2662.984478
955.500266	2649.043167
955.800706	2633.607154
956.101108	2620.283384
956.401472	2607.695623
956.701798	2589.076122
957.002087	2577.040367
957.302337	2566.907647
957.602550	2556.389280
957.902724	2542.425284
958.202861	2536.743903
958.502960	2526.263345
958.803022	2521.602798
959.103045	2510.648371
959.403031	2507.021260
959.702979	2501.849037
960.002889	2491.769249
960.302762	2493.092552
960.602596	2484.414206
960.902393	2481.749956
961.202153	2479.355408
961.501875	2477.908597
961.801559	2471.965077
962.101205	2469.305868
962.400814	2471.264356
962.700385	2468.297637
962.999918	2465.114148
963.299414	2463.942080
963.598873	2463.143057
963.898293	2463.400156
964.197677	2460.884620
964.497022	2461.683643
964.796331	2457.988477
965.095601	2457.300360
965.394835	2457.237346
965.694030	2455.906481
965.993189	2456.408076
966.292309	2456.093004
966.591393	2455.510750
966.890439	2456.473611
967.189447	2453.093517
967.488419	2453.118723
967.787353	2456.337500
968.086249	2452.922118
968.385108	2456.917232
968.683930	2456.314814
968.982714	2459.704990
969.281462	2460.448561
969.580172	2463.125413
969.878844	2463.160701
970.177480	2466.392081
970.476078	2468.365693
970.774639	2472.764099
971.073162	2473.691672
971.371649	2473.772330
971.670098	2472.065900
971.968510	2479.118474
972.266885	2473.890797
972.565223	2483.025368
972.863524	2484.457056
973.161788	2485.301449
973.460014	2486.765904
973.758204	2486.337406
974.056356	2486.410503
974.354471	2488.121975
974.652550	2488.303456
974.950591	2489.808241
975.248595	2485.361943
975.546563	2486.612149
975.844493	2483.708444
976.142386	2482.002014
976.440243	2479.398258
976.738062	2479.390696
977.035845	2476.696199
977.333590	2472.464151
977.631299	2473.013637
977.928971	2468.262349
978.226606	2466.991978
978.524204	2466.145064
978.821765	2468.554736
979.119290	2463.727831
979.416777	2463.823613
979.714228	2464.738582
980.011642	2464.741103
980.309020	2470.089767
980.606360	2473.568163
980.903664	2483.121150
981.200931	2495.799652
981.498162	2518.726820
981.795356	2544.600542
982.092513	2584.203846
982.389633	2629.541463
982.686717	2672.161899
982.983764	2702.915458
983.280775	2721.938252
983.577749	2721.212326
983.874686	2713.867364
984.171587	2699.305992
984.468451	2681.203208
984.765279	2662.412307
985.062070	2643.906231
985.358824	2623.638272
985.655543	2602.180601
985.952224	2579.954154
986.248869	2551.544731
986.545478	2523.682274
986.842050	2503.043790
987.138586	2484.953609
987.435086	2472.272587
987.731549	2460.274641
988.027975	2455.707355
988.324366	2449.479010
988.620719	2446.610593
988.917037	2442.665890
989.213318	2440.982145
989.509563	2435.585590
989.805772	2436.472833
990.101944	2432.936463
990.398080	2431.633325
990.694180	2433.186001
990.990244	2434.738676
991.286271	2431.867739
991.582262	2432.898655
991.878217	2432.729776
992.174136	2434.070723
992.470019	2436.293872
992.765865	2437.413008
993.061676	2440.404933
993.357450	2440.384768
993.653188	2442.738987
993.948890	2450.096551
994.244556	2455.858590
994.540186	2464.673048
994.835780	2475.128401
995.131337	2491.980978
995.426859	2505.473626
995.722345	2530.843233
996.017795	2546.690100
996.313208	2562.355486
996.608586	2574.451734
996.903928	2579.054308
997.199234	2573.554409
997.494504	2571.046435
997.789738	2567.260528
998.084936	2552.537838
998.380099	2540.108874
998.675225	2525.794517
998.970316	2516.607014
999.265371	2503.003461
999.560390	2490.196409
999.855373	2477.568319
1000.150320	2468.635394
1000.445232	2458.089301
1000.740108	2452.665019
1001.034948	2445.216714
1001.329752	2439.043821
1001.624521	2436.296392
1001.919254	2427.610484
1002.213951	2427.260124
1002.508613	2421.712334
1002.803239	2425.720052
1003.097829	2419.766449
1003.392384	2425.692325
1003.686903	2419.726120
1003.981386	2418.874165
1004.275834	2417.220666
1004.570246	2418.740574
1004.864623	2416.945923
1005.158964	2415.915007
1005.453270	2417.538259
1005.747540	2413.611200
1006.041775	2416.111612
1006.335974	2413.739750
1006.630138	2413.812846
1006.924266	2413.407033
1007.218359	2411.466189
1007.512416	2413.686818
1007.806438	2412.681107
1008.100425	2411.970305
1008.394376	2410.702454
1008.688292	2412.406364
1008.982172	2410.326888
1009.276017	2410.634399
1009.569827	2410.773031
1009.863602	2411.519121
1010.157341	2410.105078
1010.451045	2409.656415
1010.744714	2409.638771
1011.038347	2410.077351
1011.331945	2411.856879
1011.625508	2403.904458
1011.919036	2408.897721
1012.212528	2407.894532
1012.505986	2410.583987
1012.799408	2406.840931
1013.092795	2405.361352
1013.386147	2408.010478
1013.679464	2407.982752
1013.972745	2405.810015
1014.265992	2405.820097
1014.559204	2407.861764
1014.852380	2405.169788
1015.145521	2404.446383
1015.438628	2406.162895
1015.731699	2407.576939
1016.024736	2408.522155
1016.317737	2407.219017
1016.610703	2407.024933
1016.903635	2405.303379
1017.196531	2404.353121
1017.489393	2405.883111
1017.782219	2401.567884
1018.075011	2411.428381
1018.367768	2407.100550
1018.660490	2408.814542
1018.953177	2408.814542
1019.245829	2408.814542
