Dividing Wavelength (nm)	Counts (n)	Blue Motor Position (mm): 27.200000	Red Motor Position (mm): 0.000000	
326.493990	1971.098716
326.888308	1971.098716
327.282561	1971.098716
327.676750	1946.954109
328.070874	1948.927721
328.464933	1954.490634
328.858929	1961.961624
329.252859	1976.122225
329.646726	1991.033958
330.040528	2006.661535
330.434265	2024.723990
330.827938	2045.735519
331.221547	2063.046841
331.615091	2084.960737
332.008571	2106.481423
332.401986	2128.410442
332.795338	2146.954326
333.188625	2167.998623
333.581847	2186.693742
333.975006	2203.700075
334.368100	2223.141284
334.761129	2237.148130
335.154095	2253.584813
335.546996	2290.120575
335.939833	2364.706967
336.332606	2378.852444
336.725315	2392.435833
337.117960	2401.761968
337.510540	2406.213307
337.903056	2416.519946
338.295508	2423.459094
338.687896	2430.723397
339.080220	2436.702205
339.472480	2439.757145
339.864676	2444.339553
340.256807	2449.622683
340.648875	2450.101592
341.040879	2452.042437
341.432818	2455.518312
341.824694	2455.036882
342.216506	2455.246090
342.608253	2454.323559
342.999937	2452.896912
343.391557	2453.602674
343.783113	2450.179730
344.174605	2449.993207
344.566033	2444.977259
344.957397	2445.851900
345.348697	2442.696137
345.739934	2438.297731
346.131106	2441.438369
346.522215	2439.714295
346.913260	2439.323605
347.304241	2433.581731
347.695159	2435.318409
348.086012	2431.721545
348.476802	2432.069385
348.867528	2429.684919
349.258191	2430.728438
349.648789	2426.428334
350.039324	2424.142171
350.429796	2426.897161
350.820203	2421.480441
351.210548	2422.128230
351.600828	2425.180648
351.991045	2424.658889
352.381198	2422.360123
352.771288	2422.929773
353.161314	2421.029258
353.551276	2421.359454
353.941175	2420.618404
354.331010	2421.780390
354.720782	2423.945566
355.110490	2425.846081
355.500135	2425.583941
355.889717	2421.787952
356.279235	2422.269382
356.668689	2424.250555
357.058080	2426.362799
357.447408	2419.655544
357.836672	2423.640576
358.225873	2421.997160
358.615010	2422.241656
359.004084	2427.512182
359.393095	2427.454209
359.782043	2428.880855
360.170927	2429.006884
360.559748	2429.571493
360.948505	2430.436051
361.337199	2430.695671
361.725830	2431.161977
362.114398	2432.732297
362.502903	2432.797832
362.891344	2433.833789
363.279722	2432.608788
363.668037	2432.553336
364.056289	2429.838674
364.444478	2435.562905
364.832603	2437.672628
365.220665	2435.096598
365.608665	2434.184149
365.996601	2435.625919
366.384474	2435.487287
366.772284	2437.297062
367.160031	2437.957453
367.547715	2441.128338
367.935336	2433.196083
368.322893	2434.952925
368.710388	2437.622216
369.097820	2441.077927
369.485189	2437.672628
369.872495	2440.009202
370.259738	2442.365942
370.646918	2439.326126
371.034035	2441.566919
371.421090	2438.209510
371.808081	2440.465427
372.195010	2439.789912
372.581875	2443.147321
372.968678	2443.966508
373.355418	2441.196394
373.742096	2444.546241
374.128710	2443.706889
374.515262	2441.965170
374.901751	2446.232507
375.288177	2445.486416
375.674540	2445.763679
376.060841	2449.980605
376.447079	2445.456169
376.833254	2446.028340
377.219367	2443.283432
377.605417	2445.516663
377.991404	2444.432815
378.377329	2447.785182
378.763191	2444.321909
379.148991	2450.373815
379.534727	2449.562189
379.920402	2448.536314
380.306013	2450.409103
380.691563	2449.700821
381.077049	2451.102261
381.462474	2448.768207
381.847835	2452.596963
382.233134	2451.757611
382.618371	2450.814916
383.003545	2453.098558
383.388657	2449.816767
383.773706	2454.588219
384.158693	2453.219546
384.543618	2453.637962
384.928480	2454.764660
385.313280	2456.642489
385.698017	2455.750205
386.082692	2457.406224
386.467305	2456.103086
386.851856	2457.381018
387.236344	2457.093673
387.620770	2460.156174
388.005133	2459.107614
388.389435	2459.100052
388.773674	2455.722479
389.157851	2458.094342
389.541965	2462.225567
389.926018	2460.912347
390.310008	2459.072326
390.693936	2461.676082
391.077802	2459.518468
391.461606	2458.946297
391.845348	2461.116513
392.229027	2460.705659
392.612645	2464.216823
392.996200	2463.143057
393.379694	2462.023921
393.763125	2462.931329
394.146494	2467.266721
394.529801	2468.259828
394.913047	2465.673717
395.296230	2468.711012
395.679351	2466.364355
396.062410	2466.964252
396.445408	2467.198666
396.828343	2466.752523
397.211217	2461.028293
397.594028	2468.955508
397.976778	2463.001905
398.359466	2468.569859
398.742092	2465.053655
399.124656	2467.871660
399.507158	2470.218317
399.889598	2471.476085
400.271977	2471.355097
400.654294	2473.026239
401.036549	2472.537248
401.418742	2471.203862
401.800874	2473.449696
402.182944	2471.602113
402.564952	2475.120839
402.946898	2468.915178
403.328783	2475.680407
403.710606	2472.663276
404.092367	2476.613020
404.474067	2476.633185
404.855705	2477.722074
405.237282	2474.606641
405.618797	2480.451859
406.000250	2480.542600
406.381642	2478.735346
406.762972	2480.711478
407.144240	2480.252733
407.525447	2476.829790
407.906593	2480.600573
408.287677	2482.274236
408.668700	2479.859523
409.049661	2480.908083
409.430560	2483.093424
409.811399	2485.011583
410.192176	2483.756335
410.572891	2482.659884
410.953545	2485.636686
411.334138	2484.237766
411.714669	2485.908908
412.095139	2481.903711
412.475547	2484.895636
412.855894	2486.130719
413.236180	2484.157107
413.616405	2487.496872
413.996568	2483.194247
414.376670	2487.988384
414.756711	2485.994608
415.136691	2491.169352
415.516609	2488.114413
415.896466	2491.529795
416.276262	2489.825885
416.655997	2489.956955
417.035670	2485.404793
417.415283	2489.266317
417.794834	2488.361429
418.174324	2495.633294
418.553753	2490.370329
418.933121	2493.011894
419.312428	2493.924343
419.691674	2492.918632
420.070859	2495.166987
420.449983	2494.824189
420.829045	2497.722852
421.208047	2497.780825
421.586988	2498.390805
421.965867	2501.123110
422.344686	2500.354334
422.723444	2502.574963
423.102141	2499.504900
423.480777	2503.043790
423.859352	2504.314161
424.237866	2508.473113
424.616319	2503.893224
424.994712	2505.420694
425.373044	2505.650067
425.751314	2509.723319
426.129524	2507.522855
426.507673	2509.834224
426.885762	2509.874553
427.263789	2510.809688
427.641756	2510.918072
428.019662	2513.678104
428.397508	2516.309586
428.775292	2515.850841
429.153016	2518.852848
429.530679	2517.045595
429.908282	2521.411234
430.285824	2520.650020
430.663305	2521.804444
431.040726	2522.754702
431.418086	2524.579599
431.795385	2527.505989
432.172624	2527.493386
432.549802	2527.594209
432.926920	2530.833151
433.303977	2531.669982
433.680974	2530.220650
434.057910	2537.800025
434.434786	2539.990407
434.811601	2540.615510
435.188355	2546.584236
435.565050	2544.592980
435.941683	2547.128680
436.318257	2552.797458
436.694770	2550.753270
437.071222	2555.983467
437.447614	2554.455998
437.823946	2559.761812
438.200218	2567.288255
438.576429	2569.660118
438.952580	2575.923751
439.328670	2579.686972
439.704700	2585.075966
440.080670	2588.506471
440.456580	2599.854108
440.832429	2609.356683
441.208218	2613.742487
441.583947	2624.916205
441.959616	2637.456075
442.335224	2647.311531
442.710773	2661.388953
443.086261	2679.232117
443.461689	2688.671677
443.837057	2704.533668
444.212365	2726.250959
444.587612	2748.525297
444.962800	2765.471136
445.337927	2793.497431
445.712995	2801.212917
446.088002	2854.704600
446.462949	2891.689025
446.837837	2922.835794
447.212664	2961.451033
447.587431	3070.791139
447.962139	3195.804193
448.336786	3306.956594
448.711374	3313.865495
449.085901	3260.842639
449.460369	3311.276863
449.834776	3374.324053
450.209124	3546.446690
450.583412	3605.463478
450.957640	3694.868341
451.331808	3710.919375
451.705917	3728.334041
452.079965	3805.302378
452.453954	3916.048966
452.827883	4001.294878
453.201752	4079.699943
453.575562	4184.613917
453.949311	4363.796689
454.323001	4483.052745
454.696632	4579.283331
455.070202	4828.039067
455.443713	4973.521726
455.817164	5160.230941
456.190556	5348.155074
456.563888	5432.065080
456.937160	5607.003201
457.310373	5562.971242
457.683526	5753.978041
458.056619	5904.940434
458.429653	6051.963166
458.802628	6280.067815
459.175542	6471.296425
459.548398	6842.721078
459.921194	7285.130219
460.293930	7617.367464
460.666607	8186.546500
461.039224	8727.021207
461.411782	9010.152572
461.784280	8985.108119
462.156719	9090.075025
462.529099	9189.262247
462.901419	9135.591603
463.273680	9124.813616
463.645882	9361.503351
464.018024	9585.436446
464.390106	10028.402634
464.762130	10974.455812
465.134094	12360.868902
465.505999	14193.078787
465.877845	15904.986578
466.249631	16613.450175
466.621358	16367.048657
466.993026	16024.719023
467.364634	15690.735019
467.736184	15393.206119
468.107674	15298.382015
468.479105	15336.324260
468.850477	15415.006589
469.221790	15212.629468
469.593043	14872.260842
469.964238	14836.687940
470.335373	15077.455968
470.706449	16052.674742
471.077467	17422.943536
471.448425	19743.371528
471.819324	21359.061336
472.190164	20863.770491
472.560945	19585.258258
472.931667	18496.003544
473.302330	18292.542575
473.672934	18210.172641
474.043479	18751.085928
474.413965	18663.768103
474.784393	18753.795549
475.154761	19488.747888
475.525070	19800.359252
475.895321	19836.111115
476.265513	20432.303174
476.635645	21248.823904
477.005719	21443.009150
477.375734	21987.423519
477.745691	22664.165655
478.115588	23731.471186
478.485427	25199.245978
478.855207	27541.116518
479.224928	29531.827842
479.594591	30930.574115
479.964194	30612.999066
480.333739	31038.361546
480.703226	31405.160941
481.072653	32196.211240
481.442022	32883.559964
481.811333	33405.256373
482.180584	32843.263501
482.549777	32798.568631
482.918912	32739.733325
483.287988	32835.968952
483.657005	32542.656977
484.025964	32382.144118
484.394864	32692.757333
484.763706	32661.449247
485.132489	32312.041832
485.501213	32457.736220
485.869879	32841.441124
486.238487	32821.480675
486.607036	33224.664598
486.975527	33068.625763
487.343959	33473.846312
487.712333	33779.420894
488.080648	33961.890498
488.448905	34549.653749
488.817104	34644.576155
489.185244	35637.300335
489.553326	37228.215392
489.921350	39750.347511
490.289315	42558.267683
490.657222	43402.522321
491.025070	43901.901541
491.392861	43295.455775
491.760593	42364.710061
492.128267	41096.932965
492.495883	39972.853960
492.863440	38971.806835
493.230939	38009.765638
493.598380	37277.878319
493.965763	37182.877775
494.333088	36658.398650
494.700354	36424.905006
495.067563	36348.206371
495.434713	36390.582310
495.801805	36619.438092
496.168839	36440.996369
496.535815	36299.493702
496.902733	36457.697712
497.269593	36238.377273
497.636395	36307.136091
498.003139	36801.527090
498.369825	36453.160674
498.736453	36838.692996
499.103023	36541.431278
499.469535	36555.685140
499.835989	36749.426765
500.202385	36538.782151
500.568723	36675.147883
500.935003	36944.267361
501.301226	36868.766000
501.667390	37541.588639
502.033497	37861.787608
502.399546	37423.817203
502.765537	36881.958699
503.131470	37315.495409
503.497345	37714.817808
503.863163	36564.103867
504.228923	37211.985398
504.594625	37668.807197
504.960269	37050.262662
505.325856	37765.783874
505.691385	37235.056238
506.056856	37422.176307
506.422270	37883.509940
506.787625	37539.524286
507.152924	37777.945658
507.518164	37922.510826
507.883347	37232.013902
508.248472	37498.474171
508.613540	37995.804162
508.978550	38347.346505
509.343503	38135.739031
509.708398	38356.226497
510.073236	38908.835262
510.438016	38932.942059
510.802738	38449.596228
511.167403	39080.690717
511.532010	39343.095377
511.896561	39637.886931
512.261053	40470.493982
512.625488	40074.879352
512.989866	39962.527156
513.354186	39842.343528
513.718449	39852.549344
514.082655	40524.512466
514.446803	40232.687632
514.810894	40750.018401
515.174927	40692.743332
515.538904	40617.037804
515.902822	41284.105966
516.266684	40778.256425
516.630488	41179.728876
516.994235	41052.870760
517.357925	41610.492951
517.721558	41787.404684
518.085133	42109.610032
518.448651	42243.926535
518.812112	42040.004300
519.175516	42152.457319
519.538863	42489.229081
519.902152	42465.429794
520.265385	42927.554888
520.628560	42966.036535
520.991678	42766.976493
521.354739	42992.202644
521.717743	43322.678005
522.080690	43226.424734
522.443580	43769.886325
522.806413	43824.497144
523.169189	43791.512875
523.531908	43967.701202
523.894569	43845.685114
524.257174	44010.997152
524.619722	44311.190301
524.982213	44303.321060
525.344647	44238.451493
525.707025	44274.009271
526.069345	44673.402246
526.431608	44595.647489
526.793815	44912.307568
527.155964	44463.644876
527.518057	44624.046830
527.880093	44422.569554
528.242072	44951.005986
528.603995	44646.419470
528.965860	44667.400753
529.327669	44777.247495
529.689421	44678.471127
530.051117	44642.857895
530.412755	44783.236386
530.774337	44843.616806
531.135862	44653.104040
531.497331	44871.975817
531.858743	44780.161282
532.220098	45108.675634
532.581396	44837.257390
532.942638	44499.484959
533.303824	44800.772039
533.664953	44766.088901
534.026025	44508.337225
534.387040	44957.534280
534.747999	44912.453762
535.108902	45076.707157
535.469748	44596.701091
535.830537	44726.493158
536.191270	44933.772801
536.551947	44574.764510
536.912567	44879.938319
537.273131	44994.561555
537.633638	44502.736503
537.994089	44850.871026
538.354483	44462.699660
538.714821	45015.363876
539.075103	45348.584146
539.435328	45145.821376
539.795497	45011.265418
540.155609	45027.467687
540.515665	45466.398432
540.875665	44933.946721
541.235609	45253.213077
541.595496	45224.304580
541.955328	45892.265026
542.315102	45280.785668
542.674821	45064.275672
543.034483	45134.665303
543.394090	45088.228714
543.753640	45048.333023
544.113134	46023.261929
544.472571	45065.805662
544.831953	46293.997097
545.191278	45514.574218
545.550548	45245.953815
545.909761	45696.748915
546.268918	45898.274082
546.628019	46211.100363
546.987064	45772.078877
547.346053	45059.042954
547.704986	45922.310303
548.063863	45498.228277
548.422684	45695.533997
548.781449	45541.483898
549.140158	45939.331759
549.498811	45782.415763
549.857408	45235.463174
550.215949	46056.094964
550.574434	45991.432084
550.932864	45772.441840
551.291237	46467.949672
551.649555	46089.825325
552.007817	46319.802763
552.366022	45982.990672
552.724173	46154.435273
553.082267	46542.861218
553.440305	46842.605705
553.798288	46173.664754
554.156215	46485.031622
554.514086	46687.534772
554.871902	46442.174252
555.229661	46431.935669
555.587365	46284.600386
555.945014	46370.670526
556.302606	46313.458471
556.660143	46524.287087
557.017625	46618.687734
557.375050	46413.255673
557.732421	46763.691483
558.089735	46746.821262
558.446994	46655.989752
558.804197	47113.454298
559.161345	47060.741473
559.518437	46318.665983
559.875474	46631.250289
560.232455	46790.835576
560.589381	46965.745970
560.946251	46666.881164
561.303065	47328.824994
561.659825	47132.411558
562.016528	46827.764548
562.373177	46555.640543
562.729770	47030.862554
563.086307	46539.360137
563.442789	47003.068153
563.799216	47040.826395
564.155587	46844.236518
564.511904	46879.398567
564.868164	46962.312944
565.224370	47221.735762
565.580520	46951.658466
565.936615	47156.099939
566.292654	46874.279275
566.648638	47119.707850
567.004567	47083.976151
567.360441	47117.819938
567.716260	46964.435270
568.072023	47262.473327
568.427732	47246.996984
568.783385	46819.670976
569.138982	47217.682675
569.494525	47169.718617
569.850013	46933.313707
570.205445	46905.912515
570.560823	46870.495889
570.916145	46736.098727
571.271412	46769.939993
571.626625	46531.727830
571.981782	46598.064373
572.336884	46288.182126
572.691931	46598.482789
573.046923	46205.514764
573.401860	46066.678867
573.756743	46039.441513
574.111570	46156.708833
574.466342	46017.373862
574.821059	46142.170146
575.175722	45675.225709
575.530330	45685.905393
575.884882	45412.316933
576.239380	45377.878291
576.593823	45352.944744
576.948211	45276.467919
577.302544	44822.010421
577.656823	44859.992994
578.011047	45088.009424
578.365216	44795.425896
578.719330	44601.890958
579.073389	44457.262775
579.427394	44542.150765
579.781344	44512.261764
580.135239	44180.979818
580.489080	44269.825113
580.842866	43759.478863
581.196597	44204.421183
581.550273	44158.715562
581.903895	44019.236918
582.257463	44458.487776
582.610975	43841.115308
582.964434	44121.683246
583.317837	43768.918423
583.671186	43611.374804
584.024481	43839.245040
584.377721	43378.279412
584.730906	43660.203420
585.084037	43687.183675
585.437113	43418.170062
585.790135	43444.416830
586.143103	43057.702356
586.496016	43174.982280
586.848874	43210.161972
587.201679	43217.587592
587.554428	42711.027247
587.907124	42899.561360
588.259765	42660.928261
588.612352	42916.464349
588.964884	42307.848366
589.317362	42608.228038
589.669786	42528.255174
590.022155	42321.426714
590.374470	42720.000501
590.726731	42270.387552
591.078937	41793.368369
591.431090	41887.461505
591.783188	41542.492827
592.135232	41217.386295
592.487222	41477.116623
592.839157	41561.949160
593.191038	41237.440005
593.542866	41011.838288
593.894639	40416.878791
594.246358	40680.410149
594.598022	40656.847796
594.949633	40280.134972
595.301190	40242.031411
595.652692	40085.798491
596.004141	40405.750443
596.355535	39447.527920
596.706876	39390.751925
597.058162	39230.995239
597.409395	39682.667500
597.760573	39758.252041
598.111698	39334.807720
598.462768	39353.684321
598.813785	39397.849870
599.164748	38849.538689
599.515657	39250.607848
599.866511	38733.004857
600.217312	39333.108852
600.568060	38324.416817
600.918753	39049.745594
601.269392	39012.662866
601.619978	38681.804377
601.970510	38886.213084
602.320988	39057.647603
602.671412	39350.291624
603.021783	39091.788817
603.372100	38750.878268
603.722363	38866.141730
604.072572	38945.486971
604.422728	38942.800036
604.772830	38756.269782
605.122878	38862.673416
605.472872	38805.395826
605.822813	39081.857744
606.172701	38925.700442
606.522534	39145.522476
606.872314	39392.531453
607.222041	39156.532356
607.571714	39544.900328
607.921333	39009.852423
608.270899	39282.596490
608.620411	39619.895053
608.969870	39435.746744
609.319276	39411.670193
609.668627	39481.608641
610.017926	39957.422988
610.367171	40114.517945
610.716362	40203.985822
611.065500	40165.383187
611.414585	40349.619716
611.763616	40651.156333
612.112594	40569.230022
612.461518	40780.610643
612.810389	41060.951729
613.159207	40944.914450
613.507971	41023.891687
613.856682	41482.321615
614.205340	41355.155988
614.553945	42053.217164
614.902496	41505.586540
615.250994	41972.236069
615.599439	42042.219887
615.947830	42263.168619
616.296169	42325.439472
616.644454	42440.821401
616.992686	42609.828605
617.340864	43140.775531
617.688990	42859.907644
618.037063	43450.466214
618.385082	43404.228751
618.733048	43700.464595
619.080961	43722.101227
619.428821	43733.995830
619.776628	43832.192466
620.124382	43655.018593
620.472083	43784.931648
620.819731	43889.734716
621.167326	43582.937655
621.514868	43574.846603
621.862357	43135.910817
622.209793	43154.275741
622.557176	42821.420955
622.904506	42577.976074
623.251783	42231.185019
623.599007	41999.271777
623.946179	41788.498614
624.293297	41750.858839
624.640363	41151.216110
624.987376	41152.304999
625.334336	40908.610581
625.681243	40566.079300
626.028097	40530.380369
626.374899	40374.611236
626.721647	40351.333708
627.068343	40254.757803
627.414987	40010.597079
627.761577	39792.322679
628.108115	40118.732349
628.454600	39574.965769
628.801032	39771.313670
629.147412	39727.165765
629.493739	39751.287687
629.840014	39403.919419
630.186236	39735.428217
630.532405	39361.127585
630.878521	39582.383827
631.224585	39447.137231
631.570597	39158.067387
631.916556	39334.636321
632.262462	39283.844176
632.608316	39285.540524
632.954117	39188.697438
633.299866	39171.963328
633.645562	39083.967467
633.991206	38606.582800
634.336797	38176.867285
634.682336	38164.415635
635.027823	37927.945190
635.373257	37743.358301
635.718639	37506.431632
636.063968	37373.834162
636.409245	36811.248955
636.754470	36852.281427
637.099642	36610.414427
637.444762	36153.264952
637.789829	36300.809443
638.134845	35950.575279
638.479808	35902.404534
638.824719	35806.652857
639.169577	35421.201193
639.514383	35486.789125
639.859137	35190.470102
640.203839	35430.320641
640.548489	35060.582253
640.893086	35136.854911
641.237632	34888.865429
641.582125	35000.723592
641.926566	34924.234165
642.270955	34904.525774
642.615292	34923.437663
642.959576	34898.486472
643.303809	34893.704937
643.647990	35040.881424
643.992118	35009.296074
644.336195	35016.005850
644.680219	35089.150472
645.024192	35385.625771
645.368112	35914.304177
645.711981	35914.523467
646.055797	36783.008411
646.399562	36726.053455
646.743274	37647.752818
647.086935	38094.883000
647.430544	37964.533885
647.774101	38098.888197
648.117606	38343.290897
648.461059	38633.429465
648.804460	38239.511183
649.147810	37637.330233
649.491108	37388.851760
649.834354	37016.615480
650.177548	36214.126802
650.520690	35775.276716
650.863781	35776.123630
651.206820	35614.647910
651.549807	35196.332964
651.892742	34711.346238
652.235626	34537.141605
652.578458	34403.704783
652.921238	33793.662153
653.263967	34122.632730
653.606644	33818.878005
653.949269	33777.522899
654.291843	33391.010072
654.634365	33780.051038
654.976836	33379.269225
655.319255	33385.492529
655.661622	33381.673855
656.003938	33147.517300
656.346203	33000.481966
656.688416	33235.951742
657.030577	33043.485529
657.372687	32876.643501
657.714746	33137.087153
658.056753	33250.636623
658.398708	32726.747312
658.740612	32775.434776
659.082465	33041.519479
659.424266	32879.937895
659.766016	32999.569517
660.107715	32860.990719
660.449362	32996.940556
660.790958	32972.478357
661.132503	32998.760412
661.473996	33042.714233
661.815438	33149.256498
662.156829	33330.697708
662.498168	33112.917341
662.839456	33148.270953
663.180693	33277.024543
663.521879	33441.088895
663.863013	33401.306629
664.204097	33394.490989
664.545129	33853.074672
664.886110	33834.044316
665.227040	33889.118922
665.567918	34006.721480
665.908746	34062.151487
666.249522	34229.817743
666.590248	34227.927310
666.930922	34350.462637
667.271545	34302.657375
667.612118	34397.688166
667.952639	34179.827141
668.293109	34233.039040
668.633528	34124.613903
668.973896	34052.812749
669.314213	34084.395578
669.654480	33814.237623
669.994695	33853.112481
670.334859	33754.898201
670.674973	33636.846981
671.015035	33798.811692
671.355047	33760.188892
671.695008	33707.768454
672.034918	33606.385809
672.374777	33681.355328
672.714585	33532.434602
673.054342	33761.285343
673.394049	33515.042622
673.733705	33787.700989
674.073310	33457.840649
674.412864	33523.998231
674.752368	33129.283447
675.091820	33428.778397
675.431223	33000.166894
675.770574	32731.057499
676.109875	32581.577205
676.449125	32305.410194
676.788324	32242.897366
677.127473	31702.100026
677.466571	31638.059728
677.805619	31293.776646
678.144616	31297.250001
678.483562	31206.554602
678.822458	30885.286909
679.161303	30811.872586
679.500098	30724.153988
679.838842	30619.645828
680.177535	30772.849014
680.516179	31060.061192
680.854771	31289.751285
681.193314	32157.447288
681.531805	33277.072434
681.870247	34051.091195
682.208638	34787.024039
682.546978	35018.647415
682.885268	35091.285400
683.223508	34556.096343
683.561697	34222.079572
683.899836	34030.026734
684.237925	33521.893550
684.575963	33369.149109
684.913951	32918.273350
685.251889	33079.010540
685.589776	33056.070770
685.927614	33059.894485
686.265401	33198.362378
686.603137	33305.451609
686.940824	33805.198834
687.278460	34197.788772
687.616046	34343.914178
687.953582	34934.369405
688.291068	34811.950025
688.628504	35085.331798
688.965889	35007.761043
689.303224	34632.033764
689.640510	34285.845127
689.977745	33555.817994
690.314930	32753.780500
690.652065	32233.155336
690.989150	31471.046301
691.326185	30589.025859
691.663170	29883.793642
692.000105	29125.888929
692.336990	28441.199413
692.673825	28007.997940
693.010610	27487.760945
693.347345	26900.484166
693.684030	26262.140499
694.020665	25983.967109
694.357251	25330.820093
694.693786	25271.054694
695.030272	25036.356215
695.366707	24501.078937
695.703093	24216.283992
696.039429	24212.389701
696.375716	23939.428864
696.711952	23917.817437
697.048139	23760.949333
697.384276	23595.614610
697.720363	23708.415468
698.056400	23502.809488
698.392388	23290.869298
698.728326	23245.589654
699.064214	23044.699674
699.400053	22981.639880
699.735842	22637.439978
700.071581	22348.612109
700.407270	22073.160943
700.742910	21879.573073
701.078501	21602.750713
701.414042	21328.116213
701.749533	21039.643746
702.084974	20677.895587
702.420366	20887.078266
702.755709	20451.424271
703.091002	20161.010960
703.426246	20181.397386
703.761440	20079.520708
704.096584	19801.047369
704.431679	19762.396843
704.766725	19671.935857
705.101721	19621.574731
705.436668	19703.760662
705.771565	19384.937928
706.106413	19728.850484
706.441212	19704.857113
706.775961	19835.932154
707.110661	19913.893598
707.445311	20261.516444
707.779913	20119.595360
708.114465	20362.979747
708.448967	20643.784619
708.783421	21328.897592
709.117825	21601.971854
709.452180	21829.365702
709.786485	22213.005071
710.120742	23028.673846
710.454949	23045.997771
710.789107	23512.853987
711.123216	24214.212078
711.457275	24339.114226
711.791286	24872.997624
712.125247	24937.905001
712.459159	24626.603668
712.793023	25291.390708
713.126837	24179.995246
713.460602	24435.803557
713.794318	24049.578076
714.127985	23653.338342
714.461602	22778.814096
714.795171	22719.840158
715.128691	21706.222916
715.462162	21183.755211
715.795584	20749.285887
716.128957	20492.355920
716.462281	20086.076728
716.795556	19850.377580
717.128782	19367.074599
717.461960	18821.036979
717.795088	18745.268437
718.128167	18348.789249
718.461198	17883.831027
718.794180	17731.714209
719.127113	17383.284779
719.459997	17183.997885
719.792833	16852.463882
720.125619	16815.396278
720.458357	16498.685787
720.791046	16333.285529
721.123686	16169.924418
721.456278	15935.084787
721.788821	15888.625513
722.121315	15632.696215
722.453761	15711.880139
722.786158	15635.347862
723.118506	15643.161650
723.450805	15510.231464
723.783056	15667.218036
724.115259	15571.055506
724.447412	15500.565052
724.779518	15745.703761
725.111574	15775.209634
725.443582	15965.724920
725.775542	15943.949656
726.107453	16412.303095
726.439315	16305.286961
726.771129	16693.705344
727.102895	17061.873412
727.434612	17263.897653
727.766281	17395.774237
728.097901	17652.164802
728.429473	17685.101180
728.760996	17665.483530
729.092471	17758.598683
729.423897	17626.704454
729.755276	17491.339391
730.086606	17596.591122
730.417887	18136.554151
730.749120	18650.688829
731.080305	18818.057657
731.411442	19139.968098
731.742530	19216.991888
732.073570	19312.065528
732.404562	19600.916082
732.735506	19409.831146
733.066401	19127.103073
733.397249	18613.727089
733.728048	17974.284450
734.058798	17136.555586
734.389501	16471.892054
734.720156	16004.559449
735.050762	15487.329503
735.381320	15128.076715
735.711831	14896.836467
736.042293	14551.439291
736.372707	14556.140167
736.703073	14354.221791
737.033391	14538.302044
737.363661	14499.018853
737.693883	14607.265029
738.024056	14778.838179
738.354182	14968.904803
738.684260	15248.822432
739.014290	15472.768130
739.344272	15667.170145
739.674207	15944.438648
740.004093	16053.383024
740.333931	16032.328645
740.663722	16079.531489
740.993464	16063.709828
741.323159	15899.403500
741.652806	15616.370438
741.982405	15399.026131
742.311956	15068.061778
742.641460	14946.239775
742.970915	14637.832065
743.300323	14314.779803
743.629683	14093.052213
743.958996	13820.449298
744.288260	13549.663719
744.617477	13250.496444
744.946647	13177.906349
745.275768	12906.616655
745.604842	12720.403994
745.933869	12554.509703
746.262847	12508.478927
746.591778	12439.641972
746.920662	12333.205570
747.249498	12332.330930
747.578286	12448.950462
747.907027	12599.517125
748.235720	12820.463336
748.564365	12852.522554
748.892963	12747.530443
749.221514	12808.253661
749.550017	12656.910661
749.878473	12620.886576
750.206881	12399.539593
750.535242	12305.902681
750.863555	12219.870349
751.191821	12134.374900
751.520039	12151.242601
751.848210	12056.516800
752.176334	12085.251377
752.504411	11995.700320
752.832440	11844.190962
753.160421	11897.695248
753.488356	11779.989347
753.816243	11684.371261
754.144082	11543.281968
754.471875	11493.382107
754.799620	11436.147366
755.127318	11405.401369
755.454969	11365.999711
755.782572	11323.487660
756.110129	11327.568474
756.437638	11251.981413
756.765100	11242.730896
757.092515	11247.227605
757.419882	11270.389187
757.747203	11269.239804
758.074477	11336.468631
758.401703	11298.203753
758.728882	11457.799122
759.056014	11502.219249
759.383099	11612.582710
759.710138	11714.726569
760.037129	11802.084724
760.364073	11817.982003
760.690970	11800.756380
761.017820	11805.122019
761.344623	11990.409629
761.671379	12306.855459
761.998088	12935.719236
762.324751	14486.320186
762.651366	17350.892845
762.977935	20997.444247
763.304456	23197.638199
763.630931	23655.808507
763.957359	22470.456798
764.283740	20571.144113
764.610074	18689.369603
764.936362	16584.758448
765.262602	15065.400049
765.588796	13605.058438
765.914943	12582.175555
766.241044	11737.658778
766.567097	11109.183169
766.893104	10564.882227
767.219064	10202.456033
767.544978	9827.575668
767.870845	9516.743163
768.196665	9326.767280
768.522438	9131.888875
768.848165	8969.233526
769.173846	8808.093043
769.499479	8684.189043
769.825066	8527.671299
770.150607	8341.604831
770.476101	8285.910163
770.801548	8174.805653
771.126949	8036.458747
771.452303	7947.442053
771.777611	7786.036910
772.102872	7759.449864
772.428087	7646.364181
772.753256	7519.722834
773.078378	7432.089936
773.403453	7293.954759
773.728482	7190.480035
774.053465	7128.599872
774.378401	7039.452107
774.703291	6945.545493
775.028135	6852.185845
775.352932	6811.581871
775.677683	6732.231589
776.002388	6650.557335
776.327046	6648.203116
776.651658	6560.668521
776.976224	6488.627912
777.300743	6469.131249
777.625216	6399.686834
777.949643	6362.283993
778.274024	6368.600559
778.598359	6300.403830
778.922647	6299.471217
779.246889	6263.726915
779.571086	6270.010713
779.895236	6275.440036
780.219339	6270.683707
780.543397	6271.616321
780.867409	6320.608775
781.191374	6315.706253
781.515294	6288.547036
781.839167	6333.625034
782.162995	6307.237114
782.486776	6259.469661
782.810511	6217.877621
783.134201	6143.752495
783.457844	6134.317975
783.781441	6086.394246
784.104993	6040.323141
784.428498	6010.981105
784.751958	5995.421584
785.075372	5973.149766
785.398739	5933.186019
785.722061	5957.552436
786.045337	5951.994564
786.368568	6066.693417
786.691752	6085.625470
787.014891	6331.578325
787.337983	6611.896726
787.661030	7048.690022
787.984031	7471.201728
788.306987	7735.348108
788.629897	7820.576375
788.952760	7731.879794
789.275579	7548.764922
789.598351	7262.578618
789.921078	6996.650191
790.243759	6715.109310
790.566395	6513.730337
790.888984	6318.294885
791.211529	6182.995357
791.534027	6016.465881
791.856480	5885.229523
792.178888	5823.722405
792.501249	5755.288741
792.823566	5650.962062
793.145836	5651.907279
793.468062	5633.814577
793.790241	5587.380509
794.112375	5634.154855
794.434464	5730.690431
794.756507	5761.602786
795.078505	5879.991764
795.400457	6094.996975
795.722364	6328.634292
796.044226	6528.626947
796.366042	6683.617222
796.687812	6633.898842
797.009538	6659.351628
797.331218	6565.200518
797.652852	6500.693913
797.974442	6374.586929
798.295986	6304.088913
798.617484	6176.502351
798.938938	6072.412606
799.260346	6001.836452
799.581709	5866.325196
799.903026	5813.272093
800.224299	5738.922635
800.545526	5623.908710
800.866708	5558.051076
801.187845	5512.524416
801.508936	5433.411068
801.829983	5406.259413
802.150984	5304.231501
802.471940	5276.845432
802.792851	5261.348926
803.113717	5237.466459
803.434538	5210.773550
803.755314	5182.530485
804.076045	5171.303836
804.396731	5131.582064
804.717372	5147.872553
805.037967	5148.071678
805.358518	5182.396895
805.679024	5242.013580
805.999485	5245.348303
806.319901	5268.530049
806.640272	5288.044356
806.960598	5334.256613
807.280879	5322.563657
807.601115	5360.347105
807.921306	5323.728163
808.241453	5316.884797
808.561554	5328.860058
808.881611	5294.842352
809.201623	5292.069717
809.521590	5242.121965
809.841513	5226.418771
810.161390	5238.726748
810.481223	5150.196524
810.801011	5139.728568
811.120755	5110.447026
811.440453	5056.196649
811.760107	5033.571951
812.079716	5006.528681
812.399281	4954.002378
812.718801	4949.876194
813.038276	4915.626595
813.357707	4878.672417
813.677093	4906.035800
813.996434	4842.706304
814.315731	4860.698182
814.634983	4859.352194
814.954191	4864.403431
815.273354	4919.493160
815.592473	4964.014110
815.911547	5039.722158
816.230577	5094.491774
816.549562	5179.452861
816.868502	5231.351540
817.187399	5285.233913
817.506250	5364.538824
817.825058	5386.692175
818.143821	5542.121030
818.462539	5711.513882
818.781213	5938.897647
819.099843	6301.139838
819.418429	6930.275838
819.736970	7541.558592
820.055466	8253.145184
820.373919	9157.205550
820.692327	10610.870153
821.010691	13296.864977
821.329011	19501.640639
821.647286	29067.779548
821.965517	39386.101461
822.283704	44845.872722
822.601847	46309.352451
822.919945	41714.023128
823.237999	36587.555315
823.556010	31378.425181
823.873976	26688.085231
824.191897	22502.203464
824.509775	19419.734492
824.827609	16677.969382
825.145398	15129.334483
825.463144	14377.413619
825.780845	14668.666282
826.098502	15925.768735
826.416116	18380.437612
826.733685	20667.236067
827.051210	21190.691838
827.368692	19763.964642
827.686129	17200.618569
828.003522	14728.159460
828.320872	12514.540915
828.638177	10882.646318
828.955439	9638.343355
829.272656	8584.260771
829.589830	7745.995025
829.906960	7012.711307
830.224046	6489.114383
830.541088	6075.969140
830.858086	5821.103525
831.175041	5619.782526
831.491952	5561.552158
831.808819	5594.382672
832.125642	5841.855435
832.442421	6390.330453
832.759157	7492.828278
833.075849	9257.053164
833.392497	11103.307704
833.709101	12213.077394
834.025662	11960.709671
834.342179	10903.337734
834.658653	9599.140823
834.975083	8506.432918
835.291469	7599.788960
835.607811	6869.182095
835.924110	6350.815368
836.240366	5868.376945
836.556578	5411.688736
836.872746	5062.450201
837.188871	4791.180671
837.504952	4571.663627
837.820990	4405.872680
838.136984	4292.426553
838.452935	4248.545830
838.768842	4272.932412
839.084706	4556.693920
839.400526	5292.311692
839.716303	6197.072779
840.032037	6758.874087
840.347727	6611.344720
840.663373	6013.108472
840.978977	5435.901398
841.294537	4996.864789
841.610054	4670.056867
841.925527	4426.720371
842.240957	4223.221593
842.556344	4046.889594
842.871687	3888.090727
843.186987	3734.675813
843.502244	3616.891773
843.817458	3533.387581
844.132629	3460.442084
844.447756	3410.917789
844.762840	3368.597303
845.077881	3329.482990
845.392879	3295.553504
845.707833	3269.314298
846.022745	3243.155751
846.337613	3232.770974
846.652438	3209.125442
846.967221	3199.300233
847.281960	3180.786595
847.596656	3170.066582
847.911309	3159.606187
848.225919	3147.696462
848.540485	3138.887045
848.855009	3129.439923
849.169490	3117.023561
849.483928	3111.919393
849.798323	3107.001747
850.112675	3095.790221
850.426984	3097.095880
850.741251	3088.384766
851.055474	3082.499219
851.369654	3086.963161
851.683792	3083.704055
851.997887	3087.631113
852.311938	3088.772935
852.625947	3086.136411
852.939914	3080.560895
853.253837	3089.934921
853.567718	3081.831266
853.881555	3081.165834
854.195350	3082.660536
854.509103	3082.463931
854.822812	3077.957139
855.136479	3074.297262
855.450103	3080.210535
855.763685	3069.251067
856.077224	3072.424473
856.390720	3079.739187
856.704173	3095.359202
857.017584	3098.298195
857.330953	3103.523351
857.644278	3114.374435
857.957561	3116.544651
858.270802	3109.605503
858.584000	3111.563991
858.897155	3104.690378
859.210268	3093.640169
859.523339	3083.918304
859.836367	3082.234558
860.149352	3073.926737
860.462295	3069.639235
860.775195	3059.582133
861.088054	3058.145405
861.400869	3057.134653
861.713642	3052.698438
862.026373	3063.857032
862.339062	3066.690160
862.651708	3074.206521
862.964312	3092.049685
863.276873	3103.372116
863.589392	3130.954790
863.901869	3159.888492
864.214303	3177.424146
864.526696	3196.762012
864.839045	3217.307234
865.151353	3228.982547
865.463619	3229.058164
865.775842	3228.513719
866.088023	3234.444637
866.400162	3225.007597
866.712258	3226.668657
867.024313	3226.950962
867.336325	3224.022051
867.648296	3231.009091
867.960224	3222.166907
868.272110	3226.880386
868.583954	3227.802917
868.895755	3237.302971
869.207515	3233.620408
869.519233	3250.946854
869.830909	3256.678646
870.142542	3269.755399
870.454134	3278.463992
870.765684	3288.183337
871.077191	3306.444917
871.388657	3317.391782
871.700081	3335.731500
872.011463	3358.474666
872.322803	3376.269939
872.634101	3395.297774
872.945357	3413.519024
873.256571	3442.596400
873.567744	3456.436888
873.878874	3461.299081
874.189963	3481.100733
874.501010	3480.382368
874.812015	3474.262408
875.122979	3492.123216
875.433900	3487.818070
875.744780	3488.828822
876.055618	3501.555215
876.366415	3500.289885
876.677169	3502.702077
876.987882	3521.135056
877.298554	3544.367214
877.609183	3578.299220
877.919771	3626.454842
878.230317	3695.090152
878.540822	3793.347282
878.851285	3946.905869
879.161707	4168.305784
879.472087	4544.776633
879.782425	5167.833001
880.092722	6350.114648
880.402977	8286.411758
880.713191	10664.515591
881.023363	13052.989078
881.333494	14395.095466
881.643583	14856.267782
881.953631	14440.412919
882.263637	13597.670627
882.573602	12546.133826
882.883526	11599.140473
883.193408	10639.002312
883.503248	9721.018278
883.813048	8890.946927
884.122806	8128.505176
884.432522	7362.232147
884.742197	6701.165478
885.051831	6141.292412
885.361424	5646.321680
885.670975	5250.588583
885.980485	4928.289973
886.289954	4657.809384
886.599382	4446.020429
886.908768	4265.610136
887.218113	4101.386987
887.527417	3973.069457
887.836680	3844.877956
888.145901	3746.706526
888.455082	3669.241636
888.764221	3597.425358
889.073319	3542.570042
889.382376	3511.723222
889.691392	3484.921927
890.000366	3479.600990
890.309300	3470.700833
890.618193	3475.623519
890.927044	3471.749393
891.235855	3479.827842
891.544625	3493.443998
891.853353	3521.099768
892.162041	3578.289138
892.470687	3670.333045
892.779293	3793.669915
893.087858	3963.584526
893.396381	4248.003906
893.704864	4658.101771
894.013306	5223.129418
894.321707	5798.703158
894.630068	6156.758672
894.938387	6198.108736
895.246665	6016.690212
895.554903	5698.558116
895.863100	5360.515983
896.171256	5091.457000
896.479371	4849.902552
896.787446	4625.097337
897.095480	4427.995783
897.403473	4281.308289
897.711425	4134.635918
898.019336	4016.224255
898.327207	3891.145666
898.635038	3788.328813
898.942827	3681.113553
899.250576	3600.457612
899.558284	3512.963346
899.865952	3456.870427
900.173579	3392.479769
900.481165	3347.058973
900.788711	3305.229999
901.096216	3275.111625
901.403681	3247.720516
901.711105	3235.684761
902.018489	3229.511868
902.325832	3265.190634
902.633135	3324.872855
902.940397	3491.669512
903.247619	3896.713621
903.554800	4646.708763
903.861941	5620.478205
904.169041	6319.184649
904.476101	6537.895108
904.783121	6263.018633
905.090100	5849.712073
905.397039	5441.844918
905.703938	5082.027522
906.010796	4755.532152
906.317614	4499.776773
906.624391	4258.744084
906.931129	4067.021442
907.237826	3890.671798
907.544483	3720.187536
907.851099	3547.555743
908.157675	3385.419633
908.464211	3244.741194
908.770707	3143.787047
909.077163	3065.966755
909.383578	3006.413084
909.689954	2962.522278
909.996289	2930.400046
910.302584	2911.110070
910.608839	2900.266548
910.915054	2883.257695
911.221229	2882.342726
911.527363	2889.382697
911.833458	2895.290930
912.139513	2905.002713
912.445527	2920.118612
912.751502	2951.976184
913.057436	2996.913029
913.363331	3056.020558
913.669186	3142.035246
913.975000	3257.293667
914.280775	3446.072275
914.586510	3713.102195
914.892205	4088.534566
915.197859	4585.478909
915.503475	5173.889948
915.809050	5672.639024
916.114585	5959.926820
916.420081	6026.195308
916.725536	5961.169464
917.030952	5718.311878
917.336328	5509.716493
917.641665	5301.627745
917.946961	5073.717179
918.252218	4873.701839
918.557435	4643.351355
918.862612	4447.119400
919.167750	4274.051548
919.472848	4082.495263
919.777906	3916.593411
920.082925	3757.184564
920.387904	3604.160339
920.692843	3492.098010
920.997743	3396.989081
921.302603	3301.885193
921.607423	3234.752147
921.912204	3171.067251
922.216946	3121.001031
922.521647	3071.461612
922.826310	3029.327649
923.130932	2994.921774
923.435516	2953.803602
923.740059	2927.955086
924.044564	2894.038203
924.349028	2871.161447
924.653454	2839.860922
924.957840	2814.473672
925.262186	2796.648152
925.566493	2777.189298
925.870761	2749.147880
926.174989	2739.007599
926.479178	2723.437995
926.783328	2709.945347
927.087438	2697.017308
927.391509	2683.718744
927.695541	2670.999913
927.999533	2662.578665
928.303486	2653.421409
928.607400	2647.011582
928.911275	2641.708288
929.215110	2636.173101
929.518906	2633.692854
929.822663	2630.897534
930.126381	2631.898203
930.430060	2634.466671
930.733699	2635.641260
931.037299	2641.637712
931.340861	2638.489512
931.644383	2643.439925
931.947866	2641.201652
932.251309	2637.284676
932.554714	2636.374747
932.858080	2637.259470
933.161407	2631.782256
933.464694	2626.549539
933.767943	2626.040382
934.071153	2621.485700
934.374323	2617.520832
934.677455	2613.997066
934.980548	2610.793412
935.283602	2608.870212
935.586617	2607.304934
935.889593	2612.928341
936.192530	2612.638475
936.495428	2616.068980
936.798287	2627.575413
937.101108	2641.678041
937.403890	2665.076557
937.706632	2688.351564
938.009336	2723.069991
938.312002	2752.853128
938.614628	2774.769544
938.917216	2793.736885
939.219765	2805.807928
939.522275	2811.683393
939.824747	2812.623568
940.127179	2806.359935
940.429573	2800.182001
940.731929	2800.842392
941.034246	2790.883592
941.336524	2789.507357
941.638763	2782.933693
941.940964	2776.092847
942.243126	2761.163470
942.545250	2751.353384
942.847335	2733.628687
943.149381	2723.364898
943.451389	2706.945860
943.753359	2697.276927
944.055290	2686.831656
944.357182	2678.410409
944.659036	2673.649039
944.960851	2670.939419
945.262628	2664.368275
945.564367	2667.632422
945.866067	2661.711587
946.167729	2663.062616
946.469352	2661.888027
946.770937	2662.724859
947.072484	2654.628766
947.373992	2653.290339
947.675462	2650.704227
947.976893	2645.126191
948.278286	2641.869605
948.579641	2636.997330
948.880958	2633.914664
949.182236	2634.605302
949.483476	2628.772687
949.784678	2631.588172
950.085841	2631.608337
950.386967	2635.056486
950.688054	2641.080665
950.989103	2646.270532
951.290114	2658.427275
951.591087	2668.088646
951.892021	2681.538445
952.192917	2692.805424
952.493776	2704.818493
952.794596	2707.366797
953.095378	2707.979297
953.396122	2709.060624
953.696828	2700.813297
953.997496	2700.568801
954.298126	2686.448529
954.598718	2683.880061
954.899272	2670.377330
955.199788	2658.855773
955.500266	2646.086530
955.800706	2633.574387
956.101108	2614.349946
956.401472	2606.097577
956.701798	2589.008066
957.002087	2574.035839
957.302337	2565.675085
957.602550	2552.903322
957.902724	2545.727240
958.202861	2535.223996
958.502960	2529.409025
958.803022	2520.100534
959.103045	2512.218690
959.403031	2505.536641
959.702979	2500.608913
960.002889	2496.961638
960.302762	2490.314877
960.602596	2488.651296
960.902393	2484.041161
961.202153	2481.820532
961.501875	2478.816005
961.801559	2477.185191
962.101205	2472.000365
962.400814	2473.046404
962.700385	2470.374593
962.999918	2470.177988
963.299414	2465.898048
963.598873	2466.021556
963.898293	2464.098356
964.197677	2463.223716
964.497022	2460.705659
964.796331	2460.398149
965.095601	2456.602160
965.394835	2458.593416
965.694030	2455.785493
965.993189	2456.118209
966.292309	2456.148456
966.591393	2454.368929
966.890439	2457.806996
967.189447	2457.209619
967.488419	2455.984619
967.787353	2457.033179
968.086249	2456.710545
968.385108	2455.909002
968.683930	2459.271451
968.982714	2460.751030
969.281462	2461.519806
969.580172	2462.071812
969.878844	2462.941411
970.177480	2467.254118
970.476078	2468.960549
970.774639	2472.789305
971.073162	2474.583956
971.371649	2473.593369
971.670098	2477.613689
971.968510	2478.740387
972.266885	2479.360449
972.565223	2480.288022
972.863524	2485.147694
973.161788	2484.729278
973.460014	2486.942345
973.758204	2486.949906
974.056356	2485.230873
974.354471	2489.500730
974.652550	2488.500061
974.950591	2487.829588
975.248595	2486.917139
975.546563	2486.264309
975.844493	2484.598208
976.142386	2479.862044
976.440243	2480.925728
976.738062	2478.364821
977.035845	2475.667804
977.333590	2470.964408
977.631299	2470.014150
977.928971	2469.263018
978.226606	2464.776391
978.524204	2464.214302
978.821765	2464.902420
979.119290	2464.189097
979.416777	2459.694908
979.714228	2466.066927
980.011642	2465.643470
980.309020	2470.364510
980.606360	2473.026239
980.903664	2482.685090
981.200931	2496.427276
981.498162	2516.178516
981.795356	2545.210521
982.092513	2583.745101
982.389633	2628.008953
982.686717	2671.415808
982.983764	2702.900334
983.280775	2721.630741
983.577749	2721.073694
983.874686	2710.426777
984.171587	2696.823223
984.468451	2680.142045
984.765279	2660.370640
985.062070	2640.185860
985.358824	2626.350413
985.655543	2603.587083
985.952224	2577.458782
986.248869	2550.934752
986.545478	2522.691687
986.842050	2505.813904
987.138586	2486.712972
987.435086	2473.943729
987.731549	2459.977213
988.027975	2458.762295
988.324366	2450.363732
988.620719	2446.693772
988.917037	2443.313679
989.213318	2440.160437
989.509563	2437.516352
989.805772	2439.709254
990.101944	2434.098449
990.398080	2432.518048
990.694180	2431.993768
990.990244	2435.358738
991.286271	2433.609457
991.582262	2432.003850
991.878217	2435.560384
992.174136	2434.675662
992.470019	2437.715477
992.765865	2437.302103
993.061676	2440.225972
993.357450	2442.630602
993.653188	2441.377876
993.948890	2451.694597
994.244556	2457.252469
994.540186	2467.848974
994.835780	2479.352888
995.131337	2491.953252
995.426859	2511.086951
995.722345	2528.592358
996.017795	2546.985007
996.313208	2561.571586
996.608586	2573.582135
996.903928	2573.622464
997.199234	2574.534913
997.494504	2570.756568
997.789738	2566.544684
998.084936	2551.670760
998.380099	2543.569626
998.675225	2532.295085
998.970316	2514.744308
999.265371	2503.500014
999.560390	2489.215905
999.855373	2477.399440
1000.150320	2469.270580
1000.445232	2457.582665
1000.740108	2450.401541
1001.034948	2446.638320
1001.329752	2443.268308
1001.624521	2436.492997
1001.919254	2427.371030
1002.213951	2429.642069
1002.508613	2423.501944
1002.803239	2426.803900
1003.097829	2418.768301
1003.392384	2423.867428
1003.686903	2422.362643
1003.981386	2419.887437
1004.275834	2419.189237
1004.570246	2420.704104
1004.864623	2420.782242
1005.158964	2421.493044
1005.453270	2415.262178
1005.747540	2417.392066
1006.041775	2413.878381
1006.335974	2413.890984
1006.630138	2415.978022
1006.924266	2415.151273
1007.218359	2414.422826
1007.512416	2415.547003
1007.806438	2416.267888
1008.100425	2414.727816
1008.394376	2410.916703
1008.688292	2413.286046
1008.982172	2413.911149
1009.276017	2413.223031
1009.569827	2410.684810
1009.863602	2413.475089
1010.157341	2411.083062
1010.451045	2410.468041
1010.744714	2410.246230
1011.038347	2409.101888
1011.331945	2408.464182
1011.625508	2411.758576
1011.919036	2408.640623
1012.212528	2409.185067
1012.505986	2409.653894
1012.799408	2409.631209
1013.092795	2408.660787
1013.386147	2409.064079
1013.679464	2408.267577
1013.972745	2408.872516
1014.265992	2407.899573
1014.559204	2410.405026
1014.852380	2408.161713
1015.145521	2408.726322
1015.438628	2408.038205
1015.731699	2407.516445
1016.024736	2405.497463
1016.317737	2408.938051
1016.610703	2410.853689
1016.903635	2406.581311
1017.196531	2407.702968
1017.489393	2409.742115
1017.782219	2403.670045
1018.075011	2411.113308
1018.367768	2412.300500
1018.660490	2411.667835
1018.953177	2411.667835
1019.245829	2411.667835
