Dividing Wavelength (nm)	Counts (n)	Blue Motor Position (mm): 33.400000	Red Motor Position (mm): 0.000000	
326.493990	1972.663994
326.888308	1972.663994
327.282561	1972.663994
327.676750	1949.295725
328.070874	1946.502926
328.464933	1953.101796
328.858929	1964.381378
329.252859	1977.861423
329.646726	1990.121510
330.040528	2004.710609
330.434265	2027.110976
330.827938	2043.892977
331.221547	2062.905689
331.615091	2084.824626
332.008571	2104.679210
332.401986	2128.002108
332.795338	2146.215797
333.188625	2168.059117
333.581847	2185.113340
333.975006	2203.493387
334.368100	2220.444267
334.761129	2238.967987
335.154095	2252.821078
335.546996	2294.430762
335.939833	2370.365662
336.332606	2383.560882
336.725315	2396.410783
337.117960	2407.713050
337.510540	2413.530542
337.903056	2425.538570
338.295508	2429.783222
338.687896	2438.083482
339.080220	2442.194542
339.472480	2449.685697
339.864676	2452.491099
340.256807	2457.786831
340.648875	2458.646348
341.040879	2461.338324
341.432818	2461.459312
341.824694	2463.508541
342.216506	2460.229270
342.608253	2461.706328
342.999937	2460.967799
343.391557	2459.074846
343.783113	2458.152315
344.174605	2456.965123
344.566033	2453.126285
344.957397	2455.820781
345.348697	2451.616459
345.739934	2450.885492
346.131106	2448.770728
346.522215	2447.323917
346.913260	2448.407765
347.304241	2446.887857
347.695159	2440.795622
348.086012	2440.059614
348.476802	2439.247988
348.867528	2435.416711
349.258191	2438.075920
349.648789	2434.983172
350.039324	2435.046186
350.429796	2433.095260
350.820203	2435.623398
351.210548	2434.136258
351.600828	2430.002512
351.991045	2431.797163
352.381198	2431.681216
352.771288	2428.505289
353.161314	2432.981834
353.551276	2429.687440
353.941175	2429.543767
354.331010	2430.247008
354.720782	2431.340938
355.110490	2434.471495
355.500135	2428.608633
355.889717	2432.984354
356.279235	2433.632143
356.668689	2433.334715
357.058080	2432.646597
357.447408	2432.265990
357.836672	2429.808428
358.225873	2431.101483
358.615010	2429.223654
359.004084	2436.031732
359.393095	2439.197577
359.782043	2438.479212
360.170927	2436.054417
360.559748	2437.150868
360.948505	2438.017947
361.337199	2436.666917
361.725830	2442.917948
362.114398	2438.988369
362.502903	2442.010540
362.891344	2441.176229
363.279722	2441.390478
363.668037	2442.431477
364.056289	2443.139759
364.444478	2445.110850
364.832603	2445.773762
365.220665	2443.853082
365.608665	2445.851900
365.996601	2444.939451
366.384474	2447.790223
366.772284	2448.173351
367.160031	2447.391972
367.547715	2447.543207
367.935336	2446.033381
368.322893	2448.009513
368.710388	2445.209153
369.097820	2450.807354
369.485189	2450.028496
369.872495	2450.169648
370.259738	2449.642847
370.646918	2453.960596
371.034035	2451.755091
371.421090	2450.764504
371.808081	2454.258024
372.195010	2454.893209
372.581875	2449.983125
372.968678	2450.570420
373.355418	2453.776593
373.742096	2453.970678
374.128710	2454.825153
374.515262	2458.427058
374.901751	2457.285237
375.288177	2457.796914
375.674540	2458.134671
376.060841	2458.474949
376.447079	2459.011832
376.833254	2456.022428
377.219367	2455.989660
377.605417	2458.883282
377.991404	2454.217694
378.377329	2458.797583
378.763191	2456.483693
379.148991	2459.513427
379.534727	2459.556276
379.920402	2461.693726
380.306013	2464.317646
380.691563	2465.081381
381.077049	2464.534416
381.462474	2463.508541
381.847835	2465.635908
382.233134	2464.967955
382.618371	2468.169088
383.003545	2467.798563
383.388657	2467.102884
383.773706	2467.420476
384.158693	2468.330405
384.543618	2469.978862
384.928480	2470.109932
385.313280	2466.006433
385.698017	2470.689665
386.082692	2469.946094
386.467305	2470.548512
386.851856	2476.895325
387.236344	2471.934830
387.620770	2473.701754
388.005133	2473.096816
388.389435	2474.231075
388.773674	2474.319295
389.157851	2479.511684
389.541965	2476.000520
389.926018	2480.562764
390.310008	2476.008082
390.693936	2482.924545
391.077802	2478.677373
391.461606	2481.376911
391.845348	2479.761221
392.229027	2482.070069
392.612645	2481.702065
392.996200	2483.658033
393.379694	2484.489823
393.763125	2486.176089
394.146494	2488.474855
394.529801	2487.207005
394.913047	2490.556852
395.296230	2486.544093
395.679351	2488.573158
396.062410	2490.932418
396.445408	2489.636841
396.828343	2488.613487
397.211217	2485.200626
397.594028	2489.485607
397.976778	2491.791935
398.359466	2494.587254
398.742092	2490.844198
399.124656	2496.291164
399.507158	2495.416524
399.889598	2498.239570
400.271977	2495.489621
400.654294	2498.995743
401.036549	2498.705877
401.418742	2504.364572
401.800874	2501.959942
402.182944	2501.201248
402.564952	2506.121414
402.946898	2502.927843
403.328783	2507.953874
403.710606	2505.982783
404.092367	2510.555109
404.474067	2511.389420
404.855705	2511.333967
405.237282	2510.383710
405.618797	2512.989987
406.000250	2515.671880
406.381642	2515.548372
406.762972	2519.719927
407.144240	2517.821933
407.525447	2524.914836
407.906593	2520.483662
408.287677	2526.449867
408.668700	2529.409025
409.049661	2528.693181
409.430560	2533.000847
409.811399	2534.049407
410.192176	2536.592669
410.572891	2540.756662
410.953545	2543.990562
411.334138	2544.013247
411.714669	2552.817622
412.095139	2554.602191
412.475547	2560.986812
412.855894	2563.404046
413.236180	2571.580797
413.616405	2579.321489
413.996568	2588.020000
414.376670	2596.166504
414.756711	2607.524224
415.136691	2623.068622
415.516609	2640.251395
415.896466	2652.917294
416.276262	2678.831345
416.655997	2703.396888
417.035670	2725.850187
417.415283	2766.129006
417.794834	2793.951134
418.174324	2825.387770
418.553753	2854.185361
418.933121	2904.806108
419.312428	2944.694237
419.691674	2985.789723
420.070859	3051.100392
420.449983	3089.133377
420.829045	3172.438445
421.208047	3221.216649
421.586988	3312.431287
421.965867	3401.498393
422.344686	3478.244919
422.723444	3601.596913
423.102141	3577.235537
423.480777	3762.543311
423.859352	3812.302020
424.237866	4020.942775
424.616319	4098.011935
424.994712	4277.293010
425.373044	4372.563256
425.751314	4576.026745
426.129524	4577.070264
426.507673	4863.942165
426.885762	4955.124035
427.263789	5120.269715
427.641756	5291.323626
428.019662	5440.125885
428.397508	5599.875009
428.775292	5807.247914
429.153016	5965.661132
429.530679	6139.865765
429.908282	6311.696015
430.285824	6401.897380
430.663305	6744.186685
431.040726	6815.624877
431.418086	6940.063239
431.795385	7292.702032
432.172624	7603.849610
432.549802	7659.629977
432.926920	7898.212665
433.303977	8051.065491
433.680974	8325.430289
434.057910	8616.897201
434.434786	8828.678595
434.811601	8991.369233
435.188355	9591.201005
435.565050	9660.040482
435.941683	9831.074229
436.318257	10404.233256
436.694770	10540.528412
437.071222	11017.328305
437.447614	10813.643004
437.823946	11010.366471
438.200218	11289.427104
438.576429	11384.170550
438.952580	11735.491082
439.328670	11913.350551
439.704700	12334.601969
440.080670	12306.789924
440.456580	12845.918642
440.832429	13159.475891
441.208218	12767.092640
441.583947	13217.522257
441.959616	13477.061022
442.335224	13809.573009
442.710773	14079.065532
443.086261	14609.599083
443.461689	14393.073963
443.837057	14658.909129
444.212365	15265.259114
444.587612	15447.683348
444.962800	15350.499984
445.337927	15804.990250
445.712995	15092.208905
446.088002	16560.112247
446.462949	16893.992907
446.837837	17198.803754
447.212664	17340.369436
447.587431	19657.606378
447.962139	22106.132609
448.336786	24156.926926
448.711374	23156.061283
449.085901	20433.268555
449.460369	20537.398629
449.834776	20636.996706
450.209124	22829.497857
450.583412	22625.999079
450.957640	23221.828176
451.331808	22250.042428
451.705917	21238.918037
452.079965	21400.736555
452.453954	21835.024397
452.827883	21866.266948
453.201752	21819.429587
453.575562	22063.118964
453.949311	23153.971724
454.323001	23331.445546
454.696632	23236.833170
455.070202	24717.324273
455.443713	24948.667864
455.817164	25569.359931
456.190556	26157.415569
456.563888	25745.858289
456.937160	26228.815951
457.310373	24812.415558
457.683526	25278.276147
458.056619	25349.679050
458.429653	25367.980959
458.802628	25969.287269
459.175542	26144.119525
459.548398	27423.665195
459.921194	28967.778179
460.293930	29663.822894
460.666607	31629.217544
461.039224	33366.502503
461.411782	33792.603511
461.784280	32697.027190
462.156719	32261.143823
462.529099	31751.457963
462.901419	30560.208103
463.273680	29597.113305
463.645882	29728.702544
464.018024	29749.356151
464.390106	30586.837998
464.762130	33209.384861
465.134094	37186.431789
465.505999	42381.434088
465.877845	46917.993640
466.249631	48058.927743
466.621358	46341.769591
466.993026	44218.738060
467.364634	42179.253572
467.736184	40311.886679
468.107674	39097.013973
468.479105	38371.745690
468.850477	37703.444965
469.221790	36340.513570
469.593043	34687.443607
469.964238	33834.997094
470.335373	33752.556585
470.706449	35402.135549
471.077467	37865.356745
471.448425	42367.119732
471.819324	45234.528040
472.190164	43462.774191
472.560945	39986.880970
472.931667	36964.600855
473.302330	35868.885902
473.672934	35078.319553
474.043479	35570.595787
474.413965	34816.061086
474.784393	34454.754028
475.154761	35320.128579
475.525070	35375.183020
475.895321	34930.041574
476.265513	35513.005646
476.635645	36458.224513
477.005719	36303.766079
477.375734	36747.014572
477.745691	37419.819568
478.115588	38714.082886
478.485427	40655.080872
478.855207	43947.158500
479.224928	46545.641414
479.594591	48171.756328
479.964194	47140.434554
480.333739	47250.213241
480.703226	47274.078063
481.072653	47906.453004
481.442022	48417.867980
481.811333	48680.300367
482.180584	47402.539266
482.549777	46903.848163
482.918912	46378.887607
483.287988	46086.407422
483.657005	45263.509633
484.025964	44625.561696
484.394864	44625.324762
484.763706	44207.571905
485.132489	43340.710213
485.501213	43178.354812
485.869879	43322.960310
486.238487	42931.842389
486.607036	43148.554031
486.975527	42605.964560
487.343959	42807.169613
487.712333	42899.178232
488.080648	42819.089421
488.448905	43242.886622
488.817104	43046.619380
489.185244	43989.612577
489.553326	45631.821374
489.921350	48346.936424
490.289315	51279.867129
490.657222	51922.704985
491.025070	52214.602917
491.392861	51295.507309
491.760593	49996.502786
492.128267	48284.824368
492.495883	46767.036288
492.863440	45392.568213
493.230939	44044.598963
493.598380	42999.063655
493.965763	42680.334182
494.333088	41887.113666
494.700354	41423.274580
495.067563	41145.209575
495.434713	41009.882320
495.801805	41083.815883
496.168839	40733.107851
496.535815	40413.302092
496.902733	40430.812540
497.269593	40038.741841
497.636395	39979.336884
498.003139	40359.570954
498.369825	39821.601700
498.736453	40112.655238
499.103023	39673.318681
499.469535	39549.265967
499.835989	39645.244495
500.202385	39321.703241
500.568723	39327.213222
500.935003	39528.539263
501.301226	39319.951440
501.667390	39932.675964
502.033497	40177.524806
502.399546	39619.579981
502.765537	38943.992268
503.131470	39319.822891
503.497345	39671.844143
503.863163	38350.555199
504.228923	38953.411664
504.594625	39354.725319
504.960269	38654.380501
505.325856	39323.487809
505.691385	38697.074032
506.056856	38834.306843
506.422270	39270.243142
506.787625	38835.894807
507.152924	39027.327583
507.518164	39119.996593
507.883347	38348.601752
508.248472	38604.016853
508.613540	39047.744256
508.978550	39354.843786
509.343503	39110.020150
509.708398	39295.350609
510.073236	39814.838992
510.438016	39801.923556
510.802738	39269.688616
511.167403	39866.054595
511.532010	40107.896389
511.896561	40398.720554
512.261053	41211.851108
512.625488	40769.101689
512.989866	40634.790227
513.354186	40491.001396
513.718449	40466.529115
514.082655	41133.549386
514.446803	40802.776597
514.810894	41319.875473
515.174927	41240.469738
515.538904	41151.377427
515.902822	41793.433904
516.266684	41250.350400
516.630488	41673.668691
516.994235	41533.443956
517.357925	42058.258318
517.721558	42240.992583
518.085133	42536.610886
518.448651	42668.220290
518.812112	42444.496403
519.175516	42547.688822
519.538863	42882.524781
519.902152	42834.911083
520.265385	43286.719455
520.628560	43313.858507
520.991678	43120.615956
521.354739	43348.942417
521.717743	43669.365717
522.080690	43561.142226
522.443580	44098.682982
522.806413	44158.057692
523.169189	44091.063278
523.531908	44272.244867
523.894569	44120.831291
524.257174	44280.991269
524.619722	44592.768991
524.982213	44579.954377
525.344647	44510.583059
525.707025	44547.529676
526.069345	44931.836998
526.431608	44857.202716
526.793815	45166.931208
527.155964	44707.747628
527.518057	44879.305655
527.880093	44669.666751
528.242072	45204.155088
528.603995	44904.604685
528.965860	44896.503551
529.327669	44978.258463
529.689421	44882.894956
530.051117	44844.793915
530.412755	45001.407442
530.774337	45051.700513
531.135862	44885.289504
531.497331	45085.483806
531.858743	44968.687833
532.220098	45331.066136
532.581396	45028.289395
532.942638	44699.044075
533.303824	44989.694321
533.664953	44969.154140
534.026025	44696.175659
534.387040	45155.369322
534.747999	45107.932064
535.108902	45274.426252
535.469748	44797.540660
535.830537	44917.391572
536.191270	45115.932375
536.551947	44767.974292
536.912567	45064.643676
537.273131	45166.124623
537.633638	44683.091344
537.994089	45023.701945
538.354483	44636.886648
538.714821	45189.888623
539.075103	45537.322425
539.435328	45305.479760
539.795497	45196.288367
540.155609	45197.289036
540.515665	45627.546476
540.875665	45101.063492
541.235609	45433.484738
541.595496	45400.371919
541.955328	46046.368058
542.315102	45433.658658
542.674821	45250.773158
543.034483	45275.293330
543.394090	45244.247384
543.753640	45196.469849
544.113134	46209.691360
544.472571	45232.418317
544.831953	46449.715818
545.191278	45675.059351
545.550548	45417.796667
545.909761	45867.833074
546.268918	46063.480255
546.628019	46366.148611
546.987064	45941.645649
547.346053	45235.352268
547.704986	46106.098169
548.063863	45677.206883
548.422684	45881.015691
548.781449	45749.154230
549.140158	46125.869575
549.498811	45983.363717
549.857408	45425.043326
550.215949	46246.827020
550.574434	46191.752414
550.932864	45962.921838
551.291237	46674.410128
551.649555	46287.123483
552.007817	46527.798250
552.366022	46174.728438
552.724173	46352.446755
553.082267	46761.070083
553.440305	47056.625371
553.798288	46385.151241
554.156215	46684.804987
554.514086	46902.552586
554.871902	46670.210847
555.229661	46677.346600
555.587365	46515.505397
555.945014	46610.014428
556.302606	46539.687812
556.660143	46764.248530
557.017625	46843.102259
557.375050	46639.991650
557.732421	46997.038933
558.089735	46982.802714
558.446994	46901.965292
558.804197	47362.020992
559.161345	47299.238462
559.518437	46585.038032
559.875474	46883.219761
560.232455	47045.386119
560.589381	47217.947335
560.946251	46909.784121
561.303065	47577.016121
561.659825	47399.123884
562.016528	47090.141483
562.373177	46808.540108
562.729770	47284.457799
563.086307	46796.700958
563.442789	47243.352230
563.799216	47291.986762
564.155587	47095.346474
564.511904	47120.418653
564.868164	47206.342599
565.224370	47453.016339
565.580520	47190.341977
565.936615	47406.088238
566.292654	47127.619941
566.648638	47366.558030
567.004567	47337.561313
567.360441	47363.288842
567.716260	47225.088130
568.072023	47501.285387
568.427732	47486.260228
568.783385	47041.857311
569.138982	47448.010473
569.494525	47405.122857
569.850013	47178.212961
570.205445	47140.225346
570.560823	47092.291535
570.916145	46973.728637
571.271412	46989.026019
571.626625	46758.579753
571.981782	46815.252404
572.336884	46506.459046
572.691931	46833.458532
573.046923	46427.590194
573.401860	46276.796680
573.756743	46257.466375
574.111570	46380.344500
574.466342	46217.880715
574.821059	46359.355656
575.175722	45877.600310
575.530330	45893.298463
575.884882	45620.957688
576.239380	45566.286374
576.593823	45545.277366
576.948211	45469.241642
577.302544	45004.689233
577.656823	45037.479418
578.011047	45252.953457
578.365216	44977.323329
578.719330	44768.178459
579.073389	44629.950021
579.427394	44705.771495
579.781344	44700.906782
580.135239	44347.839490
580.489080	44438.529848
580.842866	43927.326601
581.196597	44376.276639
581.550273	44314.232638
581.903895	44173.115618
582.257463	44596.703611
582.610975	44003.705122
582.964434	44260.836736
583.317837	43913.397892
583.671186	43760.905509
584.024481	43976.634126
584.377721	43528.185683
584.730906	43785.513902
585.084037	43820.262575
585.437113	43527.759706
585.790135	43586.353037
586.143103	43187.229763
586.496016	43309.800378
586.848874	43325.599354
587.201679	43338.577805
587.554428	42817.975326
587.907124	43018.991336
588.259765	42787.085656
588.612352	43011.865665
588.964884	42426.592745
589.317362	42702.306051
589.669786	42650.200685
590.022155	42423.757096
590.374470	42836.884694
590.726731	42360.997251
591.078937	41881.157543
591.431090	41968.238434
591.783188	41631.358287
592.135232	41324.039466
592.487222	41563.761455
592.839157	41662.953719
593.191038	41319.779691
593.542866	41111.128854
593.894639	40512.481753
594.246358	40777.374223
594.598022	40770.034303
594.949633	40362.550276
595.301190	40350.564932
595.652692	40170.681440
596.004141	40477.632256
596.355535	39509.415646
596.706876	39457.481679
597.058162	39309.604472
597.409395	39762.879820
597.760573	39838.517292
598.111698	39407.430583
598.462768	39420.817367
598.813785	39471.322167
599.164748	38925.924773
599.515657	39304.674223
599.866511	38797.531626
600.217312	39393.819467
600.568060	38383.433605
600.918753	39123.779979
601.269392	39083.639792
601.619978	38732.651976
601.970510	38948.098288
602.320988	39118.960636
602.671412	39414.954505
603.021783	39159.103344
603.372100	38817.555089
603.722363	38930.212274
604.072572	39006.348821
604.422728	39013.608083
604.772830	38830.150412
605.122878	38922.431253
605.472872	38855.071356
605.822813	39133.456474
606.172701	38983.792178
606.522534	39203.689829
606.872314	39457.161565
607.222041	39221.830422
607.571714	39600.491652
607.921333	39050.481602
608.270899	39348.378507
608.620411	39690.698058
608.969870	39477.162343
609.319276	39472.181683
609.668627	39534.636538
610.017926	40001.845636
610.367171	40160.188278
610.716362	40247.511145
611.065500	40195.529287
611.414585	40389.245706
611.763616	40677.385457
612.112594	40604.807965
612.461518	40814.845119
612.810389	41110.682712
613.159207	40981.482980
613.507971	41054.572149
613.856682	41513.710359
614.205340	41400.236507
614.553945	42090.425921
614.902496	41562.110477
615.250994	42011.773839
615.599439	42074.256420
615.947830	42285.369861
616.296169	42340.656195
616.644454	42467.811739
616.992686	42647.251610
617.340864	43150.469669
617.688990	42874.670663
618.037063	43476.539062
618.385082	43452.714569
618.733048	43753.270682
619.080961	43748.894960
619.428821	43755.798820
619.776628	43871.465575
620.124382	43687.244169
620.472083	43825.543184
620.819731	43933.701140
621.167326	43621.815033
621.514868	43597.620016
621.862357	43154.137109
622.209793	43187.128940
622.557176	42868.026422
622.904506	42613.382618
623.251783	42247.341917
623.599007	42045.773901
623.946179	41818.672441
624.293297	41775.741974
624.640363	41183.270286
624.987376	41176.419358
625.334336	40938.885230
625.681243	40601.253951
626.028097	40564.171224
626.374899	40393.704606
626.721647	40380.567359
627.068343	40278.199169
627.414987	40046.084281
627.761577	39826.473976
628.108115	40147.880301
628.454600	39612.784505
628.801032	39791.395107
629.147412	39768.031879
629.493739	39779.331625
629.840014	39429.760374
630.186236	39757.274057
630.532405	39388.581708
630.878521	39600.602557
631.224585	39477.442127
631.570597	39192.886637
631.916556	39349.905976
632.262462	39299.391094
632.608316	39323.213067
632.954117	39221.855627
633.299866	39214.858506
633.645562	39118.774113
633.991206	38623.737847
634.336797	38201.914258
634.682336	38196.099287
635.027823	37963.318967
635.373257	37773.970708
635.718639	37539.471354
636.063968	37402.309120
636.409245	36844.470159
636.754470	36883.261838
637.099642	36629.580894
637.444762	36169.913363
637.789829	36325.143092
638.134845	35969.388865
638.479808	35930.922341
638.824719	35837.913052
639.169577	35441.169204
639.514383	35506.374008
639.859137	35217.997323
640.203839	35445.050892
640.548489	35073.822843
640.893086	35155.986089
641.237632	34925.834731
641.582125	35022.932395
641.926566	34957.432683
642.270955	34928.221717
642.615292	34946.979851
642.959576	34919.734935
643.303809	34920.039925
643.647990	35061.885391
643.992118	35032.745001
644.336195	35024.054052
644.680219	35119.843537
645.024192	35421.188590
645.368112	35938.000121
645.711981	35955.306402
646.055797	36803.382234
646.399562	36734.033601
646.743274	37673.492950
647.086935	38119.751012
647.430544	38015.643623
647.774101	38129.367013
648.117606	38367.440544
648.461059	38670.953294
648.804460	38267.542519
649.147810	37670.460696
649.491108	37406.180726
649.834354	37067.248829
650.177548	36238.261326
650.520690	35800.858051
650.863781	35800.081713
651.206820	35657.893449
651.549807	35217.326849
651.892742	34757.591263
652.235626	34561.752518
652.578458	34426.077424
652.921238	33827.594160
653.263967	34161.502547
653.606644	33841.296016
653.949269	33792.598470
654.291843	33398.375198
654.634365	33807.497600
654.976836	33403.479366
655.319255	33406.030190
655.661622	33406.332659
656.003938	33170.585620
656.346203	33033.352810
656.688416	33256.355812
657.030577	33061.633683
657.372687	32907.583583
657.714746	33180.352856
658.056753	33284.629123
658.398708	32746.773296
658.740612	32798.634166
659.082465	33078.592124
659.424266	32894.814340
659.766016	33010.652494
660.107715	32899.830288
660.449362	33023.031047
660.790958	33001.850639
661.132503	33043.021743
661.473996	33061.253076
661.815438	33168.884231
662.156829	33371.750344
662.498168	33150.085768
662.839456	33160.389887
663.180693	33318.346881
663.521879	33472.507886
663.863013	33423.999383
664.204097	33431.215795
664.545129	33886.250506
664.886110	33858.085579
665.227040	33916.134466
665.567918	34053.231165
665.908746	34104.724031
666.249522	34274.999084
666.590248	34255.502422
666.930922	34381.574118
667.271545	34339.440154
667.612118	34429.797796
667.952639	34219.432966
668.293109	34264.107672
668.633528	34159.455838
668.973896	34074.444340
669.314213	34108.013384
669.654480	33848.777088
669.994695	33872.513361
670.334859	33771.607105
670.674973	33669.637166
671.015035	33823.092410
671.355047	33787.322902
671.695008	33730.105806
672.034918	33623.951709
672.374777	33706.810634
672.714585	33547.779875
673.054342	33789.223418
673.394049	33547.200142
673.733705	33818.444466
674.073310	33476.437465
674.412864	33568.352823
674.752368	33159.011131
675.091820	33444.665593
675.431223	33035.918757
675.770574	32763.136881
676.109875	32618.276805
676.449125	32350.934334
676.788324	32285.106947
677.127473	31742.434297
677.466571	31653.442809
677.805619	31316.555100
678.144616	31305.532617
678.483562	31236.267163
678.822458	30904.700393
679.161303	30855.052589
679.500098	30763.248136
679.838842	30633.524124
680.177535	30797.782561
680.516179	31067.605279
680.854771	31311.244244
681.193314	32178.012675
681.531805	33301.960610
681.870247	34087.939509
682.208638	34814.374820
682.546978	35038.784304
682.885268	35128.668077
683.223508	34591.880974
683.561697	34253.498563
683.899836	34068.004266
684.237925	33561.857297
684.575963	33414.055707
684.913951	32960.069556
685.251889	33122.160297
685.589776	33114.966570
685.927614	33093.713065
686.265401	33237.640528
686.603137	33340.444779
686.940824	33845.891028
687.278460	34239.705966
687.616046	34378.493973
687.953582	34984.334801
688.291068	34855.321592
688.628504	35137.747195
688.965889	35061.436728
689.303224	34666.696738
689.640510	34322.181764
689.977745	33597.818368
690.314930	32798.399753
690.652065	32274.865843
690.989150	31524.548067
691.326185	30632.878857
691.663170	29939.311869
692.000105	29181.918833
692.336990	28505.224588
692.673825	28052.591987
693.010610	27535.546042
693.347345	26952.723123
693.684030	26309.890308
694.020665	26022.504209
694.357251	25366.589600
694.693786	25321.367930
695.030272	25088.874955
695.366707	24545.574682
695.703093	24261.455251
696.039429	24238.311314
696.375716	23993.006247
696.711952	23952.855977
697.048139	23793.235402
697.384276	23614.463484
697.720363	23749.006839
698.056400	23543.506723
698.392388	23328.902283
698.728326	23284.386374
699.064214	23081.565632
699.400053	23038.088200
699.735842	22675.901461
700.071581	22397.496178
700.407270	22106.283844
700.742910	21908.559708
701.078501	21639.097432
701.414042	21363.739527
701.749533	21065.167108
702.084974	20735.866336
702.420366	20924.022362
702.755709	20491.178810
703.091002	20197.498831
703.426246	20211.286387
703.761440	20116.212746
704.096584	19848.403968
704.431679	19791.663261
704.766725	19705.741835
705.101721	19648.043309
705.436668	19739.772144
705.771565	19416.740047
706.106413	19765.529920
706.441212	19740.871116
706.775961	19866.723522
707.110661	19941.370407
707.445311	20297.127155
707.779913	20136.770571
708.114465	20378.009948
708.448967	20673.945843
708.783421	21360.561079
709.117825	21637.007874
709.452180	21861.934076
709.786485	22258.370414
710.120742	23060.614596
710.454949	23084.000509
710.789107	23539.791393
711.123216	24246.160390
711.457275	24376.963209
711.791286	24902.914352
712.125247	24971.799198
712.459159	24671.724516
712.793023	25334.306051
713.126837	24221.753644
713.460602	24477.284691
713.794318	24100.249233
714.127985	23720.942736
714.461602	22815.007060
714.795171	22788.278863
715.128691	21759.402048
715.462162	21214.657484
715.795584	20806.830658
716.128957	20537.968280
716.462281	20130.481732
716.795556	19893.108921
717.128782	19395.153826
717.461960	18853.718780
717.795088	18789.907854
718.128167	18380.540956
718.461198	17929.395496
718.794180	17782.309750
719.127113	17421.411025
719.459997	17223.938947
719.792833	16871.209412
720.125619	16845.025659
720.458357	16538.425203
720.791046	16364.434819
721.123686	16210.573763
721.456278	15966.435723
721.788821	15935.558656
722.121315	15675.346897
722.453761	15742.840385
722.786158	15669.589899
723.118506	15671.341700
723.450805	15541.284972
723.783056	15703.940322
724.115259	15600.952069
724.447412	15542.860333
724.779518	15773.649397
725.111574	15803.790456
725.443582	15996.644837
725.775542	15977.914430
726.107453	16442.466839
726.439315	16326.265723
726.771129	16732.726396
727.102895	17109.905526
727.434612	17307.460784
727.766281	17437.358716
728.097901	17704.731433
728.429473	17733.753356
728.760996	17712.109162
729.092471	17800.238613
729.423897	17667.361360
729.755276	17529.352212
730.086606	17646.274213
730.417887	18167.272422
730.749120	18686.236525
731.080305	18862.253453
731.411442	19197.137303
731.742530	19266.269166
732.073570	19362.865236
732.404562	19655.491614
732.735506	19460.507345
733.066401	19183.241362
733.397249	18659.344490
733.728048	18018.807921
734.058798	17189.921241
734.389501	16516.644898
734.720156	16048.790533
735.050762	15526.905081
735.381320	15174.609085
735.711831	14931.335604
736.042293	14586.243417
736.372707	14603.458957
736.703073	14389.565320
737.033391	14580.952726
737.363661	14531.441034
737.693883	14645.434125
738.024056	14823.563296
738.354182	15007.517521
738.684260	15289.807013
739.014290	15513.437638
739.344272	15695.083014
739.674207	15992.599311
740.004093	16098.876917
740.333931	16079.907055
740.663722	16120.022037
740.993464	16110.937877
741.323159	15932.831391
741.652806	15656.737477
741.982405	15441.649087
742.311956	15113.822852
742.641460	14990.485982
742.970915	14680.235731
743.300323	14356.472666
743.629683	14133.522596
743.958996	13860.705432
744.288260	13598.298251
744.617477	13297.303558
744.946647	13221.222464
745.275768	12943.953961
745.604842	12769.600614
745.933869	12593.626536
746.262847	12536.369111
746.591778	12469.684728
746.920662	12373.234852
747.249498	12369.252340
747.578286	12489.975372
747.907027	12633.280252
748.235720	12858.483718
748.564365	12883.263510
748.892963	12784.595526
749.221514	12845.943848
749.550017	12695.341898
749.878473	12660.260508
750.206881	12438.106940
750.535242	12341.871313
750.863555	12266.238882
751.191821	12161.314827
751.520039	12182.563290
751.848210	12082.014956
752.176334	12119.445523
752.504411	12026.400947
752.832440	11874.876465
753.160421	11938.936928
753.488356	11809.722072
753.816243	11724.461037
754.144082	11579.669016
754.471875	11521.116014
754.799620	11463.079731
755.127318	11442.030393
755.454969	11406.928839
755.782572	11348.884993
756.110129	11367.590195
756.437638	11287.725715
756.765100	11271.155442
757.092515	11276.950248
757.419882	11292.877774
757.747203	11293.238217
758.074477	11376.074457
758.401703	11331.361942
758.728882	11488.968576
759.056014	11533.832325
759.383099	11649.322639
759.710138	11750.518761
760.037129	11835.114364
760.364073	11849.615243
760.690970	11838.746515
761.017820	11832.820639
761.344623	12029.402954
761.671379	12341.783093
761.998088	12968.461531
762.324751	14519.223797
762.651366	17373.449488
762.977935	21029.407683
763.304456	23249.093256
763.630931	23732.789447
763.957359	22551.939488
764.283740	20637.183228
764.610074	18767.081510
764.936362	16639.369267
765.262602	15134.501665
765.588796	13658.693795
765.914943	12626.202472
766.241044	11784.216354
766.567097	11147.775722
766.893104	10603.381518
767.219064	10243.934646
767.544978	9854.480306
767.870845	9551.128873
768.196665	9360.379173
768.522438	9165.044544
768.848165	9001.086057
769.173846	8832.434255
769.499479	8713.730205
769.825066	8561.300836
770.150607	8371.728246
770.476101	8308.161816
770.801548	8199.083850
771.126949	8060.994043
771.452303	7971.826114
771.777611	7809.140518
772.102872	7783.261754
772.428087	7668.875453
772.753256	7545.578912
773.078378	7456.521888
773.403453	7319.024417
773.728482	7215.101031
774.053465	7156.031311
774.378401	7066.631488
774.703291	6971.998948
775.028135	6873.746860
775.352932	6834.808988
775.677683	6760.678820
776.002388	6669.156672
776.327046	6666.789850
776.651658	6586.378405
776.976224	6505.387228
777.300743	6493.580845
777.625216	6423.400422
777.949643	6380.094390
778.274024	6388.495473
778.598359	6320.452499
778.922647	6324.445093
779.246889	6280.703001
779.571086	6288.272293
779.895236	6297.999200
780.219339	6294.629188
780.543397	6293.946112
780.867409	6343.354461
781.191374	6337.902453
781.515294	6299.998017
781.839167	6358.213262
782.162995	6326.970711
782.486776	6277.532115
782.810511	6241.119861
783.134201	6158.490308
783.457844	6153.159288
783.781441	6102.546103
784.104993	6063.265432
784.428498	6030.414753
784.751958	6009.677967
785.075372	5993.266491
785.398739	5952.496159
785.722061	5974.268903
786.045337	5977.417103
786.368568	6079.649183
786.691752	6108.882834
787.014891	6357.504980
787.337983	6632.008409
787.661030	7069.116777
787.984031	7495.716860
788.306987	7761.879700
788.629897	7847.450766
788.952760	7757.083043
789.275579	7579.508398
789.598351	7281.490506
789.921078	7022.748244
790.243759	6740.083186
790.566395	6535.853441
790.888984	6342.958730
791.211529	6203.832966
791.534027	6044.169542
791.856480	5901.608232
792.178888	5844.716290
792.501249	5776.383449
792.823566	5672.220608
793.145836	5666.347664
793.468062	5649.061547
793.790241	5609.105362
794.112375	5653.628833
794.434464	5750.892855
794.756507	5776.945538
795.078505	5894.379217
795.400457	6116.671416
795.722364	6353.562797
796.044226	6552.211985
796.366042	6708.064298
796.687812	6644.830584
797.009538	6681.404155
797.331218	6585.211378
797.652852	6519.104207
797.974442	6397.083078
798.295986	6324.498025
798.617484	6196.913983
798.938938	6090.628816
799.260346	6020.791191
799.581709	5884.790942
799.903026	5838.593808
800.224299	5762.222848
800.545526	5646.755219
800.866708	5582.316670
801.187845	5529.051839
801.508936	5453.182473
801.829983	5425.748514
802.150984	5320.766485
802.471940	5291.747083
802.792851	5276.636225
803.113717	5250.712091
803.434538	5231.023865
803.755314	5195.816446
804.076045	5180.498900
804.396731	5145.782994
804.717372	5165.902239
805.037967	5167.838042
805.358518	5196.164286
805.679024	5255.846506
805.999485	5268.633393
806.319901	5287.068893
806.640272	5305.854752
806.960598	5351.197411
807.280879	5338.730637
807.601115	5374.069126
807.921306	5337.336758
808.241453	5334.859031
808.561554	5345.788252
808.881611	5312.010001
809.201623	5307.387263
809.521590	5255.561681
809.841513	5242.885700
810.161390	5256.080920
810.481223	5170.537580
810.801011	5159.157175
811.120755	5131.309842
811.440453	5079.506945
811.760107	5049.517120
812.079716	5021.944529
812.399281	4973.304957
812.718801	4964.094768
813.038276	4929.641003
813.357707	4897.725457
813.677093	4919.873767
813.996434	4856.375393
814.315731	4877.044124
814.634983	4875.166294
814.954191	4888.167430
815.273354	4939.922436
815.592473	4980.130679
815.911547	5053.232451
816.230577	5108.879227
816.549562	5196.824677
816.868502	5247.715125
817.187399	5305.801820
817.506250	5381.613212
817.825058	5408.911060
818.143821	5566.782355
818.462539	5734.234362
818.781213	5963.075020
819.099843	6325.445762
819.418429	6950.349713
819.736970	7566.928199
820.055466	8276.510932
820.373919	9194.447074
820.692327	10644.976079
821.010691	13319.391373
821.329011	19525.329021
821.647286	29078.739017
821.965517	39419.360473
822.283704	44913.308237
822.601847	46420.877898
822.919945	41846.388704
823.237999	36728.352221
823.556010	31527.366072
823.873976	26821.343092
824.191897	22623.594449
824.509775	19536.679179
824.827609	16764.215963
825.145398	15214.691300
825.463144	14451.140494
825.780845	14743.726543
826.098502	15992.425392
826.416116	18450.686091
826.733685	20732.566900
827.051210	21270.304261
827.368692	19847.715851
827.686129	17283.399357
828.003522	14813.407892
828.320872	12577.562900
828.638177	10931.648854
828.955439	9687.988638
829.272656	8618.006255
829.589830	7789.268289
829.906960	7049.791514
830.224046	6519.202510
830.541088	6108.948369
830.858086	5850.216189
831.175041	5644.017873
831.491952	5587.050314
831.808819	5616.445282
832.125642	5863.734043
832.442421	6414.699391
832.759157	7516.264603
833.075849	9286.758163
833.392497	11146.434775
833.709101	12264.345929
834.025662	12009.911333
834.342179	10955.944695
834.658653	9647.886260
834.975083	8541.347949
835.291469	7643.596587
835.607811	6904.694503
835.924110	6376.013576
836.240366	5894.739659
836.556578	5441.605464
836.872746	5088.409622
837.188871	4815.718487
837.504952	4593.779169
837.820990	4425.505453
838.136984	4311.416580
838.452935	4260.659723
838.768842	4289.858086
839.084706	4568.487700
839.400526	5307.682171
839.716303	6218.101952
840.032037	6786.134127
840.347727	6638.985366
840.663373	6037.976484
840.978977	5457.641374
841.294537	5018.075444
841.610054	4683.680586
841.925527	4447.555460
842.240957	4239.885128
842.556344	4056.326634
842.871687	3898.891399
843.186987	3749.101074
843.502244	3626.848052
843.817458	3540.903941
844.132629	3471.472129
844.447756	3420.392638
844.762840	3377.101729
845.077881	3337.722756
845.392879	3302.631284
845.707833	3277.612037
846.022745	3251.284611
846.337613	3238.830441
846.652438	3217.513922
846.967221	3209.296841
847.281960	3187.224149
847.596656	3177.872808
847.911309	3169.764112
848.225919	3153.244251
848.540485	3140.860657
848.855009	3135.708598
849.169490	3122.372225
849.483928	3116.131277
849.798323	3111.400154
850.112675	3104.571911
850.426984	3102.933536
850.741251	3093.902309
851.055474	3090.849890
851.369654	3092.485745
851.683792	3089.899633
851.997887	3093.829212
852.311938	3093.882144
852.625947	3094.534974
852.939914	3086.262440
853.253837	3093.751074
853.567718	3088.954416
853.881555	3082.181626
854.195350	3089.410641
854.509103	3088.984663
854.822812	3082.111050
855.136479	3077.929413
855.450103	3084.692121
855.763685	3075.635688
856.077224	3083.966195
856.390720	3088.641865
856.704173	3099.810541
857.017584	3100.909513
857.330953	3109.287910
857.644278	3116.708489
857.957561	3120.181844
858.270802	3116.292594
858.584000	3115.029785
858.897155	3112.378138
859.210268	3100.410438
859.523339	3089.251844
859.836367	3084.273705
860.149352	3080.255905
860.462295	3077.100143
860.775195	3066.349883
861.088054	3061.235632
861.400869	3061.593554
861.713642	3060.958368
862.026373	3074.642581
862.339062	3073.422621
862.651708	3083.288159
862.964312	3099.349276
863.276873	3105.388578
863.589392	3136.699184
863.901869	3163.172804
864.214303	3184.292718
864.526696	3205.911706
864.839045	3220.843604
865.151353	3236.226685
865.463619	3232.589492
865.775842	3238.558218
866.088023	3242.200452
866.400162	3234.215264
866.712258	3235.004205
867.024313	3235.488156
867.336325	3231.992116
867.648296	3234.099318
867.960224	3232.362640
868.272110	3237.565111
868.583954	3232.954976
868.895755	3242.598703
869.207515	3238.031418
869.519233	3262.113010
869.830909	3264.913371
870.142542	3277.375103
870.454134	3283.454735
870.765684	3295.742547
871.077191	3314.956905
871.388657	3328.711693
871.700081	3348.057121
872.011463	3365.640666
872.322803	3382.422667
872.634101	3402.859505
872.945357	3424.581837
873.256571	3449.280970
873.567744	3464.618680
873.878874	3469.702684
874.189963	3486.643482
874.501010	3489.282526
874.812015	3484.047287
875.122979	3502.656707
875.433900	3498.212930
875.744780	3502.530678
876.055618	3509.921009
876.366415	3508.965711
876.677169	3512.935619
876.987882	3531.562683
877.298554	3551.424829
877.609183	3593.725151
877.919771	3639.466060
878.230317	3704.257490
878.540822	3811.558450
878.851285	3963.496306
879.161707	4187.235317
879.472087	4557.566040
879.782425	5188.199263
880.092722	6373.785386
880.402977	8308.391189
880.713191	10679.066882
881.023363	13065.786047
881.333494	14419.673612
881.643583	14878.862233
881.953631	14486.942769
882.263637	13645.614521
882.573602	12613.997839
882.883526	11652.959832
883.193408	10687.856133
883.503248	9776.657493
883.813048	8940.763610
884.122806	8173.346239
884.432522	7401.628764
884.742197	6743.402786
885.051831	6173.724675
885.361424	5677.297050
885.670975	5276.893323
885.980485	4951.522131
886.289954	4681.258311
886.599382	4464.027430
886.908768	4285.368938
887.218113	4121.057570
887.527417	3984.459944
887.836680	3859.996377
888.145901	3758.091972
888.455082	3684.554140
888.764221	3612.319447
889.073319	3555.006569
889.382376	3521.805530
889.691392	3493.189420
890.000366	3490.033658
890.309300	3483.470075
890.618193	3486.663646
890.927044	3483.117194
891.235855	3488.720437
891.544625	3503.690143
891.853353	3531.471942
892.162041	3590.778597
892.470687	3684.410468
892.779293	3804.044610
893.087858	3975.930312
893.396381	4256.810802
893.704864	4668.234490
894.013306	5243.170525
894.321707	5815.180169
894.630068	6180.469739
894.938387	6222.238219
895.246665	6042.768101
895.554903	5724.618361
895.863100	5383.254108
896.171256	5108.367550
896.479371	4870.548597
896.787446	4645.677848
897.095480	4449.077889
897.403473	4296.830001
897.711425	4151.254081
898.019336	4029.069115
898.327207	3907.582348
898.635038	3803.953869
898.942827	3696.350440
899.250576	3606.491873
899.558284	3523.068339
899.865952	3469.254021
900.173579	3404.293713
900.481165	3356.778317
900.788711	3316.741473
901.096216	3284.203346
901.403681	3255.667895
901.711105	3244.920155
902.018489	3240.161305
902.325832	3273.992489
902.633135	3334.536747
902.940397	3507.662573
903.247619	3907.869694
903.554800	4665.865148
903.861941	5631.137725
904.169041	6342.568041
904.476101	6563.085754
904.783121	6285.960924
905.090100	5879.044027
905.397039	5468.240400
905.703938	5101.655254
906.010796	4774.998567
906.317614	4522.315772
906.624391	4282.477836
906.931129	4085.741766
907.237826	3903.579672
907.544483	3730.703383
907.851099	3560.284657
908.157675	3398.952610
908.464211	3258.465735
908.770707	3153.027482
909.077163	3073.107549
909.383578	3010.657735
909.689954	2970.154585
909.996289	2937.528237
910.302584	2919.185999
910.608839	2905.075809
910.915054	2889.788510
911.221229	2889.002090
911.527363	2891.074004
911.833458	2899.772515
912.139513	2909.010430
912.445527	2924.834612
912.751502	2958.433902
913.057436	3004.142044
913.363331	3062.193451
913.669186	3151.210146
913.975000	3268.336314
914.280775	3457.203143
914.586510	3724.391859
914.892205	4104.207513
915.197859	4604.592444
915.503475	5192.517011
915.809050	5690.696437
916.114585	5981.228215
916.420081	6048.421755
916.725536	5990.410677
917.030952	5747.938739
917.336328	5537.493251
917.641665	5324.572557
917.946961	5093.599490
918.252218	4895.693873
918.557435	4664.531763
918.862612	4466.053974
919.167750	4295.632727
919.472848	4102.090228
919.777906	3933.077984
920.082925	3771.425824
920.387904	3618.280611
920.692843	3504.471522
920.997743	3404.906213
921.302603	3310.250988
921.607423	3245.769589
921.912204	3178.918848
922.216946	3127.405817
922.521647	3077.546285
922.826310	3039.188146
923.130932	3000.688854
923.435516	2961.246866
923.740059	2931.259562
924.044564	2900.374933
924.349028	2873.127497
924.653454	2847.326871
924.957840	2819.371153
925.262186	2800.701239
925.566493	2780.279525
925.870761	2754.236924
926.174989	2742.911972
926.479178	2726.437482
926.783328	2710.086499
927.087438	2699.260621
927.391509	2686.246882
927.695541	2673.432269
927.999533	2666.467915
928.303486	2655.296718
928.607400	2645.569812
928.911275	2644.884215
929.215110	2636.185704
929.518906	2634.754017
929.822663	2634.212092
930.126381	2632.661938
930.430060	2639.086888
930.733699	2639.865747
931.037299	2643.898670
931.340861	2640.039666
931.644383	2647.550986
931.947866	2643.626447
932.251309	2638.182001
932.554714	2642.030922
932.858080	2638.043369
933.161407	2638.280304
933.464694	2632.127575
933.767943	2629.198665
934.071153	2625.969806
934.374323	2620.502675
934.677455	2619.055863
934.980548	2614.763321
935.283602	2613.308948
935.586617	2610.806015
935.889593	2614.478496
936.192530	2613.805502
936.495428	2622.251955
936.798287	2630.776546
937.101108	2644.823721
937.403890	2667.544202
937.706632	2691.587985
938.009336	2723.054867
938.312002	2753.657192
938.614628	2778.956222
938.917216	2799.556897
939.219765	2806.536375
939.522275	2819.277891
939.824747	2819.741677
940.127179	2812.396716
940.429573	2805.954122
940.731929	2805.795325
941.034246	2794.805610
941.336524	2794.815692
941.638763	2787.763118
941.940964	2780.826490
942.243126	2761.970054
942.545250	2756.661719
942.847335	2739.829307
943.149381	2727.806155
943.451389	2713.517004
943.753359	2699.643749
944.055290	2690.118489
944.357182	2680.058866
944.659036	2676.754390
944.960851	2673.273473
945.262628	2668.197031
945.564367	2670.488236
945.866067	2670.291631
946.167729	2667.322391
946.469352	2662.505568
946.770937	2663.385250
947.072484	2657.902995
947.373992	2658.560866
947.675462	2655.697490
947.976893	2648.619710
948.278286	2642.855151
948.579641	2640.465644
948.880958	2637.866929
949.182236	2637.307361
949.483476	2634.877525
949.784678	2632.419962
950.085841	2633.723101
950.386967	2637.438431
950.688054	2641.277270
950.989103	2651.510812
951.290114	2661.141936
951.591087	2673.593586
951.892021	2685.473065
952.192917	2699.255580
952.493776	2703.573328
952.794596	2712.662529
953.095378	2712.607076
953.396122	2710.038608
953.696828	2707.092054
953.997496	2702.343287
954.298126	2691.517409
954.598718	2688.308714
954.899272	2673.891014
955.199788	2662.195537
955.500266	2650.013589
955.800706	2634.726290
956.101108	2616.830194
956.401472	2607.655294
956.701798	2591.284147
957.002087	2576.805953
957.302337	2568.099880
957.602550	2558.141081
957.902724	2547.491643
958.202861	2537.986548
958.502960	2527.861390
958.803022	2521.426358
959.103045	2513.020233
959.403031	2508.268946
959.702979	2503.414315
960.002889	2498.211844
960.302762	2490.783704
960.602596	2489.593992
960.902393	2488.797489
961.202153	2481.139977
961.501875	2478.745428
961.801559	2476.212249
962.101205	2475.798874
962.400814	2473.648822
962.700385	2473.719398
962.999918	2468.559777
963.299414	2467.047431
963.598873	2465.212451
963.898293	2463.382512
964.197677	2464.002574
964.497022	2461.464353
964.796331	2462.414611
965.095601	2458.205247
965.394835	2458.633745
965.694030	2456.420679
965.993189	2459.541153
966.292309	2457.018055
966.591393	2458.180041
966.890439	2457.660802
967.189447	2457.000411
967.488419	2456.203909
967.787353	2457.527212
968.086249	2458.409414
968.385108	2458.210288
968.683930	2458.048971
968.982714	2461.610547
969.281462	2461.668520
969.580172	2463.793366
969.878844	2465.681278
970.177480	2470.813173
970.476078	2472.086064
970.774639	2474.904069
971.073162	2478.929431
971.371649	2475.846765
971.670098	2478.503453
971.968510	2479.796509
972.266885	2479.274750
972.565223	2483.872282
972.863524	2484.368836
973.161788	2487.234732
973.460014	2489.034423
973.758204	2487.716162
974.056356	2489.397387
974.354471	2489.677171
974.652550	2490.408138
974.950591	2492.260762
975.248595	2489.147849
975.546563	2488.495020
975.844493	2486.695328
976.142386	2485.069556
976.440243	2479.615028
976.738062	2477.853144
977.035845	2477.545634
977.333590	2475.148565
977.631299	2473.719398
977.928971	2472.207052
978.226606	2467.065075
978.524204	2466.409725
978.821765	2466.006433
979.119290	2465.099025
979.416777	2465.653552
979.714228	2465.829992
980.011642	2466.752523
980.309020	2468.022894
980.606360	2475.635037
980.903664	2483.763897
981.200931	2496.903665
981.498162	2515.490399
981.795356	2545.434853
982.092513	2586.290884
982.389633	2629.354941
982.686717	2673.081909
982.983764	2704.742876
983.280775	2723.357337
983.577749	2722.512943
983.874686	2714.681511
984.171587	2699.023687
984.468451	2682.019875
984.765279	2665.820127
985.062070	2644.443114
985.358824	2625.311935
985.655543	2603.806373
985.952224	2581.963053
986.248869	2552.805020
986.545478	2526.132275
986.842050	2507.454800
987.138586	2486.075266
987.435086	2475.037660
987.731549	2460.360340
988.027975	2460.269600
988.324366	2450.537652
988.620719	2445.269646
988.917037	2441.869388
989.213318	2438.698502
989.509563	2441.067845
989.805772	2436.414860
990.101944	2433.609458
990.398080	2433.785898
990.694180	2434.932760
990.990244	2433.886721
991.286271	2433.927050
991.582262	2434.146340
991.878217	2435.940991
992.174136	2435.620878
992.470019	2437.100457
992.765865	2440.543565
993.061676	2441.516507
993.357450	2442.983483
993.653188	2446.466920
993.948890	2451.954216
994.244556	2458.076698
994.540186	2466.137503
994.835780	2477.238123
995.131337	2493.084991
995.426859	2510.237517
995.722345	2530.182842
996.017795	2547.912580
996.313208	2563.830023
996.608586	2573.627506
996.903928	2578.915676
997.199234	2574.043401
997.494504	2569.576938
997.789738	2563.683830
998.084936	2555.623025
998.380099	2542.306817
998.675225	2530.422297
998.970316	2515.858403
999.265371	2504.309120
999.560390	2487.338075
999.855373	2482.717858
1000.150320	2469.056331
1000.445232	2459.611729
1000.740108	2452.728033
1001.034948	2447.661674
1001.329752	2443.106991
1001.624521	2437.168512
1001.919254	2430.940167
1002.213951	2429.959662
1002.508613	2425.853642
1002.803239	2425.692325
1003.097829	2417.883578
1003.392384	2422.128230
1003.686903	2421.372057
1003.981386	2423.254928
1004.275834	2422.090421
1004.570246	2421.452715
1004.864623	2415.138670
1005.158964	2418.992632
1005.453270	2417.238310
1005.747540	2418.596901
1006.041775	2417.195461
1006.335974	2415.252096
1006.630138	2416.104051
1006.924266	2411.360325
1007.218359	2415.594894
1007.512416	2412.383679
1007.806438	2411.138514
1008.100425	2414.261509
1008.394376	2415.090779
1008.688292	2415.020203
1008.982172	2414.387538
1009.276017	2412.610531
1009.569827	2412.285377
1009.863602	2411.536765
1010.157341	2413.936355
1010.451045	2412.718916
1010.744714	2412.855027
1011.038347	2410.427712
1011.331945	2410.901580
1011.625508	2408.575088
1011.919036	2410.221024
1012.212528	2409.757238
1012.505986	2409.386713
1012.799408	2408.698596
1013.092795	2409.351425
1013.386147	2410.062228
1013.679464	2407.236661
1013.972745	2408.431415
1014.265992	2409.772362
1014.559204	2409.497619
1014.852380	2410.578946
1015.145521	2407.372772
1015.438628	2404.726167
1015.731699	2408.774213
1016.024736	2407.087947
1016.317737	2409.472413
1016.610703	2411.254461
1016.903635	2408.567526
1017.196531	2407.163564
1017.489393	2406.888822
1017.782219	2407.047618
1018.075011	2412.388720
1018.367768	2412.676066
1018.660490	2411.733370
1018.953177	2411.733370
1019.245829	2411.733370
