Dividing Wavelength (nm)	Counts (n)	Blue Motor Position (mm): 21.400000	Red Motor Position (mm): 0.000000	
326.493990	1974.889663
326.888308	1974.889663
327.282561	1974.889663
327.676750	1948.678184
328.070874	1951.294543
328.464933	1956.807044
328.858929	1968.462192
329.252859	1979.572895
329.646726	1993.579741
330.040528	2008.559530
330.434265	2027.794052
330.827938	2049.528987
331.221547	2070.482543
331.615091	2086.541139
332.008571	2108.969232
332.401986	2128.914557
332.795338	2149.618576
333.188625	2169.836124
333.581847	2190.275482
333.975006	2205.845086
334.368100	2226.024824
334.761129	2243.018554
335.154095	2254.557755
335.546996	2290.564197
335.939833	2357.568693
336.332606	2370.307689
336.725315	2382.189688
337.117960	2392.627397
337.510540	2397.091339
337.903056	2410.470561
338.295508	2411.564492
338.687896	2421.906419
339.080220	2429.233736
339.472480	2435.086516
339.864676	2440.183122
340.256807	2441.105653
340.648875	2443.961467
341.040879	2445.781323
341.432818	2446.580346
341.824694	2444.566405
342.216506	2444.455500
342.608253	2446.877774
342.999937	2443.306117
343.391557	2445.163782
343.783113	2445.040274
344.174605	2436.901331
344.566033	2439.948708
344.957397	2438.128852
345.348697	2435.454520
345.739934	2434.209355
346.131106	2433.722883
346.522215	2430.778850
346.913260	2430.085691
347.304241	2426.561924
347.695159	2425.697367
348.086012	2424.936152
348.476802	2422.176121
348.867528	2423.191913
349.258191	2419.196799
349.648789	2419.781573
350.039324	2418.982550
350.429796	2419.829463
350.820203	2414.556417
351.210548	2417.329051
351.600828	2414.994997
351.991045	2414.634554
352.381198	2414.674884
352.771288	2413.858217
353.161314	2414.629513
353.551276	2414.107754
353.941175	2412.660943
354.331010	2409.754718
354.720782	2417.480286
355.110490	2418.596901
355.500135	2414.420305
355.889717	2412.441653
356.279235	2415.302507
356.668689	2414.720254
357.058080	2415.811664
357.447408	2414.364853
357.836672	2413.429719
358.225873	2410.503329
358.615010	2412.338309
359.004084	2419.237128
359.393095	2415.305028
359.782043	2418.186047
360.170927	2417.999525
360.559748	2420.527663
360.948505	2420.043713
361.337199	2419.111099
361.725830	2421.482962
362.114398	2421.742581
362.502903	2419.620256
362.891344	2421.936666
363.279722	2419.416089
363.668037	2424.893302
364.056289	2423.708631
364.444478	2423.355751
364.832603	2423.441450
365.220665	2421.737540
365.608665	2426.072932
365.996601	2423.721234
366.384474	2425.813313
366.772284	2429.337080
367.160031	2429.261462
367.547715	2427.975968
367.935336	2427.393715
368.322893	2427.567635
368.710388	2427.645773
369.097820	2430.163829
369.485189	2432.888572
369.872495	2430.141144
370.259738	2431.219951
370.646918	2432.507965
371.034035	2432.029056
371.421090	2433.208686
371.808081	2429.263983
372.195010	2431.887903
372.581875	2430.856988
372.968678	2431.794642
373.355418	2432.301278
373.742096	2430.375557
374.128710	2430.698191
374.515262	2430.680547
374.901751	2435.545261
375.288177	2434.113573
375.674540	2435.058789
376.060841	2435.608275
376.447079	2433.387647
376.833254	2433.435538
377.219367	2430.650300
377.605417	2433.140630
377.991404	2432.097111
378.377329	2435.704057
378.763191	2431.688778
379.148991	2435.883018
379.534727	2441.312341
379.920402	2438.685899
380.306013	2435.948553
380.691563	2440.014243
381.077049	2435.953594
381.462474	2436.006526
381.847835	2439.671445
382.233134	2438.327977
382.618371	2440.460386
383.003545	2438.262442
383.388657	2441.690427
383.773706	2439.134562
384.158693	2438.640529
384.543618	2444.170675
384.928480	2442.902825
385.313280	2439.489963
385.698017	2440.092381
386.082692	2440.014243
386.467305	2442.799481
386.851856	2445.430963
387.236344	2442.978442
387.620770	2443.835438
388.005133	2444.337033
388.389435	2445.988011
388.773674	2442.318051
389.157851	2445.940120
389.541965	2444.208483
389.926018	2446.545058
390.310008	2443.240582
390.693936	2449.451283
391.077802	2447.855758
391.461606	2445.728391
391.845348	2444.011878
392.229027	2447.344081
392.612645	2448.276695
392.996200	2449.975563
393.379694	2447.099585
393.763125	2449.801644
394.146494	2445.766200
394.529801	2450.444391
394.913047	2450.456994
395.296230	2450.071345
395.679351	2451.114864
396.062410	2448.722837
396.445408	2450.772066
396.828343	2451.316510
397.211217	2447.409616
397.594028	2447.918773
397.976778	2446.391303
398.359466	2446.943309
398.742092	2447.578495
399.124656	2450.807354
399.507158	2454.467232
399.889598	2453.673250
400.271977	2452.904474
400.654294	2454.530246
401.036549	2453.693414
401.418742	2453.947993
401.800874	2455.437654
402.182944	2453.068311
402.564952	2453.257355
402.946898	2454.812551
403.328783	2455.863631
403.710606	2456.029989
404.092367	2454.729372
404.474067	2457.895216
404.855705	2457.885134
405.237282	2455.540997
405.618797	2455.215843
406.000250	2454.598302
406.381642	2455.798096
406.762972	2455.437654
407.144240	2455.966975
407.525447	2458.827830
407.906593	2460.141050
408.287677	2457.804475
408.668700	2459.422686
409.049661	2458.648869
409.430560	2457.612912
409.811399	2461.403859
410.192176	2460.723303
410.572891	2460.975361
410.953545	2462.134827
411.334138	2459.750361
411.714669	2460.942594
412.095139	2461.676082
412.475547	2460.877059
412.855894	2460.193982
413.236180	2459.992336
413.616405	2463.253963
413.996568	2462.132306
414.376670	2463.037193
414.756711	2461.691205
415.136691	2465.129272
415.516609	2464.239508
415.896466	2464.186576
416.276262	2467.402832
416.655997	2461.522326
417.035670	2461.308077
417.415283	2466.056844
417.794834	2461.615588
418.174324	2466.818058
418.553753	2466.573563
418.933121	2464.998202
419.312428	2467.196145
419.691674	2465.724128
420.070859	2467.092801
420.449983	2470.427525
420.829045	2468.892493
421.208047	2469.406691
421.586988	2468.305199
421.965867	2469.210086
422.344686	2466.084571
422.723444	2470.382154
423.102141	2468.693368
423.480777	2471.796198
423.859352	2469.850312
424.237866	2471.944912
424.616319	2471.339973
424.994712	2474.551188
425.373044	2473.689151
425.751314	2470.997175
426.129524	2471.503811
426.507673	2472.938019
426.885762	2473.696713
427.263789	2472.842237
427.641756	2474.289048
428.019662	2472.728811
428.397508	2476.887763
428.775292	2475.932465
429.153016	2476.953298
429.530679	2477.520428
429.908282	2478.604276
430.285824	2475.781230
430.663305	2476.335757
431.040726	2475.992958
431.418086	2477.522949
431.795385	2476.819708
432.172624	2477.744759
432.549802	2476.723926
432.926920	2477.472537
433.303977	2479.877167
433.680974	2478.306848
434.057910	2480.429174
434.434786	2484.782210
434.811601	2481.840697
435.188355	2480.855151
435.565050	2485.256079
435.941683	2479.526807
436.318257	2482.279277
436.694770	2478.662249
437.071222	2482.985039
437.447614	2479.476396
437.823946	2482.564103
438.200218	2483.232055
438.576429	2486.234063
438.952580	2484.275574
439.328670	2485.092241
439.704700	2487.922849
440.080670	2482.611993
440.456580	2486.279433
440.832429	2488.184989
441.208218	2485.498054
441.583947	2487.849752
441.959616	2485.344299
442.335224	2487.035606
442.710773	2489.639362
443.086261	2490.052737
443.461689	2489.752788
443.837057	2489.049547
444.212365	2489.619197
444.587612	2492.822851
444.962800	2490.395535
445.337927	2494.095742
445.712995	2491.146667
446.088002	2497.463233
446.462949	2496.177738
446.837837	2495.373674
447.212664	2493.568941
447.587431	2499.494818
447.962139	2505.120745
448.336786	2509.067969
448.711374	2505.702999
449.085901	2502.590086
449.460369	2502.945488
449.834776	2503.721825
450.209124	2509.267094
450.583412	2509.698113
450.957640	2509.461179
451.331808	2509.909842
451.705917	2505.972700
452.079965	2510.237517
452.453954	2508.488236
452.827883	2509.990500
453.201752	2509.854389
453.575562	2515.016530
453.949311	2513.869668
454.323001	2517.219515
454.696632	2514.209946
455.070202	2521.335617
455.443713	2521.688497
455.817164	2520.949968
456.190556	2522.807634
456.563888	2522.646317
456.937160	2523.523478
457.310373	2528.531864
457.683526	2528.136133
458.056619	2529.151926
458.429653	2531.508665
458.802628	2535.203831
459.175542	2537.361445
459.548398	2541.933771
459.921194	2544.688762
460.293930	2550.455842
460.666607	2555.365926
461.039224	2561.158212
461.411782	2563.588048
461.784280	2565.145764
462.156719	2561.493448
462.529099	2564.586196
462.901419	2563.673747
463.273680	2562.302553
463.645882	2565.012174
464.018024	2566.027966
464.390106	2571.845458
464.762130	2581.736202
465.134094	2600.159098
465.505999	2619.804475
465.877845	2636.856178
466.249631	2645.141314
466.621358	2642.383803
466.993026	2637.148565
467.364634	2639.948926
467.736184	2631.411732
468.107674	2630.395939
468.479105	2633.471043
468.850477	2632.835857
469.221790	2628.618932
469.593043	2623.608025
469.964238	2627.555249
470.335373	2632.654376
470.706449	2640.652167
471.077467	2660.156391
471.448425	2689.810978
471.819324	2705.806559
472.190164	2705.657845
472.560945	2694.108562
472.931667	2683.111285
473.302330	2683.353260
473.672934	2685.425174
474.043479	2696.729962
474.413965	2701.009902
474.784393	2705.360417
475.154761	2722.550752
475.525070	2726.634087
475.895321	2737.792681
476.265513	2751.645771
476.635645	2773.234513
477.005719	2787.064918
477.375734	2802.959676
477.745691	2827.893223
478.115588	2859.178624
478.485427	2895.948800
478.855207	2961.662761
479.224928	3019.257944
479.594591	3065.434913
479.964194	3075.761717
480.333739	3098.504882
480.703226	3130.649800
481.072653	3178.891122
481.442022	3231.780387
481.811333	3273.405194
482.180584	3288.816002
482.549777	3321.275991
482.918912	3354.421578
483.287988	3395.912795
483.657005	3427.309101
484.025964	3455.501754
484.394864	3504.582428
484.763706	3547.364180
485.132489	3578.619333
485.501213	3631.329638
485.869879	3695.314483
486.238487	3748.344901
486.607036	3817.882577
486.975527	3871.205382
487.343959	3946.222792
487.712333	4028.544835
488.080648	4100.653499
488.448905	4203.984550
488.817104	4280.007671
489.185244	4417.752159
489.553326	4614.271459
489.921350	4881.818097
490.289315	5178.033776
490.657222	5344.374209
491.025070	5486.927957
491.392861	5550.761568
491.760593	5581.018573
492.128267	5587.004943
492.495883	5606.123519
492.863440	5639.493437
493.230939	5672.248334
493.598380	5726.032405
493.965763	5837.063818
494.333088	5909.951341
494.700354	6009.216702
495.067563	6130.481657
495.434713	6259.971256
495.801805	6424.973262
496.168839	6528.006885
496.535815	6658.434138
496.902733	6807.695142
497.269593	6928.909686
497.636395	7078.851245
498.003139	7292.878473
498.369825	7401.684217
498.736453	7606.468489
499.103023	7721.026190
499.469535	7884.047023
499.835989	8078.799399
500.202385	8209.801343
500.568723	8391.000577
500.935003	8616.544321
501.301226	8775.769165
501.667390	9079.667563
502.033497	9315.586001
502.399546	9413.898583
502.765537	9491.865069
503.131470	9762.060833
503.497345	10040.796311
503.863163	9990.445266
504.228923	10320.325771
504.594625	10618.625968
504.960269	10685.575011
505.325856	11048.505321
505.691385	11136.191151
506.056856	11386.113914
506.422270	11720.516334
506.787625	11849.711025
507.152924	12121.673713
507.518164	12400.310889
507.883347	12422.970876
508.248472	12737.463258
508.613540	13126.574800
508.978550	13452.152680
509.343503	13625.762457
509.708398	13940.206949
510.073236	14346.927241
510.438016	14609.480616
510.802738	14690.403738
511.167403	15148.264015
511.532010	15497.832747
511.896561	15864.359919
512.261053	16428.971671
512.625488	16540.300512
512.989866	16761.085407
513.354186	16982.210579
513.718449	17235.089979
514.082655	17797.158468
514.446803	17946.623639
514.810894	18446.958158
515.174927	18705.221511
515.538904	18935.632488
515.902822	19497.796760
516.266684	19545.423061
516.630488	20001.428193
516.994235	20222.971782
517.357925	20753.762432
517.721558	21122.948813
518.085133	21560.349568
518.448651	21899.122668
518.812112	22072.765212
519.175516	22394.781517
519.538863	22847.870342
519.902152	23107.482204
520.265385	23630.829590
520.628560	23935.799233
520.991678	24112.423620
521.354739	24503.710420
521.717743	24954.394615
522.080690	25178.451218
522.443580	25756.253148
522.806413	26057.497379
523.169189	26295.565869
523.531908	26673.148292
523.894569	26865.276748
524.257174	27224.103558
524.619722	27679.922168
524.982213	27944.875132
525.344647	28163.933431
525.707025	28446.212841
526.069345	28975.024838
526.431608	29170.712348
526.793815	29631.093202
527.155964	29586.446223
527.518057	29949.089187
527.880093	30051.608612
528.242072	30641.779014
528.603995	30680.590857
528.965860	30920.116241
529.327669	31221.645297
529.689421	31390.085370
530.051117	31596.949118
530.412755	31929.763574
530.774337	32186.776721
531.135862	32285.822791
531.497331	32651.649243
531.858743	32797.782211
532.220098	33273.815848
532.581396	33266.922070
532.942638	33229.501585
533.303824	33659.388500
533.664953	33847.693240
534.026025	33832.398380
534.387040	34384.031680
534.747999	34540.078077
535.108902	34866.591091
535.469748	34678.750137
535.830537	34956.815142
536.191270	35312.700439
536.551947	35216.613526
536.912567	35638.807640
537.273131	35917.296102
537.633638	35684.278848
537.994089	36118.236494
538.354483	35986.576679
538.714821	36607.878726
539.075103	37050.418937
539.435328	37040.384521
539.795497	37087.539474
540.155609	37247.147446
540.515665	37792.280178
540.875665	37474.087589
541.235609	37907.500791
541.595496	38040.103302
541.955328	38768.721432
542.315102	38382.979901
542.674821	38337.236471
543.034483	38523.222280
543.394090	38618.663926
543.753640	38738.066175
544.113134	39727.904294
544.472571	39016.531952
544.831953	40232.581768
545.191278	39679.108446
545.550548	39556.479858
545.909761	40089.947361
546.268918	40381.930992
546.628019	40789.629268
546.987064	40524.003310
547.346053	39995.118216
547.704986	40891.314382
548.063863	40615.545623
548.422684	40910.634604
548.781449	40878.461960
549.140158	41345.686181
549.498811	41316.747437
549.857408	40919.907807
550.215949	41765.014399
550.574434	41794.248050
550.932864	41691.194263
551.291237	42457.873104
551.649555	42185.698687
552.007817	42497.942716
552.366022	42271.491564
552.724173	42510.180117
553.082267	42968.065600
553.440305	43331.106815
553.798288	42799.053355
554.156215	43174.402547
554.514086	43434.100108
554.871902	43280.188640
555.229661	43377.636665
555.587365	43284.188796
555.945014	43459.746978
556.302606	43470.562774
556.660143	43755.231691
557.017625	43903.872632
557.375050	43784.062049
557.732421	44190.414338
558.089735	44243.016257
558.446994	44230.047889
558.804197	44734.916926
559.161345	44728.340741
559.518437	44100.790184
559.875474	44462.087159
560.232455	44688.044278
560.589381	44902.981434
560.946251	44665.661555
561.303065	45362.036465
561.659825	45253.273570
562.016528	44998.990209
562.373177	44782.296211
562.729770	45289.199353
563.086307	44872.968924
563.442789	45378.886521
563.799216	45457.341999
564.155587	45303.642259
564.511904	45385.601338
564.868164	45521.341967
565.224370	45796.523432
565.580520	45580.247850
565.936615	45827.536611
566.292654	45603.331293
566.648638	45851.247678
567.004567	45880.027625
567.360441	45930.691221
567.716260	45844.442120
568.072023	46153.711867
568.427732	46177.601896
568.783385	45779.890145
569.138982	46176.460074
569.494525	46171.673499
569.850013	45966.090204
570.205445	45982.852040
570.560823	45955.115612
570.916145	45888.138842
571.271412	45934.252797
571.626625	45713.682151
571.981782	45805.685729
572.336884	45511.894845
572.691931	45845.858684
573.046923	45487.266288
573.401860	45355.293921
573.756743	45363.332041
574.111570	45499.750705
574.466342	45372.751437
574.821059	45512.996337
575.175722	45057.775104
575.530330	45097.738851
575.884882	44838.991547
576.239380	44823.711810
576.593823	44825.758518
576.948211	44733.951545
577.302544	44294.587261
577.656823	44360.792735
578.011047	44586.931334
578.365216	44317.958050
578.719330	44124.660047
579.073389	44011.045043
579.427394	44097.037045
579.781344	44092.744502
580.135239	43752.885033
580.489080	43846.547151
580.842866	43353.524826
581.196597	43812.685721
581.550273	43764.779636
581.903895	43645.742870
582.257463	44071.591821
582.610975	43486.497861
582.964434	43759.098256
583.317837	43435.642701
583.671186	43275.616314
584.024481	43514.753529
584.377721	43051.146336
584.730906	43343.465203
585.084037	43387.729055
585.437113	43097.217441
585.790135	43139.215293
586.143103	42774.800364
586.496016	42908.562340
586.848874	42927.602778
587.201679	42948.843680
587.554428	42453.845222
587.907124	42633.801812
588.259765	42402.420412
588.612352	42655.884586
588.964884	42063.501118
589.317362	42352.578524
589.669786	42308.612101
590.022155	42081.593819
590.374470	42499.245854
590.726731	42038.156717
591.078937	41576.737385
591.431090	41680.139012
591.783188	41332.314520
592.135232	41030.634230
592.487222	41277.638166
592.839157	41370.090407
593.191038	41047.615357
593.542866	40815.417290
593.894639	40227.631355
594.246358	40513.605930
594.598022	40476.986988
594.949633	40125.928596
595.301190	40084.296227
595.652692	39917.960836
596.004141	40251.493656
596.355535	39280.141448
596.706876	39246.940409
597.058162	39073.111342
597.409395	39536.612671
597.760573	39612.817273
598.111698	39198.268068
598.462768	39202.505158
598.813785	39261.821895
599.164748	38726.542097
599.515657	39110.123493
599.866511	38610.963563
600.217312	39220.837314
600.568060	38189.691980
600.918753	38939.049417
601.269392	38909.301568
601.619978	38561.144360
601.970510	38779.887587
602.320988	38951.012075
602.671412	39249.841593
603.021783	38990.330555
603.372100	38677.106022
603.722363	38785.886560
604.072572	38855.509936
604.422728	38863.653920
604.772830	38673.209210
605.122878	38788.308835
605.472872	38722.645285
605.822813	38999.001339
606.172701	38829.114455
606.522534	39057.070390
606.872314	39316.684772
607.222041	39100.477246
607.571714	39479.514042
607.921333	38935.094632
608.270899	39218.989731
608.620411	39562.292308
608.969870	39361.916525
609.319276	39377.743228
609.668627	39420.630844
610.017926	39902.688660
610.367171	40065.684287
610.716362	40158.149131
611.065500	40106.028642
611.414585	40304.824023
611.763616	40576.937946
612.112594	40511.619715
612.461518	40734.234549
612.810389	41032.257482
613.159207	40904.716289
613.507971	40980.726807
613.856682	41447.830040
614.205340	41322.176760
614.553945	42008.192099
614.902496	41482.714825
615.250994	41944.129116
615.599439	42011.191585
615.947830	42231.605955
616.296169	42280.139664
616.644454	42423.994030
616.992686	42585.673916
617.340864	43107.945016
617.688990	42834.107019
618.037063	43423.112913
618.385082	43401.362855
618.733048	43681.729147
619.080961	43710.884660
619.428821	43712.586050
619.776628	43792.972289
620.124382	43632.366168
620.472083	43768.661324
620.819731	43892.396446
621.167326	43570.279318
621.514868	43552.161411
621.862357	43125.949497
622.209793	43155.576358
622.557176	42827.596368
622.904506	42554.965727
623.251783	42237.090730
623.599007	42007.498940
623.946179	41801.104019
624.293297	41756.031063
624.640363	41152.897334
624.987376	41155.675010
625.334336	40912.104100
625.681243	40553.322661
626.028097	40523.841993
626.374899	40392.570347
626.721647	40354.882681
627.068343	40256.837279
627.414987	40031.858145
627.761577	39809.228188
628.108115	40144.283437
628.454600	39597.197257
628.801032	39778.661152
629.147412	39753.346998
629.493739	39754.035115
629.840014	39415.065410
630.186236	39758.239438
630.532405	39372.830623
630.878521	39594.480076
631.224585	39468.093308
631.570597	39170.423255
631.916556	39335.374850
632.262462	39303.597937
632.608316	39307.484667
632.954117	39203.473060
633.299866	39190.741626
633.645562	39099.653017
633.991206	38630.480390
634.336797	38205.644712
634.682336	38181.905918
635.027823	37931.721014
635.373257	37757.889427
635.718639	37536.824748
636.063968	37400.101094
636.409245	36821.875707
636.754470	36880.103555
637.099642	36641.740157
637.444762	36182.365012
637.789829	36313.566082
638.134845	35963.699923
638.479808	35928.046363
638.824719	35836.259554
639.169577	35446.096932
639.514383	35518.608888
639.859137	35215.270059
640.203839	35448.246984
640.548489	35093.160710
640.893086	35155.131614
641.237632	34910.338224
641.582125	35041.937545
641.926566	34962.877130
642.270955	34926.565698
642.615292	34937.162204
642.959576	34932.741112
643.303809	34937.484838
643.647990	35077.129840
643.992118	35040.442843
644.336195	35038.524684
644.680219	35128.000124
645.024192	35429.113284
645.368112	35930.387979
645.711981	35941.496161
646.055797	36821.048958
646.399562	36754.069667
646.743274	37671.047990
647.086935	38124.572875
647.430544	38021.894654
647.774101	38136.664083
648.117606	38365.151860
648.461059	38669.619909
648.804460	38293.307856
649.147810	37675.229627
649.491108	37442.640871
649.834354	37069.792092
650.177548	36252.061485
650.520690	35803.746632
650.863781	35817.514023
651.206820	35651.836502
651.549807	35242.981281
651.892742	34767.935710
652.235626	34573.029579
652.578458	34433.114875
652.921238	33841.994216
653.263967	34176.094167
653.606644	33861.453070
653.949269	33807.220337
654.291843	33420.704989
654.634365	33818.890608
654.976836	33415.757097
655.319255	33408.971703
655.661622	33400.245466
656.003938	33179.692465
656.346203	33055.667477
656.688416	33277.079995
657.030577	33078.445931
657.372687	32917.824687
657.714746	33185.825028
658.056753	33307.846157
658.398708	32757.024482
658.740612	32805.575835
659.082465	33075.164140
659.424266	32910.104160
659.766016	33028.193189
660.107715	32912.236568
660.449362	33044.997875
660.790958	33023.378887
661.132503	33043.417473
661.473996	33061.001018
661.815438	33194.780638
662.156829	33378.225706
662.498168	33157.657581
662.839456	33190.707386
663.180693	33327.972964
663.521879	33483.492560
663.863013	33457.386945
664.204097	33433.083542
664.545129	33909.840585
664.886110	33870.779204
665.227040	33925.034623
665.567918	34046.891914
665.908746	34110.647387
666.249522	34275.692243
666.590248	34271.182931
666.930922	34381.203593
667.271545	34345.063561
667.612118	34432.328455
667.952639	34221.880446
668.293109	34283.707678
668.633528	34173.608878
668.973896	34095.579378
669.314213	34133.675377
669.654480	33869.788618
669.994695	33903.632404
670.334859	33792.805157
670.674973	33703.770819
671.015035	33860.084397
671.355047	33808.586489
671.695008	33748.495936
672.034918	33646.871315
672.374777	33738.917743
672.714585	33584.529886
673.054342	33808.747806
673.394049	33564.309818
673.733705	33848.570401
674.073310	33508.060623
674.412864	33577.918413
674.752368	33184.968032
675.091820	33472.202896
675.431223	33050.482651
675.770574	32784.029943
676.109875	32641.841679
676.449125	32373.367469
676.788324	32308.570998
677.127473	31758.250918
677.466571	31676.054904
677.805619	31345.135922
678.144616	31345.327486
678.483562	31263.625505
678.822458	30937.291452
679.161303	30859.594668
679.500098	30780.078028
679.838842	30678.834015
680.177535	30836.911997
680.516179	31106.233120
680.854771	31345.085510
681.193314	32207.432849
681.531805	33307.969666
681.870247	34090.029067
682.208638	34836.908777
682.546978	35067.985187
682.885268	35148.442003
683.223508	34627.872292
683.561697	34292.214625
683.899836	34085.794498
684.237925	33591.181689
684.575963	33436.861887
684.913951	32977.121259
685.251889	33127.700525
685.589776	33114.122177
685.927614	33115.286683
686.265401	33264.769498
686.603137	33370.071640
686.940824	33876.387488
687.278460	34249.410188
687.616046	34382.925147
687.953582	34996.872151
688.291068	34857.222107
688.628504	35145.707177
688.965889	35071.637503
689.303224	34678.460271
689.640510	34340.239177
689.977745	33601.758029
690.314930	32803.834116
690.652065	32288.257668
690.989150	31535.852854
691.326185	30633.904731
691.663170	29936.758525
692.000105	29179.131075
692.336990	28505.156532
692.673825	28062.397031
693.010610	27541.023256
693.347345	26966.792983
693.684030	26306.429556
694.020665	26044.607148
694.357251	25368.369127
694.693786	25334.421998
695.030272	25092.333187
695.366707	24545.047881
695.703093	24274.804227
696.039429	24252.492080
696.375716	23994.974818
696.711952	23960.858809
697.048139	23803.136229
697.384276	23635.530466
697.720363	23760.639302
698.056400	23538.911712
698.392388	23336.605167
698.728326	23295.958343
699.064214	23093.644236
699.400053	23026.773331
699.735842	22678.255680
700.071581	22400.331827
700.407270	22109.709308
700.742910	21920.464393
701.078501	21640.924850
701.414042	21372.526258
701.749533	21080.779561
702.084974	20726.424254
702.420366	20935.433013
702.755709	20489.356433
703.091002	20197.768533
703.426246	20227.463450
703.761440	20127.661206
704.096584	19856.048878
704.431679	19799.290527
704.766725	19720.373784
705.101721	19667.376134
705.436668	19755.019114
705.771565	19426.046017
706.106413	19771.367576
706.441212	19750.623228
706.775961	19883.079545
707.110661	19955.967068
707.445311	20314.496450
707.779913	20145.557303
708.114465	20398.550129
708.448967	20674.938950
708.783421	21378.847865
709.117825	21649.527579
709.452180	21868.011187
709.786485	22268.989605
710.120742	23064.206418
710.454949	23076.264858
710.789107	23567.449683
711.123216	24257.722277
711.457275	24374.966912
711.791286	24917.352216
712.125247	24982.105838
712.459159	24674.343395
712.793023	25322.764329
713.126837	24224.397729
713.460602	24480.536236
713.794318	24096.438121
714.127985	23703.785169
714.461602	22808.743427
714.795171	22767.332868
715.128691	21757.776276
715.462162	21223.161910
715.795584	20797.804472
716.128957	20541.711336
716.462281	20137.962804
716.795556	19896.841895
717.128782	19405.160517
717.461960	18859.989975
717.795088	18777.088200
718.128167	18386.555053
718.461198	17924.218231
718.794180	17780.779760
719.127113	17421.000171
719.459997	17223.223103
719.792833	16883.396402
720.125619	16854.808018
720.458357	16525.711413
720.791046	16359.063470
721.123686	16203.271651
721.456278	15978.509286
721.788821	15927.550783
722.121315	15674.575600
722.453761	15745.981024
722.786158	15670.499827
723.118506	15678.205231
723.450805	15536.838674
723.783056	15704.479725
724.115259	15604.329642
724.447412	15535.442275
724.779518	15773.241063
725.111574	15798.948427
725.443582	15998.560476
725.775542	15981.065151
726.107453	16442.635718
726.439315	16329.272771
726.771129	16726.979480
727.102895	17102.953775
727.434612	17301.018189
727.766281	17436.390814
728.097901	17684.445830
728.429473	17721.518476
728.760996	17711.111013
729.092471	17782.856715
729.423897	17660.800298
729.755276	17529.483282
730.086606	17648.250346
730.417887	18174.166200
730.749120	18678.170679
731.080305	18860.531899
731.411442	19187.102886
731.742530	19249.898019
732.073570	19353.297126
732.404562	19640.557195
732.735506	19455.498958
733.066401	19171.848355
733.397249	18651.601278
733.728048	18017.741717
734.058798	17183.473605
734.389501	16503.429513
734.720156	16049.962601
735.050762	15514.312278
735.381320	15175.944991
735.711831	14935.550008
736.042293	14578.485081
736.372707	14593.074181
736.703073	14385.434095
737.033391	14575.251181
737.363661	14537.777764
737.693883	14655.733202
738.024056	14810.748683
738.354182	14998.632487
738.684260	15287.024296
739.014290	15505.051679
739.344272	15696.542428
739.674207	15979.300748
740.004093	16086.208497
740.333931	16072.123513
740.663722	16111.308402
740.993464	16096.036227
741.323159	15930.235197
741.652806	15650.534338
741.982405	15434.203303
742.311956	15092.791158
742.641460	14980.431401
742.970915	14675.106357
743.300323	14344.726778
743.629683	14125.663437
743.958996	13850.045912
744.288260	13587.782404
744.617477	13286.908698
744.946647	13210.830125
745.275768	12934.658073
745.604842	12759.999737
745.933869	12587.511617
746.262847	12539.416488
746.591778	12459.330198
746.920662	12363.878470
747.249498	12359.832944
747.578286	12490.678613
747.907027	12627.354376
748.235720	12841.978981
748.564365	12869.329761
748.892963	12771.387703
749.221514	12839.607118
749.550017	12690.547760
749.878473	12645.449598
750.206881	12430.789705
750.535242	12337.006600
750.863555	12249.358578
751.191821	12155.603199
751.520039	12180.400635
751.848210	12087.504772
752.176334	12118.477622
752.504411	12011.947959
752.832440	11863.213756
753.160421	11933.338726
753.488356	11802.500619
753.816243	11707.016124
754.144082	11568.674260
754.471875	11520.022084
754.799620	11461.610234
755.127318	11432.384145
755.454969	11392.740511
755.782572	11342.974240
756.110129	11358.019564
756.437638	11279.604416
756.765100	11263.518094
757.092515	11266.101685
757.419882	11290.339553
757.747203	11291.998093
758.074477	11365.702283
758.401703	11323.102012
758.728882	11487.002526
759.056014	11520.808504
759.383099	11635.852676
759.710138	11740.890158
760.037129	11819.086015
760.364073	11836.193171
760.690970	11821.770430
761.017820	11827.310658
761.344623	12007.184068
761.671379	12333.593739
761.998088	12958.086836
762.324751	14506.915820
762.651366	17361.232251
762.977935	21024.951303
763.304456	23248.705087
763.630931	23705.806671
763.957359	22531.918546
764.283740	20627.910026
764.610074	18740.401203
764.936362	16624.472658
765.262602	15101.771974
765.588796	13637.762924
765.914943	12611.799896
766.241044	11765.054928
766.567097	11131.344081
766.893104	10594.080590
767.219064	10223.467562
767.544978	9846.618627
767.870845	9533.492397
768.196665	9346.997431
768.522438	9154.911825
768.848165	8986.300352
769.173846	8824.328079
769.499479	8699.816620
769.825066	8544.493629
770.150607	8362.452523
770.476101	8306.707443
770.801548	8186.143208
771.126949	8050.107672
771.452303	7953.735933
771.777611	7797.092160
772.102872	7775.349663
772.428087	7662.614340
772.753256	7536.381327
773.078378	7449.827236
773.403453	7304.533621
773.728482	7202.732560
774.053465	7134.490460
774.378401	7051.210599
774.703291	6956.199972
775.028135	6863.752772
775.352932	6825.440003
775.677683	6746.132571
776.002388	6659.081926
776.327046	6655.676627
776.651658	6569.505663
776.976224	6492.103787
777.300743	6484.879814
777.625216	6410.502630
777.949643	6372.174737
778.274024	6371.700869
778.598359	6304.900539
778.922647	6308.555376
779.246889	6268.271515
779.571086	6274.628410
779.895236	6282.737106
780.219339	6281.963289
780.543397	6281.542353
780.867409	6330.771741
781.191374	6326.993396
781.515294	6292.741276
781.839167	6343.581313
782.162995	6316.860677
782.486776	6266.262616
782.810511	6228.085957
783.134201	6151.009236
783.457844	6140.611856
783.781441	6095.536379
784.104993	6050.034924
784.428498	6018.898238
784.751958	6003.268140
785.075372	5981.041693
785.398739	5941.992915
785.722061	5962.555782
786.045337	5961.018230
786.368568	6076.178348
786.691752	6094.114773
787.014891	6340.559141
787.337983	6617.114320
787.661030	7056.206382
787.984031	7478.942420
788.306987	7739.171823
788.629897	7833.925351
788.952760	7747.966116
789.275579	7567.039104
789.598351	7267.733198
789.921078	7007.876840
790.243759	6726.635908
790.566395	6520.944228
790.888984	6327.900804
791.211529	6191.645977
791.534027	6027.284197
791.856480	5889.529627
792.178888	5830.346481
792.501249	5767.667294
792.823566	5662.556716
793.145836	5659.153937
793.468062	5635.687366
793.790241	5595.700934
794.112375	5639.874044
794.434464	5732.119598
794.756507	5767.672336
795.078505	5884.498555
795.400457	6103.498881
795.722364	6341.650551
796.044226	6534.794799
796.366042	6687.445978
796.687812	6635.201980
797.009538	6664.528893
797.331218	6574.650161
797.652852	6505.929152
797.974442	6379.111365
798.295986	6316.835471
798.617484	6184.361510
798.938938	6077.133647
799.260346	6009.751064
799.581709	5868.026585
799.903026	5819.371889
800.224299	5744.273820
800.545526	5631.409947
800.866708	5563.684566
801.187845	5519.244274
801.508936	5442.207882
801.829983	5412.064302
802.150984	5307.072191
802.471940	5280.459940
802.792851	5263.814050
803.113717	5237.882354
803.434538	5213.929312
803.755314	5183.929405
804.076045	5175.349362
804.396731	5139.446264
804.717372	5151.371113
805.037967	5152.812883
805.358518	5184.604920
805.679024	5241.431327
805.999485	5250.424745
806.319901	5267.569709
806.640272	5291.626096
806.960598	5336.094114
807.280879	5323.569367
807.601115	5363.999421
807.921306	5323.513914
808.241453	5321.615920
808.561554	5330.891643
808.881611	5299.424761
809.201623	5294.693638
809.521590	5245.212192
809.841513	5228.594028
810.161390	5241.937963
810.481223	5155.313296
810.801011	5143.824506
811.120755	5117.166884
811.440453	5060.451383
811.760107	5033.166138
812.079716	5011.095966
812.399281	4958.554540
812.718801	4953.044559
813.038276	4918.598355
813.357707	4883.267428
813.677093	4908.193413
813.996434	4843.354093
814.315731	4860.884705
814.634983	4863.284294
814.954191	4868.169172
815.273354	4926.530611
815.592473	4963.567968
815.911547	5042.698960
816.230577	5096.800623
816.549562	5181.292882
816.868502	5230.124019
817.187399	5288.341784
817.506250	5370.119382
817.825058	5395.655346
818.143821	5545.347369
818.462539	5714.019335
818.781213	5945.294871
819.099843	6302.526156
819.418429	6933.572753
819.736970	7549.090076
820.055466	8253.193075
820.373919	9164.371550
820.692327	10610.963414
821.010691	13288.103452
821.329011	19466.833993
821.647286	28999.764301
821.965517	39319.036471
822.283704	44767.079488
822.601847	46266.691687
822.919945	41692.182329
823.237999	36579.923008
823.556010	31405.755797
823.873976	26706.208179
824.191897	22518.982945
824.509775	19442.465055
824.827609	16692.576126
825.145398	15139.555422
825.463144	14392.779056
825.780845	14679.146841
826.098502	15922.643219
826.416116	18373.168269
826.733685	20654.194602
827.051210	21192.615039
827.368692	19772.567371
827.686129	17218.991054
828.003522	14741.914248
828.320872	12531.907690
828.638177	10882.522810
828.955439	9646.018512
829.272656	8593.115558
829.589830	7753.297136
829.906960	7024.220261
830.224046	6490.914075
830.541088	6080.450726
830.858086	5827.523435
831.175041	5626.025995
831.491952	5572.146142
831.808819	5601.266368
832.125642	5842.692267
832.442421	6386.680657
832.759157	7489.160839
833.075849	9248.279035
833.392497	11084.085785
833.709101	12210.854245
834.025662	11962.143879
834.342179	10909.082129
834.658653	9616.615982
834.975083	8505.454934
835.291469	7599.337777
835.607811	6873.799792
835.924110	6356.209403
836.240366	5871.076483
836.556578	5418.201907
836.872746	5065.875665
837.188871	4795.377432
837.504952	4575.114297
837.820990	4407.982403
838.136984	4295.463849
838.452935	4248.235799
838.768842	4277.121610
839.084706	4550.329464
839.400526	5288.694665
839.716303	6190.494073
840.032037	6757.112204
840.347727	6615.559124
840.663373	6015.566035
840.978977	5441.764260
841.294537	4998.808154
841.610054	4668.567207
841.925527	4434.052730
842.240957	4224.935586
842.556344	4045.818348
842.871687	3886.653998
843.186987	3733.092890
843.502244	3619.462762
843.817458	3529.720141
844.132629	3460.800006
844.447756	3412.967018
844.762840	3368.582179
845.077881	3328.767146
845.392879	3295.871097
845.707833	3270.229267
846.022745	3244.824373
846.337613	3233.622929
846.652438	3210.123590
846.967221	3199.350644
847.281960	3179.352387
847.596656	3170.220337
847.911309	3161.237001
848.225919	3144.341574
848.540485	3138.367806
848.855009	3127.698204
849.169490	3119.188737
849.483928	3111.531224
849.798323	3108.188939
850.112675	3096.455653
850.426984	3096.185952
850.741251	3087.258068
851.055474	3085.569282
851.369654	3086.033068
851.683792	3083.237748
851.997887	3086.270002
852.311938	3086.426278
852.625947	3087.555496
852.939914	3078.418405
853.253837	3084.566092
853.567718	3086.184302
853.881555	3078.458734
854.195350	3082.784044
854.509103	3079.809763
854.822812	3079.290524
855.136479	3076.026377
855.450103	3077.132911
855.763685	3069.089750
856.077224	3075.323136
856.390720	3081.735484
856.704173	3094.693770
857.017584	3097.479007
857.330953	3102.189966
857.644278	3110.694392
857.957561	3115.566667
858.270802	3111.606841
858.584000	3112.128601
858.897155	3103.863629
859.210268	3094.416507
859.523339	3080.293714
859.836367	3081.039805
860.149352	3073.813311
860.462295	3072.235430
860.775195	3060.479459
861.088054	3058.052143
861.400869	3057.613563
861.713642	3054.656926
862.026373	3064.056157
862.339062	3068.837692
862.651708	3077.299269
862.964312	3092.049685
863.276873	3100.486056
863.589392	3131.872280
863.901869	3157.168790
864.214303	3179.548992
864.526696	3195.612629
864.839045	3217.067780
865.151353	3226.837536
865.463619	3227.828122
865.775842	3225.685632
866.088023	3234.777353
866.400162	3228.531363
866.712258	3224.274109
867.024313	3225.310066
867.336325	3226.320817
867.648296	3227.571024
867.960224	3223.149932
868.272110	3224.732854
868.583954	3226.605643
868.895755	3234.681571
869.207515	3230.999008
869.519233	3248.360742
869.830909	3253.787544
870.142542	3267.030655
870.454134	3274.297479
870.765684	3288.216104
871.077191	3306.727221
871.388657	3319.015034
871.700081	3331.703618
872.011463	3351.618696
872.322803	3370.356665
872.634101	3393.314080
872.945357	3409.836462
873.256571	3439.390226
873.567744	3453.835652
873.878874	3458.992753
874.189963	3477.995382
874.501010	3476.757779
874.812015	3474.330463
875.122979	3487.056856
875.433900	3488.359994
875.744780	3492.155983
876.055618	3495.067250
876.366415	3497.766788
876.677169	3500.925070
876.987882	3518.954757
877.298554	3536.248435
877.609183	3575.254363
877.919771	3622.656333
878.230317	3686.275694
878.540822	3793.919453
878.851285	3947.556178
879.161707	4165.467614
879.472087	4536.925036
879.782425	5158.121218
880.092722	6338.721640
880.402977	8253.455215
880.713191	10619.861050
881.023363	13000.520748
881.333494	14333.225385
881.643583	14801.636797
881.953631	14384.874527
882.263637	13542.538048
882.573602	12513.111748
882.883526	11561.815770
883.193408	10613.599937
883.503248	9701.380464
883.813048	8865.441209
884.122806	8106.016588
884.432522	7347.620362
884.742197	6693.230702
885.051831	6127.746831
885.361424	5630.903311
885.670975	5241.219598
885.980485	4922.994241
886.289954	4653.403416
886.599382	4438.657824
886.908768	4258.088734
887.218113	4096.189558
887.527417	3967.501503
887.836680	3844.600693
888.145901	3743.165116
888.455082	3667.663754
888.764221	3598.610029
889.073319	3539.522665
889.382376	3506.644259
889.691392	3480.768017
890.000366	3475.449599
890.309300	3468.734783
890.618193	3475.681493
890.927044	3466.123465
891.235855	3473.138230
891.544625	3489.101044
891.853353	3519.083307
892.162041	3576.892738
892.470687	3667.885565
892.779293	3786.997948
893.087858	3956.262250
893.396381	4237.029314
893.704864	4645.829082
894.013306	5210.637438
894.321707	5777.989057
894.630068	6133.196319
894.938387	6174.800961
895.246665	5998.887377
895.554903	5684.286610
895.863100	5346.506617
896.171256	5077.495524
896.479371	4840.364688
896.787446	4616.154330
897.095480	4418.339453
897.403473	4270.225312
897.711425	4127.732057
898.019336	4008.213861
898.327207	3884.536713
898.635038	3782.339922
898.942827	3675.996782
899.250576	3590.859255
899.558284	3508.559898
899.865952	3454.427988
900.173579	3391.232083
900.481165	3344.251050
900.788711	3303.261428
901.096216	3267.771705
901.403681	3242.354207
901.711105	3231.755181
902.018489	3225.788976
902.325832	3260.376332
902.633135	3318.281546
902.940397	3489.980725
903.247619	3892.282446
903.554800	4635.527484
903.861941	5596.603300
904.169041	6300.726464
904.476101	6515.530029
904.783121	6239.867134
905.090100	5833.734136
905.397039	5423.260705
905.703938	5061.464655
906.010796	4742.102518
906.317614	4490.725381
906.624391	4252.384668
906.931129	4063.419537
907.237826	3877.849623
907.544483	3712.489694
907.851099	3541.201369
908.157675	3382.589025
908.464211	3239.286665
908.770707	3144.046666
909.077163	3061.538101
909.383578	3004.396622
909.689954	2959.243007
909.996289	2929.391815
910.302584	2912.433373
910.608839	2897.917371
910.915054	2885.836246
911.221229	2880.036398
911.527363	2883.325751
911.833458	2891.177348
912.139513	2901.312588
912.445527	2915.770617
912.751502	2951.469548
913.057436	2993.747185
913.363331	3050.780279
913.669186	3139.295379
913.975000	3254.551279
914.280775	3440.055658
914.586510	3705.399312
914.892205	4073.854726
915.197859	4570.547011
915.503475	5157.526362
915.809050	5649.061547
916.114585	5933.324651
916.420081	6004.740157
916.725536	5936.122491
917.030952	5698.492581
917.336328	5492.120346
917.641665	5284.308861
917.946961	5055.987441
918.252218	4858.994272
918.557435	4629.052122
918.862612	4434.594654
919.167750	4268.047533
919.472848	4073.932863
919.777906	3907.554622
920.082925	3748.261722
920.387904	3597.062395
920.692843	3488.423009
920.997743	3389.412227
921.302603	3294.971251
921.607423	3231.233422
921.912204	3164.662465
922.216946	3117.809981
922.521647	3070.055131
922.826310	3027.941331
923.130932	2987.445743
923.435516	2948.875874
923.740059	2921.807399
924.044564	2892.281361
924.349028	2867.078112
924.653454	2840.997703
924.957840	2814.186326
925.262186	2793.936011
925.566493	2772.387599
925.870761	2743.075810
926.174989	2737.616240
926.479178	2723.506051
926.783328	2707.702033
927.087438	2696.167873
927.391509	2682.408044
927.695541	2667.687875
927.999533	2659.430465
928.303486	2654.318735
928.607400	2647.982004
928.911275	2643.152579
929.215110	2633.163532
929.518906	2632.051958
929.822663	2631.164715
930.126381	2630.927781
930.430060	2632.190590
930.733699	2637.342649
931.037299	2639.139820
931.340861	2637.652680
931.644383	2640.982362
931.947866	2638.943215
932.251309	2636.876342
932.554714	2636.231075
932.858080	2633.972638
933.161407	2632.412401
933.464694	2628.306381
933.767943	2625.523664
934.071153	2620.429578
934.374323	2614.717951
934.677455	2615.242231
934.980548	2612.230141
935.283602	2607.284769
935.586617	2604.416353
935.889593	2610.634616
936.192530	2614.322220
936.495428	2614.453290
936.798287	2628.782770
937.101108	2642.333391
937.403890	2662.059426
937.706632	2686.708148
938.009336	2721.136708
938.312002	2749.228538
938.614628	2772.538833
938.917216	2792.179169
939.219765	2800.459264
939.522275	2809.475368
939.824747	2808.822538
940.127179	2803.582259
940.429573	2798.435241
940.731929	2799.135961
941.034246	2787.886626
941.336524	2788.294960
941.638763	2781.121398
941.940964	2773.363062
942.243126	2756.898654
942.545250	2750.647623
942.847335	2732.386043
943.149381	2719.737788
943.451389	2707.235727
943.753359	2694.378264
944.055290	2688.712007
944.357182	2675.599966
944.659036	2673.122238
944.960851	2670.352124
945.262628	2661.048675
945.564367	2665.588234
945.866067	2664.317863
946.167729	2663.120589
946.469352	2664.534633
946.770937	2658.954076
947.072484	2649.358239
947.373992	2651.301604
947.675462	2648.634834
947.976893	2642.711478
948.278286	2640.594193
948.579641	2640.112763
948.880958	2636.251239
949.182236	2634.890128
949.483476	2630.073305
949.784678	2631.192441
950.085841	2630.285034
950.386967	2634.282669
950.688054	2640.629481
950.989103	2651.699855
951.290114	2656.483910
951.591087	2666.987154
951.892021	2679.950481
952.192917	2690.310052
952.493776	2702.144161
952.794596	2706.469471
953.095378	2710.426777
953.396122	2705.400747
953.696828	2702.164326
953.997496	2697.662575
954.298126	2688.971626
954.598718	2680.499967
954.899272	2668.292813
955.199788	2659.125475
955.500266	2647.399751
955.800706	2633.864253
956.101108	2616.769700
956.401472	2606.999944
956.701798	2588.211564
957.002087	2574.744121
957.302337	2565.382698
957.602550	2555.345761
957.902724	2543.730943
958.202861	2533.883049
958.502960	2528.486493
958.803022	2520.259330
959.103045	2512.964781
959.403031	2506.912876
959.702979	2503.454644
960.002889	2497.498521
960.302762	2490.909733
960.602596	2485.419916
960.902393	2484.688949
961.202153	2484.852786
961.501875	2476.950778
961.801559	2477.401961
962.101205	2473.739563
962.400814	2473.772330
962.700385	2469.867957
962.999918	2467.886783
963.299414	2465.396453
963.598873	2466.039200
963.898293	2466.366875
964.197677	2463.831175
964.497022	2461.207254
964.796331	2462.263376
965.095601	2460.461163
965.394835	2458.308591
965.694030	2459.263889
965.993189	2460.418314
966.292309	2457.262551
966.591393	2458.721965
966.890439	2457.297839
967.189447	2458.845474
967.488419	2456.544187
967.787353	2458.810186
968.086249	2458.606019
968.385108	2458.371605
968.683930	2459.122737
968.982714	2460.035186
969.281462	2459.571400
969.580172	2462.407049
969.878844	2466.724797
970.177480	2469.149592
970.476078	2470.742597
970.774639	2474.604121
971.073162	2478.752990
971.371649	2479.047898
971.670098	2476.620582
971.968510	2480.383803
972.266885	2477.515387
972.565223	2483.390852
972.863524	2484.343630
973.161788	2487.080976
973.460014	2486.866727
973.758204	2486.317242
974.056356	2486.423106
974.354471	2485.631645
974.652550	2487.191882
974.950591	2488.830257
975.248595	2486.796151
975.546563	2486.924701
975.844493	2485.414875
976.142386	2483.063177
976.440243	2482.606952
976.738062	2480.474544
977.035845	2476.670994
977.333590	2474.052114
977.631299	2473.537917
977.928971	2470.808132
978.226606	2467.271762
978.524204	2469.215127
978.821765	2466.051803
979.119290	2464.892338
979.416777	2465.308233
979.714228	2467.959880
980.011642	2467.203707
980.309020	2474.115129
980.606360	2473.374079
980.903664	2481.926397
981.200931	2496.991885
981.498162	2513.743639
981.795356	2544.522404
982.092513	2585.461614
982.389633	2627.093983
982.686717	2670.009326
982.983764	2696.208202
983.280775	2717.181923
983.577749	2716.314845
983.874686	2710.003320
984.171587	2692.490352
984.468451	2674.679955
984.765279	2661.673778
985.062070	2639.369193
985.358824	2621.881430
985.655543	2600.685899
985.952224	2577.763772
986.248869	2550.594474
986.545478	2524.803931
986.842050	2505.771054
987.138586	2485.722385
987.435086	2473.570684
987.731549	2464.781432
988.027975	2458.490072
988.324366	2450.157045
988.620719	2449.146294
988.917037	2443.447269
989.213318	2442.628082
989.509563	2439.769748
989.805772	2438.469130
990.101944	2437.612134
990.398080	2434.819334
990.694180	2435.830086
990.990244	2435.830086
991.286271	2435.416711
991.582262	2434.360589
991.878217	2437.012236
992.174136	2433.848912
992.470019	2438.867381
992.765865	2440.659511
993.061676	2442.038267
993.357450	2444.883998
993.653188	2449.715944
993.948890	2450.998918
994.244556	2459.357151
994.540186	2465.129272
994.835780	2479.529328
995.131337	2493.992398
995.426859	2505.382885
995.722345	2528.403314
996.017795	2545.142466
996.313208	2561.634601
996.608586	2570.927968
996.903928	2574.129100
997.199234	2574.015674
997.494504	2570.214644
997.789738	2563.197358
998.084936	2550.871737
998.380099	2542.538710
998.675225	2527.977337
998.970316	2517.300173
999.265371	2501.806187
999.560390	2489.530977
999.855373	2478.919348
1000.150320	2469.618419
1000.445232	2462.444857
1000.740108	2453.842128
1001.034948	2451.213167
1001.329752	2442.350818
1001.624521	2441.448452
1001.919254	2434.479057
1002.213951	2435.668769
1002.508613	2429.107707
1002.803239	2426.748447
1003.097829	2422.473549
1003.392384	2426.120823
1003.686903	2425.379774
1003.981386	2423.945566
1004.275834	2421.999680
1004.570246	2421.482962
1004.864623	2420.999011
1005.158964	2419.045564
1005.453270	2418.980029
1005.747540	2417.087076
1006.041775	2417.276119
1006.335974	2419.479103
1006.630138	2418.201171
1006.924266	2418.478434
1007.218359	2417.230749
1007.512416	2417.082035
1007.806438	2415.574730
1008.100425	2416.817374
1008.394376	2414.236303
1008.688292	2414.392579
1008.982172	2414.682445
1009.276017	2415.345357
1009.569827	2411.685479
1009.863602	2417.896181
1010.157341	2413.399472
1010.451045	2413.729667
1010.744714	2414.805954
1011.038347	2411.435942
1011.331945	2415.496592
1011.625508	2413.860737
1011.919036	2412.366035
1012.212528	2410.604152
1012.505986	2410.992321
1012.799408	2410.210942
1013.092795	2412.842424
1013.386147	2411.816549
1013.679464	2410.931827
1013.972745	2409.979049
1014.265992	2409.081723
1014.559204	2411.829152
1014.852380	2410.445356
1015.145521	2413.515418
1015.438628	2410.218504
1015.731699	2411.133473
1016.024736	2409.147258
1016.317737	2410.042063
1016.610703	2413.326375
1016.903635	2409.185067
1017.196531	2409.197670
1017.489393	2410.485685
1017.782219	2407.385375
1018.075011	2412.476941
1018.367768	2410.465520
1018.660490	2415.355439
1018.953177	2415.355439
1019.245829	2415.355439
