Dividing Wavelength (nm)	Counts (n)	Blue Motor Position (mm): 43.200000	Red Motor Position (mm): 0.000000	
326.493990	1972.195167
326.888308	1972.195167
327.282561	1972.195167
327.676750	1948.816816
328.070874	1952.539708
328.464933	1956.461725
328.858929	1966.725515
329.252859	1978.269757
329.646726	1992.344658
330.040528	2006.167502
330.434265	2028.429238
330.827938	2048.379604
331.221547	2067.334343
331.615091	2085.658937
332.008571	2106.836824
332.401986	2126.502365
332.795338	2148.423823
333.188625	2169.263953
333.581847	2187.840605
333.975006	2205.141845
334.368100	2223.224463
334.761129	2240.813049
335.154095	2257.826943
335.546996	2295.847326
335.939833	2381.262116
336.332606	2397.368602
336.725315	2407.720612
337.117960	2415.214287
337.510540	2423.138981
337.903056	2436.671958
338.295508	2436.006526
338.687896	2448.861468
339.080220	2453.721141
339.472480	2459.505865
339.864676	2462.802779
340.256807	2466.235805
340.648875	2467.291927
341.040879	2468.340487
341.432818	2468.302678
341.824694	2473.217803
342.216506	2472.527165
342.608253	2472.010447
342.999937	2468.980713
343.391557	2466.389560
343.783113	2469.757051
344.174605	2467.327215
344.566033	2463.080043
344.957397	2465.766978
345.348697	2458.671554
345.739934	2459.089970
346.131106	2457.582665
346.522215	2457.184413
346.913260	2454.308435
347.304241	2456.077880
347.695159	2450.540173
348.086012	2452.075204
348.476802	2449.690738
348.867528	2447.714606
349.258191	2442.885181
349.648789	2447.482713
350.039324	2442.010540
350.429796	2444.634461
350.820203	2442.406271
351.210548	2442.996086
351.600828	2443.323761
351.991045	2443.394337
352.381198	2440.851075
352.771288	2441.607248
353.161314	2439.326126
353.551276	2439.386620
353.941175	2439.610951
354.331010	2440.319233
354.720782	2442.330654
355.110490	2442.529779
355.500135	2440.697320
355.889717	2440.455344
356.279235	2442.323092
356.668689	2444.263936
357.058080	2445.211673
357.447408	2442.401230
357.836672	2441.582042
358.225873	2441.667742
358.615010	2441.690427
359.004084	2447.480192
359.393095	2445.761159
359.782043	2446.797116
360.170927	2444.142948
360.559748	2450.353650
360.948505	2450.462035
361.337199	2450.522529
361.725830	2451.578650
362.114398	2451.671912
362.502903	2453.252313
362.891344	2454.517643
363.279722	2454.865483
363.668037	2454.986470
364.056289	2453.958075
364.444478	2453.302725
364.832603	2456.755915
365.220665	2457.897737
365.608665	2459.510906
365.996601	2456.516461
366.384474	2462.210444
366.772284	2460.572069
367.160031	2464.478963
367.547715	2460.546863
367.935336	2460.093159
368.322893	2461.348407
368.710388	2461.827316
369.097820	2466.071968
369.485189	2467.352421
369.872495	2468.695888
370.259738	2468.557257
370.646918	2466.742441
371.034035	2469.391568
371.421090	2468.819397
371.808081	2471.347535
372.195010	2468.521968
372.581875	2471.687813
372.968678	2473.018678
373.355418	2473.109418
373.742096	2471.760910
374.128710	2475.093112
374.515262	2476.434059
374.901751	2476.585294
375.288177	2477.775006
375.674540	2477.447331
376.060841	2480.383803
376.447079	2481.417240
376.833254	2479.466313
377.219367	2480.207363
377.605417	2481.417240
377.991404	2479.874647
378.377329	2485.528301
378.763191	2480.308186
379.148991	2488.298415
379.534727	2492.704383
379.920402	2491.907881
380.306013	2493.024497
380.691563	2494.486431
381.077049	2496.777636
381.462474	2495.812255
381.847835	2497.937101
382.233134	2502.325426
382.618371	2505.657628
383.003545	2511.928824
383.388657	2514.572909
383.773706	2515.959226
384.158693	2524.650175
384.543618	2530.702081
384.928480	2538.767927
385.313280	2550.907025
385.698017	2560.976730
386.082692	2577.884760
386.467305	2588.335072
386.851856	2610.800974
387.236344	2636.377268
387.620770	2658.346617
388.005133	2685.405010
388.389435	2719.420195
388.773674	2750.209042
389.157851	2790.497944
389.541965	2832.251301
389.926018	2868.890407
390.310008	2927.340065
390.693936	2982.500371
391.077802	3040.148485
391.461606	3105.312961
391.845348	3171.891479
392.229027	3247.342429
392.612645	3344.329188
392.996200	3424.977567
393.379694	3524.021117
393.763125	3639.251811
394.146494	3728.817992
394.529801	3832.403621
394.913047	3976.333604
395.296230	4049.944533
395.679351	4142.759737
396.062410	4309.042197
396.445408	4350.288917
396.828343	4485.653980
397.211217	4620.638436
397.594028	4662.669057
397.976778	4833.080221
398.359466	4992.846989
398.742092	5074.823713
399.124656	5232.417744
399.507158	5412.298716
399.889598	5522.513462
400.271977	5726.523917
400.654294	5843.244273
401.036549	6049.218257
401.418742	6162.084651
401.800874	6442.730727
402.182944	6595.250836
402.564952	6910.327993
402.946898	6910.509474
403.328783	7048.183386
403.710606	7286.554345
404.092367	7560.039462
404.474067	7915.229080
404.855705	7877.843883
405.237282	7947.187475
405.618797	8352.932304
406.000250	8637.457547
406.381642	9011.007047
406.762972	9081.986493
407.144240	9026.286785
407.525447	9318.156989
407.906593	9366.531902
408.287677	9661.729268
408.668700	9881.132886
409.049661	9940.084139
409.430560	10167.669550
409.811399	10220.077386
410.192176	10443.624833
410.572891	10579.824207
410.953545	11080.451113
411.334138	10688.113232
411.714669	11285.288317
412.095139	10743.520554
412.475547	11247.628377
412.855894	11165.729792
413.236180	11519.452434
413.616405	11282.492997
413.996568	11586.966087
414.376670	11612.305446
414.756711	11544.494365
415.136691	11833.556647
415.516609	12043.644213
415.896466	12141.303966
416.276262	12436.443359
416.655997	12907.405596
417.035670	12976.504692
417.415283	13618.667033
417.794834	13739.206063
418.174324	13518.552238
418.553753	13442.176237
418.933121	13935.049848
419.312428	13762.460905
419.691674	13692.850132
420.070859	14153.644362
420.449983	13834.297348
420.829045	14386.185227
421.208047	14150.032375
421.586988	14599.612557
421.965867	14852.852400
422.344686	14863.264903
422.723444	15409.284879
423.102141	14140.852434
423.480777	15314.659901
423.859352	14831.964379
424.237866	15919.245482
424.616319	15632.355937
424.994712	16286.773323
425.373044	16077.220120
425.751314	16748.545536
426.129524	15887.428239
426.507673	16954.834593
426.885762	16673.147519
427.263789	16863.012496
427.641756	17025.567023
428.019662	17100.337416
428.397508	17133.354453
428.775292	17417.952794
429.153016	17380.996095
429.530679	17469.682594
429.908282	17489.736304
430.285824	17219.268318
430.663305	17921.322088
431.040726	17518.672527
431.418086	17365.497068
431.795385	17992.634250
432.172624	18403.838649
432.549802	17967.120970
432.926920	18159.730856
433.303977	18039.272485
433.680974	18294.725394
434.057910	18582.305577
434.434786	18613.245659
434.811601	18526.608389
435.188355	19554.779442
435.565050	19198.165698
435.941683	19159.878135
436.318257	20021.812099
436.694770	19842.959522
437.071222	20419.327244
437.447614	19508.783954
437.823946	19519.345172
438.200218	19679.351395
438.576429	19458.876531
438.952580	19732.560774
439.328670	19707.307113
439.704700	20109.717219
440.080670	19683.936324
440.456580	20263.784963
440.832429	20425.200189
441.208218	19449.081569
441.583947	19879.099554
441.959616	19990.267079
442.335224	20217.991122
442.710773	20350.273519
443.086261	20869.126717
443.461689	20247.093703
443.837057	20378.929958
444.212365	21006.351966
444.587612	21004.804332
444.962800	20607.445462
445.337927	21003.218889
445.712995	19755.011552
446.088002	21575.697361
446.462949	21769.728852
446.837837	21938.400818
447.212664	21899.291547
447.587431	24669.760986
447.962139	27575.199759
448.336786	29924.115311
448.711374	28407.496779
449.085901	24768.502067
449.460369	24721.140426
449.834776	24618.056392
450.209124	27070.449189
450.583412	26628.536601
450.957640	27158.422364
451.331808	25836.412536
451.705917	24474.978363
452.079965	24492.826569
452.453954	24850.146074
452.827883	24747.568675
453.201752	24549.753798
453.575562	24713.936617
453.949311	25795.957276
454.323001	25864.660641
454.696632	25633.427956
455.070202	27155.576633
455.443713	27303.829406
455.817164	27869.572896
456.190556	28414.062882
456.563888	27865.802113
456.937160	28298.101220
457.310373	26651.501578
457.683526	27080.060148
458.056619	27052.011168
458.429653	26986.062794
458.802628	27557.512870
459.175542	27688.343416
459.548398	28965.091244
459.921194	30522.122186
460.293930	31205.100230
460.666607	33204.089129
461.039224	34951.852126
461.411782	35338.193554
461.784280	34135.742251
462.156719	33649.596059
462.529099	33065.202820
462.901419	31793.150826
463.273680	30744.464797
463.645882	30832.090133
464.018024	30802.186008
464.390106	31642.518628
464.762130	34321.470961
465.134094	38348.279118
465.505999	43639.582580
465.877845	48210.890806
466.249631	49343.159165
466.621358	47592.923482
466.993026	45462.083204
467.364634	43365.374058
467.736184	41418.329208
468.107674	40169.438795
468.479105	39385.927541
468.850477	38695.198723
469.221790	37286.927191
469.593043	35576.438485
469.964238	34709.521340
470.335373	34599.329279
470.706449	36276.531246
471.077467	38809.587545
471.448425	43363.773492
471.819324	46233.775473
472.190164	44425.904278
472.560945	40873.894675
472.931667	37794.246228
473.302330	36688.494338
473.672934	35871.671139
474.043479	36374.624538
474.413965	35595.705775
474.784393	35228.361935
475.154761	36099.695131
475.525070	36129.027084
475.895321	35690.091298
476.265513	36280.128109
476.635645	37226.360248
477.005719	37055.455050
477.375734	37510.827518
477.745691	38206.022798
478.115588	39498.897278
478.485427	41475.102683
478.855207	44795.236852
479.224928	47426.661187
479.594591	49055.720135
479.964194	48029.605872
480.333739	48170.712809
480.703226	48178.062812
481.072653	48813.258279
481.442022	49322.855918
481.811333	49586.112534
482.180584	48294.831058
482.549777	47780.159498
482.918912	47268.195036
483.287988	46961.040053
483.657005	46120.117618
484.025964	45491.901629
484.394864	45511.481470
484.763706	45059.234518
485.132489	44201.746851
485.501213	44026.324780
485.869879	44195.130337
486.238487	43775.706337
486.607036	43983.414478
486.975527	43450.720793
487.343959	43654.632945
487.712333	43738.162344
488.080648	43658.252493
488.448905	44093.714924
488.817104	43906.148713
489.185244	44842.933730
489.553326	46507.374016
489.921350	49232.261342
490.289315	52142.398470
490.657222	52791.736894
491.025070	53078.318928
491.392861	52159.893794
491.760593	50900.878224
492.128267	49214.256861
492.495883	47645.401893
492.863440	46276.796680
493.230939	44942.705726
493.598380	43857.541908
493.965763	43525.735682
494.333088	42732.326123
494.700354	42255.153185
495.067563	41966.468989
495.434713	41838.093486
495.801805	41913.675505
496.168839	41544.504247
496.535815	41196.785620
496.902733	41242.037537
497.269593	40853.218382
497.636395	40778.528647
498.003139	41176.132012
498.369825	40630.122119
498.736453	40928.220669
499.103023	40480.213327
499.469535	40352.750272
499.835989	40440.118510
500.202385	40100.904309
500.568723	40120.942895
500.935003	40320.053349
501.301226	40109.870001
501.667390	40732.167676
502.033497	40985.384833
502.399546	40418.565057
502.765537	39747.776523
503.131470	40120.166558
503.497345	40486.043421
503.863163	39137.103749
504.228923	39754.554354
504.594625	40156.155355
504.960269	39446.771747
505.325856	40135.602571
505.691385	39505.634780
506.056856	39644.332046
506.422270	40075.328015
506.787625	39650.852778
507.152924	39834.524698
507.518164	39943.937901
507.883347	39153.994135
508.248472	39396.771063
508.613540	39874.075071
508.978550	40175.339466
509.343503	39928.577506
509.708398	40099.132343
510.073236	40641.368933
510.438016	40649.686837
510.802738	40091.293349
511.167403	40716.285520
511.532010	40946.240274
511.896561	41244.545511
512.261053	42074.752974
512.625488	41634.945068
512.989866	41496.409119
513.354186	41331.878461
513.718449	41333.116064
514.082655	42004.968281
514.446803	41679.445854
514.810894	42189.661034
515.174927	42120.781229
515.538904	42032.518187
515.902822	42687.555635
516.266684	42133.389155
516.630488	42558.033269
516.994235	42428.399998
517.357925	42984.144360
517.721558	43141.009944
518.085133	43462.025580
518.448651	43598.174543
518.812112	43365.028739
519.175516	43473.025378
519.538863	43820.050847
519.902152	43775.678611
520.265385	44244.395013
520.628560	44275.317451
520.991678	44078.737656
521.354739	44320.211446
521.717743	44631.472449
522.080690	44512.387793
522.443580	45089.778869
522.806413	45129.218336
523.169189	45081.453403
523.531908	45270.917609
523.894569	45116.013033
524.257174	45287.382017
524.619722	45598.890037
524.982213	45578.972438
525.344647	45501.908319
525.707025	45553.481844
526.069345	45955.317258
526.431608	45877.300361
526.793815	46207.816051
527.155964	45735.338948
527.518057	45897.860707
527.880093	45691.982504
528.242072	46220.829790
528.603995	45926.292815
528.965860	45916.548264
529.327669	46016.194232
529.689421	45920.845848
530.051117	45884.209262
530.412755	46037.455298
530.774337	46096.358660
531.135862	45906.702891
531.497331	46108.086905
531.858743	46018.392175
532.220098	46356.325923
532.581396	46066.487303
532.942638	45747.820845
533.303824	46024.554985
533.664953	45992.037023
534.026025	45713.810701
534.387040	46195.568568
534.747999	46145.278017
535.108902	46313.400498
535.469748	45850.113418
535.830537	45942.618591
536.191270	46145.787174
536.551947	45797.733309
536.912567	46110.257121
537.273131	46224.880357
537.633638	45708.683847
537.994089	46061.562096
538.354483	45653.337019
538.714821	46217.308544
539.075103	46567.139415
539.435328	46329.650657
539.795497	46224.532517
540.155609	46220.653349
540.515665	46667.397883
540.875665	46124.700027
541.235609	46450.151878
541.595496	46421.649194
541.955328	47083.648476
542.315102	46458.595811
542.674821	46254.698782
543.034483	46276.249715
543.394090	46259.588701
543.753640	46217.414408
544.113134	47218.315340
544.472571	46241.841319
544.831953	47472.399576
545.191278	46682.019749
545.550548	46406.258552
545.909761	46863.239148
546.268918	47065.666681
546.628019	47373.545069
546.987064	46923.715350
547.346053	46224.303145
547.704986	47096.077441
548.063863	46658.850606
548.422684	46849.010491
548.781449	46685.861109
549.140158	47089.261801
549.498811	46956.127449
549.857408	46383.293575
550.215949	47210.925008
550.574434	47143.129051
550.932864	46927.402954
551.291237	47628.773647
551.649555	47231.286228
552.007817	47480.571286
552.366022	47129.160013
552.724173	47308.647775
553.082267	47717.891165
553.440305	48011.374539
553.798288	47319.705546
554.156215	47628.277094
554.514086	47826.696909
554.871902	47589.916434
555.229661	47605.017210
555.587365	47408.243331
555.945014	47497.285232
556.302606	47445.179866
556.660143	47668.119853
557.017625	47740.586440
557.375050	47547.333807
557.732421	47896.342970
558.089735	47857.780664
558.446994	47805.030030
558.804197	48266.681255
559.161345	48206.444508
559.518437	47460.252916
559.875474	47749.610105
560.232455	47920.240560
560.589381	48093.101725
560.946251	47797.354873
561.303065	48492.978651
561.659825	48272.090413
562.016528	47972.645875
562.373177	47676.959517
562.729770	48155.344852
563.086307	47678.486986
563.442789	48113.541084
563.799216	48176.976443
564.155587	47961.509966
564.511904	48001.095627
564.868164	48092.395964
565.224370	48339.503243
565.580520	48069.604907
565.936615	48263.112118
566.292654	48002.524794
566.648638	48257.070295
567.004567	48181.400056
567.360441	48239.615300
567.716260	48081.980940
568.072023	48371.491885
568.427732	48350.112351
568.783385	47913.601360
569.138982	48318.882403
569.494525	48276.647616
569.850013	48041.374446
570.205445	48002.378600
570.560823	47981.417482
570.916145	47824.410746
571.271412	47866.438846
571.626625	47619.944067
571.981782	47685.360599
572.336884	47348.515741
572.691931	47690.419397
573.046923	47304.229204
573.401860	47147.567787
573.756743	47130.258985
574.111570	47245.736696
574.466342	47090.446472
574.821059	47204.870582
575.175722	46729.837614
575.530330	46746.675068
575.884882	46464.254506
576.239380	46442.280117
576.593823	46412.401198
576.948211	46326.348702
577.302544	45844.731987
577.656823	45881.179529
578.011047	46089.091837
578.365216	45816.103274
578.719330	45623.014479
579.073389	45472.276417
579.427394	45557.358491
579.781344	45526.534356
580.135239	45174.742476
580.489080	45268.996929
580.842866	44748.538124
581.196597	45210.335543
581.550273	45156.077604
581.903895	44999.254869
582.257463	45432.375684
582.610975	44819.999000
582.964434	45100.791269
583.317837	44753.175985
583.671186	44578.721815
584.024481	44803.511907
584.377721	44342.715157
584.730906	44617.402589
585.084037	44644.977700
585.437113	44351.804357
585.790135	44395.299433
586.143103	43996.135830
586.496016	44133.655986
586.848874	44150.112833
587.201679	44167.492211
587.554428	43650.330320
587.907124	43833.341849
588.259765	43589.912091
588.612352	43821.192668
588.964884	43222.018766
589.317362	43513.473076
589.669786	43465.030108
590.022155	43216.644896
590.374470	43659.351465
590.726731	43183.292622
591.078937	42684.215871
591.431090	42789.003815
591.783188	42441.144035
592.135232	42119.505817
592.487222	42352.734800
592.839157	42445.849952
593.191038	42123.931950
593.542866	41891.872515
593.894639	41291.708026
594.246358	41576.490369
594.598022	41533.683411
594.949633	41150.946408
595.301190	41107.791610
595.652692	40938.625611
596.004141	41278.868207
596.355535	40280.560949
596.706876	40237.635524
597.058162	40057.436960
597.409395	40554.555223
597.760573	40617.110901
598.111698	40200.446933
598.462768	40210.453623
598.813785	40244.289847
599.164748	39711.782684
599.515657	40087.058780
599.866511	39560.429602
600.217312	40179.546309
600.568060	39150.223352
600.918753	39888.568388
601.269392	39856.708296
601.619978	39508.253660
601.970510	39710.103980
602.320988	39893.317155
602.671412	40208.815248
603.021783	39934.400038
603.372100	39595.158111
603.722363	39699.270541
604.072572	39778.245257
604.422728	39790.364191
604.772830	39604.690933
605.122878	39691.502123
605.472872	39636.477928
605.822813	39905.725955
606.172701	39745.013971
606.522534	39988.501701
606.872314	40249.676320
607.222041	39998.044606
607.571714	40381.817566
607.921333	39837.899751
608.270899	40126.982198
608.620411	40460.749432
608.969870	40279.482143
609.319276	40256.565057
609.668627	40302.610956
610.017926	40784.154575
610.367171	40951.175563
610.716362	41040.018338
611.065500	40999.497543
611.414585	41169.807885
611.763616	41458.570218
612.112594	41387.305947
612.461518	41614.651903
612.810389	41905.927252
613.159207	41768.172682
613.507971	41840.924094
613.856682	42316.216681
614.205340	42198.268805
614.553945	42904.542020
614.902496	42349.770601
615.250994	42822.711490
615.599439	42888.659865
615.947830	43110.652116
616.296169	43146.512364
616.644454	43276.649750
616.992686	43436.471971
617.340864	43954.034634
617.688990	43686.798027
618.037063	44283.748780
618.385082	44237.045011
618.733048	44547.058328
619.080961	44554.874637
619.428821	44573.479015
619.776628	44682.672928
620.124382	44504.276576
620.472083	44622.201767
620.819731	44760.493220
621.167326	44423.741623
621.514868	44399.624743
621.862357	43957.107217
622.209793	43993.963093
622.557176	43661.010005
622.904506	43428.234726
623.251783	43076.399996
623.599007	42846.767877
623.946179	42626.048517
624.293297	42578.313831
624.640363	41977.345278
624.987376	41976.090031
625.334336	41719.359189
625.681243	41373.324307
626.028097	41346.318846
626.374899	41186.093332
626.721647	41150.482622
627.068343	41044.542774
627.414987	40829.280463
627.761577	40582.800808
628.108115	40933.468510
628.454600	40362.426767
628.801032	40553.277290
629.147412	40519.609944
629.493739	40522.929544
629.840014	40172.586996
630.186236	40505.323314
630.532405	40126.621755
630.878521	40330.760759
631.224585	40218.184232
631.570597	39923.092730
631.916556	40085.743038
632.262462	40023.116784
632.608316	40048.617461
632.954117	39940.288106
633.299866	39939.796593
633.645562	39862.959327
633.991206	39336.468781
634.336797	38922.509391
634.682336	38932.657234
635.027823	38664.056995
635.373257	38497.277982
635.718639	38242.447655
636.063968	38110.545865
636.409245	37539.967908
636.754470	37578.187416
637.099642	37324.488828
637.444762	36863.162757
637.789829	37011.118102
638.134845	36649.558986
638.479808	36602.414116
638.824719	36512.270723
639.169577	36105.341223
639.514383	36174.248755
639.859137	35883.134723
640.203839	36118.400332
640.548489	35746.547180
640.893086	35819.021328
641.237632	35561.390641
641.582125	35673.014390
641.926566	35619.232840
642.270955	35579.720276
642.615292	35595.635199
642.959576	35565.174027
643.303809	35557.924847
643.647990	35701.519594
643.992118	35676.689391
644.336195	35663.559706
644.680219	35756.788284
645.024192	36049.225619
645.368112	36586.748730
645.711981	36577.825888
646.055797	37453.000442
646.399562	37375.099492
646.743274	38330.231788
647.086935	38768.146740
647.430544	38652.442177
647.774101	38788.394534
648.117606	39015.712764
648.461059	39332.050209
648.804460	38930.726472
649.147810	38322.148298
649.491108	38072.278466
649.834354	37711.939310
650.177548	36874.389407
650.520690	36426.800480
650.863781	36435.607376
651.206820	36270.113857
651.549807	35848.481832
651.892742	35348.911047
652.235626	35178.504924
652.578458	35036.851021
652.921238	34432.474648
653.263967	34748.436527
653.606644	34439.141574
653.949269	34373.243611
654.291843	33986.834128
654.634365	34388.911517
654.976836	33985.967049
655.319255	33974.349710
655.661622	33967.632373
656.003938	33742.570059
656.346203	33612.306644
656.688416	33836.524564
657.030577	33625.496823
657.372687	33478.632888
657.714746	33735.225098
658.056753	33861.258985
658.398708	33313.519976
658.740612	33356.657129
659.082465	33638.039214
659.424266	33463.622852
659.766016	33568.975406
660.107715	33446.800522
660.449362	33575.223916
660.790958	33559.946699
661.132503	33580.870008
661.473996	33623.898777
661.815438	33717.722212
662.156829	33925.669808
662.498168	33695.959551
662.839456	33719.746235
663.180693	33861.662278
663.521879	34028.025396
663.863013	33967.065243
664.204097	33970.079853
664.545129	34432.262920
664.886110	34390.683483
665.227040	34462.792147
665.567918	34589.793936
665.908746	34652.175695
666.249522	34819.776416
666.590248	34807.813758
666.930922	34917.075726
667.271545	34874.969489
667.612118	34972.452801
667.952639	34752.116570
668.293109	34803.884178
668.633528	34705.768201
668.973896	34628.787261
669.314213	34656.770706
669.654480	34394.240017
669.994695	34421.711785
670.334859	34309.359589
670.674973	34205.393353
671.015035	34371.131368
671.355047	34329.652754
671.695008	34260.057104
672.034918	34158.553472
672.374777	34230.921756
672.714585	34077.816872
673.054342	34297.666633
673.394049	34054.070517
673.733705	34333.640307
674.073310	33996.190509
674.412864	34063.431940
674.752368	33674.002805
675.091820	33976.429186
675.431223	33551.517890
675.770574	33285.362611
676.109875	33133.767553
676.449125	32853.166848
676.788324	32779.515590
677.127473	32237.962077
677.466571	32170.299710
677.805619	31807.185398
678.144616	31807.674390
678.483562	31722.183982
678.822458	31399.771947
679.161303	31315.735913
679.500098	31232.516545
679.838842	31122.531171
680.177535	31279.288370
680.516179	31543.369214
680.854771	31777.843362
681.193314	32638.214568
681.531805	33781.331491
681.870247	34560.487188
682.208638	35292.566071
682.546978	35520.211975
682.885268	35609.939473
683.223508	35085.898928
683.561697	34736.052933
683.899836	34556.882763
684.237925	34048.006009
684.575963	33892.924993
684.913951	33420.155503
685.251889	33590.208746
685.589776	33559.732450
685.927614	33561.625404
686.265401	33679.371634
686.603137	33800.132474
686.940824	34300.015810
687.278460	34682.939336
687.616046	34807.367616
687.953582	35417.906799
688.291068	35279.438906
688.628504	35559.671607
688.965889	35496.364797
689.303224	35120.995441
689.640510	34771.915701
689.977745	34033.142167
690.314930	33253.310955
690.652065	32716.095354
690.989150	31969.986941
691.326185	31063.821893
691.663170	30362.884739
692.000105	29600.914335
692.336990	28917.391847
692.673825	28457.126939
693.010610	27935.798534
693.347345	27362.510957
693.684030	26698.989247
694.020665	26415.815032
694.357251	25737.482412
694.693786	25682.652302
695.030272	25438.274808
695.366707	24890.465222
695.703093	24603.477375
696.039429	24590.317443
696.375716	24328.510159
696.711952	24284.891575
697.048139	24127.350477
697.384276	23937.074645
697.720363	24070.110695
698.056400	23860.640671
698.392388	23639.782679
698.728326	23614.377785
699.064214	23403.965064
699.400053	23342.762936
699.735842	22986.539882
700.071581	22708.179969
700.407270	22421.043408
700.742910	22228.693142
701.078501	21945.977672
701.414042	21661.187768
701.749533	21362.799351
702.084974	21018.657422
702.420366	21210.125487
702.755709	20780.067172
703.091002	20482.560958
703.426246	20499.342959
703.761440	20396.193389
704.096584	20115.519587
704.431679	20077.663042
704.766725	19988.880762
705.101721	19910.614327
705.436668	20010.010758
705.771565	19687.777683
706.106413	20027.397697
706.441212	20004.485653
706.775961	20140.256529
707.110661	20216.420802
707.445311	20566.677651
707.779913	20399.694471
708.114465	20646.343005
708.448967	20921.378277
708.783421	21627.454887
709.117825	21895.364488
709.452180	22121.803036
709.786485	22517.483202
710.120742	23308.702380
710.454949	23334.245907
710.789107	23799.352843
711.123216	24502.024154
711.457275	24630.825635
711.791286	25179.456928
712.125247	25245.909418
712.459159	24944.796258
712.793023	25614.511026
713.126837	24509.974053
713.460602	24769.916110
713.794318	24392.893255
714.127985	23996.895497
714.461602	23103.103962
714.795171	23065.136511
715.128691	22049.220503
715.462162	21497.428406
715.795584	21079.534396
716.128957	20807.828807
716.462281	20393.211547
716.795556	20159.523819
717.128782	19663.345731
717.461960	19113.761660
717.795088	19033.219145
718.128167	18636.324061
718.461198	18169.452721
718.794180	18024.459054
719.127113	17658.312489
719.459997	17454.352445
719.792833	17099.929083
720.125619	17070.967654
720.458357	16744.910864
720.791046	16569.826550
721.123686	16412.943322
721.456278	16175.499935
721.788821	16121.080679
722.121315	15868.113058
722.453761	15939.306753
722.786158	15862.109044
723.118506	15872.987854
723.450805	15730.333283
723.783056	15888.398661
724.115259	15790.738908
724.447412	15714.733432
724.779518	15956.975998
725.111574	15985.468599
725.443582	16179.056469
725.775542	16161.329251
726.107453	16633.130840
726.439315	16514.464599
726.771129	16916.965445
727.102895	17283.684182
727.434612	17494.951378
727.766281	17623.596583
728.097901	17883.926808
728.429473	17924.011543
728.760996	17905.197957
729.092471	17999.649016
729.423897	17870.716465
729.755276	17735.127070
730.086606	17846.584461
730.417887	18376.427375
730.749120	18885.878821
731.080305	19059.024811
731.411442	19395.136182
731.742530	19471.645774
732.073570	19569.338294
732.404562	19864.651607
732.735506	19682.814667
733.066401	19397.245905
733.397249	18880.391525
733.728048	18242.544411
734.058798	17400.361688
734.389501	16701.632559
734.720156	16246.910399
735.050762	15715.552619
735.381320	15360.201685
735.711831	15112.615496
736.042293	14756.735240
736.372707	14764.362506
736.703073	14555.157142
737.033391	14733.782867
737.363661	14698.638463
737.693883	14791.015086
738.024056	14966.583351
738.354182	15151.387010
738.684260	15434.785556
739.014290	15654.809236
739.344272	15846.456261
739.674207	16118.562622
740.004093	16241.599544
740.333931	16238.461426
740.663722	16278.112621
740.993464	16267.523678
741.323159	16097.036896
741.652806	15823.156048
741.982405	15614.210304
742.311956	15273.249343
742.641460	15149.146217
742.970915	14842.941492
743.300323	14512.135935
743.629683	14292.684426
743.958996	14023.600236
744.288260	13743.854007
744.617477	13449.075056
744.946647	13377.571330
745.275768	13098.495573
745.604842	12912.938262
745.933869	12736.823032
746.262847	12696.093029
746.591778	12620.916823
746.920662	12508.156293
747.249498	12501.713699
747.578286	12629.869912
747.907027	12775.400462
748.235720	12998.380779
748.564365	13019.152853
748.892963	12920.005960
749.221514	12974.518477
749.550017	12828.877022
749.878473	12792.056434
750.206881	12565.169223
750.535242	12474.617497
750.863555	12389.341338
751.191821	12277.490738
751.520039	12305.769090
751.848210	12213.155532
752.176334	12241.186868
752.504411	12145.072229
752.832440	11987.490801
753.160421	12055.221223
753.488356	11926.233220
753.816243	11831.908190
754.144082	11686.271776
754.471875	11631.602983
754.799620	11575.048799
755.127318	11551.257073
755.454969	11499.706234
755.782572	11461.501850
756.110129	11471.448046
756.437638	11393.806715
756.765100	11383.815148
757.092515	11378.665610
757.419882	11392.329657
757.747203	11406.344065
758.074477	11467.568878
758.401703	11429.818198
758.728882	11592.158475
759.056014	11634.622634
759.383099	11751.254770
759.710138	11847.245901
760.037129	11930.261102
760.364073	11955.965945
760.690970	11930.205649
761.017820	11937.449787
761.344623	12124.249743
761.671379	12447.506172
761.998088	13079.417327
762.324751	14637.300223
762.651366	17515.988113
762.977935	21181.834531
763.304456	23406.190734
763.630931	23931.400827
763.957359	22738.963775
764.283740	20827.673309
764.610074	18949.954407
764.936362	16806.914536
765.262602	15283.298883
765.588796	13798.427017
765.914943	12759.193152
766.241044	11897.420505
766.567097	11261.778896
766.893104	10711.020235
767.219064	10343.656231
767.544978	9955.900760
767.870845	9636.904106
768.196665	9450.131877
768.522438	9249.453624
768.848165	9083.551772
769.173846	8917.085310
769.499479	8795.664078
769.825066	8640.189853
770.150607	8455.665978
770.476101	8385.510760
770.801548	8278.839945
771.126949	8134.262173
771.452303	8051.188999
771.777611	7879.242803
772.102872	7859.176490
772.428087	7737.019250
772.753256	7614.882175
773.078378	7526.334308
773.403453	7381.592698
773.728482	7284.331197
774.053465	7215.799231
774.378401	7125.212217
774.703291	7028.354007
775.028135	6932.597290
775.352932	6898.188894
775.677683	6812.166645
776.002388	6724.944601
776.327046	6725.771350
776.651658	6637.218442
776.976224	6563.579787
777.300743	6543.384925
777.625216	6478.371684
777.949643	6428.106339
778.274024	6432.240085
778.598359	6369.480241
778.922647	6366.856320
779.246889	6331.941288
779.571086	6331.517832
779.895236	6345.771694
780.219339	6340.349933
780.543397	6338.525035
780.867409	6385.727879
781.191374	6382.851901
781.515294	6350.984247
781.839167	6406.179841
782.162995	6377.493155
782.486776	6325.614640
782.810511	6286.623836
783.134201	6207.850766
783.457844	6201.103182
783.781441	6153.373537
784.104993	6109.391990
784.428498	6080.818730
784.751958	6063.797274
785.075372	6035.841556
785.398739	5998.758828
785.722061	6021.005440
786.045337	6021.365882
786.368568	6131.303365
786.691752	6146.978833
787.014891	6399.328912
787.337983	6676.035327
787.661030	7115.240814
787.984031	7541.853500
788.306987	7809.478275
788.629897	7894.378867
788.952760	7811.182185
789.275579	7634.827500
789.598351	7333.737025
789.921078	7073.217756
790.243759	6797.887577
790.566395	6590.567604
790.888984	6396.949488
791.211529	6251.771819
791.534027	6084.614719
791.856480	5954.994051
792.178888	5888.470985
792.501249	5821.191745
792.823566	5713.379109
793.145836	5709.850301
793.468062	5693.436304
793.790241	5647.549201
794.112375	5694.066448
794.434464	5786.634636
794.756507	5814.655889
795.078505	5933.879178
795.400457	6148.382795
795.722364	6400.604324
796.044226	6588.445278
796.366042	6749.076605
796.687812	6694.395209
797.009538	6726.537606
797.331218	6634.317258
797.652852	6564.194808
797.974442	6443.312980
798.295986	6369.969232
798.617484	6247.887610
798.938938	6135.913501
799.260346	6071.323717
799.581709	5929.034629
799.903026	5874.771649
800.224299	5803.262882
800.545526	5679.714283
800.866708	5622.845027
801.187845	5568.902160
801.508936	5493.045397
801.829983	5465.273681
802.150984	5353.811249
802.471940	5328.025747
802.792851	5309.817099
803.113717	5290.446466
803.434538	5262.919245
803.755314	5228.520932
804.076045	5219.731680
804.396731	5184.496535
804.717372	5193.999110
805.037967	5201.535635
805.358518	5224.777875
805.679024	5286.063182
805.999485	5295.374193
806.319901	5312.622501
806.640272	5328.595397
806.960598	5376.098190
807.280879	5370.313466
807.601115	5404.585750
807.921306	5369.630390
808.241453	5362.141756
808.561554	5374.490062
808.881611	5341.289023
809.201623	5341.924208
809.521590	5288.470333
809.841513	5273.856028
810.161390	5293.849244
810.481223	5196.930541
810.801011	5190.888718
811.120755	5166.262682
811.440453	5109.569866
811.760107	5083.570115
812.079716	5055.811001
812.399281	5001.941231
812.718801	5000.721272
813.038276	4963.976301
813.357707	4927.332154
813.677093	4955.287873
813.996434	4887.953181
814.315731	4912.589300
814.634983	4907.825409
814.954191	4918.870577
815.273354	4974.590451
815.592473	5014.163508
815.911547	5089.780816
816.230577	5141.913909
816.549562	5233.577209
816.868502	5287.194921
817.187399	5341.059650
817.506250	5417.962452
817.825058	5449.956135
818.143821	5602.955154
818.462539	5777.114417
818.781213	6004.878789
819.099843	6368.943358
819.418429	7002.964236
819.736970	7625.468598
820.055466	8338.870005
820.373919	9267.420297
820.692327	10733.259286
821.010691	13457.463536
821.329011	19724.389063
821.647286	29343.134933
821.965517	39750.153427
822.283704	45270.408452
822.601847	46789.771892
822.919945	42204.529918
823.237999	37077.053874
823.556010	31865.927443
823.873976	27124.702086
824.191897	22856.319316
824.509775	19750.897971
824.827609	16963.021427
825.145398	15382.619696
825.463144	14613.362304
825.780845	14895.150201
826.098502	16166.975343
826.416116	18631.935737
826.733685	20908.674569
827.051210	21417.326992
827.368692	19986.516460
827.686129	17419.999502
828.003522	14935.212251
828.320872	12697.670911
828.638177	11035.975533
828.955439	9775.379561
829.272656	8702.727887
829.589830	7854.057198
829.906960	7117.106041
830.224046	6576.167548
830.541088	6161.401574
830.858086	5900.693262
831.175041	5693.587539
831.491952	5633.895236
831.808819	5673.062481
832.125642	5914.914357
832.442421	6475.246169
832.759157	7583.014521
833.075849	9355.219552
833.392497	11210.117151
833.709101	12333.553409
834.025662	12086.408322
834.342179	11026.735098
834.658653	9725.439370
834.975083	8614.613559
835.291469	7700.531379
835.607811	6955.171577
835.924110	6430.193377
836.240366	5931.945895
836.556578	5480.245908
836.872746	5124.703409
837.188871	4845.758723
837.504952	4625.467862
837.820990	4454.204742
838.136984	4338.225436
838.452935	4288.227272
838.768842	4319.641222
839.084706	4602.749902
839.400526	5346.544426
839.716303	6255.824907
840.032037	6823.589900
840.347727	6682.067067
840.663373	6079.911323
840.978977	5497.274926
841.294537	5053.408891
841.610054	4714.615626
841.925527	4475.029749
842.240957	4267.981998
842.556344	4085.535079
842.871687	3920.961571
843.186987	3771.314919
843.502244	3652.255468
843.817458	3562.399421
844.132629	3487.132473
844.447756	3438.424845
844.762840	3391.602608
845.077881	3352.276567
845.392879	3320.156855
845.707833	3294.101652
846.022745	3268.976541
846.337613	3256.764346
846.652438	3229.153946
846.967221	3219.391752
847.281960	3199.988350
847.596656	3193.003832
847.911309	3182.200639
848.225919	3167.551046
848.540485	3154.139056
848.855009	3150.010351
849.169490	3141.914258
849.483928	3129.008904
849.798323	3126.266517
850.112675	3110.752366
850.426984	3118.122532
850.741251	3106.520317
851.055474	3103.795573
851.369654	3105.925461
851.683792	3101.285079
851.997887	3103.223402
852.311938	3102.207610
852.625947	3103.823300
852.939914	3097.295005
853.253837	3105.179370
853.567718	3102.232816
853.881555	3095.031527
854.195350	3102.787342
854.509103	3097.506734
854.822812	3099.797938
855.136479	3089.297215
855.450103	3095.815427
855.763685	3089.579519
856.077224	3089.372832
856.390720	3098.414142
856.704173	3108.904783
857.017584	3116.222017
857.330953	3118.616566
857.644278	3129.941518
857.957561	3132.225160
858.270802	3128.401445
858.584000	3127.937659
858.897155	3120.270064
859.210268	3115.218828
859.523339	3099.495469
859.836367	3100.566714
860.149352	3091.243100
860.462295	3088.294025
860.775195	3080.573498
861.088054	3072.802559
861.400869	3077.521079
861.713642	3073.029411
862.026373	3080.810432
862.339062	3086.786720
862.651708	3095.076898
862.964312	3109.045935
863.276873	3116.776544
863.589392	3148.606390
863.901869	3175.649660
864.214303	3197.384594
864.526696	3216.054508
864.839045	3235.717528
865.151353	3250.001638
865.463619	3248.093561
865.775842	3250.231010
866.088023	3253.545569
866.400162	3245.767068
866.712258	3249.137080
867.024313	3248.877460
867.336325	3245.278077
867.648296	3251.413161
867.960224	3244.668097
868.272110	3251.821494
868.583954	3251.506422
868.895755	3259.572268
869.207515	3255.531783
869.519233	3273.798404
869.830909	3277.924589
870.142542	3291.818009
870.454134	3300.360244
870.765684	3308.887356
871.077191	3330.161025
871.388657	3341.949763
871.700081	3360.617156
872.011463	3377.424363
872.322803	3400.250708
872.634101	3417.004982
872.945357	3436.554577
873.256571	3465.180769
873.567744	3482.413953
873.878874	3485.085765
874.189963	3504.867253
874.501010	3503.735514
874.812015	3501.046058
875.122979	3520.681352
875.433900	3519.085827
875.744780	3521.631610
876.055618	3527.411293
876.366415	3525.707383
876.677169	3530.272147
876.987882	3549.567164
877.298554	3565.986202
877.609183	3609.829117
877.919771	3655.653205
878.230317	3727.565265
878.540822	3828.763908
878.851285	3990.403465
879.161707	4212.499059
879.472087	4599.697483
879.782425	5229.997990
880.092722	6441.349450
880.402977	8403.996672
880.713191	10805.995574
881.023363	13220.443606
881.333494	14583.652264
881.643583	15042.021698
881.953631	14648.292459
882.263637	13809.313389
882.573602	12764.193977
882.883526	11790.593414
883.193408	10825.315796
883.503248	9892.034382
883.813048	9042.998210
884.122806	8268.934078
884.432522	7484.870817
884.742197	6811.370143
885.051831	6235.725826
885.361424	5734.249486
885.670975	5326.742773
885.980485	4994.054346
886.289954	4720.566708
886.599382	4495.907687
886.908768	4315.953618
887.218113	4148.317609
887.527417	4012.851723
887.836680	3892.927714
888.145901	3781.689613
888.455082	3706.568859
888.764221	3634.568579
889.073319	3574.089857
889.382376	3544.326884
889.691392	3516.139273
890.000366	3506.740041
890.309300	3503.221316
890.618193	3504.040503
890.927044	3500.428517
891.235855	3506.735000
891.544625	3518.710261
891.853353	3548.886608
892.162041	3612.183336
892.470687	3705.689178
892.779293	3824.965398
893.087858	4003.318901
893.396381	4287.024957
893.704864	4704.525757
894.013306	5282.461278
894.321707	5863.282859
894.630068	6226.805504
894.938387	6265.408140
895.246665	6088.526654
895.554903	5761.806953
895.863100	5423.606024
896.171256	5152.379344
896.479371	4906.421448
896.787446	4677.298485
897.095480	4477.603258
897.403473	4324.200946
897.711425	4173.692257
898.019336	4051.504770
898.327207	3927.053805
898.635038	3826.555883
898.942827	3720.863051
899.250576	3628.988022
899.558284	3541.249260
899.865952	3487.699603
900.173579	3424.299532
900.481165	3376.237171
900.788711	3334.158660
901.096216	3299.041982
901.403681	3270.390584
901.711105	3260.651075
902.018489	3257.573451
902.325832	3290.620735
902.633135	3351.364118
902.940397	3524.124460
903.247619	3935.616205
903.554800	4702.700859
903.861941	5684.710067
904.169041	6397.493933
904.476101	6624.131607
904.783121	6346.172466
905.090100	5934.602583
905.397039	5516.511969
905.703938	5150.297347
906.010796	4819.733766
906.317614	4555.945309
906.624391	4314.768947
906.931129	4114.955253
907.237826	3931.101852
907.544483	3756.645161
907.851099	3575.130855
908.157675	3418.121598
908.464211	3271.484515
908.770707	3170.981551
909.077163	3088.614138
909.383578	3024.649458
909.689954	2982.391986
909.996289	2950.078190
910.302584	2929.631270
910.608839	2918.376894
910.915054	2908.281983
911.221229	2899.444840
911.527363	2902.915675
911.833458	2909.761562
912.139513	2923.891916
912.445527	2937.220727
912.751502	2970.880511
913.057436	3015.925741
913.363331	3077.692479
913.669186	3162.940911
913.975000	3285.650157
914.280775	3477.889518
914.586510	3750.968822
914.892205	4137.423676
915.197859	4643.820182
915.503475	5234.633331
915.809050	5736.538169
916.114585	6037.169900
916.420081	6096.191729
916.725536	6033.036153
917.030952	5792.656294
917.336328	5586.064768
917.641665	5367.825657
917.946961	5133.190192
918.252218	4932.985808
918.557435	4706.564904
918.862612	4500.265765
919.167750	4329.282429
919.472848	4131.643993
919.777906	3959.596974
920.082925	3797.234011
920.387904	3642.770537
920.692843	3526.914739
920.997743	3423.966816
921.302603	3328.409224
921.607423	3262.241559
921.912204	3195.342927
922.216946	3144.820483
922.521647	3095.581013
922.826310	3050.956719
923.130932	3013.148065
923.435516	2972.488639
923.740059	2946.446038
924.044564	2910.603434
924.349028	2889.372615
924.653454	2855.972450
924.957840	2831.482525
925.262186	2812.789926
925.566493	2788.688170
925.870761	2763.817637
926.174989	2752.699372
926.479178	2737.286045
926.783328	2722.011348
927.087438	2705.796477
927.391509	2694.995805
927.695541	2681.586336
927.999533	2670.223575
928.303486	2661.288130
928.607400	2654.916111
928.911275	2653.214722
929.215110	2648.133239
929.518906	2640.715181
929.822663	2641.536889
930.126381	2638.502114
930.430060	2643.245840
930.733699	2644.324647
931.037299	2651.362098
931.340861	2645.940337
931.644383	2652.453508
931.947866	2652.138436
932.251309	2649.025523
932.554714	2648.896974
932.858080	2643.979328
933.161407	2641.708288
933.464694	2635.701753
933.767943	2635.822741
934.071153	2633.534057
934.374323	2628.891155
934.677455	2626.912502
934.980548	2620.853035
935.283602	2617.122581
935.586617	2614.786006
935.889593	2621.336986
936.192530	2624.712038
936.495428	2627.124230
936.798287	2638.844913
937.101108	2651.430153
937.403890	2671.917403
937.706632	2697.949921
938.009336	2728.431258
938.312002	2763.724376
938.614628	2786.245731
938.917216	2804.711477
939.219765	2816.772438
939.522275	2824.550938
939.824747	2825.695280
940.127179	2820.442398
940.429573	2813.815801
940.731929	2812.164823
941.034246	2802.548822
941.336524	2802.682413
941.638763	2795.251752
941.940964	2790.669343
942.243126	2771.029008
942.545250	2762.859818
942.847335	2746.498753
943.149381	2734.762947
943.451389	2723.311966
943.753359	2709.655480
944.055290	2699.429500
944.357182	2688.475072
944.659036	2681.377128
944.960851	2679.839576
945.262628	2673.107115
945.564367	2676.593073
945.866067	2674.196004
946.167729	2673.573422
946.469352	2671.753565
946.770937	2670.026970
947.072484	2662.462719
947.373992	2666.220899
947.675462	2659.009528
947.976893	2654.049033
948.278286	2651.838487
948.579641	2650.772283
948.880958	2644.327168
949.182236	2645.221972
949.483476	2642.245171
949.784678	2641.362969
950.085841	2642.219965
950.386967	2645.600059
950.688054	2650.270688
950.989103	2658.908705
951.290114	2666.656959
951.591087	2680.976356
951.892021	2690.743592
952.192917	2703.439738
952.493776	2715.122612
952.794596	2718.192674
953.095378	2720.393138
953.396122	2720.554455
953.696828	2714.898280
953.997496	2709.274873
954.298126	2699.671475
954.598718	2692.520598
954.899272	2679.781603
955.199788	2670.793225
955.500266	2657.103972
955.800706	2638.134110
956.101108	2624.694394
956.401472	2614.604525
956.701798	2600.380909
957.002087	2582.550348
957.302337	2575.490212
957.602550	2562.224416
957.902724	2550.183620
958.202861	2543.060469
958.502960	2536.532175
958.803022	2527.062367
959.103045	2518.895698
959.403031	2514.693897
959.702979	2507.706857
960.002889	2499.487256
960.302762	2495.247646
960.602596	2490.115751
960.902393	2488.991574
961.202153	2486.251707
961.501875	2483.839514
961.801559	2482.750625
962.101205	2478.016982
962.400814	2479.307517
962.700385	2471.952474
962.999918	2473.197639
963.299414	2469.570528
963.598873	2470.094808
963.898293	2466.571042
964.197677	2467.700260
964.497022	2465.373768
964.796331	2463.959724
965.095601	2464.597430
965.394835	2462.465022
965.694030	2463.271607
965.993189	2463.868983
966.292309	2461.481997
966.591393	2460.012501
966.890439	2457.640638
967.189447	2461.053499
967.488419	2458.737089
967.787353	2463.931998
968.086249	2460.335135
968.385108	2461.247583
968.683930	2465.323356
968.982714	2464.363017
969.281462	2466.500466
969.580172	2465.709005
969.878844	2469.971300
970.177480	2472.184367
970.476078	2475.103195
970.774639	2480.298104
971.073162	2479.786427
971.371649	2479.375573
971.670098	2482.180975
971.968510	2486.720534
972.266885	2483.582416
972.565223	2487.096100
972.863524	2489.835967
973.161788	2488.966368
973.460014	2494.027686
973.758204	2492.033910
974.056356	2492.790083
974.354471	2493.379898
974.652550	2494.002481
974.950591	2493.712614
975.248595	2490.355206
975.546563	2489.392345
975.844493	2486.357571
976.142386	2485.709783
976.440243	2486.324803
976.738062	2486.415544
977.035845	2482.286839
977.333590	2479.226859
977.631299	2476.295428
977.928971	2475.118318
978.226606	2473.550519
978.524204	2470.883749
978.821765	2472.859881
979.119290	2471.279480
979.416777	2470.961887
979.714228	2469.736887
980.011642	2470.523307
980.309020	2475.221662
980.606360	2479.252064
980.903664	2488.815133
981.200931	2499.275527
981.498162	2522.553055
981.795356	2554.166131
982.092513	2590.369177
982.389633	2639.054121
982.686717	2679.416119
982.983764	2714.260574
983.280775	2733.220354
983.577749	2731.544170
983.874686	2722.212995
984.171587	2707.823021
984.468451	2688.386852
984.765279	2671.130983
985.062070	2654.084321
985.358824	2634.597741
985.655543	2611.647888
985.952224	2590.918663
986.248869	2558.130999
986.545478	2531.269210
986.842050	2508.331960
987.138586	2493.039620
987.435086	2477.422126
987.731549	2467.561629
988.027975	2458.769856
988.324366	2454.973868
988.620719	2449.360543
988.917037	2447.540686
989.213318	2447.623865
989.509563	2439.626075
989.805772	2441.609769
990.101944	2439.240426
990.398080	2438.504418
990.694180	2437.342432
990.990244	2438.365786
991.286271	2438.476692
991.582262	2438.814449
991.878217	2439.026177
992.174136	2439.442072
992.470019	2439.167330
992.765865	2440.147834
993.061676	2443.303596
993.357450	2446.464400
993.653188	2449.032868
993.948890	2455.261213
994.244556	2459.949486
994.540186	2470.528348
994.835780	2483.227014
995.131337	2496.271000
995.426859	2512.765655
995.722345	2534.036804
996.017795	2554.584547
996.313208	2568.974521
996.608586	2578.000707
996.903928	2581.859710
997.199234	2581.602611
997.494504	2577.978021
997.789738	2568.823286
998.084936	2559.993705
998.380099	2549.588763
998.675225	2535.566794
998.970316	2522.744619
999.265371	2510.108967
999.560390	2496.631442
999.855373	2485.276243
1000.150320	2471.634881
1000.445232	2464.660445
1000.740108	2455.858590
1001.034948	2450.822477
1001.329752	2445.163782
1001.624521	2439.237906
1001.919254	2434.763882
1002.213951	2434.247163
1002.508613	2429.732810
1002.803239	2430.834302
1003.097829	2422.788621
1003.392384	2426.299784
1003.686903	2424.447160
1003.981386	2424.807603
1004.275834	2421.019176
1004.570246	2424.172418
1004.864623	2420.109248
1005.158964	2421.588826
1005.453270	2421.629155
1005.747540	2421.112437
1006.041775	2419.433733
1006.335974	2418.027251
1006.630138	2417.772673
1006.924266	2417.888619
1007.218359	2417.124884
1007.512416	2416.414082
1007.806438	2418.591860
1008.100425	2417.082035
1008.394376	2416.580440
1008.688292	2416.086407
1008.982172	2416.030954
1009.276017	2415.935172
1009.569827	2413.633885
1009.863602	2416.285532
1010.157341	2414.899215
1010.451045	2415.909966
1010.744714	2412.537434
1011.038347	2413.953999
1011.331945	2413.482651
1011.625508	2410.498288
1011.919036	2412.764286
1012.212528	2413.386869
1012.505986	2415.133629
1012.799408	2414.639596
1013.092795	2409.931158
1013.386147	2413.444842
1013.679464	2409.122053
1013.972745	2413.601118
1014.265992	2409.744635
1014.559204	2415.854514
1014.852380	2410.775551
1015.145521	2411.738412
1015.438628	2410.919224
1015.731699	2411.345202
1016.024736	2412.567681
1016.317737	2413.822929
1016.610703	2410.480644
1016.903635	2410.147927
1017.196531	2410.717578
1017.489393	2412.915521
1017.782219	2407.345046
1018.075011	2412.718916
1018.367768	2413.901067
1018.660490	2413.331416
1018.953177	2413.331416
1019.245829	2413.331416
