Dividing Wavelength (nm)	Counts (n)	Blue Motor Position (mm): 43.400000	Red Motor Position (mm): 0.000000	
326.493990	1971.759107
326.888308	1971.759107
327.282561	1971.759107
327.676750	1948.269850
328.070874	1951.407969
328.464933	1956.766715
328.858929	1965.366924
329.252859	1979.270426
329.646726	1993.920019
330.040528	2009.088851
330.434265	2027.554597
330.827938	2045.291897
331.221547	2065.156564
331.615091	2086.543659
332.008571	2106.118460
332.401986	2127.697119
332.795338	2147.770993
333.188625	2169.760506
333.581847	2186.482014
333.975006	2205.671166
334.368100	2222.594319
334.761129	2240.001423
335.154095	2252.422827
335.546996	2296.273303
335.939833	2378.522249
336.332606	2396.597306
336.725315	2406.578791
337.117960	2417.003897
337.510540	2423.426327
337.903056	2436.450148
338.295508	2440.397371
338.687896	2447.318875
339.080220	2456.095524
339.472480	2459.904116
339.864676	2462.941411
340.256807	2464.940229
340.648875	2469.076495
341.040879	2468.960549
341.432818	2472.219655
341.824694	2472.764099
342.216506	2470.997175
342.608253	2472.350725
342.999937	2471.271918
343.391557	2469.512555
343.783113	2467.947277
344.174605	2465.943418
344.566033	2464.967955
344.957397	2462.671709
345.348697	2465.119190
345.739934	2462.192800
346.131106	2458.348920
346.522215	2457.438992
346.913260	2453.501851
347.304241	2455.452777
347.695159	2452.944803
348.086012	2453.839608
348.476802	2449.980605
348.867528	2448.329627
349.258191	2448.299380
349.648789	2445.166303
350.039324	2446.708896
350.429796	2447.608742
350.820203	2439.656322
351.210548	2443.931220
351.600828	2442.978442
351.991045	2440.097423
352.381198	2440.954419
352.771288	2442.106322
353.161314	2444.452979
353.551276	2441.110694
353.941175	2441.040118
354.331010	2442.043308
354.720782	2441.156065
355.110490	2441.826538
355.500135	2443.290993
355.889717	2442.275201
356.279235	2443.449790
356.668689	2440.881322
357.058080	2441.050201
357.447408	2441.266970
357.836672	2439.308482
358.225873	2443.432146
358.615010	2441.861826
359.004084	2444.319389
359.393095	2448.337188
359.782043	2450.978753
360.170927	2448.127981
360.559748	2449.479010
360.948505	2450.749381
361.337199	2453.080914
361.725830	2453.489248
362.114398	2453.711058
362.502903	2456.955041
362.891344	2456.977726
363.279722	2454.220215
363.668037	2455.641820
364.056289	2452.538990
364.444478	2457.446553
364.832603	2457.335648
365.220665	2458.999229
365.608665	2460.093159
365.996601	2461.615588
366.384474	2462.326390
366.772284	2463.740434
367.160031	2461.837398
367.547715	2462.780094
367.935336	2463.349745
368.322893	2464.420990
368.710388	2463.327059
369.097820	2467.783439
369.485189	2467.450723
369.872495	2468.050621
370.259738	2466.573562
370.646918	2472.890128
371.034035	2468.554736
371.421090	2472.242340
371.808081	2470.800570
372.195010	2473.313585
372.581875	2471.372741
372.968678	2472.237299
373.355418	2474.470530
373.742096	2475.224182
374.128710	2474.964563
374.515262	2477.500263
374.901751	2479.637713
375.288177	2480.996304
375.674540	2478.211066
376.060841	2480.782055
376.447079	2484.177272
376.833254	2483.098465
377.219367	2479.297435
377.605417	2487.605256
377.991404	2483.574854
378.377329	2486.675163
378.763191	2483.418578
379.148991	2491.181955
379.534727	2492.321256
379.920402	2492.989209
380.306013	2494.158756
380.691563	2497.765702
381.077049	2499.204951
381.462474	2499.187307
381.847835	2502.728718
382.233134	2505.972700
382.618371	2508.362207
383.003545	2513.605007
383.388657	2518.588188
383.773706	2524.592202
384.158693	2528.269724
384.543618	2538.231044
384.928480	2546.932075
385.313280	2563.121741
385.698017	2575.659091
386.082692	2593.345979
386.467305	2608.870212
386.851856	2633.808800
387.236344	2664.655621
387.620770	2686.657737
388.005133	2718.674105
388.389435	2755.124167
388.773674	2789.772018
389.157851	2837.655418
389.541965	2886.085783
389.926018	2924.264961
390.310008	2986.901298
390.693936	3046.780123
391.077802	3109.968466
391.461606	3179.765762
391.845348	3251.370311
392.229027	3327.395952
392.612645	3433.620625
392.996200	3519.584901
393.379694	3621.017958
393.763125	3745.297524
394.146494	3839.375537
394.529801	3946.512659
394.913047	4099.582254
395.296230	4173.334335
395.679351	4268.362606
396.062410	4443.900624
396.445408	4483.846727
396.828343	4624.905773
397.211217	4766.509264
397.594028	4806.321777
397.976778	4976.443075
398.359466	5142.133199
398.742092	5218.695723
399.124656	5385.885590
399.507158	5572.322583
399.889598	5678.935425
400.271977	5888.395367
400.654294	6004.122616
401.036549	6213.854780
401.418742	6331.306103
401.800874	6605.519667
402.182944	6763.632936
402.564952	7090.019922
402.946898	7087.935404
403.328783	7214.317131
403.710606	7451.382432
404.092367	7735.244764
404.474067	8094.568128
404.855705	8046.707413
405.237282	8109.621013
405.618797	8522.776338
406.000250	8812.478847
406.381642	9185.705713
406.762972	9250.595446
407.144240	9179.086678
407.525447	9482.072627
407.906593	9517.892546
408.287677	9826.446449
408.668700	10032.448160
409.049661	10097.234549
409.430560	10306.782711
409.811399	10351.883394
410.192176	10567.788452
410.572891	10703.937414
410.953545	11206.434588
411.334138	10800.951899
411.714669	11398.532797
412.095139	10850.561894
412.475547	11349.497493
412.855894	11269.322983
413.236180	11614.238729
413.616405	11371.572706
413.996568	11666.754949
414.376670	11686.664986
414.756711	11610.125147
415.136691	11906.134139
415.516609	12108.332300
415.896466	12204.499871
416.276262	12507.480779
416.655997	12964.592445
417.035670	13027.649718
417.415283	13683.559286
417.794834	13788.513588
418.174324	13564.719125
418.553753	13484.161487
418.933121	13981.879647
419.312428	13817.787569
419.691674	13738.127256
420.070859	14187.702397
420.449983	13864.904713
420.829045	14413.835956
421.208047	14177.489019
421.586988	14625.125837
421.965867	14881.224014
422.344686	14878.025402
422.723444	15443.136227
423.102141	14161.589220
423.480777	15338.668396
423.859352	14851.234190
424.237866	15938.401866
424.616319	15658.214536
424.994712	16297.127853
425.373044	16094.665033
425.751314	16763.633710
426.129524	15908.515386
426.507673	16972.526522
426.885762	16687.076227
427.263789	16877.064713
427.641756	17045.398922
428.019662	17098.038650
428.397508	17144.568500
428.775292	17439.178572
429.153016	17406.249755
429.530679	17485.428638
429.908282	17511.970313
430.285824	17237.754229
430.663305	17929.153520
431.040726	17539.003501
431.418086	17370.848252
431.795385	18007.674532
432.172624	18431.537268
432.549802	17981.107652
432.926920	18176.099482
433.303977	18063.447338
433.680974	18308.999421
434.057910	18598.464996
434.434786	18629.659656
434.811601	18539.745636
435.188355	19573.235106
435.565050	19223.832733
435.941683	19166.217386
436.318257	20038.402536
436.694770	19860.900989
437.071222	20443.532345
437.447614	19528.976296
437.823946	19546.804337
438.200218	19696.501400
438.576429	19474.390682
438.952580	19757.595144
439.328670	19703.095229
439.704700	20121.374888
440.080670	19705.174705
440.456580	20276.188722
440.832429	20453.042481
441.208218	19464.762078
441.583947	19896.244518
441.959616	20001.191259
442.335224	20234.987372
442.710773	20367.184070
443.086261	20894.818958
443.461689	20259.068964
443.837057	20397.201620
444.212365	21025.974657
444.587612	21030.247035
444.962800	20610.452510
445.337927	21030.783918
445.712995	19780.224883
446.088002	21605.596444
446.462949	21790.944547
446.837837	21952.107715
447.212664	21915.418198
447.587431	24699.395409
447.962139	27588.866327
448.336786	29954.896596
448.711374	28434.623228
449.085901	24799.457272
449.460369	24733.120728
449.834776	24633.515090
450.209124	27086.258247
450.583412	26634.903579
450.957640	27169.212954
451.331808	25842.630799
451.705917	24493.519727
452.079965	24524.026270
452.453954	24864.397416
452.827883	24756.075623
453.201752	24564.065634
453.575562	24723.466919
453.949311	25827.739231
454.323001	25877.240841
454.696632	25646.749205
455.070202	27179.685951
455.443713	27323.752046
455.817164	27912.135358
456.190556	28428.692311
456.563888	27884.842551
456.937160	28315.732656
457.310373	26671.401532
457.683526	27100.771729
458.056619	27073.781391
458.429653	27025.164504
458.802628	27583.144617
459.175542	27699.933028
459.548398	28992.068979
459.921194	30554.400694
460.293930	31223.180328
460.666607	33231.792790
461.039224	34980.080067
461.411782	35362.426381
461.784280	34165.512785
462.156719	33673.586910
462.529099	33100.987450
462.901419	31813.169248
463.273680	30771.324065
463.645882	30875.522194
464.018024	30837.436277
464.390106	31665.917144
464.762130	34353.956157
465.134094	38361.131540
465.505999	43652.515660
465.877845	48215.465653
466.249631	49372.760821
466.621358	47625.045714
466.993026	45495.450601
467.364634	43399.757248
467.736184	41456.072327
468.107674	40214.801618
468.479105	39448.889032
468.850477	38748.342567
469.221790	37339.085489
469.593043	35625.249457
469.964238	34745.832771
470.335373	34647.081609
470.706449	36323.229974
471.077467	38835.678037
471.448425	43398.254984
471.819324	46263.402334
472.190164	44462.782839
472.560945	40921.969638
472.931667	37829.617484
473.302330	36728.460606
473.672934	35910.835863
474.043479	36414.946207
474.413965	35630.663656
474.784393	35260.098519
475.154761	36129.722763
475.525070	36167.448238
475.895321	35720.504579
476.265513	36303.279608
476.635645	37281.636500
477.005719	37091.368230
477.375734	37549.659526
477.745691	38241.537727
478.115588	39551.118591
478.485427	41505.702486
478.855207	44839.931722
479.224928	47450.901575
479.594591	49091.257749
479.964194	48072.987522
480.333739	48202.910659
480.703226	48217.406497
481.072653	48867.649808
481.442022	49347.560092
481.811333	49621.408172
482.180584	48340.710599
482.549777	47813.836926
482.918912	47297.416085
483.287988	47009.137702
483.657005	46180.213213
484.025964	45534.728751
484.394864	45543.961625
484.763706	45110.440038
485.132489	44247.157565
485.501213	44084.809726
485.869879	44245.108336
486.238487	43827.922608
486.607036	44047.164910
486.975527	43505.321530
487.343959	43697.107187
487.712333	43793.546980
488.080648	43691.173749
488.448905	44139.954908
488.817104	43949.734529
489.185244	44905.605354
489.553326	46568.661843
489.921350	49293.828954
490.289315	52200.585988
490.657222	52825.114374
491.025070	53117.216472
491.392861	52200.470042
491.760593	50943.720470
492.128267	49241.842055
492.495883	47727.643277
492.863440	46336.526791
493.230939	44977.668648
493.598380	43896.467177
493.965763	43573.588835
494.333088	42765.965742
494.700354	42304.266626
495.067563	42032.588763
495.434713	41890.750858
495.801805	41967.693989
496.168839	41582.950607
496.535815	41262.310538
496.902733	41292.159209
497.269593	40895.470813
497.636395	40827.513539
498.003139	41226.916596
498.369825	40681.362927
498.736453	40984.845430
499.103023	40525.452642
499.469535	40402.140977
499.835989	40478.832051
500.202385	40158.499491
500.568723	40183.639726
500.935003	40379.196166
501.301226	40174.424496
501.667390	40782.803545
502.033497	41045.561087
502.399546	40467.275206
502.765537	39801.797528
503.131470	40170.963744
503.497345	40509.794818
503.863163	39194.593067
504.228923	39810.251542
504.594625	40210.657790
504.960269	39494.219087
505.325856	40180.771309
505.691385	39551.373169
506.056856	39692.533038
506.422270	40134.924535
506.787625	39694.148728
507.152924	39890.395806
507.518164	39991.173513
507.883347	39208.892300
508.248472	39460.672729
508.613540	39928.138925
508.978550	40216.104756
509.343503	39983.649591
509.708398	40172.347541
510.073236	40702.477800
510.438016	40691.508249
510.802738	40154.970684
511.167403	40758.669021
511.532010	41001.597184
511.896561	41289.542851
512.261053	42116.997843
512.625488	41682.110103
512.989866	41539.339585
513.354186	41390.968345
513.718449	41372.847918
514.082655	42054.893348
514.446803	41726.167268
514.810894	42232.720050
515.174927	42168.110102
515.538904	42083.383429
515.902822	42736.674118
516.266684	42180.952441
516.630488	42607.131587
516.994235	42465.888539
517.357925	43037.583111
517.721558	43190.211606
518.085133	43499.302392
518.448651	43637.911438
518.812112	43428.043162
519.175516	43509.631716
519.538863	43847.565464
519.902152	43830.891848
520.265385	44282.755673
520.628560	44327.483311
520.991678	44114.857524
521.354739	44369.319846
521.717743	44680.464903
522.080690	44579.760293
522.443580	45120.018230
522.806413	45177.502507
523.169189	45131.754036
523.531908	45311.382951
523.894569	45166.873235
524.257174	45328.888357
524.619722	45633.399256
524.982213	45629.167207
525.344647	45547.921451
525.707025	45595.230159
526.069345	45989.687845
526.431608	45908.863025
526.793815	46232.981491
527.155964	45761.805006
527.518057	45951.027236
527.880093	45726.683287
528.242072	46250.638132
528.603995	45949.018336
528.965860	45968.076418
529.327669	46053.145889
529.689421	45959.579553
530.051117	45907.159115
530.412755	46076.120948
530.774337	46126.103988
531.135862	45939.649352
531.497331	46147.047462
531.858743	46048.785291
532.220098	46398.664053
532.581396	46110.055475
532.942638	45760.332989
533.303824	46062.640903
533.664953	46030.667384
534.026025	45753.257729
534.387040	46215.397947
534.747999	46178.234560
535.108902	46331.674681
535.469748	45867.981788
535.830537	45977.909189
536.191270	46160.638413
536.551947	45811.735114
536.912567	46132.271840
537.273131	46237.720176
537.633638	45733.433392
537.994089	46079.584221
538.354483	45683.594024
538.714821	46251.643843
539.075103	46585.716067
539.435328	46352.600510
539.795497	46235.186996
540.155609	46222.926910
540.515665	46686.282045
540.875665	46140.917419
541.235609	46459.994731
541.595496	46444.523430
541.955328	47098.020806
542.315102	46474.372102
542.674821	46273.066226
543.034483	46310.055692
543.394090	46280.655683
543.753640	46230.153404
544.113134	47229.899911
544.472571	46249.332474
544.831953	47483.719487
545.191278	46708.833647
545.550548	46440.306505
545.909761	46887.582880
546.268918	47075.804441
546.628019	47402.569513
546.987064	46951.608054
547.346053	46222.304327
547.704986	47104.705376
548.063863	46664.118612
548.422684	46852.582149
548.781449	46718.686582
549.140158	47117.560318
549.498811	46975.084708
549.857408	46412.774243
550.215949	47231.392093
550.574434	47189.764765
550.932864	46945.394832
551.291237	47636.922673
551.649555	47263.673121
552.007817	47502.323865
552.366022	47149.435534
552.724173	47342.189093
553.082267	47732.727281
553.440305	48045.447698
553.798288	47361.655508
554.156215	47665.304369
554.514086	47860.868371
554.871902	47607.071480
555.229661	47627.387330
555.587365	47456.356104
555.945014	47541.329793
556.302606	47460.414232
556.660143	47702.621510
557.017625	47789.568811
557.375050	47580.247501
557.732421	47928.548382
558.089735	47906.405113
558.446994	47827.964759
558.804197	48297.260894
559.161345	48243.191999
559.518437	47481.680340
559.875474	47785.689643
560.232455	47963.052559
560.589381	48136.632089
560.946251	47821.325560
561.303065	48508.076907
561.659825	48313.931990
562.016528	47996.056993
562.373177	47710.813385
562.729770	48183.174542
563.086307	47707.007314
563.442789	48154.533226
563.799216	48221.570490
564.155587	47994.758896
564.511904	48030.480512
564.868164	48132.778127
565.224370	48373.163027
565.580520	48102.228734
565.936615	48301.303900
566.292654	48046.380312
566.648638	48271.908932
567.004567	48226.155419
567.360441	48268.198642
567.716260	48129.156058
568.072023	48404.561854
568.427732	48400.949867
568.783385	47952.776167
569.138982	48355.907158
569.494525	48315.313266
569.850013	48064.483095
570.205445	48049.495745
570.560823	48010.784724
570.916145	47877.975526
571.271412	47898.303979
571.626625	47655.053183
571.981782	47712.860094
572.336884	47387.476298
572.691931	47732.132425
573.046923	47327.390785
573.401860	47173.965789
573.756743	47165.126125
574.111570	47277.443033
574.466342	47132.419119
574.821059	47240.032630
575.175722	46771.021321
575.530330	46800.910322
575.884882	46512.543719
576.239380	46479.647669
576.593823	46461.053373
576.948211	46365.344547
577.302544	45884.302524
577.656823	45916.069355
578.011047	46137.108827
578.365216	45858.879985
578.719330	45664.651889
579.073389	45523.910435
579.427394	45609.529392
579.781344	45568.000367
580.135239	45237.950983
580.489080	45308.262477
580.842866	44789.384073
581.196597	45256.114261
581.550273	45203.474532
581.903895	45059.360547
582.257463	45482.719167
582.610975	44862.513571
582.964434	45153.703220
583.317837	44803.514427
583.671186	44634.512265
584.024481	44847.647208
584.377721	44377.224376
584.730906	44664.030741
585.084037	44697.259507
585.437113	44393.882868
585.790135	44448.612155
586.143103	44047.096854
586.496016	44180.768090
586.848874	44208.159199
587.201679	44208.660794
587.554428	43702.944843
587.907124	43898.831478
588.259765	43632.852640
588.612352	43888.678595
588.964884	43275.608752
589.317362	43570.886777
589.669786	43505.820604
590.022155	43280.095379
590.374470	43701.598855
590.726731	43216.508785
591.078937	42733.387285
591.431090	42833.605424
591.783188	42499.823066
592.135232	42171.434743
592.487222	42417.737958
592.839157	42502.754497
593.191038	42182.210209
593.542866	41950.339817
593.894639	41342.416993
594.246358	41611.423044
594.598022	41613.298353
594.949633	41218.081974
595.301190	41174.115551
595.652692	40999.545434
596.004141	41314.032776
596.355535	40344.553356
596.706876	40301.721193
597.058162	40132.464452
597.409395	40600.170103
597.760573	40666.998159
598.111698	40247.206155
598.462768	40277.201020
598.813785	40307.442902
599.164748	39765.057598
599.515657	40136.542746
599.866511	39625.803285
600.217312	40238.235422
600.568060	39203.483142
600.918753	39946.085433
601.269392	39892.780272
601.619978	39545.835462
601.970510	39765.465932
602.320988	39951.582811
602.671412	40244.357903
603.021783	39994.616621
603.372100	39652.428139
603.722363	39767.709245
604.072572	39836.135347
604.422728	39840.619453
604.772830	39661.678656
605.122878	39731.183565
605.472872	39686.982728
605.822813	39961.448349
606.172701	39792.673039
606.522534	40029.806395
606.872314	40296.052415
607.222041	40060.486858
607.571714	40432.014855
607.921333	39876.797294
608.270899	40170.315956
608.620411	40512.116269
608.969870	40315.181073
609.319276	40296.596860
609.668627	40359.069359
610.017926	40835.818840
610.367171	40992.490340
610.716362	41078.673906
611.065500	41041.523123
611.414585	41226.059600
611.763616	41498.412978
612.112594	41431.005189
612.461518	41663.619151
612.810389	41939.491254
613.159207	41802.908752
613.507971	41868.378217
613.856682	42352.172711
614.205340	42244.859148
614.553945	42932.313737
614.902496	42382.585992
615.250994	42862.365207
615.599439	42915.269596
615.947830	43134.499294
616.296169	43185.031820
616.644454	43305.346518
616.992686	43470.212414
617.340864	43999.082384
617.688990	43702.637333
618.037063	44297.034741
618.385082	44259.561324
618.733048	44579.901445
619.080961	44604.106546
619.428821	44587.117857
619.776628	44721.454525
620.124382	44534.972162
620.472083	44660.491851
620.819731	44803.423686
621.167326	44466.694774
621.514868	44442.643429
621.862357	43995.518289
622.209793	44020.988718
622.557176	43700.305799
622.904506	43445.677118
623.251783	43117.780307
623.599007	42900.793922
623.946179	42659.743589
624.293297	42611.555200
624.640363	42011.360464
624.987376	41997.681293
625.334336	41761.485591
625.681243	41414.064392
626.028097	41376.164997
626.374899	41218.533158
626.721647	41189.130628
627.068343	41083.727662
627.414987	40846.334687
627.761577	40613.647628
628.108115	40951.087343
628.454600	40402.408158
628.801032	40591.234658
629.147412	40549.680427
629.493739	40553.234440
629.840014	40202.337365
630.186236	40535.088807
630.532405	40155.101754
630.878521	40362.658660
631.224585	40234.250390
631.570597	39944.870515
631.916556	40111.339497
632.262462	40047.463037
632.608316	40057.862937
632.954117	39969.589813
633.299866	39968.395059
633.645562	39886.665352
633.991206	39364.611022
634.336797	38939.543450
634.682336	38951.443094
635.027823	38700.963283
635.373257	38513.654170
635.718639	38280.357132
636.063968	38132.404308
636.409245	37559.373830
636.754470	37614.065308
637.099642	37371.424491
637.444762	36889.366675
637.789829	37023.965483
638.134845	36673.892636
638.479808	36616.902392
638.824719	36528.747734
639.169577	36138.680894
639.514383	36189.427669
639.859137	35906.397127
640.203839	36145.496534
640.548489	35774.455008
640.893086	35846.593919
641.237632	35584.330411
641.582125	35700.201332
641.926566	35642.341489
642.270955	35601.412361
642.615292	35623.792563
642.959576	35586.934167
643.303809	35574.790027
643.647990	35715.407973
643.992118	35672.328793
644.336195	35694.426691
644.680219	35783.579496
645.024192	36077.241831
645.368112	36586.902485
645.711981	36599.086954
646.055797	37476.260326
646.399562	37386.270689
646.743274	38350.746763
647.086935	38788.523084
647.430544	38665.599588
647.774101	38785.311869
648.117606	39044.850633
648.461059	39343.352476
648.804460	38957.774783
649.147810	38336.772685
649.491108	38092.279244
649.834354	37741.276304
650.177548	36897.480412
650.520690	36449.155477
650.863781	36460.987065
651.206820	36309.054250
651.549807	35867.282815
651.892742	35389.152058
652.235626	35200.451587
652.578458	35060.103343
652.921238	34451.104232
653.263967	34777.821413
653.606644	34446.544509
653.949269	34408.211575
654.291843	34000.611601
654.634365	34413.996299
654.976836	34015.387223
655.319255	33989.568954
655.661622	33996.316538
656.003938	33765.774490
656.346203	33628.639982
656.688416	33852.353787
657.030577	33644.091119
657.372687	33491.286184
657.714746	33756.329889
658.056753	33880.329670
658.398708	33334.823892
658.740612	33393.442429
659.082465	33658.995290
659.424266	33481.125738
659.766016	33592.038685
660.107715	33472.777588
660.449362	33609.493680
660.790958	33580.043259
661.132503	33607.275572
661.473996	33627.120074
661.815438	33749.703292
662.156829	33959.226249
662.498168	33716.615679
662.839456	33747.039042
663.180693	33884.060124
663.521879	34060.344233
663.863013	33994.499202
664.204097	34000.145294
664.545129	34464.024710
664.886110	34413.267852
665.227040	34481.593131
665.567918	34601.623004
665.908746	34675.375085
666.249522	34828.364022
666.590248	34840.475394
666.930922	34934.064415
667.271545	34909.012401
667.612118	35004.096124
667.952639	34790.177281
668.293109	34842.844736
668.633528	34741.000825
668.973896	34655.616282
669.314213	34689.197928
669.654480	34420.779171
669.994695	34453.050118
670.334859	34326.862475
670.674973	34244.041359
671.015035	34391.106940
671.355047	34349.550188
671.695008	34294.992301
672.034918	34179.068447
672.374777	34268.090183
672.714585	34094.228349
673.054342	34329.088145
673.394049	34086.525466
673.733705	34357.510170
674.073310	34027.216291
674.412864	34108.388950
674.752368	33705.537743
675.091820	33999.275695
675.431223	33583.060390
675.770574	33315.133145
676.109875	33182.762528
676.449125	32899.116965
676.788324	32815.428770
677.127473	32257.443616
677.466571	32197.751313
677.805619	31841.855934
678.144616	31846.012365
678.483562	31760.234612
678.822458	31433.860229
679.161303	31368.211803
679.500098	31255.625194
679.838842	31141.601856
680.177535	31303.443059
680.516179	31563.743038
680.854771	31816.448518
681.193314	32679.383151
681.531805	33802.723628
681.870247	34571.683591
682.208638	35311.619112
682.546978	35559.888377
682.885268	35642.984236
683.223508	35111.598730
683.561697	34780.788132
683.899836	34608.015187
684.237925	34067.220367
684.575963	33922.085548
684.913951	33449.820173
685.251889	33614.197077
685.589776	33590.864096
685.927614	33575.748196
686.265401	33717.197932
686.603137	33813.121007
686.940824	34324.011703
687.278460	34692.638516
687.616046	34837.639745
687.953582	35440.231549
688.291068	35322.384496
688.628504	35612.195389
688.965889	35525.477461
689.303224	35155.678579
689.640510	34818.233823
689.977745	34090.581074
690.314930	33279.545120
690.652065	32753.553648
690.989150	32022.059540
691.326185	31125.475205
691.663170	30400.393444
692.000105	29660.765434
692.336990	28972.862183
692.673825	28498.166972
693.010610	27993.408841
693.347345	27398.817347
693.684030	26736.767654
694.020665	26450.775434
694.357251	25765.206238
694.693786	25719.273764
695.030272	25480.144111
695.366707	24935.742346
695.703093	24637.449711
696.039429	24634.472909
696.375716	24355.129972
696.711952	24331.416384
697.048139	24156.095136
697.384276	23983.221368
697.720363	24102.585808
698.056400	23900.448142
698.392388	23695.106822
698.728326	23652.645183
699.064214	23447.077012
699.400053	23394.318816
699.735842	23033.626779
700.071581	22753.850303
700.407270	22453.747893
700.742910	22261.579109
701.078501	21992.220177
701.414042	21702.842822
701.749533	21403.947770
702.084974	21047.167668
702.420366	21264.854773
702.755709	20818.526135
703.091002	20520.357009
703.426246	20538.167405
703.761440	20434.264183
704.096584	20154.719600
704.431679	20112.719226
704.766725	20019.362098
705.101721	19957.769281
705.436668	20046.218845
705.771565	19710.364573
706.106413	20065.216434
706.441212	20041.550737
706.775961	20166.765437
707.110661	20247.391131
707.445311	20589.138512
707.779913	20428.900396
708.114465	20678.712254
708.448967	20955.065787
708.783421	21663.592398
709.117825	21924.759456
709.452180	22143.558136
709.786485	22555.057442
710.120742	23358.390513
710.454949	23366.746225
710.789107	23829.836700
711.123216	24537.922210
711.457275	24664.704709
711.791286	25213.714089
712.125247	25275.543841
712.459159	24979.539890
712.793023	25656.516440
713.126837	24552.385281
713.460602	24816.546783
713.794318	24449.127327
714.127985	24050.961872
714.461602	23147.730776
714.795171	23116.919244
715.128691	22096.345209
715.462162	21541.354500
715.795584	21120.055191
716.128957	20867.390039
716.462281	20444.444793
716.795556	20216.191430
717.128782	19704.703357
717.461960	19160.314195
717.795088	19087.207382
718.128167	18677.280916
718.461198	18224.308037
718.794180	18072.896981
719.127113	17700.242286
719.459997	17493.817118
719.792833	17149.360117
720.125619	17110.848222
720.458357	16783.886545
720.791046	16628.016589
721.123686	16450.966225
721.456278	16216.716408
721.788821	16169.357289
722.121315	15901.556073
722.453761	15978.864688
722.786158	15896.116668
723.118506	15910.736014
723.450805	15769.921464
723.783056	15920.563743
724.115259	15818.838300
724.447412	15752.385810
724.779518	15999.500651
725.111574	16021.076789
725.443582	16218.430401
725.775542	16204.935232
726.107453	16670.057292
726.439315	16552.691668
726.771129	16950.519365
727.102895	17328.368969
727.434612	17527.711316
727.766281	17657.069844
728.097901	17929.975228
728.429473	17964.670970
728.760996	17953.086398
729.092471	18050.148774
729.423897	17913.977127
729.755276	17767.410620
730.086606	17891.211276
730.417887	18428.663811
730.749120	18928.461447
731.080305	19113.708727
731.411442	19451.556776
731.742530	19518.468011
732.073570	19632.781216
732.404562	19917.576161
732.735506	19741.566795
733.066401	19460.414083
733.397249	18937.253219
733.728048	18298.775961
734.058798	17448.368596
734.389501	16762.726302
734.720156	16292.318593
735.050762	15765.621359
735.381320	15396.944135
735.711831	15159.019317
736.042293	14796.714111
736.372707	14802.791222
736.703073	14590.490589
737.033391	14779.029743
737.363661	14732.429317
737.693883	14838.016284
738.024056	15008.757644
738.354182	15186.780951
738.684260	15477.232071
739.014290	15698.097624
739.344272	15880.249636
739.674207	16164.858059
740.004093	16289.427491
740.333931	16284.010771
740.663722	16317.473950
740.993464	16305.619677
741.323159	16144.885007
741.652806	15871.906527
741.982405	15657.155893
742.311956	15319.683411
742.641460	15202.685792
742.970915	14894.182300
743.300323	14563.533019
743.629683	14342.992621
743.958996	14065.789653
744.288260	13792.627170
744.617477	13497.732273
744.946647	13420.035489
745.275768	13143.913849
745.604842	12958.137248
745.933869	12785.089559
746.262847	12728.668966
746.591778	12651.509065
746.920662	12557.975496
747.249498	12549.834033
747.578286	12664.311075
747.907027	12803.386427
748.235720	13029.814893
748.564365	13062.042990
748.892963	12959.747896
749.221514	13022.086805
749.550017	12870.469062
749.878473	12838.757683
750.206881	12614.983385
750.535242	12515.740709
750.863555	12431.339191
751.191821	12326.639467
751.520039	12341.790655
751.848210	12248.713311
752.176334	12276.326231
752.504411	12186.099659
752.832440	12026.852130
753.160421	12088.507962
753.488356	11958.988117
753.816243	11874.044675
754.144082	11729.766852
754.471875	11670.442553
754.799620	11611.957607
755.127318	11586.177146
755.454969	11540.156452
755.782572	11502.007521
756.110129	11516.541167
756.437638	11431.617890
756.765100	11419.135993
757.092515	11419.814028
757.419882	11431.481778
757.747203	11438.627614
758.074477	11505.685043
758.401703	11467.263888
758.728882	11622.002106
759.056014	11668.597491
759.383099	11780.679985
759.710138	11888.054041
760.037129	11963.772172
760.364073	11984.773619
760.690970	11965.675208
761.017820	11971.490178
761.344623	12158.897593
761.671379	12482.511944
761.998088	13130.504380
762.324751	14686.668243
762.651366	17563.690031
762.977935	21249.937999
763.304456	23490.090657
763.630931	23977.595440
763.957359	22829.833094
764.283740	20904.089639
764.610074	19028.510707
764.936362	16869.855863
765.262602	15347.369428
765.588796	13855.530688
765.914943	12816.395125
766.241044	11951.892693
766.567097	11304.069136
766.893104	10751.944322
767.219064	10380.925482
767.544978	9992.431481
767.870845	9676.577987
768.196665	9486.806271
768.522438	9284.063666
768.848165	9118.643244
769.173846	8953.696690
769.499479	8825.699273
769.825066	8671.003906
770.150607	8481.862334
770.476101	8419.679701
770.801548	8309.202815
771.126949	8171.173502
771.452303	8080.520953
771.777611	7914.956857
772.102872	7891.696974
772.428087	7769.822038
772.753256	7643.175651
773.078378	7552.903709
773.403453	7413.805671
773.728482	7311.591236
774.053465	7241.045329
774.378401	7152.633573
774.703291	7059.606640
775.028135	6962.259439
775.352932	6924.659993
775.677683	6837.805953
776.002388	6752.126503
776.327046	6752.486945
776.651658	6661.720970
776.976224	6586.161636
777.300743	6568.883081
777.625216	6499.514283
777.949643	6460.951977
778.274024	6461.965249
778.598359	6394.002933
778.922647	6393.889507
779.246889	6351.223702
779.571086	6357.290731
779.895236	6366.470672
780.219339	6362.220979
780.543397	6362.253747
780.867409	6410.237969
781.191374	6404.667494
781.515294	6375.915273
781.839167	6427.433345
782.162995	6395.258181
782.486776	6349.240008
782.810511	6311.232228
783.134201	6239.786476
783.457844	6224.572273
783.781441	6174.841291
784.104993	6126.922603
784.428498	6101.923521
784.751958	6085.285193
785.075372	6061.677469
785.398739	6022.726994
785.722061	6044.197268
786.045337	6041.268358
786.368568	6154.414535
786.691752	6174.579151
787.014891	6423.075268
787.337983	6703.512136
787.661030	7142.102602
787.984031	7569.388282
788.306987	7837.960794
788.629897	7928.303312
788.952760	7843.521187
789.275579	7667.048035
789.598351	7361.377671
789.921078	7098.678103
790.243759	6821.359189
790.566395	6616.584999
790.888984	6419.987561
791.211529	6279.833402
791.534027	6110.334686
791.856480	5976.176979
792.178888	5909.928656
792.501249	5844.920457
792.823566	5740.142594
793.145836	5734.138580
793.468062	5712.406166
793.790241	5671.124157
794.112375	5715.337597
794.434464	5812.909130
794.756507	5842.354509
795.078505	5961.512263
795.400457	6172.683677
795.722364	6417.512354
796.044226	6610.586026
796.366042	6776.649196
796.687812	6716.931687
797.009538	6750.455360
797.331218	6661.930178
797.652852	6592.868891
797.974442	6468.647298
798.295986	6396.694910
798.617484	6267.164982
798.938938	6155.392519
799.260346	6092.466316
799.581709	5947.117248
799.903026	5903.385238
800.224299	5825.910265
800.545526	5713.132092
800.866708	5644.136340
801.187845	5592.265387
801.508936	5515.044993
801.829983	5485.040045
802.150984	5376.642635
802.471940	5348.691957
802.792851	5333.674360
803.113717	5310.961441
803.434538	5284.712153
803.755314	5248.007512
804.076045	5237.322786
804.396731	5199.221746
804.717372	5219.973655
805.037967	5220.177822
805.358518	5246.051544
805.679024	5302.421727
805.999485	5311.553777
806.319901	5330.455583
806.640272	5347.842523
806.960598	5397.820522
807.280879	5385.696547
807.601115	5425.864461
807.921306	5388.920365
808.241453	5386.293924
808.561554	5397.427312
808.881611	5359.928689
809.201623	5358.895253
809.521590	5309.323066
809.841513	5295.243123
810.161390	5312.035207
810.481223	5219.204879
810.801011	5210.004774
811.120755	5188.625240
811.440453	5131.534173
811.760107	5104.148105
812.079716	5078.826389
812.399281	5023.401423
812.718801	5020.207852
813.038276	4987.647039
813.357707	4951.643118
813.677093	4970.239935
813.996434	4905.191406
814.315731	4929.290642
814.634983	4928.655457
814.954191	4938.936890
815.273354	4993.431763
815.592473	5035.512795
815.911547	5110.182366
816.230577	5162.141538
816.549562	5255.201238
816.868502	5309.113858
817.187399	5368.327251
817.506250	5450.412359
817.825058	5476.177697
818.143821	5632.690400
818.462539	5804.560979
818.781213	6035.130753
819.099843	6404.244037
819.418429	7038.887498
819.736970	7661.404463
820.055466	8385.788024
820.373919	9311.643819
820.692327	10790.579725
821.010691	13536.135783
821.329011	19841.119501
821.647286	29497.802574
821.965517	39925.338564
822.283704	45454.609693
822.601847	47013.367230
822.919945	42434.575412
823.237999	37315.928949
823.556010	32079.931986
823.873976	27306.944839
824.191897	23026.753166
824.509775	19906.465458
824.827609	17088.352073
825.145398	15492.131202
825.463144	14715.049939
825.780845	14998.849257
826.098502	16263.457987
826.416116	18743.433457
826.733685	21025.208402
827.051210	21547.391282
827.368692	20109.069431
827.686129	17523.413732
828.003522	15019.570919
828.320872	12785.271041
828.638177	11103.736202
828.955439	9838.933388
829.272656	8754.752594
829.589830	7902.195177
829.906960	7158.269583
830.224046	6614.608867
830.541088	6198.572522
830.858086	5930.564619
831.175041	5724.860337
831.491952	5661.036808
831.808819	5699.536100
832.125642	5943.230518
832.442421	6507.207084
832.759157	7629.372972
833.075849	9406.228468
833.392497	11270.913467
833.709101	12405.778021
834.025662	12150.746047
834.342179	11092.219686
834.658653	9780.657649
834.975083	8659.593254
835.291469	7750.597598
835.607811	6993.638101
835.924110	6465.052956
836.240366	5970.898891
836.556578	5507.934445
836.872746	5149.427748
837.188871	4871.511457
837.504952	4647.172550
837.820990	4474.389522
838.136984	4359.766287
838.452935	4306.529181
838.768842	4339.407587
839.084706	4626.012306
839.400526	5369.945462
839.716303	6282.525378
840.032037	6859.011567
840.347727	6712.762653
840.663373	6116.621005
840.978977	5521.285941
841.294537	5082.617337
841.610054	4740.191920
841.925527	4495.693438
842.240957	4283.223927
842.556344	4097.558231
842.871687	3936.369857
843.186987	3782.312196
843.502244	3660.840553
843.817458	3573.371492
844.132629	3502.893641
844.447756	3452.282977
844.762840	3403.779515
845.077881	3362.285778
845.392879	3326.433092
845.707833	3303.861325
846.022745	3277.483488
846.337613	3262.614605
846.652438	3239.137951
846.967221	3229.025397
847.281960	3211.436811
847.596656	3198.657486
847.911309	3187.561906
848.225919	3174.144875
848.540485	3166.391581
848.855009	3156.584016
849.169490	3143.746717
849.483928	3138.972745
849.798323	3129.218112
850.112675	3122.841053
850.426984	3122.528501
850.741251	3114.606328
851.055474	3110.565843
851.369654	3112.902418
851.683792	3109.481995
851.997887	3114.928962
852.311938	3108.796398
852.625947	3111.826131
852.939914	3106.243053
853.253837	3110.167592
853.567718	3106.449741
853.881555	3105.232302
854.195350	3108.083075
854.509103	3106.797580
854.822812	3102.976386
855.136479	3098.769543
855.450103	3102.424379
855.763685	3094.028338
856.077224	3098.066302
856.390720	3103.122579
856.704173	3116.590022
857.017584	3123.312400
857.330953	3129.215592
857.644278	3137.087353
857.957561	3139.560039
858.270802	3137.727580
858.584000	3132.847743
858.897155	3129.228194
859.210268	3119.186216
859.523339	3107.901593
859.836367	3101.338011
860.149352	3099.805500
860.462295	3092.604212
860.775195	3086.101123
861.088054	3082.658015
861.400869	3079.797160
861.713642	3077.117787
862.026373	3088.278902
862.339062	3092.639500
862.651708	3098.005808
862.964312	3118.369549
863.276873	3127.060498
863.589392	3158.819767
863.901869	3183.932275
864.214303	3205.367262
864.526696	3226.237638
864.839045	3243.317068
865.151353	3255.221753
865.463619	3253.722009
865.775842	3255.221752
866.088023	3259.962958
866.400162	3255.004983
866.712258	3257.031527
867.024313	3251.521546
867.336325	3254.183275
867.648296	3256.920621
867.960224	3253.255702
868.272110	3257.535642
868.583954	3259.297525
868.895755	3265.891355
869.207515	3260.600664
869.519233	3280.997172
869.830909	3287.240641
870.142542	3298.653813
870.454134	3303.803352
870.765684	3317.711896
871.077191	3337.241326
871.388657	3348.215918
871.700081	3366.734596
872.011463	3384.597925
872.322803	3409.715474
872.634101	3424.720468
872.945357	3447.536731
873.256571	3475.137048
873.567744	3490.857886
873.878874	3495.639421
874.189963	3511.536699
874.501010	3515.206659
874.812015	3512.776823
875.122979	3527.002959
875.433900	3526.763504
875.744780	3526.677805
876.055618	3541.153478
876.366415	3536.200544
876.677169	3543.129610
876.987882	3558.260634
877.298554	3579.728387
877.609183	3620.690283
877.919771	3671.953776
878.230317	3745.637802
878.540822	3847.159078
878.851285	4004.107842
879.161707	4231.879775
879.472087	4622.947285
879.782425	5260.565026
880.092722	6475.425130
880.402977	8452.313611
880.713191	10856.523059
881.023363	13281.134057
881.333494	14657.316125
881.643583	15127.058402
881.953631	14732.061313
882.263637	13890.977561
882.573602	12844.343282
882.883526	11864.506812
883.193408	10890.268543
883.503248	9956.145256
883.813048	9105.455585
884.122806	8324.354003
884.432522	7526.147785
884.742197	6852.309353
885.051831	6273.136229
885.361424	5758.903248
885.670975	5351.575497
885.980485	5021.309344
886.289954	4746.286675
886.599382	4520.851317
886.908768	4338.180066
887.218113	4163.045340
887.527417	4026.747663
887.836680	3905.376843
888.145901	3796.823157
888.455082	3720.026219
888.764221	3649.450066
889.073319	3588.406734
889.382376	3553.458935
889.691392	3527.683515
890.000366	3519.670601
890.309300	3514.082482
890.618193	3517.734798
890.927044	3515.274715
891.235855	3517.918800
891.544625	3534.945297
891.853353	3565.207344
892.162041	3626.497692
892.470687	3718.760890
892.779293	3837.737162
893.087858	4017.441693
893.396381	4305.430210
893.704864	4729.255137
894.013306	5305.390966
894.321707	5888.128186
894.630068	6257.801039
894.938387	6300.779396
895.246665	6115.839626
895.554903	5798.498991
895.863100	5455.007371
896.171256	5176.743241
896.479371	4927.584212
896.787446	4699.076270
897.095480	4495.837111
897.403473	4345.255325
897.711425	4195.913663
898.019336	4066.693767
898.327207	3946.159778
898.635038	3839.201617
898.942827	3728.933938
899.250576	3638.911533
899.558284	3553.499264
899.865952	3499.511027
900.173579	3433.902930
900.481165	3387.176475
900.788711	3342.763910
901.096216	3313.250474
901.403681	3280.649333
901.711105	3270.723301
902.018489	3267.108793
902.325832	3302.764874
902.633135	3358.106661
902.940397	3538.491749
903.247619	3949.456693
903.554800	4724.539138
903.861941	5707.788469
904.169041	6430.899138
904.476101	6659.812893
904.783121	6377.069698
905.090100	5968.743798
905.397039	5546.927770
905.703938	5179.173077
906.010796	4844.407694
906.317614	4582.766768
906.624391	4334.227801
906.931129	4131.185248
907.237826	3949.144141
907.544483	3769.515227
907.851099	3593.261365
908.157675	3429.640634
908.464211	3284.062194
908.770707	3175.755524
909.077163	3097.869697
909.383578	3034.033566
909.689954	2987.642348
909.996289	2957.017338
910.302584	2937.487908
910.608839	2923.468459
910.915054	2911.326840
911.221229	2906.184863
911.527363	2910.714340
911.833458	2915.725247
912.139513	2930.810900
912.445527	2942.413115
912.751502	2975.830924
913.057436	3023.512678
913.363331	3081.901842
913.669186	3171.843588
913.975000	3295.356899
914.280775	3487.634068
914.586510	3763.299484
914.892205	4153.338598
915.197859	4664.095703
915.503475	5258.475468
915.809050	5768.781389
916.114585	6057.271501
916.420081	6129.365042
916.725536	6063.406585
917.030952	5825.716181
917.336328	5614.232215
917.641665	5395.912445
917.946961	5162.834697
918.252218	4958.650322
918.557435	4726.008634
918.862612	4523.351729
919.167750	4345.751879
919.472848	4148.083195
919.777906	3973.336638
920.082925	3814.978873
920.387904	3651.703461
920.692843	3535.371275
920.997743	3437.416614
921.302603	3339.333404
921.607423	3274.781429
921.912204	3202.813917
922.216946	3155.666526
922.521647	3103.858588
922.826310	3059.438461
923.130932	3021.208870
923.435516	2978.832931
923.740059	2949.775720
924.044564	2919.884199
924.349028	2894.368398
924.653454	2861.409335
924.957840	2835.286075
925.262186	2816.109526
925.566493	2793.058850
925.870761	2766.741507
926.174989	2754.327665
926.479178	2739.322671
926.783328	2720.811554
927.087438	2710.293186
927.391509	2696.301464
927.695541	2685.054650
927.999533	2674.014523
928.303486	2665.971362
928.607400	2659.145639
928.911275	2655.107675
929.215110	2647.203146
929.518906	2643.565953
929.822663	2645.970584
930.126381	2642.880357
930.430060	2646.663742
930.733699	2648.312200
931.037299	2649.413692
931.340861	2651.294042
931.644383	2657.769404
931.947866	2651.898981
932.251309	2653.020637
932.554714	2649.111223
932.858080	2648.155924
933.161407	2644.652322
933.464694	2637.491363
933.767943	2638.323153
934.071153	2634.088584
934.374323	2625.684981
934.677455	2626.373098
934.980548	2624.654065
935.283602	2620.016203
935.586617	2620.399331
935.889593	2622.483848
936.192530	2625.198509
936.495428	2630.395939
936.798287	2636.525982
937.101108	2654.623724
937.403890	2675.357990
937.706632	2700.808255
938.009336	2734.924264
938.312002	2767.648914
938.614628	2788.811678
938.917216	2809.200625
939.219765	2820.346616
939.522275	2829.637462
939.824747	2830.996053
940.127179	2823.020948
940.429573	2818.758652
940.731929	2819.847542
941.034246	2809.031746
941.336524	2809.523259
941.638763	2801.870787
941.940964	2794.808131
942.243126	2774.756941
942.545250	2766.098759
942.847335	2750.226687
943.149381	2739.751169
943.451389	2725.401524
943.753359	2710.336036
944.055290	2702.965869
944.357182	2693.985054
944.659036	2687.671008
944.960851	2686.791327
945.262628	2677.432425
945.564367	2677.094668
945.866067	2678.443176
946.167729	2675.484019
946.469352	2674.001920
946.770937	2673.185253
947.072484	2665.989006
947.373992	2666.692247
947.675462	2660.927687
947.976893	2656.677995
948.278286	2655.377377
948.579641	2651.291522
948.880958	2647.389669
949.182236	2647.926552
949.483476	2643.941519
949.784678	2646.520070
950.085841	2643.843217
950.386967	2644.695172
950.688054	2652.619866
950.989103	2661.053716
951.290114	2670.773061
951.591087	2678.362518
951.892021	2692.719724
952.192917	2706.227496
952.493776	2715.664536
952.794596	2719.392469
953.095378	2722.674260
953.396122	2721.920608
953.696828	2717.128991
953.997496	2712.302086
954.298126	2703.386806
954.598718	2694.164015
954.899272	2683.539783
955.199788	2672.595438
955.500266	2660.446257
955.800706	2643.021509
956.101108	2629.591875
956.401472	2619.622993
956.701798	2606.271497
957.002087	2586.502612
957.302337	2578.968608
957.602550	2564.349262
957.902724	2555.577654
958.202861	2543.728422
958.502960	2535.763399
958.803022	2528.577234
959.103045	2519.117509
959.403031	2514.401510
959.702979	2508.122753
960.002889	2504.238543
960.302762	2497.301916
960.602596	2493.296719
960.902393	2492.303612
961.202153	2491.446616
961.501875	2482.906901
961.801559	2480.867754
962.101205	2480.633341
962.400814	2475.451034
962.700385	2476.081179
962.999918	2475.892135
963.299414	2470.800570
963.598873	2472.058338
963.898293	2469.431897
964.197677	2469.041207
964.497022	2464.436113
964.796331	2465.499797
965.095601	2462.470063
965.394835	2462.891000
965.694030	2461.267748
965.993189	2463.992492
966.292309	2463.589199
966.591393	2464.547019
966.890439	2460.531740
967.189447	2460.521657
967.488419	2462.974179
967.787353	2461.890331
968.086249	2459.795731
968.385108	2462.631380
968.683930	2462.265897
968.982714	2464.564663
969.281462	2463.226236
969.580172	2465.691361
969.878844	2467.233954
970.177480	2472.338122
970.476078	2476.469348
970.774639	2476.411374
971.073162	2480.963536
971.371649	2482.037302
971.670098	2482.675008
971.968510	2486.783548
972.266885	2482.135604
972.565223	2489.825885
972.863524	2487.968219
973.161788	2493.992398
973.460014	2492.308653
973.758204	2491.749085
974.056356	2493.344610
974.354471	2496.331494
974.652550	2496.162615
974.950591	2495.910557
975.248595	2490.085504
975.546563	2490.400576
975.844493	2491.030720
976.142386	2490.135916
976.440243	2486.652478
976.738062	2486.002169
977.035845	2483.161479
977.333590	2481.878506
977.631299	2477.580922
977.928971	2477.023874
978.226606	2473.217803
978.524204	2475.052783
978.821765	2471.352576
979.119290	2469.517596
979.416777	2471.960035
979.714228	2468.784108
980.011642	2471.574387
980.309020	2475.473720
980.606360	2479.236941
980.903664	2491.449136
981.200931	2500.883656
981.498162	2522.285874
981.795356	2553.656975
982.092513	2592.060485
982.389633	2635.802577
982.686717	2684.248065
982.983764	2716.660164
983.280775	2735.589696
983.577749	2738.508524
983.874686	2726.608881
984.171587	2709.814277
984.468451	2693.818696
984.765279	2675.234482
985.062070	2657.219919
985.358824	2636.538585
985.655543	2613.949175
985.952224	2589.703745
986.248869	2560.444888
986.545478	2533.315919
986.842050	2513.055522
987.138586	2491.688591
987.435086	2480.038484
987.731549	2468.539612
988.027975	2459.682305
988.324366	2456.907150
988.620719	2453.824484
988.917037	2445.801488
989.213318	2444.707558
989.509563	2439.759665
989.805772	2439.880653
990.101944	2438.161619
990.398080	2437.697833
990.694180	2437.453337
990.990244	2440.840993
991.286271	2436.435024
991.582262	2438.300251
991.878217	2440.041970
992.174136	2438.411157
992.470019	2438.617844
992.765865	2443.545572
993.061676	2442.313010
993.357450	2447.865841
993.653188	2448.932045
993.948890	2457.791872
994.244556	2464.819241
994.540186	2469.716722
994.835780	2484.489823
995.131337	2500.765188
995.426859	2513.582322
995.722345	2539.682896
996.017795	2554.942469
996.313208	2568.062072
996.608586	2579.565985
996.903928	2585.854824
997.199234	2583.170410
997.494504	2579.434915
997.789738	2570.239850
998.084936	2563.663665
998.380099	2551.320400
998.675225	2536.748945
998.970316	2523.994825
999.265371	2512.163237
999.560390	2496.767553
999.855373	2485.417396
1000.150320	2474.276446
1000.445232	2466.104735
1000.740108	2457.053343
1001.034948	2451.508074
1001.329752	2448.921962
1001.624521	2442.199584
1001.919254	2433.740528
1002.213951	2433.196083
1002.508613	2427.597882
1002.803239	2430.420928
1003.097829	2421.520771
1003.392384	2427.295412
1003.686903	2426.438416
1003.981386	2423.186872
1004.275834	2422.448343
1004.570246	2423.874989
1004.864623	2419.758887
1005.158964	2420.386511
1005.453270	2420.131933
1005.747540	2418.370049
1006.041775	2418.538928
1006.335974	2419.685791
1006.630138	2417.971798
1006.924266	2418.571696
1007.218359	2417.749988
1007.512416	2416.489699
1007.806438	2416.252765
1008.100425	2417.185378
1008.394376	2419.111099
1008.688292	2419.539597
1008.982172	2415.990625
1009.276017	2414.422826
1009.569827	2414.460635
1009.863602	2415.841911
1010.157341	2416.381314
1010.451045	2414.120357
1010.744714	2414.437949
1011.038347	2410.102557
1011.331945	2414.082548
1011.625508	2413.240675
1011.919036	2411.766138
1012.212528	2412.734039
1012.505986	2410.495767
1012.799408	2414.473238
1013.092795	2410.009296
1013.386147	2410.067269
1013.679464	2412.711354
1013.972745	2408.738925
1014.265992	2411.854358
1014.559204	2411.425860
1014.852380	2407.024933
1015.145521	2408.093657
1015.438628	2412.212280
1015.731699	2412.303021
1016.024736	2412.769328
1016.317737	2411.226734
1016.610703	2414.286715
1016.903635	2411.196487
1017.196531	2409.865623
1017.489393	2411.352763
1017.782219	2409.059038
1018.075011	2414.422826
1018.367768	2413.190264
1018.660490	2416.126736
1018.953177	2416.126736
1019.245829	2416.126736
