Dividing Wavelength (nm)	Counts (n)	Blue Motor Position (mm): 8.600000	Red Motor Position (mm): 0.000000	
326.493990	1978.116002
326.888308	1978.116002
327.282561	1978.116002
327.676750	1950.281271
328.070874	1954.919132
328.464933	1956.822168
328.858929	1969.581328
329.252859	1982.947948
329.646726	1996.803559
330.040528	2010.366783
330.434265	2029.671882
330.827938	2047.391538
331.221547	2069.297872
331.615091	2089.016345
332.008571	2110.784048
332.401986	2130.855402
332.795338	2152.124030
333.188625	2171.227482
333.581847	2191.114834
333.975006	2208.615200
334.368100	2224.419217
334.761129	2244.235993
335.154095	2258.872983
335.546996	2282.256375
335.939833	2312.097485
336.332606	2326.646255
336.725315	2340.126301
337.117960	2346.120233
337.510540	2350.682477
337.903056	2362.188910
338.295508	2369.226361
338.687896	2376.180633
339.080220	2382.396376
339.472480	2390.686553
339.864676	2391.881307
340.256807	2392.324928
340.648875	2396.236863
341.040879	2396.584703
341.432818	2400.055538
341.824694	2398.102090
342.216506	2398.891031
342.608253	2400.239540
342.999937	2398.588562
343.391557	2396.647718
343.783113	2396.556977
344.174605	2395.531102
344.566033	2392.050185
344.957397	2392.208982
345.348697	2389.564896
345.739934	2387.954248
346.131106	2387.576161
346.522215	2386.343599
346.913260	2382.260264
347.304241	2382.071221
347.695159	2379.976622
348.086012	2377.009903
348.476802	2375.505118
348.867528	2372.868595
349.258191	2372.639222
349.648789	2370.733666
350.039324	2371.870446
350.429796	2371.605786
350.820203	2369.128059
351.210548	2369.924561
351.600828	2366.662934
351.991045	2366.761237
352.381198	2364.661596
352.771288	2368.044211
353.161314	2365.405167
353.551276	2365.972296
353.941175	2364.021370
354.331010	2366.673017
354.720782	2368.747452
355.110490	2368.132431
355.500135	2364.323839
355.889717	2368.349200
356.279235	2367.522451
356.668689	2369.430528
357.058080	2366.597399
357.447408	2367.048583
357.836672	2365.284179
358.225873	2367.908099
358.615010	2367.376258
359.004084	2370.572349
359.393095	2372.182998
359.782043	2371.484798
360.170927	2371.401619
360.559748	2372.566126
360.948505	2374.459079
361.337199	2377.181302
361.725830	2372.462782
362.114398	2375.104347
362.502903	2373.803729
362.891344	2375.328678
363.279722	2374.769110
363.668037	2376.246168
364.056289	2377.841693
364.444478	2375.154758
364.832603	2380.180788
365.220665	2379.107023
365.608665	2377.894625
365.996601	2375.018647
366.384474	2378.383617
366.772284	2380.241282
367.160031	2378.814636
367.547715	2379.495192
367.935336	2378.451673
368.322893	2380.609287
368.710388	2379.175078
369.097820	2382.570295
369.485189	2380.266488
369.872495	2380.208515
370.259738	2381.055429
370.646918	2381.819163
371.034035	2379.535521
371.421090	2381.005017
371.808081	2380.374873
372.195010	2385.042981
372.581875	2383.591129
372.968678	2382.456869
373.355418	2382.603063
373.742096	2386.199926
374.128710	2381.952754
374.515262	2383.447456
374.901751	2383.853269
375.288177	2382.396376
375.674540	2386.290667
376.060841	2387.966851
376.447079	2383.215563
376.833254	2384.884185
377.219367	2379.820346
377.605417	2386.164638
377.991404	2380.362270
378.377329	2383.094575
378.763191	2379.195243
379.148991	2384.485934
379.534727	2387.059443
379.920402	2387.561038
380.306013	2387.256048
380.691563	2388.319731
381.077049	2388.665050
381.462474	2388.206305
381.847835	2386.446943
382.233134	2387.649258
382.618371	2386.628424
383.003545	2388.919629
383.388657	2387.881151
383.773706	2388.165976
384.158693	2386.164638
384.543618	2390.338713
384.928480	2390.558004
385.313280	2388.619680
385.698017	2388.362581
386.082692	2390.898282
386.467305	2390.000956
386.851856	2391.520864
387.236344	2392.524054
387.620770	2392.264434
388.005133	2391.193189
388.389435	2392.055226
388.773674	2388.833929
389.157851	2393.454147
389.541965	2390.258055
389.926018	2391.762839
390.310008	2393.744013
390.693936	2392.796276
391.077802	2390.172355
391.461606	2394.243087
391.845348	2391.866183
392.229027	2393.539846
392.612645	2393.592778
392.996200	2392.594630
393.379694	2396.108314
393.763125	2392.753426
394.146494	2393.842315
394.529801	2398.059241
394.913047	2395.581513
395.296230	2396.461195
395.679351	2395.851215
396.062410	2397.613098
396.445408	2396.967831
396.828343	2397.497152
397.211217	2390.976419
397.594028	2395.100083
397.976778	2393.552449
398.359466	2397.870197
398.742092	2392.458519
399.124656	2394.601009
399.507158	2396.960269
399.889598	2397.708880
400.271977	2397.005639
400.654294	2396.892213
401.036549	2398.182749
401.418742	2398.911196
401.800874	2396.677964
402.182944	2399.319529
402.564952	2399.097718
402.946898	2401.182235
403.328783	2398.238202
403.710606	2402.167781
404.092367	2401.651063
404.474067	2400.910013
404.855705	2403.544016
405.237282	2398.926319
405.618797	2401.341032
406.000250	2398.926319
406.381642	2399.773233
406.762972	2399.062430
407.144240	2400.305075
407.525447	2397.557646
407.906593	2400.655435
408.287677	2401.497307
408.668700	2403.904458
409.049661	2399.344735
409.430560	2399.584190
409.811399	2402.997051
410.192176	2400.922616
410.572891	2403.165929
410.953545	2403.294479
411.334138	2403.423028
411.714669	2402.243398
412.095139	2402.321536
412.475547	2401.656104
412.855894	2405.578122
413.236180	2400.168963
413.616405	2405.157185
413.996568	2403.155847
414.376670	2403.027298
414.756711	2402.553429
415.136691	2403.632236
415.516609	2403.922102
415.896466	2401.976217
416.276262	2402.250960
416.655997	2402.485374
417.035670	2398.651576
417.415283	2404.191804
417.794834	2402.530744
418.174324	2402.634088
418.553753	2402.392112
418.933121	2402.903789
419.312428	2404.332957
419.691674	2406.132648
420.070859	2405.794891
420.449983	2405.482340
420.829045	2407.526528
421.208047	2406.644326
421.586988	2405.971332
421.965867	2404.910169
422.344686	2407.067782
422.723444	2405.220200
423.102141	2405.706671
423.480777	2404.229613
423.859352	2404.814387
424.237866	2408.907804
424.616319	2404.474109
424.994712	2407.836558
425.373044	2406.634243
425.751314	2407.871847
426.129524	2406.808163
426.507673	2407.397978
426.885762	2404.393450
427.263789	2408.890160
427.641756	2406.697258
428.019662	2406.551064
428.397508	2407.874367
428.775292	2410.372259
429.153016	2409.306055
429.530679	2408.171795
429.908282	2407.549213
430.285824	2410.089954
430.663305	2406.490570
431.040726	2410.578946
431.418086	2408.315468
431.795385	2408.814542
432.172624	2407.980231
432.549802	2408.254974
432.926920	2405.817576
433.303977	2406.755231
433.680974	2410.982238
434.057910	2409.016188
434.434786	2408.149110
434.811601	2411.408216
435.188355	2407.085427
435.565050	2408.779254
435.941683	2406.908986
436.318257	2406.606517
436.694770	2405.131979
437.071222	2407.216497
437.447614	2404.254819
437.823946	2407.045097
438.200218	2410.311765
438.576429	2411.075500
438.952580	2407.148441
439.328670	2409.535427
439.704700	2411.214132
440.080670	2409.313617
440.456580	2410.132804
440.832429	2410.881415
441.208218	2410.541138
441.583947	2412.171951
441.959616	2408.587690
442.335224	2410.662125
442.710773	2409.245561
443.086261	2413.248237
443.461689	2409.732032
443.837057	2412.484502
444.212365	2412.865109
444.587612	2412.272774
444.962800	2413.429719
445.337927	2412.645819
445.712995	2410.652043
446.088002	2409.754718
446.462949	2411.688000
446.837837	2412.121539
447.212664	2411.251940
447.587431	2409.167423
447.962139	2411.085582
448.336786	2412.567681
448.711374	2411.781261
449.085901	2415.282343
449.460369	2410.989800
449.834776	2414.432908
450.209124	2412.706313
450.583412	2414.102713
450.957640	2415.234452
451.331808	2413.127249
451.705917	2411.917373
452.079965	2412.713875
452.453954	2414.390058
452.827883	2418.291912
453.201752	2416.595563
453.575562	2413.722106
453.949311	2412.855027
454.323001	2415.221849
454.696632	2415.917528
455.070202	2415.219328
455.443713	2413.084400
455.817164	2413.008782
456.190556	2410.163051
456.563888	2413.119688
456.937160	2409.769841
457.310373	2414.780748
457.683526	2412.786972
458.056619	2414.727816
458.429653	2414.178330
458.802628	2415.123546
459.175542	2415.312590
459.548398	2415.783938
459.921194	2418.435584
460.293930	2417.515574
460.666607	2417.825605
461.039224	2417.260996
461.411782	2419.300142
461.784280	2421.016655
462.156719	2416.348547
462.529099	2420.789803
462.901419	2417.331572
463.273680	2420.167221
463.645882	2419.602612
464.018024	2422.289547
464.390106	2419.854669
464.762130	2421.649320
465.134094	2421.924063
465.505999	2423.489341
465.877845	2423.660740
466.249631	2425.846081
466.621358	2424.621080
466.993026	2426.163673
467.364634	2428.979158
467.736184	2425.800710
468.107674	2423.953127
468.479105	2425.329362
468.850477	2421.205698
469.221790	2424.578230
469.593043	2423.801893
469.964238	2424.744588
470.335373	2424.386667
470.706449	2424.343817
471.077467	2425.838519
471.448425	2425.377253
471.819324	2429.304312
472.190164	2428.235587
472.560945	2425.692325
472.931667	2427.698705
473.302330	2426.067891
473.672934	2427.013108
474.043479	2426.226688
474.413965	2424.064033
474.784393	2420.542787
475.154761	2426.183838
475.525070	2423.234763
475.895321	2427.497058
476.265513	2420.704104
476.635645	2427.250042
477.005719	2427.066040
477.375734	2428.288520
477.745691	2426.201482
478.115588	2428.349013
478.485427	2427.441606
478.855207	2430.171391
479.224928	2430.995619
479.594591	2426.965217
479.964194	2432.129879
480.333739	2431.058634
480.703226	2430.241967
481.072653	2429.879004
481.442022	2433.460743
481.811333	2432.946546
482.180584	2428.832964
482.549777	2432.969231
482.918912	2429.445464
483.287988	2429.813469
483.657005	2429.203489
484.025964	2431.739189
484.394864	2429.982347
484.763706	2430.796494
485.132489	2430.907399
485.501213	2429.657193
485.869879	2430.189035
486.238487	2429.959662
486.607036	2430.158788
486.975527	2430.277255
487.343959	2431.842533
487.712333	2428.986719
488.080648	2428.104518
488.448905	2430.488983
488.817104	2432.432348
489.185244	2429.178283
489.553326	2432.359251
489.921350	2431.083839
490.289315	2435.822524
490.657222	2438.695982
491.025070	2436.387133
491.392861	2438.448965
491.760593	2433.939653
492.128267	2434.947884
492.495883	2433.453182
492.863440	2433.702719
493.230939	2432.235743
493.598380	2430.776329
493.965763	2425.639393
494.333088	2427.718869
494.700354	2427.968406
495.067563	2434.229519
495.434713	2425.064702
495.801805	2432.631474
496.168839	2431.207348
496.535815	2431.406473
496.902733	2432.535692
497.269593	2431.469488
497.636395	2431.691298
498.003139	2430.544436
498.369825	2430.617533
498.736453	2431.393870
499.103023	2431.802204
499.469535	2429.034610
499.835989	2430.977975
500.202385	2432.197934
500.568723	2435.053748
500.935003	2433.541402
501.301226	2429.347162
501.667390	2433.425455
502.033497	2432.419745
502.399546	2434.650456
502.765537	2429.337080
503.131470	2435.099118
503.497345	2434.083326
503.863163	2433.400250
504.228923	2432.883531
504.594625	2433.506114
504.960269	2432.991916
505.325856	2434.363110
505.691385	2434.698347
506.056856	2436.954263
506.422270	2437.639860
506.787625	2434.695826
507.152924	2438.327977
507.518164	2436.177925
507.883347	2440.944336
508.248472	2435.333532
508.613540	2440.442742
508.978550	2438.771599
509.343503	2438.580035
509.708398	2445.035233
510.073236	2442.098761
510.438016	2442.459203
510.802738	2443.049018
511.167403	2446.489606
511.532010	2447.034050
511.896561	2447.404575
512.261053	2451.187961
512.625488	2449.136211
512.989866	2447.913732
513.354186	2451.954216
513.718449	2447.956581
514.082655	2457.209619
514.446803	2453.706017
514.810894	2457.096193
515.174927	2458.517799
515.538904	2459.377315
515.902822	2461.587861
516.266684	2465.139354
516.630488	2465.149437
516.994235	2462.578448
517.357925	2469.449541
517.721558	2470.462813
518.085133	2473.069089
518.448651	2472.794346
518.812112	2476.189563
519.175516	2474.193267
519.538863	2478.415233
519.902152	2477.495222
520.265385	2485.611480
520.628560	2484.754484
520.991678	2484.220122
521.354739	2484.946048
521.717743	2487.844711
522.080690	2492.628766
522.443580	2489.702376
522.806413	2494.861997
523.169189	2497.082626
523.531908	2499.726711
523.894569	2501.864160
524.257174	2502.748882
524.619722	2505.392968
524.982213	2505.334994
525.344647	2508.130314
525.707025	2509.708195
526.069345	2512.097702
526.431608	2516.430574
526.793815	2518.167252
527.155964	2519.044412
527.518057	2517.506860
527.880093	2520.879392
528.242072	2522.663961
528.603995	2524.844260
528.965860	2527.548839
529.327669	2527.160670
529.689421	2530.689478
530.051117	2532.373223
530.412755	2533.630991
530.774337	2537.132072
531.135862	2537.472350
531.497331	2537.099305
531.858743	2537.046373
532.220098	2541.785057
532.581396	2541.164995
532.942638	2542.125335
533.303824	2546.501057
533.664953	2550.949875
534.026025	2549.082127
534.387040	2554.496327
534.747999	2555.612942
535.108902	2553.435164
535.469748	2555.519681
535.830537	2558.385577
536.191270	2561.022100
536.551947	2560.071843
536.912567	2561.062430
537.273131	2564.399673
537.633638	2565.203738
537.994089	2567.661300
538.354483	2568.601475
538.714821	2570.212124
539.075103	2572.755386
539.435328	2574.421487
539.795497	2575.404512
540.155609	2578.280491
540.515665	2577.352918
540.875665	2576.818556
541.235609	2581.743763
541.595496	2580.748135
541.955328	2585.391038
542.315102	2585.138980
542.674821	2584.957499
543.034483	2587.536049
543.394090	2585.960688
543.753640	2590.412027
544.113134	2591.132912
544.472571	2593.209868
544.831953	2594.273551
545.191278	2594.631473
545.550548	2591.344641
545.909761	2595.725403
546.268918	2601.444592
546.628019	2601.540374
546.987064	2597.915785
547.346053	2598.001484
547.704986	2600.867380
548.063863	2598.296392
548.422684	2601.560539
548.781449	2601.207658
549.140158	2602.334356
549.498811	2603.113214
549.857408	2604.575149
550.215949	2603.521548
550.574434	2604.204624
550.932864	2604.912906
551.291237	2603.216558
551.649555	2606.921806
552.007817	2605.895931
552.366022	2607.909872
552.724173	2607.330140
553.082267	2609.165120
553.440305	2610.909359
553.798288	2609.744852
554.156215	2608.643360
554.514086	2611.400871
554.871902	2610.911879
555.229661	2610.551437
555.587365	2610.942126
555.945014	2613.654267
556.302606	2612.114195
556.660143	2614.481016
557.017625	2612.330964
557.375050	2609.074379
557.732421	2612.280553
558.089735	2610.160747
558.446994	2607.831734
558.804197	2613.888681
559.161345	2610.927003
559.518437	2608.161930
559.875474	2610.511108
560.232455	2609.638988
560.589381	2608.298041
560.946251	2606.878956
561.303065	2611.781478
561.659825	2610.536313
562.016528	2604.464244
562.373177	2606.848709
562.729770	2609.495315
563.086307	2605.653956
563.442789	2606.836107
563.799216	2604.900303
564.155587	2604.688575
564.511904	2605.328802
564.868164	2602.906527
565.224370	2602.818307
565.580520	2603.622371
565.936615	2601.368975
566.292654	2600.169181
566.648638	2603.342587
567.004567	2601.235385
567.360441	2599.972576
567.716260	2597.721700
568.072023	2595.985023
568.427732	2598.130034
568.783385	2595.128027
569.138982	2594.621391
569.494525	2594.455033
569.850013	2593.159456
570.205445	2594.840681
570.560823	2593.464446
570.916145	2592.433530
571.271412	2594.523088
571.626625	2594.255907
571.981782	2594.129878
572.336884	2593.950917
572.691931	2591.034610
573.046923	2592.201637
573.401860	2592.698191
573.756743	2590.870772
574.111570	2588.826584
574.466342	2591.669795
574.821059	2589.139136
575.175722	2588.209043
575.530330	2587.205853
575.884882	2588.176276
576.239380	2587.651996
576.593823	2588.166193
576.948211	2588.740885
577.302544	2586.757191
577.656823	2587.092427
578.011047	2589.194589
578.365216	2588.982860
578.719330	2587.321800
579.073389	2587.266347
579.427394	2591.198447
579.781344	2590.717017
580.135239	2592.511668
580.489080	2591.148036
580.842866	2589.239959
581.196597	2594.533171
581.550273	2595.324632
581.903895	2594.850763
582.257463	2601.724377
582.610975	2599.503748
582.964434	2603.289655
583.317837	2606.420211
583.671186	2608.585387
584.024481	2609.757455
584.377721	2609.969184
584.730906	2615.159052
585.084037	2616.759618
585.437113	2614.186109
585.790135	2619.922942
586.143103	2620.394290
586.496016	2618.982767
586.848874	2620.409413
587.201679	2627.633387
587.554428	2621.831019
587.907124	2631.444499
588.259765	2629.884262
588.612352	2637.763585
588.964884	2639.457413
589.317362	2646.557878
589.669786	2649.368322
590.022155	2651.861172
590.374470	2655.286636
590.726731	2659.642193
591.078937	2659.553973
591.431090	2664.418686
591.783188	2663.050013
592.135232	2665.615960
592.487222	2670.904131
592.839157	2675.315140
593.191038	2676.905624
593.542866	2684.222859
593.894639	2683.612880
594.246358	2686.408199
594.598022	2693.763243
594.949633	2697.702905
595.301190	2698.479242
595.652692	2703.091898
596.004141	2707.833103
596.355535	2706.300592
596.706876	2708.972404
597.058162	2714.280739
597.409395	2721.829867
597.760573	2728.703480
598.111698	2729.580641
598.462768	2735.289748
598.813785	2742.987590
599.164748	2745.813156
599.515657	2749.047057
599.866511	2753.702562
600.217312	2765.181269
600.568060	2761.811258
600.918753	2778.434463
601.269392	2783.221038
601.619978	2785.887809
601.970510	2793.031124
602.320988	2800.499593
602.671412	2814.350163
603.021783	2819.605566
603.372100	2819.792089
603.722363	2827.610919
604.072572	2837.521827
604.422728	2847.069772
604.772830	2850.036492
605.122878	2857.288191
605.472872	2867.337732
605.822813	2875.267467
606.172701	2888.722306
606.522534	2896.967113
606.872314	2911.805750
607.222041	2918.394538
607.571714	2934.261569
607.921333	2935.030345
608.270899	2950.859568
608.620411	2967.278607
608.969870	2974.878146
609.319276	2986.157728
609.668627	2999.065602
610.017926	3019.240300
610.367171	3030.852598
610.716362	3046.729712
611.065500	3060.267730
611.414585	3076.033939
611.763616	3092.304263
612.112594	3106.520317
612.461518	3125.855662
612.810389	3145.977428
613.159207	3158.250117
613.507971	3177.434228
613.856682	3202.995399
614.205340	3216.903942
614.553945	3249.159765
614.902496	3252.890219
615.250994	3279.507511
615.599439	3301.048362
615.947830	3325.558452
616.296169	3350.943182
616.644454	3376.199363
616.992686	3400.157446
617.340864	3442.258642
617.688990	3458.090386
618.037063	3498.797703
618.385082	3524.255530
618.733048	3555.669481
619.080961	3582.367431
619.428821	3604.240998
619.776628	3630.482724
620.124382	3641.497645
620.472083	3663.688805
620.819731	3681.889891
621.167326	3688.186292
621.514868	3705.613561
621.862357	3704.093653
622.209793	3717.361970
622.557176	3722.753484
622.904506	3728.172724
623.251783	3732.566090
623.599007	3743.540682
623.946179	3749.244747
624.293297	3767.080349
624.640363	3766.961882
624.987376	3780.174747
625.334336	3795.930873
625.681243	3802.864980
626.028097	3823.344667
626.374899	3840.111545
626.721647	3860.805482
627.068343	3882.416908
627.414987	3899.224115
627.761577	3912.986465
628.108115	3951.924337
628.454600	3954.223104
628.801032	3986.083196
629.147412	4014.616127
629.493739	4042.554201
629.840014	4055.424267
630.186236	4098.821040
630.532405	4109.616671
630.878521	4150.447497
631.224585	4173.367102
631.570597	4192.551213
631.916556	4227.932552
632.262462	4258.716358
632.608316	4289.429588
632.954117	4308.956497
633.299866	4332.967513
633.645562	4350.861088
633.991206	4348.872353
634.336797	4347.730532
634.682336	4366.627297
635.027823	4367.776680
635.373257	4380.424935
635.718639	4387.427098
636.063968	4396.329775
636.409245	4382.456520
636.754470	4407.521137
637.099642	4414.019184
637.444762	4414.714863
637.789829	4436.888379
638.134845	4445.168474
638.479808	4464.050116
638.824719	4486.090040
639.169577	4484.260101
639.514383	4510.458978
639.859137	4522.658570
640.203839	4557.346750
640.548489	4558.566709
640.893086	4589.874795
641.237632	4594.119447
641.582125	4628.429540
641.926566	4647.144823
642.270955	4680.582797
642.615292	4709.224112
642.959576	4730.142380
643.303809	4758.445938
643.647990	4791.455414
643.992118	4819.484229
644.336195	4852.206359
644.680219	4881.329105
645.024192	4939.564514
645.368112	5014.655021
645.711981	5054.664138
646.055797	5158.090971
646.399562	5208.126944
646.743274	5327.125901
647.086935	5411.270320
647.430544	5441.411379
647.774101	5487.421990
648.117606	5546.383326
648.461059	5599.645637
648.804460	5592.487198
649.147810	5560.944699
649.491108	5562.043670
649.834354	5554.703750
650.177548	5500.251727
650.520690	5485.460982
650.863781	5506.011245
651.206820	5524.035891
651.549807	5511.163304
651.892742	5495.442466
652.235626	5508.710783
652.578458	5516.716135
652.921238	5495.923896
653.263967	5556.067382
653.606644	5557.143669
653.949269	5585.590900
654.291843	5574.964147
654.634365	5647.400487
654.976836	5639.402697
655.319255	5672.621380
655.661622	5702.553231
656.003938	5707.032296
656.346203	5726.269339
656.688416	5782.442916
657.030577	5786.296878
657.372687	5799.015710
657.714746	5857.530903
658.056753	5904.474128
658.398708	5870.574888
658.740612	5907.587040
659.082465	5968.375794
659.424266	5985.651828
659.766016	6032.491709
660.107715	6056.595986
660.449362	6103.745898
660.790958	6139.470035
661.132503	6176.348596
661.473996	6210.192382
661.815438	6258.448827
662.156829	6314.100645
662.498168	6321.039793
662.839456	6358.911462
663.180693	6409.955665
663.521879	6468.191074
663.863013	6501.480333
664.204097	6536.836466
664.545129	6631.741228
664.886110	6671.647002
665.227040	6718.678447
665.567918	6775.948475
665.908746	6820.852553
666.249522	6886.213633
666.590248	6930.467402
666.930922	6982.973540
667.271545	7014.604260
667.612118	7062.137300
667.952639	7072.945533
668.293109	7121.895137
668.633528	7136.091027
668.973896	7165.821231
669.314213	7199.365069
669.654480	7200.338012
669.994695	7240.173209
670.334859	7258.291116
670.674973	7276.540093
671.015035	7343.095927
671.355047	7383.067236
671.695008	7407.118581
672.034918	7438.242665
672.374777	7494.065882
672.714585	7513.065991
673.054342	7594.589010
673.394049	7594.999864
673.733705	7683.295674
674.073310	7664.552664
674.412864	7716.587454
674.752368	7688.004111
675.091820	7776.841845
675.431223	7743.456804
675.770574	7728.744196
676.109875	7735.096050
676.449125	7721.492496
676.788324	7742.211639
677.127473	7692.077364
677.466571	7704.768468
677.805619	7683.323400
678.144616	7714.447484
678.483562	7738.027481
678.822458	7718.487969
679.161303	7742.342709
679.500098	7760.402642
679.838842	7780.080786
680.177535	7848.317845
680.516179	7944.087165
680.854771	8035.185856
681.193314	8255.015452
681.531805	8536.188328
681.870247	8747.223631
682.208638	8943.626985
682.546978	9034.027476
682.885268	9088.605528
683.223508	9028.250314
683.561697	8997.809307
683.899836	9014.808077
684.237925	8945.247716
684.575963	8964.641035
684.913951	8915.580526
685.251889	8998.109255
685.589776	9045.486019
685.927614	9087.705683
686.265401	9178.975773
686.603137	9256.851518
686.940824	9422.100541
687.278460	9567.056399
687.616046	9656.531838
687.953582	9833.975413
688.291068	9869.593685
688.628504	9965.103386
688.965889	10008.830354
689.303224	9955.724319
689.640510	9918.671838
689.977745	9785.761817
690.314930	9631.310946
690.652065	9533.399135
690.989150	9387.674501
691.326185	9210.540958
691.663170	9073.673631
692.000105	8924.881454
692.336990	8799.815469
692.673825	8724.160352
693.010610	8626.966906
693.347345	8521.808437
693.684030	8395.920743
694.020665	8356.261986
694.357251	8225.433961
694.693786	8251.206860
695.030272	8218.182261
695.366707	8120.439329
695.703093	8076.465344
696.039429	8106.797967
696.375716	8072.911331
696.711952	8094.507634
697.048139	8090.257941
697.384276	8082.025737
697.720363	8141.040005
698.056400	8120.358671
698.392388	8101.928212
698.728326	8120.270451
699.064214	8090.630987
699.400053	8103.977442
699.735842	8038.818007
700.071581	7992.028538
700.407270	7942.718492
700.742910	7919.675377
701.078501	7878.511836
701.414042	7825.791449
701.749533	7767.520752
702.084974	7698.983744
702.420366	7779.460724
702.755709	7687.182403
703.091002	7630.199721
703.426246	7664.494690
703.761440	7657.558063
704.096584	7609.339426
704.431679	7621.070191
704.766725	7623.449616
705.101721	7630.938250
705.436668	7692.352107
705.771565	7613.377390
706.106413	7746.655416
706.441212	7768.297089
706.775961	7837.096236
707.110661	7891.323928
707.445311	8026.678909
707.779913	8006.756269
708.114465	8110.389789
708.448967	8229.275320
708.783421	8470.028225
709.117825	8588.424764
709.452180	8684.927573
709.786485	8839.701078
710.120742	9123.165159
710.454949	9151.128439
710.789107	9331.455553
711.123216	9576.858922
711.457275	9642.114138
711.791286	9837.317698
712.125247	9893.279547
712.459159	9824.258589
712.793023	10061.764990
713.126837	9746.012319
713.460602	9855.478454
713.794318	9768.662223
714.127985	9671.304940
714.461602	9418.571733
714.795171	9428.643958
715.128691	9127.709759
715.462162	8978.998241
715.795584	8865.829378
716.128957	8803.356879
716.462281	8701.618833
716.795556	8648.379207
717.128782	8504.855037
717.461960	8344.077517
717.795088	8337.337494
718.128167	8227.011842
718.461198	8088.173424
718.794180	8065.969662
719.127113	7961.602654
719.459997	7918.374760
719.792833	7805.689848
720.125619	7825.020152
720.458357	7725.180100
720.791046	7680.591095
721.123686	7641.713716
721.456278	7583.677433
721.788821	7580.912360
722.121315	7509.804364
722.453761	7554.065695
722.786158	7547.918008
723.118506	7570.658653
723.450805	7542.786113
723.783056	7613.563913
724.115259	7605.099816
724.447412	7591.261848
724.779518	7709.786937
725.111574	7737.624189
725.443582	7823.578382
725.775542	7837.270156
726.107453	8042.452679
726.439315	8009.987649
726.771129	8181.830501
727.102895	8339.570725
727.434612	8436.333153
727.766281	8496.574941
728.097901	8617.754198
728.429473	8650.589753
728.760996	8666.905448
729.092471	8728.712514
729.423897	8708.172333
729.755276	8682.838014
730.086606	8754.044312
730.417887	8984.170465
730.749120	9212.428870
731.080305	9307.063930
731.411442	9465.739289
731.742530	9529.041058
732.073570	9592.042878
732.404562	9725.895595
732.735506	9672.930712
733.066401	9586.270757
733.397249	9406.762830
733.728048	9181.188839
734.058798	8876.834217
734.389501	8613.519628
734.720156	8441.114687
735.050762	8237.502483
735.381320	8108.995910
735.711831	8022.368722
736.042293	7886.895275
736.372707	7906.003768
736.703073	7826.212385
737.033391	7926.027231
737.363661	7929.987058
737.693883	7981.195098
738.024056	8066.478819
738.354182	8155.644227
738.684260	8286.530225
739.014290	8391.638283
739.344272	8482.303435
739.674207	8610.071479
740.004093	8677.892642
740.333931	8688.403448
740.663722	8723.189930
740.993464	8742.154751
741.323159	8692.401083
741.652806	8595.961289
741.982405	8519.975977
742.311956	8388.981595
742.641460	8366.828244
742.970915	8243.655212
743.300323	8122.791028
743.629683	8041.688945
743.958996	7931.786750
744.288260	7824.039648
744.617477	7701.025412
744.946647	7687.661313
745.275768	7579.011845
745.604842	7502.325812
745.933869	7437.715864
746.262847	7436.080010
746.591778	7415.081083
746.920662	7380.854169
747.249498	7392.844554
747.578286	7454.397042
747.907027	7532.270266
748.235720	7650.003894
748.564365	7669.510638
748.892963	7645.887792
749.221514	7677.248810
749.550017	7625.645038
749.878473	7624.566231
750.206881	7527.501335
750.535242	7494.524627
750.863555	7472.885474
751.191821	7439.389527
751.520039	7461.852909
751.848210	7426.080881
752.176334	7451.100127
752.504411	7414.682832
752.832440	7341.611307
753.160421	7387.634521
753.488356	7334.954463
753.816243	7289.959645
754.144082	7225.458081
754.471875	7208.978549
754.799620	7186.084149
755.127318	7181.839498
755.454969	7176.662233
755.782572	7160.326374
756.110129	7179.187851
756.437638	7140.721326
756.765100	7146.221225
757.092515	7158.919892
757.419882	7169.034967
757.747203	7177.867068
758.074477	7226.037814
758.401703	7202.288938
758.728882	7298.380892
759.056014	7324.133627
759.383099	7396.582569
759.710138	7457.595654
760.037129	7507.523242
760.364073	7525.951180
760.690970	7527.781119
761.017820	7545.296608
761.344623	7662.001840
761.671379	7853.570727
761.998088	8206.179274
762.324751	9034.491262
762.651366	10525.987204
762.977935	12408.021334
763.304456	13627.841933
763.630931	13959.325525
763.957359	13394.406263
764.283740	12409.009400
764.610074	11438.259610
764.936362	10334.645169
765.262602	9530.593733
765.588796	8745.683559
765.914943	8195.045886
766.241044	7723.803865
766.567097	7376.682614
766.893104	7081.666730
767.219064	6884.297995
767.544978	6681.053795
767.870845	6515.245204
768.196665	6416.824237
768.522438	6313.551159
768.848165	6228.320371
769.173846	6142.194778
769.499479	6079.233287
769.825066	6003.469786
770.150607	5903.967492
770.476101	5876.566300
770.801548	5816.533719
771.126949	5743.550414
771.452303	5697.393610
771.777611	5610.088387
772.102872	5608.800372
772.428087	5547.999016
772.753256	5477.949662
773.078378	5433.171613
773.403453	5359.054049
773.728482	5297.733453
774.053465	5271.307725
774.378401	5222.925251
774.703291	5173.262324
775.028135	5120.403305
775.352932	5095.424388
775.677683	5053.093819
776.002388	5004.986088
776.327046	5013.828272
776.651658	4965.193740
776.976224	4918.880660
777.300743	4913.968055
777.625216	4876.905492
777.949643	4856.395558
778.274024	4865.638513
778.598359	4824.394313
778.922647	4825.059745
779.246889	4803.302125
779.571086	4804.345644
779.895236	4818.753262
780.219339	4816.837623
780.543397	4817.324095
780.867409	4851.258622
781.191374	4855.218448
781.515294	4839.827806
781.839167	4877.870873
782.162995	4862.008882
782.486776	4835.283205
782.810511	4814.581707
783.134201	4775.490080
783.457844	4770.887506
783.781441	4751.516873
784.104993	4727.364704
784.428498	4708.851067
784.751958	4708.193196
785.075372	4693.657029
785.398739	4675.246735
785.722061	4691.890105
786.045337	4692.724416
786.368568	4765.536321
786.691752	4779.961583
787.014891	4930.666877
787.337983	5096.712403
787.661030	5362.545048
787.984031	5625.962980
788.306987	5798.917407
788.629897	5867.817377
788.952760	5830.507798
789.275579	5735.597994
789.598351	5566.232869
789.921078	5404.260596
790.243759	5229.196446
790.566395	5104.632055
790.888984	4985.801977
791.211529	4897.372577
791.534027	4795.069921
791.856480	4709.072878
792.178888	4676.615409
792.501249	4630.289725
792.823566	4564.658943
793.145836	4570.390735
793.468062	4554.972366
793.790241	4534.182648
794.112375	4560.862955
794.434464	4626.586998
794.756507	4648.969721
795.078505	4722.915886
795.400457	4854.759703
795.722364	5002.561293
796.044226	5123.349860
796.366042	5230.728957
796.687812	5203.698290
797.009538	5231.253237
797.331218	5173.567314
797.652852	5139.796624
797.974442	5067.466149
798.295986	5024.139952
798.617484	4942.962252
798.938938	4877.361717
799.260346	4832.535777
799.581709	4745.525461
799.903026	4715.626378
800.224299	4671.327238
800.545526	4592.196246
800.866708	4553.011358
801.187845	4518.648332
801.508936	4466.598419
801.829983	4452.120225
802.150984	4380.248495
802.471940	4361.989435
802.792851	4356.141697
803.113717	4334.212678
803.434538	4324.039629
803.755314	4297.941576
804.076045	4287.952529
804.396731	4269.201958
804.717372	4276.572125
805.037967	4276.960293
805.358518	4294.596770
805.679024	4332.844004
805.999485	4338.782484
806.319901	4354.044577
806.640272	4364.686453
806.960598	4398.724323
807.280879	4393.726019
807.601115	4425.399589
807.921306	4397.890012
808.241453	4396.271802
808.561554	4407.256476
808.881611	4387.374166
809.201623	4387.714443
809.521590	4356.408878
809.841513	4348.484184
810.161390	4362.357440
810.481223	4306.985406
810.801011	4298.077687
811.120755	4284.781644
811.440453	4252.934154
811.760107	4236.817585
812.079716	4216.383268
812.399281	4186.010316
812.718801	4182.743649
813.038276	4161.409486
813.357707	4142.979027
813.677093	4163.022655
813.996434	4119.426756
814.315731	4134.348572
814.634983	4134.015856
814.954191	4141.421311
815.273354	4183.754400
815.592473	4212.741035
815.911547	4267.709776
816.230577	4302.400476
816.549562	4366.332389
816.868502	4408.088267
817.187399	4448.142755
817.506250	4514.438969
817.825058	4535.263975
818.143821	4650.149351
818.462539	4773.156025
818.781213	4931.201240
819.099843	5182.275907
819.418429	5620.521055
819.736970	6048.721704
820.055466	6549.517488
820.373919	7204.605348
820.692327	8233.701453
821.010691	10013.879070
821.329011	13817.308659
821.647286	19410.811650
821.965517	25514.867579
822.283704	28927.519525
822.601847	30301.859051
822.919945	27824.827615
823.237999	24917.160652
823.556010	21752.031881
823.873976	18794.623854
824.191897	16064.571865
824.509775	14090.440895
824.827609	12303.049387
825.145398	11313.324694
825.463144	10830.556075
825.780845	11027.488750
826.098502	11836.485558
826.416116	13425.643773
826.733685	14924.963585
827.051210	15336.984651
827.368692	14449.411378
827.686129	12791.506948
828.003522	11117.927050
828.320872	9600.504455
828.638177	8454.846790
828.955439	7582.853204
829.272656	6836.361663
829.589830	6253.639566
829.906960	5744.236011
830.224046	5368.228949
830.541088	5074.596861
830.858086	4897.173451
831.175041	4758.617338
831.491952	4720.954877
831.808819	4747.592334
832.125642	4933.837763
832.442421	5331.783927
832.759157	6107.854438
833.075849	7327.448185
833.392497	8615.581460
833.709101	9399.359896
834.025662	9251.820446
834.342179	8541.206797
834.658653	7626.383567
834.975083	6841.738053
835.291469	6201.695517
835.607811	5674.436195
835.924110	5297.078103
836.240366	4942.889155
836.556578	4619.690699
836.872746	4360.368704
837.188871	4161.646420
837.504952	4002.371164
837.820990	3882.915982
838.136984	3796.951707
838.452935	3762.520626
838.768842	3780.401598
839.084706	3988.026561
839.400526	4507.202393
839.716303	5152.298686
840.032037	5560.317075
840.347727	5475.222398
840.663373	5053.827307
840.978977	4635.222494
841.294537	4314.448834
841.610054	4072.145774
841.925527	3897.051378
842.240957	3746.124273
842.556344	3614.676186
842.871687	3494.280830
843.186987	3381.510218
843.502244	3298.905871
843.817458	3236.040162
844.132629	3181.013447
844.447756	3147.620844
844.762840	3112.554578
845.077881	3080.807912
845.392879	3058.636917
845.707833	3035.921478
846.022745	3014.458765
846.337613	3010.766120
846.652438	2993.646362
846.967221	2986.314003
847.281960	2971.616519
847.596656	2962.965899
847.911309	2957.244190
848.225919	2946.269598
848.540485	2940.542847
848.855009	2934.506065
849.169490	2924.796803
849.483928	2917.809764
849.798323	2915.901687
850.112675	2908.244174
850.426984	2908.193763
850.741251	2901.438617
851.055474	2902.595562
851.369654	2902.943401
851.683792	2900.581621
851.997887	2899.200344
852.311938	2902.829975
852.625947	2900.632032
852.939914	2896.331928
853.253837	2901.874677
853.567718	2899.686816
853.881555	2896.389901
854.195350	2900.251425
854.509103	2896.001732
854.822812	2895.343862
855.136479	2894.222205
855.450103	2897.050292
855.763685	2892.233470
856.077224	2896.664644
856.390720	2897.950138
856.704173	2908.980183
857.017584	2912.382962
857.330953	2916.042839
857.644278	2924.242276
857.957561	2923.423089
858.270802	2923.014755
858.584000	2925.038778
858.897155	2918.775145
859.210268	2908.889442
859.523339	2905.065727
859.836367	2902.449368
860.149352	2898.081208
860.462295	2894.128944
860.775195	2888.054353
861.088054	2884.901112
861.400869	2880.777448
861.713642	2884.328941
862.026373	2892.276320
862.339062	2893.355127
862.651708	2901.138668
862.964312	2910.245513
863.276873	2917.661050
863.589392	2943.166768
863.901869	2958.940538
864.214303	2976.206490
864.526696	2985.872903
864.839045	3003.574914
865.151353	3015.456914
865.463619	3015.940865
865.775842	3018.587470
866.088023	3020.770290
866.400162	3017.044877
866.712258	3018.166534
867.024313	3018.148890
867.336325	3019.245341
867.648296	3018.801719
867.960224	3017.274250
868.272110	3020.752646
868.583954	3018.935310
868.895755	3027.767412
869.207515	3022.625435
869.519233	3040.332488
869.830909	3044.042777
870.142542	3049.759445
870.454134	3055.403017
870.765684	3065.114800
871.077191	3080.379414
871.388657	3090.502051
871.700081	3102.946139
872.011463	3119.763428
872.322803	3132.504944
872.634101	3144.661687
872.945357	3159.129798
873.256571	3178.266018
873.567744	3188.537369
873.878874	3195.652958
874.189963	3209.705174
874.501010	3210.559650
874.812015	3208.586038
875.122979	3223.772514
875.433900	3220.382338
875.744780	3222.464335
876.055618	3233.368351
876.366415	3230.746951
876.677169	3233.938001
876.987882	3249.747059
877.298554	3267.123917
877.609183	3298.331180
877.919771	3333.488187
878.230317	3388.585478
878.540822	3475.152171
878.851285	3592.535439
879.161707	3763.251593
879.472087	4051.998803
879.782425	4531.931773
880.092722	5402.914608
880.402977	6722.391257
880.713191	8218.971202
881.023363	9655.460593
881.333494	10499.067442
881.643583	10893.603266
881.953631	10779.285020
882.263637	10332.048974
882.573602	9695.136995
882.883526	9067.601561
883.193408	8413.186695
883.503248	7766.870443
883.813048	7166.499267
884.122806	6617.714218
884.432522	6078.116672
884.742197	5605.483293
885.051831	5208.802458
885.361424	4846.129248
885.670975	4560.880599
885.980485	4315.885563
886.289954	4117.480871
886.599382	3956.375676
886.908768	3822.648988
887.218113	3697.119216
887.527417	3598.360492
887.836680	3502.755009
888.145901	3428.004780
888.455082	3369.464381
888.764221	3313.812563
889.073319	3269.667179
889.382376	3248.678335
889.691392	3227.321487
890.000366	3221.622462
890.309300	3217.486195
890.618193	3220.820919
890.927044	3215.152141
891.235855	3220.336968
891.544625	3232.072774
891.853353	3253.399375
892.162041	3299.631797
892.470687	3369.310626
892.779293	3459.146508
893.087858	3593.858742
893.396381	3805.254487
893.704864	4114.514152
894.013306	4541.948545
894.321707	4974.759329
894.630068	5251.654787
894.938387	5298.905522
895.246665	5162.310417
895.554903	4927.758132
895.863100	4666.787679
896.171256	4458.446873
896.479371	4280.191673
896.787446	4108.704222
897.095480	3958.094710
897.403473	3840.610619
897.711425	3729.034761
898.019336	3635.551604
898.327207	3539.444527
898.635038	3464.265800
898.942827	3378.825804
899.250576	3309.333498
899.558284	3247.649939
899.865952	3204.979093
900.173579	3154.108809
900.481165	3124.756691
900.788711	3087.298397
901.096216	3063.531878
901.403681	3041.068496
901.711105	3031.520551
902.018489	3028.866383
902.325832	3054.982081
902.633135	3101.537136
902.940397	3231.624111
903.247619	3541.385371
903.554800	4102.750619
903.861941	4819.864836
904.169041	5345.465619
904.476101	5514.155229
904.783121	5322.067103
905.090100	5022.650291
905.397039	4710.749061
905.703938	4437.485755
906.010796	4193.153631
906.317614	3998.923015
906.624391	3817.330571
906.931129	3665.435564
907.237826	3527.234852
907.544483	3397.435223
907.851099	3264.114348
908.157675	3146.542037
908.464211	3040.544216
908.770707	2957.944910
909.077163	2900.886610
909.383578	2850.722088
909.689954	2816.086841
909.996289	2793.865435
910.302584	2778.457148
910.608839	2766.433996
910.915054	2758.673140
911.221229	2755.784559
911.527363	2760.014087
911.833458	2763.953748
912.139513	2773.095881
912.445527	2783.372273
912.751502	2811.834628
913.057436	2847.672190
913.363331	2887.595608
913.669186	2961.597226
913.975000	3050.828170
914.280775	3192.711445
914.586510	3405.349835
914.892205	3688.667722
915.197859	4067.664189
915.503475	4513.697919
915.809050	4885.871184
916.114585	5110.744454
916.420081	5167.238145
916.725536	5125.000838
917.030952	4940.557621
917.336328	4787.475423
917.641665	4627.169251
917.946961	4453.322540
918.252218	4299.340496
918.557435	4123.041264
918.862612	3972.429231
919.167750	3838.503417
919.472848	3693.567723
919.777906	3561.492013
920.082925	3439.213786
920.387904	3317.684169
920.692843	3231.881210
920.997743	3156.442863
921.302603	3088.498192
921.607423	3034.358720
921.912204	2984.998262
922.216946	2942.919751
922.521647	2906.704102
922.826310	2872.514997
923.130932	2844.597087
923.435516	2813.813281
923.740059	2790.518109
924.044564	2768.362237
924.349028	2747.239803
924.653454	2723.238869
924.957840	2704.276569
925.262186	2690.153777
925.566493	2671.178874
925.870761	2651.727582
926.174989	2642.272897
926.479178	2634.126393
926.783328	2616.293311
927.087438	2608.484564
927.391509	2598.613985
927.695541	2591.740371
927.999533	2581.257292
928.303486	2574.093812
928.607400	2567.494942
928.911275	2565.765826
929.215110	2559.436657
929.518906	2558.430947
929.822663	2558.607388
930.126381	2558.403221
930.430060	2559.855073
930.733699	2560.364230
931.037299	2567.696588
931.340861	2562.720969
931.644383	2566.590055
931.947866	2565.307081
932.251309	2563.068809
932.554714	2564.354303
932.858080	2561.828685
933.161407	2559.766853
933.464694	2554.145967
933.767943	2552.147149
934.071153	2549.470296
934.374323	2544.061138
934.677455	2544.174564
934.980548	2538.089892
935.283602	2539.876981
935.586617	2537.676517
935.889593	2541.056611
936.192530	2541.205325
936.495428	2545.379400
936.798287	2556.172510
937.101108	2566.045610
937.403890	2584.632344
937.706632	2607.307454
938.009336	2634.781743
938.312002	2659.007008
938.614628	2677.165244
938.917216	2692.424817
939.219765	2700.835982
939.522275	2706.842517
939.824747	2707.255891
940.127179	2698.953111
940.429573	2696.656865
940.731929	2696.258614
941.034246	2687.965916
941.336524	2688.903571
941.638763	2682.965091
941.940964	2677.104750
942.243126	2663.412976
942.545250	2654.880823
942.847335	2643.402116
943.149381	2632.767802
943.451389	2620.490072
943.753359	2612.000769
944.055290	2606.188318
944.357182	2598.596341
944.659036	2592.599888
944.960851	2590.737182
945.262628	2585.736357
945.564367	2588.942531
945.866067	2586.744588
946.167729	2582.820050
946.469352	2584.402972
946.770937	2580.105388
947.072484	2577.302507
947.373992	2574.454255
947.675462	2573.597259
947.976893	2568.296485
948.278286	2569.944943
948.579641	2563.852708
948.880958	2562.063099
949.182236	2562.363047
949.483476	2561.624518
949.784678	2558.199054
950.085841	2560.084446
950.386967	2563.905640
950.688054	2570.824624
950.989103	2574.512228
951.290114	2582.893146
951.591087	2590.764908
951.892021	2599.823862
952.192917	2611.103443
952.493776	2620.598457
952.794596	2625.143057
953.095378	2623.328241
953.396122	2623.330762
953.696828	2620.177520
953.997496	2616.633589
954.298126	2608.131683
954.598718	2603.808894
954.899272	2592.587285
955.199788	2583.006572
955.500266	2575.190263
955.800706	2559.171997
956.101108	2545.908721
956.401472	2539.851775
956.701798	2526.888448
957.002087	2514.151972
957.302337	2507.623678
957.602550	2498.214365
957.902724	2493.906699
958.202861	2485.130050
958.502960	2478.619400
958.803022	2473.220324
959.103045	2463.001905
959.403031	2460.297326
959.702979	2458.540484
960.002889	2455.389763
960.302762	2448.498505
960.602596	2445.468772
960.902393	2443.613627
961.202153	2446.477003
961.501875	2440.135231
961.801559	2441.234203
962.101205	2436.515683
962.400814	2434.325301
962.700385	2433.485949
962.999918	2431.277924
963.299414	2431.096442
963.598873	2432.202976
963.898293	2427.406318
964.197677	2428.928746
964.497022	2427.940680
964.796331	2425.500762
965.095601	2425.606626
965.394835	2423.774166
965.694030	2427.050916
965.993189	2424.711821
966.292309	2424.658889
966.591393	2423.302818
966.890439	2422.216450
967.189447	2421.336768
967.488419	2423.796852
967.787353	2425.803231
968.086249	2423.605288
968.385108	2425.369692
968.683930	2424.719383
968.982714	2429.334559
969.281462	2429.039652
969.580172	2428.187697
969.878844	2429.879004
970.177480	2433.795980
970.476078	2435.663728
970.774639	2437.503749
971.073162	2439.794953
971.371649	2438.022988
971.670098	2437.201280
971.968510	2442.733946
972.266885	2439.694130
972.565223	2447.397013
972.863524	2447.220573
973.161788	2449.847014
973.460014	2447.782662
973.758204	2448.735440
974.056356	2450.832560
974.354471	2451.389607
974.652550	2451.311469
974.950591	2450.882971
975.248595	2449.365584
975.546563	2451.278702
975.844493	2447.656633
976.142386	2445.468772
976.440243	2443.553133
976.738062	2441.312341
977.035845	2440.634305
977.333590	2438.902669
977.631299	2439.101795
977.928971	2436.369489
978.226606	2435.925868
978.524204	2434.746238
978.821765	2431.300609
979.119290	2433.987544
979.416777	2433.642225
979.714228	2433.405291
980.011642	2434.123655
980.309020	2437.324788
980.606360	2439.810077
980.903664	2447.644030
981.200931	2457.678447
981.498162	2472.670838
981.795356	2494.209168
982.092513	2527.904240
982.389633	2563.023438
982.686717	2595.559045
982.983764	2621.573920
983.280775	2634.852319
983.577749	2632.540950
983.874686	2630.703449
984.171587	2613.336674
984.468451	2602.777978
984.765279	2588.322469
985.062070	2570.161712
985.358824	2557.692418
985.655543	2539.181301
985.952224	2521.454084
986.248869	2499.774602
986.545478	2478.463124
986.842050	2466.669344
987.138586	2450.784669
987.435086	2439.142124
987.731549	2430.700712
988.027975	2427.197110
988.324366	2423.015473
988.620719	2418.606984
988.917037	2416.104051
989.213318	2416.484658
989.509563	2412.923083
989.805772	2412.804616
990.101944	2410.553740
990.398080	2407.796229
990.694180	2408.668349
990.990244	2409.258164
991.286271	2408.900242
991.582262	2410.576426
991.878217	2412.466858
992.174136	2410.034502
992.470019	2412.025757
992.765865	2414.138001
993.061676	2416.046077
993.357450	2418.808630
993.653188	2418.669998
993.948890	2424.124527
994.244556	2429.584096
994.540186	2436.687082
994.835780	2446.945830
995.131337	2456.650051
995.426859	2470.268728
995.722345	2486.445791
996.017795	2501.150837
996.313208	2509.861951
996.608586	2517.569875
996.903928	2520.869310
997.199234	2520.443333
997.494504	2516.937210
997.789738	2513.005110
998.084936	2505.662669
998.380099	2493.266472
998.675225	2486.579382
998.970316	2477.507825
999.265371	2467.007102
999.560390	2452.402879
999.855373	2446.666046
1000.150320	2436.757658
1000.445232	2434.567277
1000.740108	2429.611823
1001.034948	2421.518250
1001.329752	2416.356108
1001.624521	2417.006417
1001.919254	2408.161713
1002.213951	2408.837227
1002.508613	2404.476629
1002.803239	2406.172978
1003.097829	2403.007133
1003.392384	2404.441341
1003.686903	2402.250960
1003.981386	2402.792884
1004.275834	2406.036867
1004.570246	2402.301372
1004.864623	2398.986813
1005.158964	2399.105280
1005.453270	2401.525034
1005.747540	2398.283572
1006.041775	2398.644014
1006.335974	2398.707029
1006.630138	2398.578479
1006.924266	2398.525547
1007.218359	2396.685526
1007.512416	2397.582852
1007.806438	2394.943808
1008.100425	2398.558315
1008.394376	2399.914385
1008.688292	2398.331463
1008.982172	2397.807183
1009.276017	2397.575290
1009.569827	2396.940104
1009.863602	2396.635115
1010.157341	2397.673592
1010.451045	2396.960269
1010.744714	2396.390619
1011.038347	2398.006308
1011.331945	2397.048489
1011.625508	2396.488921
1011.919036	2395.168139
1012.212528	2396.194014
1012.505986	2394.374157
1012.799408	2394.860628
1013.092795	2395.241236
1013.386147	2395.387429
1013.679464	2394.805176
1013.972745	2394.601009
1014.265992	2398.089488
1014.559204	2393.602861
1014.852380	2395.392470
1015.145521	2395.253838
1015.438628	2395.026987
1015.731699	2395.137892
1016.024736	2393.610422
1016.317737	2395.241236
1016.610703	2396.163767
1016.903635	2391.230998
1017.196531	2390.235370
1017.489393	2395.072357
1017.782219	2392.282078
1018.075011	2397.600496
1018.367768	2398.086967
1018.660490	2399.127965
1018.953177	2399.127965
1019.245829	2399.127965
