Dividing Wavelength (nm)	Counts (n)	Blue Motor Position (mm): 41.800000	Red Motor Position (mm): 0.000000	
326.493990	1970.377831
326.888308	1970.377831
327.282561	1970.377831
327.676750	1946.429829
328.070874	1950.359409
328.464933	1952.877465
328.858929	1962.054886
329.252859	1975.557616
329.646726	1990.930615
330.040528	2004.748417
330.434265	2023.067971
330.827938	2044.034129
331.221547	2063.913920
331.615091	2082.172979
332.008571	2106.657863
332.401986	2123.933897
332.795338	2146.283853
333.188625	2166.758499
333.581847	2186.424040
333.975006	2203.788295
334.368100	2221.623897
334.761129	2239.101578
335.154095	2253.889802
335.546996	2293.745165
335.939833	2378.456714
336.332606	2392.952552
336.725315	2403.654921
337.117960	2413.512898
337.510540	2420.230235
337.903056	2431.335897
338.295508	2434.234561
338.687896	2447.651592
339.080220	2449.111006
339.472480	2455.268775
339.864676	2461.638273
340.256807	2465.424179
340.648875	2465.005764
341.040879	2465.083902
341.432818	2470.137658
341.824694	2469.111783
342.216506	2466.883593
342.608253	2470.135138
342.999937	2467.601958
343.391557	2467.450723
343.783113	2462.727162
344.174605	2463.382512
344.566033	2459.571400
344.957397	2460.125927
345.348697	2460.317491
345.739934	2458.333797
346.131106	2455.137705
346.522215	2451.689556
346.913260	2451.591253
347.304241	2449.836932
347.695159	2449.899946
348.086012	2447.518001
348.476802	2448.687549
348.867528	2443.795109
349.258191	2444.639502
349.648789	2439.074068
350.039324	2441.677824
350.429796	2441.317382
350.820203	2438.138934
351.210548	2438.358224
351.600828	2437.849068
351.991045	2436.603903
352.381198	2435.711619
352.771288	2432.875970
353.161314	2434.796649
353.551276	2438.960642
353.941175	2435.794798
354.331010	2436.321598
354.720782	2438.701023
355.110490	2440.954419
355.500135	2436.825714
355.889717	2443.590942
356.279235	2437.080292
356.668689	2438.910231
357.058080	2439.454675
357.447408	2437.755807
357.836672	2437.120621
358.225873	2438.945519
358.615010	2435.865374
359.004084	2443.568257
359.393095	2443.414502
359.782043	2444.629420
360.170927	2442.968360
360.559748	2444.775613
360.948505	2447.122270
361.337199	2449.297528
361.725830	2450.240224
362.114398	2450.542693
362.502903	2450.772066
362.891344	2449.045471
363.279722	2448.692590
363.668037	2451.586212
364.056289	2451.276181
364.444478	2449.758794
364.832603	2454.424382
365.220665	2455.230966
365.608665	2455.382201
365.996601	2454.653754
366.384474	2457.063426
366.772284	2455.435133
367.160031	2455.646862
367.547715	2455.571244
367.935336	2456.602160
368.322893	2456.541666
368.710388	2458.086780
369.097820	2463.127934
369.485189	2460.297326
369.872495	2464.980558
370.259738	2462.472584
370.646918	2465.308233
371.034035	2462.374281
371.421090	2466.792853
371.808081	2465.759416
372.195010	2466.760085
372.581875	2468.590024
372.968678	2467.899386
373.355418	2468.879890
373.742096	2467.758234
374.128710	2471.559264
374.515262	2473.313585
374.901751	2471.760910
375.288177	2470.868626
375.674540	2472.524645
376.060841	2473.674028
376.447079	2476.413895
376.833254	2474.513380
377.219367	2472.464151
377.605417	2477.139821
377.991404	2472.015488
378.377329	2476.338277
378.763191	2476.965901
379.148991	2483.600060
379.534727	2483.549648
379.920402	2485.167858
380.306013	2484.852786
380.691563	2489.417551
381.077049	2487.181799
381.462474	2486.597026
381.847835	2491.497027
382.233134	2493.667244
382.618371	2490.874445
383.003545	2495.610609
383.388657	2494.347800
383.773706	2499.726711
384.158693	2498.302585
384.543618	2504.966990
384.928480	2498.410970
385.313280	2502.688389
385.698017	2508.226096
386.082692	2513.231962
386.467305	2517.307735
386.851856	2522.827798
387.236344	2529.270393
387.620770	2534.964376
388.005133	2545.437373
388.389435	2555.759136
388.773674	2561.664847
389.157851	2581.842066
389.541965	2593.615681
389.926018	2610.183433
390.310008	2631.550363
390.693936	2655.193375
391.077802	2684.548014
391.461606	2713.340564
391.845348	2744.757035
392.229027	2783.135339
392.612645	2833.864470
392.996200	2883.149311
393.379694	2939.078392
393.763125	3005.293948
394.146494	3064.575396
394.529801	3131.761374
394.913047	3217.138356
395.296230	3274.216820
395.679351	3336.606140
396.062410	3443.917182
396.445408	3490.933503
396.828343	3582.795929
397.211217	3683.104809
397.594028	3731.706573
397.976778	3849.982124
398.359466	3972.295640
398.742092	4047.534861
399.124656	4168.973737
399.507158	4318.708609
399.889598	4415.609668
400.271977	4574.416097
400.654294	4681.762427
401.036549	4848.612016
401.418742	4957.790806
401.800874	5174.547818
402.182944	5312.493952
402.564952	5580.708542
402.946898	5615.119458
403.328783	5744.631742
403.710606	5955.397343
404.092367	6190.887283
404.474067	6492.620506
404.855705	6508.263206
405.237282	6598.451969
405.618797	6949.780063
406.000250	7208.892850
406.381642	7547.338275
406.762972	7655.314749
407.144240	7656.988412
407.525447	7934.561905
407.906593	8022.678753
408.287677	8312.025861
408.668700	8528.757668
409.049661	8636.514852
409.430560	8873.794401
409.811399	8968.772260
410.192176	9195.722486
410.572891	9365.017035
410.953545	9842.290796
411.334138	9557.614318
411.714669	10120.504515
412.095139	9701.670330
412.475547	10187.302324
412.855894	10171.876393
413.236180	10528.563234
413.616405	10365.224808
413.996568	10685.161637
414.376670	10754.903480
414.756711	10731.714172
415.136691	11056.964377
415.516609	11274.759867
415.896466	11414.445199
416.276262	11731.122922
416.655997	12196.456710
417.035670	12300.899335
417.415283	12963.105305
417.794834	13109.376904
418.174324	12936.949278
418.553753	12909.217891
418.933121	13429.923712
419.312428	13300.174495
419.691674	13264.528496
420.070859	13742.336619
420.449983	13460.629381
420.829045	14021.054454
421.208047	13819.231859
421.586988	14285.977171
421.965867	14562.804572
422.344686	14584.557151
422.723444	15153.534542
423.102141	13924.541563
423.480777	15100.501603
423.859352	14632.934584
424.237866	15727.802623
424.616319	15462.090966
424.994712	16111.303361
425.373044	15921.140956
425.751314	16583.858602
426.129524	15763.292346
426.507673	16824.480437
426.885762	16542.266562
427.263789	16737.533136
427.641756	16914.291113
428.019662	16985.255436
428.397508	17034.772169
428.775292	17324.066345
429.153016	17305.156977
429.530679	17373.285650
429.908282	17405.753202
430.285824	17136.633724
430.663305	17838.730344
431.040726	17447.912371
431.418086	17282.363399
431.795385	17906.957320
432.172624	18335.296600
432.549802	17895.919713
432.926920	18089.633612
433.303977	17969.878482
433.680974	18226.195949
434.057910	18517.569600
434.434786	18549.192758
434.811601	18466.492629
435.188355	19487.727055
435.565050	19144.812647
435.941683	19092.566128
436.318257	19958.338931
436.694770	19774.659449
437.071222	20355.644868
437.447614	19439.959602
437.823946	19469.399940
438.200218	19621.380646
438.576429	19394.354803
438.952580	19675.073976
439.328670	19634.356576
439.704700	20057.803417
440.080670	19625.131265
440.456580	20214.391738
440.832429	20383.101513
441.208218	19392.063599
441.583947	19823.374640
441.959616	19928.296175
442.335224	20166.029428
442.710773	20298.110180
443.086261	20823.726085
443.461689	20188.588592
443.837057	20314.425874
444.212365	20944.776792
444.587612	20952.406578
444.962800	20536.047600
445.337927	20954.193668
445.712995	19706.064469
446.088002	21518.979339
446.462949	21714.452600
446.837837	21878.625336
447.212664	21833.842246
447.587431	24615.525733
447.962139	27503.721238
448.336786	29851.706698
448.711374	28342.324742
449.085901	24706.763056
449.460369	24644.235104
449.834776	24547.586102
450.209124	26994.312642
450.583412	26561.564873
450.957640	27080.972597
451.331808	25751.448929
451.705917	24406.630400
452.079965	24426.802577
452.453954	24773.079434
452.827883	24682.489900
453.201752	24492.816486
453.575562	24643.882223
453.949311	25735.188687
454.323001	25788.130885
454.696632	25556.116820
455.070202	27081.834635
455.443713	27227.723106
455.817164	27802.331466
456.190556	28338.866511
456.563888	27779.706767
456.937160	28206.319453
457.310373	26568.660297
457.683526	27008.193459
458.056619	26968.630484
458.429653	26928.724710
458.802628	27490.357139
459.175542	27601.854860
459.548398	28904.178982
459.921194	30445.431113
460.293930	31136.149848
460.666607	33132.981133
461.039224	34876.559973
461.411782	35254.356645
461.784280	34058.229469
462.156719	33549.745925
462.529099	32969.761175
462.901419	31690.525536
463.273680	30657.976241
463.645882	30746.521588
464.018024	30724.912682
464.390106	31547.525646
464.762130	34235.990636
465.134094	38283.974160
465.505999	43564.371085
465.877845	48132.836100
466.249631	49263.617319
466.621358	47479.235380
466.993026	45340.336818
467.364634	43245.200512
467.736184	41290.097378
468.107674	40065.079349
468.479105	39286.662181
468.850477	38597.549053
469.221790	37172.979470
469.593043	35475.444009
469.964238	34608.025269
470.335373	34519.389182
470.706449	36173.328744
471.077467	38695.786018
471.448425	43269.168678
471.819324	46115.956146
472.190164	44325.676057
472.560945	40787.625409
472.931667	37698.260139
473.302330	36600.831193
473.672934	35780.431296
474.043479	36276.231297
474.413965	35502.431826
474.784393	35129.295700
475.154761	36005.753229
475.525070	36044.779321
475.895321	35569.204429
476.265513	36197.095264
476.635645	37135.506052
477.005719	36966.723181
477.375734	37416.205060
477.745691	38115.241700
478.115588	39413.873177
478.485427	41377.813454
478.855207	44716.196601
479.224928	47343.658589
479.594591	48966.829469
479.964194	47930.832024
480.333739	48054.799038
480.703226	48079.626721
481.072653	48707.620900
481.442022	49206.004492
481.811333	49476.865689
482.180584	48177.596505
482.549777	47668.079524
482.918912	47141.276427
483.287988	46842.119234
483.657005	46036.885648
484.025964	45394.912349
484.394864	45397.853863
484.763706	44973.260159
485.132489	44074.566102
485.501213	43928.627218
485.869879	44087.867186
486.238487	43667.152651
486.607036	43880.806833
486.975527	43347.064587
487.343959	43542.114391
487.712333	43627.272083
488.080648	43532.211044
488.448905	43979.212677
488.817104	43791.938852
489.185244	44739.395991
489.553326	46403.067501
489.921350	49108.347260
490.289315	52041.179662
490.657222	52667.464890
491.025070	52966.175941
491.392861	52039.397615
491.760593	50741.892835
492.128267	49060.244570
492.495883	47527.973256
492.863440	46133.330482
493.230939	44787.256706
493.598380	43718.340527
493.965763	43388.540680
494.333088	42577.461876
494.700354	42110.340999
495.067563	41809.011069
495.434713	41689.563449
495.801805	41755.504262
496.168839	41396.926989
496.535815	41055.262787
496.902733	41097.283325
497.269593	40695.455473
497.636395	40631.737809
498.003139	41025.119208
498.369825	40502.570844
498.736453	40783.557198
499.103023	40324.164410
499.469535	40183.407832
499.835989	40280.500456
500.202385	39942.095360
500.568723	39970.345986
500.935003	40162.045943
501.301226	39969.882200
501.667390	40562.845400
502.033497	40822.711840
502.399546	40252.610272
502.765537	39574.199514
503.131470	39948.059045
503.497345	40302.053909
503.863163	38978.841765
504.228923	39596.141136
504.594625	39985.799643
504.960269	39277.855285
505.325856	39974.268003
505.691385	39330.847894
506.056856	39474.523299
506.422270	39900.465511
506.787625	39468.670520
507.152924	39681.293786
507.518164	39767.608422
507.883347	39004.229016
508.248472	39250.494422
508.613540	39706.267662
508.978550	39985.673614
509.343503	39755.028223
509.708398	39946.357655
510.073236	40484.112659
510.438016	40476.618984
510.802738	39934.760481
511.167403	40540.593747
511.532010	40764.347881
511.896561	41072.566548
512.261053	41901.425502
512.625488	41453.844137
512.989866	41331.238234
513.354186	41175.801817
513.718449	41168.350992
514.082655	41830.272136
514.446803	41505.155521
514.810894	42011.778880
515.174927	41934.891201
515.538904	41856.037473
515.902822	42509.005528
516.266684	41963.227527
516.630488	42389.535223
516.994235	42245.980805
517.357925	42814.993484
517.721558	42984.270389
518.085133	43285.933035
518.448651	43420.148715
518.812112	43203.517731
519.175516	43309.601252
519.538863	43637.785409
519.902152	43603.573618
520.265385	44056.344851
520.628560	44095.504534
520.991678	43903.207200
521.354739	44141.835258
521.717743	44455.568947
522.080690	44345.523080
522.443580	44914.286221
522.806413	44950.973218
523.169189	44905.812042
523.531908	45086.000524
523.894569	44932.991423
524.257174	45113.996572
524.619722	45416.145689
524.982213	45419.855979
525.344647	45337.629718
525.707025	45375.501387
526.069345	45777.349404
526.431608	45703.045317
526.793815	46017.817483
527.155964	45564.348051
527.518057	45738.489669
527.880093	45505.608526
528.242072	46049.148254
528.603995	45737.015132
528.965860	45753.429129
529.327669	45854.161465
529.689421	45755.785868
530.051117	45710.496142
530.412755	45872.281892
530.774337	45940.231605
531.135862	45752.962822
531.497331	45955.947402
531.858743	45857.717999
532.220098	46200.919753
532.581396	45918.080775
532.942638	45584.588283
533.303824	45874.038734
533.664953	45853.894284
534.026025	45565.366364
534.387040	46041.208437
534.747999	45984.283728
535.108902	46160.446849
535.469748	45694.011569
535.830537	45810.384085
536.191270	46004.695360
536.551947	45653.372307
536.912567	45953.139479
537.273131	46084.776609
537.633638	45578.400267
537.994089	45924.178051
538.354483	45522.040167
538.714821	46088.350787
539.075103	46435.449353
539.435328	46213.973821
539.795497	46088.612927
540.155609	46086.137721
540.515665	46546.720221
540.875665	46001.053126
541.235609	46321.753690
541.595496	46277.633511
541.955328	46964.488202
542.315102	46346.725045
542.674821	46132.183620
543.034483	46158.717733
543.394090	46151.317319
543.753640	46089.182578
544.113134	47099.742360
544.472571	46113.659900
544.831953	47360.405302
545.191278	46575.182576
545.550548	46303.809703
545.909761	46766.406144
546.268918	46970.777042
546.628019	47263.300076
546.987064	46826.252202
547.346053	46112.568490
547.704986	46979.203330
548.063863	46541.999181
548.422684	46754.655215
548.781449	46584.591890
549.140158	46989.167171
549.498811	46818.209041
549.857408	46269.469363
550.215949	47103.571116
550.574434	47028.180661
550.932864	46798.803119
551.291237	47515.987912
551.649555	47137.268709
552.007817	47378.455153
552.366022	47016.442334
552.724173	47201.800520
553.082267	47589.563553
553.440305	47887.596568
553.798288	47214.902478
554.156215	47523.789098
554.514086	47733.932117
554.871902	47469.639544
555.229661	47496.367742
555.587365	47320.113880
555.945014	47413.254238
556.302606	47334.156014
556.660143	47579.317408
557.017625	47646.316863
557.375050	47446.150288
557.732421	47787.048234
558.089735	47788.767268
558.446994	47688.687761
558.804197	48164.330709
559.161345	48101.933827
559.518437	47354.156792
559.875474	47652.162081
560.232455	47798.877302
560.589381	47985.190786
560.946251	47687.646763
561.303065	48365.719764
561.659825	48177.026855
562.016528	47848.910754
562.373177	47566.664112
562.729770	48041.472748
563.086307	47554.835044
563.442789	48025.978762
563.799216	48072.347295
564.155587	47858.115901
564.511904	47898.550996
564.868164	47987.277824
565.224370	48220.879852
565.580520	47953.794480
565.936615	48167.829269
566.292654	47879.258500
566.648638	48112.961351
567.004567	48070.043488
567.360441	48107.852142
567.716260	47976.315835
568.072023	48255.303371
568.427732	48235.416019
568.783385	47791.081157
569.138982	48192.145275
569.494525	48138.991349
569.850013	47906.299249
570.205445	47882.691526
570.560823	47841.238117
570.916145	47713.840598
571.271412	47739.505112
571.626625	47487.046648
571.981782	47543.832726
572.336884	47219.144609
572.691931	47550.855053
573.046923	47144.696849
573.401860	47006.821292
573.756743	46989.182294
574.111570	47098.797144
574.466342	46953.984958
574.821059	47054.419866
575.175722	46588.995338
575.530330	46619.073382
575.884882	46339.014601
576.239380	46287.786395
576.593823	46265.171779
576.948211	46190.023299
577.302544	45709.450102
577.656823	45734.504637
578.011047	45950.613861
578.365216	45670.381160
578.719330	45473.493856
579.073389	45318.760679
579.427394	45408.223516
579.781344	45371.533998
580.135239	45030.003387
580.489080	45112.436335
580.842866	44608.154592
581.196597	45065.591413
581.550273	45004.570766
581.903895	44844.899780
582.257463	45279.134690
582.610975	44651.571530
582.964434	44927.917501
583.317837	44591.629690
583.671186	44424.598619
584.024481	44651.667312
584.377721	44174.282645
584.730906	44460.657992
585.084037	44472.746679
585.437113	44192.897106
585.790135	44225.311725
586.143103	43821.132174
586.496016	43957.419768
586.848874	43993.897558
587.201679	43999.767981
587.554428	43478.437056
587.907124	43688.539746
588.259765	43432.350828
588.612352	43664.778267
588.964884	43059.038262
589.317362	43338.043442
589.669786	43285.718786
590.022155	43053.016604
590.374470	43473.905059
590.726731	42991.191893
591.078937	42523.768547
591.431090	42609.107720
591.783188	42269.843107
592.135232	41948.237656
592.487222	42183.830940
592.839157	42286.962865
593.191038	41962.945222
593.542866	41731.326888
593.894639	41120.918775
594.246358	41391.558160
594.598022	41381.531305
594.949633	40993.163334
595.301190	40947.974431
595.652692	40772.237287
596.004141	41100.169386
596.355535	40128.219801
596.706876	40069.724772
597.058162	39898.466694
597.409395	40366.333662
597.760573	40458.876643
598.111698	40030.600377
598.462768	40057.439480
598.813785	40087.701527
599.164748	39535.281806
599.515657	39932.522208
599.866511	39410.417466
600.217312	40022.330364
600.568060	38984.074483
600.918753	39737.951314
601.269392	39698.637876
601.619978	39338.845685
601.970510	39545.449813
602.320988	39728.345395
602.671412	40045.159229
603.021783	39794.442484
603.372100	39433.085015
603.722363	39535.634687
604.072572	39623.083582
604.422728	39640.783074
604.772830	39458.530239
605.122878	39539.166015
605.472872	39493.372173
605.822813	39752.295917
606.172701	39599.163307
606.522534	39834.738947
606.872314	40102.852715
607.222041	39852.592194
607.571714	40231.387014
607.921333	39700.656858
608.270899	39991.216363
608.620411	40313.956073
608.969870	40120.627823
609.319276	40109.441503
609.668627	40172.052633
610.017926	40649.485191
610.367171	40803.313480
610.716362	40908.776939
611.065500	40841.280930
611.414585	41039.141177
611.763616	41324.450320
612.112594	41253.160843
612.461518	41490.435352
612.810389	41761.984666
613.159207	41632.235448
613.507971	41700.795140
613.856682	42175.006400
614.205340	42063.054976
614.553945	42781.595840
614.902496	42224.250912
615.250994	42673.750435
615.599439	42764.312244
615.947830	42967.233809
616.296169	43017.728527
616.644454	43128.449909
616.992686	43313.503105
617.340864	43845.758211
617.688990	43553.668716
618.037063	44146.727698
618.385082	44118.272905
618.733048	44425.248928
619.080961	44412.431794
619.428821	44436.531030
619.776628	44555.696345
620.124382	44367.709198
620.472083	44507.462585
620.819731	44626.012880
621.167326	44293.742868
621.514868	44283.779027
621.862357	43833.893855
622.209793	43858.177093
622.557176	43541.930389
622.904506	43288.236842
623.251783	42939.058801
623.599007	42728.560381
623.946179	42502.986390
624.293297	42449.293060
624.640363	41857.171732
624.987376	41853.106042
625.334336	41599.921652
625.681243	41272.493668
626.028097	41222.084650
626.374899	41078.885634
626.721647	41041.218133
627.068343	40936.019334
627.414987	40698.623838
627.761577	40474.847019
628.108115	40809.483852
628.454600	40257.951374
628.801032	40450.715015
629.147412	40409.569117
629.493739	40415.169839
629.840014	40066.511037
630.186236	40402.566955
630.532405	40019.161999
630.878521	40237.048230
631.224585	40123.460952
631.570597	39820.003655
631.916556	40000.867652
632.262462	39945.684661
632.608316	39955.257812
632.954117	39838.038382
633.299866	39843.828148
633.645562	39759.676167
633.991206	39254.822253
634.336797	38827.463477
634.682336	38831.756019
635.027823	38581.445087
635.373257	38410.736494
635.718639	38158.830036
636.063968	38020.553707
636.409245	37437.468647
636.754470	37493.395208
637.099642	37250.023424
637.444762	36769.432584
637.789829	36932.536596
638.134845	36555.664975
638.479808	36504.552717
638.824719	36429.316016
639.169577	36034.029061
639.514383	36086.744406
639.859137	35799.144059
640.203839	36043.418210
640.548489	35665.447618
640.893086	35736.225418
641.237632	35499.029047
641.582125	35594.170743
641.926566	35535.302669
642.270955	35508.571951
642.615292	35524.915372
642.959576	35496.352194
643.303809	35495.724571
643.647990	35627.424715
643.992118	35609.785717
644.336195	35602.844049
644.680219	35687.220361
645.024192	35995.706209
645.368112	36508.782245
645.711981	36526.305295
646.055797	37403.130828
646.399562	37310.696231
646.743274	38283.931310
647.086935	38718.025068
647.430544	38597.904454
647.774101	38728.813137
648.117606	38960.721337
648.461059	39275.130541
648.804460	38878.069100
649.147810	38262.589585
649.491108	38013.372583
649.834354	37643.520770
650.177548	36819.498803
650.520690	36363.488629
650.863781	36378.798613
651.206820	36235.740749
651.549807	35785.268283
651.892742	35300.291639
652.235626	35120.375379
652.578458	34983.414790
652.921238	34383.116711
653.263967	34699.965833
653.606644	34384.006475
653.949269	34331.424719
654.291843	33933.657516
654.634365	34337.446378
654.976836	33935.752116
655.319255	33939.351500
655.661622	33932.687094
656.003938	33699.470714
656.346203	33560.597008
656.688416	33789.465393
657.030577	33580.610389
657.372687	33422.779424
657.714746	33686.154507
658.056753	33810.605472
658.398708	33267.106073
658.740612	33327.045392
659.082465	33598.413224
659.424266	33427.228242
659.766016	33528.779766
660.107715	33417.019906
660.449362	33543.411715
660.790958	33521.316338
661.132503	33545.723084
661.473996	33588.658591
661.815438	33687.588715
662.156829	33884.614651
662.498168	33658.002183
662.839456	33686.540155
663.180693	33838.246118
663.521879	34000.790562
663.863013	33953.045794
664.204097	33940.432827
664.545129	34397.184051
664.886110	34367.272364
665.227040	34438.660144
665.567918	34555.745983
665.908746	34618.256291
666.249522	34790.245337
666.590248	34783.129748
666.930922	34900.896143
667.271545	34868.579826
667.612118	34952.197445
667.952639	34738.102162
668.293109	34788.218793
668.633528	34681.341290
668.973896	34595.545893
669.314213	34616.796877
669.654480	34368.051223
669.994695	34395.825460
670.334859	34292.055828
670.674973	34186.877195
671.015035	34339.488045
671.355047	34298.019513
671.695008	34230.979729
672.034918	34135.389370
672.374777	34213.852409
672.714585	34054.037750
673.054342	34290.863596
673.394049	34042.730442
673.733705	34342.149774
674.073310	33974.889114
674.412864	34052.865681
674.752368	33654.218797
675.091820	33955.052173
675.431223	33525.084600
675.770574	33253.048815
676.109875	33130.185813
676.449125	32841.693182
676.788324	32758.095728
677.127473	32222.352144
677.466571	32138.963897
677.805619	31794.154015
678.144616	31782.438374
678.483562	31709.913814
678.822458	31372.748842
679.161303	31307.639819
679.500098	31236.095764
679.838842	31101.413777
680.177535	31253.961613
680.516179	31536.112473
680.854771	31760.085898
681.193314	32646.461896
681.531805	33785.687048
681.870247	34565.959361
682.208638	35293.344929
682.546978	35526.820928
682.885268	35627.898583
683.223508	35077.563380
683.561697	34751.105818
683.899836	34560.404009
684.237925	34034.914133
684.575963	33889.018099
684.913951	33420.145421
685.251889	33581.401850
685.589776	33565.456681
685.927614	33554.754311
686.265401	33701.020869
686.603137	33783.930206
686.940824	34304.588137
687.278460	34684.877660
687.616046	34814.778112
687.953582	35436.753153
688.291068	35290.602541
688.628504	35553.975103
688.965889	35501.912587
689.303224	35109.098318
689.640510	34765.848673
689.977745	34015.457799
690.314930	33229.365474
690.652065	32687.849769
690.989150	31941.479216
691.326185	31053.507692
691.663170	30338.130153
692.000105	29581.188300
692.336990	28890.398988
692.673825	28441.101111
693.010610	27911.971521
693.347345	27332.667327
693.684030	26676.225917
694.020665	26394.790900
694.357251	25718.265534
694.693786	25676.416395
695.030272	25416.144142
695.366707	24880.713110
695.703093	24591.973462
696.039429	24571.836573
696.375716	24314.495751
696.711952	24279.792448
697.048139	24117.598364
697.384276	23932.459469
697.720363	24050.500607
698.056400	23855.677655
698.392388	23648.019925
698.728326	23595.871709
699.064214	23396.698241
699.400053	23337.847811
699.735842	22977.715342
700.071581	22685.361186
700.407270	22394.131208
700.742910	22208.929298
701.078501	21935.640786
701.414042	21653.862972
701.749533	21354.491530
702.084974	21001.852736
702.420366	21201.729445
702.755709	20755.257134
703.091002	20454.038109
703.426246	20480.519290
703.761440	20383.729137
704.096584	20104.124059
704.431679	20054.541790
704.766725	19965.512493
705.101721	19898.175280
705.436668	19993.959724
705.771565	19667.786988
706.106413	20022.190186
706.441212	19998.007771
706.775961	20140.871550
707.110661	20200.644511
707.445311	20558.561393
707.779913	20402.772095
708.114465	20640.812859
708.448967	20927.478073
708.783421	21628.390021
709.117825	21899.778018
709.452180	22112.492025
709.786485	22527.825129
710.120742	23339.455939
710.454949	23335.483510
710.789107	23801.104644
711.123216	24516.048644
711.457275	24634.402333
711.791286	25191.492683
712.125247	25236.724436
712.459159	24944.448418
712.793023	25607.526507
713.126837	24491.372196
713.460602	24761.847744
713.794318	24382.851277
714.127985	23987.168591
714.461602	23081.091763
714.795171	23039.119116
715.128691	22016.001820
715.462162	21475.360755
715.795584	21049.786547
716.128957	20780.692276
716.462281	20371.617764
716.795556	20148.624845
717.128782	19638.563419
717.461960	19092.896324
717.795088	19010.506226
718.128167	18611.345144
718.461198	18149.976223
718.794180	18006.956168
719.127113	17636.191906
719.459997	17428.284639
719.792833	17078.909992
720.125619	17051.155919
720.458357	16725.225159
720.791046	16557.034622
721.123686	16397.736681
721.456278	16164.820250
721.788821	16111.275635
722.121315	15848.613875
722.453761	15927.575988
722.786158	15848.543299
723.118506	15853.292066
723.450805	15721.478496
723.783056	15874.137237
724.115259	15784.871005
724.447412	15706.077771
724.779518	15952.512056
725.111574	15972.091897
725.443582	16172.563462
725.775542	16157.147614
726.107453	16626.242103
726.439315	16508.168197
726.771129	16908.070329
727.102895	17277.123120
727.434612	17484.627095
727.766281	17612.904295
728.097901	17868.500878
728.429473	17917.455523
728.760996	17895.647491
729.092471	17979.164287
729.423897	17857.864043
729.755276	17723.061069
730.086606	17832.005444
730.417887	18360.638481
730.749120	18879.448829
731.080305	19053.928205
731.411442	19396.154495
731.742530	19458.299319
732.073570	19556.511078
732.404562	19851.960503
732.735506	19663.043262
733.066401	19385.847856
733.397249	18844.987501
733.728048	18212.378146
734.058798	17374.314046
734.389501	16689.654777
734.720156	16219.577263
735.050762	15696.640731
735.381320	15330.799155
735.711831	15092.161014
736.042293	14737.072220
736.372707	14742.531789
736.703073	14537.462692
737.033391	14722.132760
737.363661	14687.253017
737.693883	14789.464932
738.024056	14953.562051
738.354182	15148.201001
738.684260	15425.751808
739.014290	15653.115408
739.344272	15836.895713
739.674207	16120.309382
740.004093	16238.844553
740.333931	16228.205198
740.663722	16262.245589
740.993464	16258.772234
741.323159	16078.863536
741.652806	15805.900179
741.982405	15587.698876
742.311956	15255.481796
742.641460	15130.476304
742.970915	14823.142360
743.300323	14484.933869
743.629683	14275.443680
743.958996	13990.462212
744.288260	13717.329976
744.617477	13419.816199
744.946647	13355.049975
745.275768	13068.641860
745.604842	12890.512689
745.933869	12711.554248
746.262847	12670.070593
746.591778	12596.525200
746.920662	12483.638642
747.249498	12482.106131
747.578286	12612.372067
747.907027	12750.976071
748.235720	12961.950880
748.564365	13003.608455
748.892963	12896.163823
749.221514	12955.770426
749.550017	12812.944455
749.878473	12776.854835
750.206881	12550.733879
750.535242	12458.957153
750.863555	12366.598173
751.191821	12269.460179
751.520039	12293.148561
751.848210	12194.236082
752.176334	12227.742111
752.504411	12132.542441
752.832440	11972.677370
753.160421	12031.003520
753.488356	11912.324676
753.816243	11817.450161
754.144082	11669.530104
754.471875	11616.028338
754.799620	11556.550285
755.127318	11533.106399
755.454969	11490.803556
755.782572	11440.654158
756.110129	11458.847682
756.437638	11373.992460
756.765100	11369.468024
757.092515	11364.474762
757.419882	11389.947712
757.747203	11387.228009
758.074477	11464.463528
758.401703	11417.898389
758.728882	11573.798593
759.056014	11618.266611
759.383099	11734.185423
759.710138	11836.185609
760.037129	11909.015159
760.364073	11935.524066
760.690970	11921.703743
761.017820	11916.808783
761.344623	12107.785334
761.671379	12434.195005
761.998088	13072.251327
762.324751	14629.297392
762.651366	17510.984768
762.977935	21190.006242
763.304456	23417.382095
763.630931	23901.514346
763.957359	22728.732753
764.283740	20792.135695
764.610074	18913.693387
764.936362	16768.989936
765.262602	15236.723662
765.588796	13762.423097
765.914943	12731.129049
766.241044	11868.834642
766.567097	11235.229659
766.893104	10683.803046
767.219064	10316.514659
767.544978	9933.901164
767.870845	9617.200756
768.196665	9428.359133
768.522438	9233.589113
768.848165	9059.878513
769.173846	8897.450016
769.499479	8770.596941
769.825066	8614.711861
770.150607	8434.697298
770.476101	8368.111218
770.801548	8253.321624
771.126949	8117.013865
771.452303	8024.332252
771.777611	7864.510031
772.102872	7843.919438
772.428087	7723.582055
772.753256	7598.337108
773.078378	7507.278746
773.403453	7366.502004
773.728482	7262.601303
774.053465	7197.847682
774.378401	7112.213601
774.703291	7017.674323
775.028135	6921.554642
775.352932	6878.614094
775.677683	6797.940509
776.002388	6710.968002
776.327046	6711.338527
776.651658	6622.566328
776.976224	6545.456839
777.300743	6527.235588
777.625216	6460.894004
777.949643	6419.491007
778.274024	6424.451503
778.598359	6355.531368
778.922647	6355.753179
779.246889	6317.155584
779.571086	6327.913407
779.895236	6334.718964
780.219339	6328.364590
780.543397	6323.068858
780.867409	6373.924018
781.191374	6373.026692
781.515294	6338.850190
781.839167	6393.168622
782.162995	6361.187542
782.486776	6313.175593
782.810511	6271.296208
783.134201	6197.052614
783.457844	6192.376944
783.781441	6133.327389
784.104993	6094.160144
784.428498	6062.758797
784.751958	6045.334048
785.075372	6025.986100
785.398739	5985.956818
785.722061	6002.116236
786.045337	6003.542883
786.368568	6117.314163
786.691752	6136.115147
787.014891	6388.722325
787.337983	6670.255644
787.661030	7108.657067
787.984031	7537.281173
788.306987	7801.062069
788.629897	7888.213536
788.952760	7801.959394
789.275579	7615.910570
789.598351	7321.348389
789.921078	7060.909779
790.243759	6778.325379
790.566395	6570.597073
790.888984	6375.277567
791.211529	6240.608184
791.534027	6077.317649
791.856480	5934.647954
792.178888	5873.077821
792.501249	5804.092152
792.823566	5701.313107
793.145836	5695.349422
793.468062	5680.730076
793.790241	5636.872037
794.112375	5677.967523
794.434464	5775.067708
794.756507	5804.165248
795.078505	5927.945740
795.400457	6142.015817
795.722364	6382.143619
796.044226	6577.095121
796.366042	6740.592343
796.687812	6683.448343
797.009538	6709.458177
797.331218	6616.995853
797.652852	6549.903137
797.974442	6428.575167
798.295986	6357.976327
798.617484	6231.443366
798.938938	6121.168126
799.260346	6048.855294
799.581709	5911.569552
799.903026	5860.563157
800.224299	5787.196724
800.545526	5670.345299
800.866708	5603.968426
801.187845	5552.941867
801.508936	5474.130988
801.829983	5450.941681
802.150984	5342.592161
802.471940	5314.346576
802.792851	5298.202281
803.113717	5276.434578
803.434538	5252.584880
803.755314	5219.530034
804.076045	5207.343044
804.396731	5168.148073
804.717372	5189.943502
805.037967	5193.472310
805.358518	5219.131783
805.679024	5275.517088
805.999485	5283.106546
806.319901	5303.432478
806.640272	5324.212114
806.960598	5366.088979
807.280879	5362.575295
807.601115	5393.706940
807.921306	5359.568247
808.241453	5351.399057
808.561554	5363.825501
808.881611	5331.168906
809.201623	5324.585159
809.521590	5278.284682
809.841513	5264.323206
810.161390	5278.488849
810.481223	5189.003327
810.801011	5177.053272
811.120755	5150.433459
811.440453	5096.936734
811.760107	5067.367846
812.079716	5043.394639
812.399281	4989.272811
812.718801	4989.053521
813.038276	4951.151606
813.357707	4916.342439
813.677093	4938.180717
813.996434	4874.120255
814.315731	4898.907608
814.634983	4896.445004
814.954191	4900.921549
815.273354	4960.560920
815.592473	4998.588864
815.911547	5073.707097
816.230577	5129.656343
816.549562	5212.913519
816.868502	5271.741264
817.187399	5327.819060
817.506250	5406.004835
817.825058	5435.591367
818.143821	5592.187250
818.462539	5757.350573
818.781213	5987.373382
819.099843	6355.211255
819.418429	6983.328942
819.736970	7606.092923
820.055466	8323.943148
820.373919	9241.332325
820.692327	10708.406397
821.010691	13421.872990
821.329011	19675.883081
821.647286	29268.278840
821.965517	39652.080299
822.283704	45144.727446
822.601847	46651.392219
822.919945	42069.432036
823.237999	36922.570235
823.556010	31712.779710
823.873976	26990.294842
824.191897	22749.134303
824.509775	19660.333642
824.827609	16870.445678
825.145398	15302.316636
825.463144	14538.271797
825.780845	14838.850595
826.098502	16101.026969
826.416116	18556.658707
826.733685	20847.152327
827.051210	21369.567100
827.368692	19936.977042
827.686129	17366.172582
828.003522	14876.245874
828.320872	12652.214826
828.638177	10991.870478
828.955439	9733.147295
829.272656	8673.564812
829.589830	7823.059143
829.906960	7089.543532
830.224046	6546.795265
830.541088	6137.519108
830.858086	5876.122678
831.175041	5670.204147
831.491952	5611.288182
831.808819	5645.825127
832.125642	5890.880656
832.442421	6445.979750
832.759157	7557.798669
833.075849	9336.484104
833.392497	11191.515294
833.709101	12314.210502
834.025662	12059.165926
834.342179	11001.370532
834.658653	9692.387045
834.975083	8584.049043
835.291469	7678.254520
835.607811	6932.559481
835.924110	6408.362660
836.240366	5913.676754
836.556578	5461.447445
836.872746	5106.993836
837.188871	4831.993852
837.504952	4609.595789
837.820990	4443.056230
838.136984	4324.634485
838.452935	4278.472640
838.768842	4305.334428
839.084706	4589.370680
839.400526	5331.804092
839.716303	6240.267906
840.032037	6810.508105
840.347727	6662.928327
840.663373	6062.050514
840.978977	5486.796887
841.294537	5040.006984
841.610054	4703.139440
841.925527	4462.124395
842.240957	4251.353753
842.556344	4072.987647
842.871687	3907.978079
843.186987	3758.233124
843.502244	3641.399343
843.817458	3549.073131
844.132629	3479.774909
844.447756	3430.578289
844.762840	3384.376114
845.077881	3345.685258
845.392879	3310.440031
845.707833	3288.871454
846.022745	3259.867176
846.337613	3250.619179
846.652438	3222.756722
846.967221	3212.515618
847.281960	3194.536342
847.596656	3186.888912
847.911309	3175.407684
848.225919	3161.627690
848.540485	3149.569250
848.855009	3142.904845
849.169490	3130.344810
849.483928	3124.267699
849.798323	3121.399282
850.112675	3106.238012
850.426984	3111.188425
850.741251	3101.101077
851.055474	3097.516816
851.369654	3099.538319
851.683792	3094.560179
851.997887	3096.453133
852.311938	3100.811210
852.625947	3101.025459
852.939914	3092.155549
853.253837	3098.971189
853.567718	3094.789552
853.881555	3092.067329
854.195350	3095.505396
854.509103	3092.490786
854.822812	3090.832246
855.136479	3084.193047
855.450103	3088.644385
855.763685	3081.306986
856.077224	3085.309662
856.390720	3093.892227
856.704173	3103.238526
857.017584	3109.151799
857.330953	3114.215638
857.644278	3121.888274
857.957561	3126.614356
858.270802	3122.949437
858.584000	3122.906587
858.897155	3118.079683
859.210268	3107.319340
859.523339	3095.996908
859.836367	3089.902153
860.149352	3085.856627
860.462295	3083.139445
860.775195	3074.819021
861.088054	3068.976324
861.400869	3070.763413
861.713642	3067.416087
862.026373	3076.318764
862.339062	3079.666090
862.651708	3088.445260
862.964312	3104.864298
863.276873	3113.461986
863.589392	3144.235709
863.901869	3170.853002
864.214303	3188.829756
864.526696	3208.812890
864.839045	3229.862228
865.151353	3243.022160
865.463619	3243.004516
865.775842	3244.496698
866.088023	3246.193046
866.400162	3239.163157
866.712258	3241.212386
867.024313	3239.619381
867.336325	3241.988724
867.648296	3242.646594
867.960224	3239.291706
868.272110	3240.443610
868.583954	3242.623909
868.895755	3252.489447
869.207515	3247.687748
869.519233	3266.145933
869.830909	3274.221861
870.142542	3284.155455
870.454134	3290.991260
870.765684	3304.688075
871.077191	3320.701300
871.388657	3335.050944
871.700081	3351.638861
872.011463	3370.364227
872.322803	3390.778379
872.634101	3410.814445
872.945357	3432.153650
873.256571	3459.501909
873.567744	3473.029846
873.878874	3481.496463
874.189963	3493.103720
874.501010	3497.106396
874.812015	3491.437619
875.122979	3508.131400
875.433900	3503.796007
875.744780	3512.242461
876.055618	3521.664377
876.366415	3518.276722
876.677169	3523.892567
876.987882	3539.157181
877.298554	3561.371026
877.609183	3598.468877
877.919771	3651.532062
878.230317	3715.683265
878.540822	3823.107733
878.851285	3978.047597
879.161707	4201.279971
879.472087	4584.226182
879.782425	5216.661617
880.092722	6413.363485
880.402977	8363.700208
880.713191	10754.958932
881.023363	13166.034432
881.333494	14521.467111
881.643583	14979.748325
881.953631	14573.532148
882.263637	13731.503180
882.573602	12698.132176
882.883526	11723.780481
883.193408	10761.469582
883.503248	9838.391463
883.813048	8995.041713
884.122806	8223.828354
884.432522	7441.476565
884.742197	6776.876048
885.051831	6202.905394
885.361424	5701.257654
885.670975	5298.913083
885.980485	4971.754802
886.289954	4700.386970
886.599382	4480.045697
886.908768	4298.894354
887.218113	4131.911174
887.527417	3998.945700
887.836680	3872.231257
888.145901	3772.555043
888.455082	3693.930687
888.764221	3624.067856
889.073319	3563.510995
889.382376	3529.175697
889.691392	3508.136441
890.000366	3499.455574
890.309300	3494.336282
890.618193	3497.373577
890.927044	3489.859738
891.235855	3497.303001
891.544625	3515.118439
891.853353	3541.340001
892.162041	3601.352417
892.470687	3695.768187
892.779293	3813.562308
893.087858	3992.482941
893.396381	4272.587093
893.704864	4694.985373
894.013306	5265.228093
894.321707	5842.362071
894.630068	6207.999480
894.938387	6249.112610
895.246665	6068.566206
895.554903	5747.064099
895.863100	5410.688067
896.171256	5136.003156
896.479371	4890.927462
896.787446	4661.184437
897.095480	4461.708500
897.403473	4312.550840
897.711425	4163.723375
898.019336	4041.293913
898.327207	3914.818925
898.635038	3814.147082
898.942827	3703.937377
899.250576	3616.851444
899.558284	3533.798435
899.865952	3476.629229
900.173579	3415.724529
900.481165	3369.958414
900.788711	3324.504850
901.096216	3294.504944
901.403681	3262.798607
901.711105	3252.696134
902.018489	3249.222779
902.325832	3281.052625
902.633135	3341.942202
902.940397	3513.482585
903.247619	3921.682456
903.554800	4684.875339
903.861941	5662.158465
904.169041	6376.837805
904.476101	6597.584890
904.783121	6314.496376
905.090100	5912.673564
905.397039	5490.983566
905.703938	5127.975118
906.010796	4803.145850
906.317614	4543.551632
906.624391	4299.274961
906.931129	4100.953448
907.237826	3914.176177
907.544483	3736.833426
907.851099	3569.923343
908.157675	3404.472674
908.464211	3263.781632
908.770707	3159.323883
909.077163	3081.017120
909.383578	3021.413037
909.689954	2971.858495
909.996289	2943.378496
910.302584	2921.646082
910.608839	2910.737025
910.915054	2899.250756
911.221229	2892.543501
911.527363	2897.148595
911.833458	2904.274266
912.139513	2917.716503
912.445527	2928.880138
912.751502	2966.875314
913.057436	3010.246881
913.363331	3069.165367
913.669186	3160.808503
913.975000	3274.962911
914.280775	3465.697487
914.586510	3737.672778
914.892205	4120.636633
915.197859	4623.005258
915.503475	5219.603131
915.809050	5716.139140
916.114585	6011.122258
916.420081	6079.606333
916.725536	6010.260220
917.030952	5773.021000
917.336328	5565.759001
917.641665	5345.707594
917.946961	5120.415908
918.252218	4915.465278
918.557435	4684.787119
918.862612	4482.268846
919.167750	4306.146054
919.472848	4115.713947
919.777906	3946.633647
920.082925	3787.474337
920.387904	3627.342085
920.692843	3516.063655
920.997743	3414.872574
921.302603	3317.895898
921.607423	3256.172010
921.912204	3187.304807
922.216946	3136.321098
922.521647	3084.256061
922.826310	3044.710730
923.130932	3009.052128
923.435516	2966.582927
923.740059	2937.457661
924.044564	2905.365676
924.349028	2881.460524
924.653454	2849.187057
924.957840	2825.294508
925.262186	2804.600572
925.566493	2782.043929
925.870761	2757.465783
926.174989	2747.249885
926.479178	2726.051833
926.783328	2714.437015
927.087438	2705.244471
927.391509	2690.458767
927.695541	2677.815553
927.999533	2666.709891
928.303486	2660.151350
928.607400	2650.754639
928.911275	2648.523928
929.215110	2641.652836
929.518906	2638.121507
929.822663	2636.982207
930.126381	2638.068575
930.430060	2642.046046
930.733699	2641.322640
931.037299	2648.816315
931.340861	2643.999493
931.644383	2648.690286
931.947866	2646.396561
932.251309	2641.952784
932.554714	2644.115439
932.858080	2642.212404
933.161407	2639.462454
933.464694	2632.936681
933.767943	2631.510034
934.071153	2626.791514
934.374323	2624.734723
934.677455	2620.563168
934.980548	2616.247941
935.283602	2614.710389
935.586617	2613.629061
935.889593	2615.489247
936.192530	2618.662653
936.495428	2623.373612
936.798287	2631.441978
937.101108	2648.549134
937.403890	2668.096208
937.706632	2692.933973
938.009336	2728.194324
938.312002	2759.051226
938.614628	2782.600977
938.917216	2800.804583
939.219765	2809.452682
939.522275	2823.056236
939.824747	2821.064980
940.127179	2815.345791
940.429573	2808.199956
940.731929	2809.795481
941.034246	2800.078657
941.336524	2798.089922
941.638763	2789.358643
941.940964	2785.280350
942.243126	2770.439193
942.545250	2760.245980
942.847335	2742.599421
943.149381	2733.258163
943.451389	2716.876933
943.753359	2704.974769
944.055290	2694.191741
944.357182	2684.973991
944.659036	2678.733043
944.960851	2675.826817
945.262628	2672.507218
945.564367	2673.296158
945.866067	2672.557629
946.167729	2671.262053
946.469352	2669.442196
946.770937	2665.172339
947.072484	2659.959786
947.373992	2659.806031
947.675462	2655.768066
947.976893	2650.832777
948.278286	2646.898156
948.579641	2647.021664
948.880958	2638.434059
949.182236	2641.957825
949.483476	2636.964562
949.784678	2635.936167
950.085841	2635.752165
950.386967	2641.032774
950.688054	2646.174751
950.989103	2655.006852
951.290114	2664.211999
951.591087	2672.794563
951.892021	2685.710000
952.192917	2699.056454
952.493776	2710.575491
952.794596	2711.924000
953.095378	2717.502036
953.396122	2714.116902
953.696828	2711.389637
953.997496	2708.039791
954.298126	2695.391536
954.598718	2687.744105
954.899272	2675.756241
955.199788	2666.916578
955.500266	2655.218581
955.800706	2637.083030
956.101108	2622.181379
956.401472	2608.542537
956.701798	2595.669951
957.002087	2583.203177
957.302337	2571.205231
957.602550	2562.279868
957.902724	2551.116233
958.202861	2538.767927
958.502960	2528.993129
958.803022	2523.268899
959.103045	2514.303207
959.403031	2508.659635
959.702979	2506.481857
960.002889	2502.375837
960.302762	2496.137409
960.602596	2489.558703
960.902393	2485.760194
961.202153	2485.840852
961.501875	2478.175778
961.801559	2479.070583
962.101205	2476.391210
962.400814	2474.069758
962.700385	2472.509521
962.999918	2470.301496
963.299414	2466.399643
963.598873	2469.484829
963.898293	2464.426031
964.197677	2463.921916
964.497022	2461.852522
964.796331	2464.829323
965.095601	2460.486369
965.394835	2461.691205
965.694030	2458.106945
965.993189	2461.078705
966.292309	2458.742130
966.591393	2456.382870
966.890439	2457.542335
967.189447	2455.616615
967.488419	2459.331945
967.787353	2460.388067
968.086249	2457.799434
968.385108	2458.585854
968.683930	2459.379836
968.982714	2462.661627
969.281462	2458.462346
969.580172	2465.280507
969.878844	2464.728500
970.177480	2471.148410
970.476078	2468.136320
970.774639	2475.405664
971.073162	2478.195943
971.371649	2476.698720
971.670098	2477.265850
971.968510	2480.257775
972.266885	2479.857003
972.565223	2486.299598
972.863524	2485.540904
973.161788	2489.467963
973.460014	2487.060812
973.758204	2488.530308
974.056356	2488.752119
974.354471	2490.730772
974.652550	2486.977633
974.950591	2491.670947
975.248595	2487.955617
975.546563	2489.525936
975.844493	2483.768938
976.142386	2485.407313
976.440243	2480.111581
976.738062	2479.115953
977.035845	2479.186529
977.333590	2476.991107
977.631299	2469.812504
977.928971	2472.930457
978.226606	2472.408698
978.524204	2469.666310
978.821765	2466.820579
979.119290	2468.874849
979.416777	2468.678244
979.714228	2467.107925
980.011642	2468.970631
980.309020	2474.944398
980.606360	2475.302320
980.903664	2486.337406
981.200931	2499.530106
981.498162	2519.891326
981.795356	2549.868548
982.092513	2588.786255
982.389633	2635.225364
982.686717	2674.506035
982.983764	2709.158927
983.280775	2725.635938
983.577749	2727.354972
983.874686	2717.454145
984.171587	2701.108204
984.468451	2682.554237
984.765279	2669.089315
985.062070	2645.345481
985.358824	2629.223871
985.655543	2604.738987
985.952224	2585.648137
986.248869	2552.003476
986.545478	2529.590506
986.842050	2510.197187
987.138586	2484.303301
987.435086	2476.471868
987.731549	2459.100052
988.027975	2457.638117
988.324366	2452.418003
988.620719	2449.050512
988.917037	2442.527259
989.213318	2442.040787
989.509563	2437.473502
989.805772	2438.317895
990.101944	2435.086516
990.398080	2436.482915
990.694180	2434.612647
990.990244	2438.350663
991.286271	2434.337904
991.582262	2434.486618
991.878217	2434.872267
992.174136	2434.887390
992.470019	2435.507452
992.765865	2438.169181
993.061676	2439.752103
993.357450	2442.761672
993.653188	2446.287959
993.948890	2455.011676
994.244556	2457.764146
994.540186	2467.491053
994.835780	2481.097127
995.131337	2496.104642
995.426859	2510.658453
995.722345	2532.451361
996.017795	2550.725544
996.313208	2564.923953
996.608586	2577.791499
996.903928	2579.162692
997.199234	2577.607497
997.494504	2577.549523
997.789738	2566.751372
998.084936	2558.002449
998.380099	2542.500901
998.675225	2533.220137
998.970316	2520.332427
999.265371	2505.201404
999.560390	2490.970227
999.855373	2480.116622
1000.150320	2468.317802
1000.445232	2460.773715
1000.740108	2452.672581
1001.034948	2446.250151
1001.329752	2442.718823
1001.624521	2440.536003
1001.919254	2430.970413
1002.213951	2432.029056
1002.508613	2423.368353
1002.803239	2426.662748
1003.097829	2421.850966
1003.392384	2425.420103
1003.686903	2422.541604
1003.981386	2424.734506
1004.275834	2421.412386
1004.570246	2421.397262
1004.864623	2417.407189
1005.158964	2421.374577
1005.453270	2417.185378
1005.747540	2416.739236
1006.041775	2416.930800
1006.335974	2415.375604
1006.630138	2413.102044
1006.924266	2413.674215
1007.218359	2416.880388
1007.512416	2413.459966
1007.806438	2414.387538
1008.100425	2415.390728
1008.394376	2415.398289
1008.688292	2416.146901
1008.982172	2414.690007
1009.276017	2412.003072
1009.569827	2411.728329
1009.863602	2412.872671
1010.157341	2412.809657
1010.451045	2411.471230
1010.744714	2411.123391
1011.038347	2410.377300
1011.331945	2413.969122
1011.625508	2410.203380
1011.919036	2410.888977
1012.212528	2409.220355
1012.505986	2407.390416
1012.799408	2410.513411
1013.092795	2409.638771
1013.386147	2411.274625
1013.679464	2408.806981
1013.972745	2407.508883
1014.265992	2408.454100
1014.559204	2410.863771
1014.852380	2410.636919
1015.145521	2406.661970
1015.438628	2406.425035
1015.731699	2407.516445
1016.024736	2408.675911
1016.317737	2409.492577
1016.610703	2410.241189
1016.903635	2407.498801
1017.196531	2406.606517
1017.489393	2409.321178
1017.782219	2405.963770
1018.075011	2410.435273
1018.367768	2409.704306
1018.660490	2411.229255
1018.953177	2411.229255
1019.245829	2411.229255
