Dividing Wavelength (nm)	Counts (n)	Blue Motor Position (mm): 30.400000	Red Motor Position (mm): 0.000000	
326.493990	1972.537965
326.888308	1972.537965
327.282561	1972.537965
327.676750	1945.414037
328.070874	1946.996959
328.464933	1954.185644
328.858929	1962.851388
329.252859	1977.032154
329.646726	1991.260810
330.040528	2005.131545
330.434265	2024.456808
330.827938	2045.637216
331.221547	2062.998950
331.615091	2084.691035
332.008571	2105.866402
332.401986	2124.967334
332.795338	2146.770324
333.188625	2165.722542
333.581847	2186.666016
333.975006	2204.085723
334.368100	2220.618187
334.761129	2238.635271
335.154095	2253.136150
335.546996	2292.991512
335.939833	2369.334746
336.332606	2380.601725
336.725315	2393.532284
337.117960	2403.241547
337.510540	2409.747156
337.903056	2418.428023
338.295508	2429.591658
338.687896	2435.260435
339.080220	2441.695468
339.472480	2444.382403
339.864676	2451.906325
340.256807	2454.227777
340.648875	2453.950513
341.040879	2454.232818
341.432818	2459.021914
341.824694	2457.766667
342.216506	2459.150463
342.608253	2458.916050
342.999937	2457.383539
343.391557	2457.360854
343.783113	2455.243569
344.174605	2455.835905
344.566033	2448.485903
344.957397	2452.047478
345.348697	2450.731737
345.739934	2447.485233
346.131106	2444.589091
346.522215	2442.870057
346.913260	2445.090685
347.304241	2443.331323
347.695159	2439.810077
348.086012	2436.636670
348.476802	2436.540888
348.867528	2434.423604
349.258191	2433.264138
349.648789	2433.186001
350.039324	2428.238108
350.429796	2433.233892
350.820203	2430.882193
351.210548	2428.308684
351.600828	2425.626790
351.991045	2427.532347
352.381198	2428.059147
352.771288	2425.586461
353.161314	2426.153591
353.551276	2424.104362
353.941175	2425.740216
354.331010	2426.274579
354.720782	2427.867583
355.110490	2429.999991
355.500135	2426.423293
355.889717	2424.157294
356.279235	2427.239960
356.668689	2429.987388
357.058080	2426.196441
357.447408	2427.181986
357.836672	2424.169897
358.225873	2428.462439
358.615010	2425.359609
359.004084	2431.640887
359.393095	2430.914961
359.782043	2432.598706
360.170927	2435.814962
360.559748	2433.070054
360.948505	2433.382606
361.337199	2435.472164
361.725830	2436.553491
362.114398	2436.452668
362.502903	2433.725404
362.891344	2438.980807
363.279722	2436.740014
363.668037	2436.006526
364.056289	2435.242791
364.444478	2439.852927
364.832603	2440.772937
365.220665	2438.421239
365.608665	2442.653288
365.996601	2439.679007
366.384474	2440.256219
366.772284	2443.026333
367.160031	2440.747731
367.547715	2441.939964
367.935336	2440.848554
368.322893	2440.714964
368.710388	2442.580191
369.097820	2447.603701
369.485189	2446.550099
369.872495	2449.037909
370.259738	2443.956426
370.646918	2447.197888
371.034035	2448.208639
371.421090	2448.410285
371.808081	2445.529266
372.195010	2448.904318
372.581875	2447.644030
372.968678	2447.008844
373.355418	2451.455142
373.742096	2448.904318
374.128710	2452.044957
374.515262	2452.954885
374.901751	2451.256017
375.288177	2450.313321
375.674540	2451.729885
376.060841	2453.660647
376.447079	2451.497992
376.833254	2453.133846
377.219367	2447.691921
377.605417	2451.397169
377.991404	2451.440019
378.377329	2453.020420
378.763191	2448.702672
379.148991	2455.261213
379.534727	2455.946810
379.920402	2455.014197
380.306013	2457.335648
380.691563	2458.474949
381.077049	2455.909002
381.462474	2457.933025
381.847835	2456.937397
382.233134	2459.210957
382.618371	2460.007460
383.003545	2458.341358
383.388657	2460.725824
383.773706	2460.534260
384.158693	2461.066102
384.543618	2463.213633
384.928480	2462.336473
385.313280	2459.682305
385.698017	2461.897892
386.082692	2462.971658
386.467305	2462.684312
386.851856	2466.621453
387.236344	2464.657924
387.620770	2463.390074
388.005133	2466.467698
388.389435	2468.058182
388.773674	2465.701443
389.157851	2467.773357
389.541965	2470.102370
389.926018	2471.055148
390.310008	2468.264870
390.693936	2471.965077
391.077802	2468.887452
391.461606	2472.123873
391.845348	2469.598255
392.229027	2472.723770
392.612645	2473.716878
392.996200	2471.271918
393.379694	2473.726960
393.763125	2475.894656
394.146494	2474.697382
394.529801	2476.250057
394.913047	2475.708133
395.296230	2474.490695
395.679351	2477.134780
396.062410	2477.686786
396.445408	2477.033957
396.828343	2477.669142
397.211217	2475.093112
397.594028	2477.510346
397.976778	2474.301651
398.359466	2479.960347
398.742092	2476.116467
399.124656	2481.767600
399.507158	2481.523104
399.889598	2483.935296
400.271977	2482.760708
400.654294	2485.626603
401.036549	2484.310862
401.418742	2484.290698
401.800874	2487.925370
402.182944	2485.540904
402.564952	2487.645586
402.946898	2487.922849
403.328783	2487.038127
403.710606	2488.978971
404.092367	2490.483755
404.474067	2488.547952
404.855705	2491.764208
405.237282	2489.593992
405.618797	2491.355875
406.000250	2492.167501
406.381642	2494.549446
406.762972	2492.706904
407.144240	2495.025835
407.525447	2494.579693
407.906593	2497.150681
408.287677	2497.049858
408.668700	2500.130003
409.049661	2497.901813
409.430560	2500.808038
409.811399	2501.957421
410.192176	2503.331136
410.572891	2502.857267
410.953545	2501.715446
411.334138	2500.545898
411.714669	2504.999758
412.095139	2506.171826
412.475547	2507.792557
412.855894	2505.501353
413.236180	2507.285921
413.616405	2509.509070
413.996568	2508.049656
414.376670	2511.911180
414.756711	2509.178874
415.136691	2513.373114
415.516609	2513.478978
415.896466	2514.482168
416.276262	2520.171110
416.655997	2517.101048
417.035670	2515.934020
417.415283	2520.914680
417.794834	2518.517612
418.174324	2525.061029
418.553753	2525.260155
418.933121	2527.253931
419.312428	2528.143695
419.691674	2529.129241
420.070859	2532.267359
420.449983	2533.285672
420.829045	2536.222144
421.208047	2538.294058
421.586988	2542.758000
421.965867	2546.702703
422.344686	2545.875954
422.723444	2551.214536
423.102141	2549.394679
423.480777	2559.736606
423.859352	2559.106462
424.237866	2569.143399
424.616319	2575.946436
424.994712	2587.848601
425.373044	2593.335897
425.751314	2604.988524
426.129524	2610.339708
426.507673	2628.122379
426.885762	2637.456075
427.263789	2650.875627
427.641756	2668.073523
428.019662	2688.767459
428.397508	2705.120962
428.775292	2729.421845
429.153016	2754.325145
429.530679	2779.311624
429.908282	2806.233906
430.285824	2831.238029
430.663305	2877.112529
431.040726	2906.192425
431.418086	2938.760799
431.795385	2997.200375
432.172624	3053.666339
432.549802	3089.821495
432.926920	3148.016575
433.303977	3199.169163
433.680974	3272.878394
434.057910	3348.278932
434.434786	3418.131680
434.811601	3486.464521
435.188355	3622.731950
435.565050	3685.708565
435.941683	3770.899023
436.318257	3918.516611
436.694770	4000.717666
437.071222	4148.443638
437.447614	4174.823996
437.823946	4275.634470
438.200218	4404.062905
438.576429	4491.970546
438.952580	4639.220129
439.328670	4751.506790
439.704700	4928.408440
440.080670	4993.169623
440.456580	5202.758115
440.832429	5366.366243
441.208218	5350.484087
441.583947	5553.098143
441.959616	5713.888265
442.335224	5900.153859
442.710773	6074.197175
443.086261	6331.706875
443.461689	6366.092585
443.837057	6546.444905
444.212365	6846.973292
444.587612	7019.574838
444.962800	7091.403718
445.337927	7361.791046
445.712995	7218.760908
446.088002	7871.713840
446.462949	8118.473279
446.837837	8369.794963
447.212664	8554.059219
447.587431	9612.988872
447.962139	10770.193299
448.336786	11773.135898
448.711374	11529.963239
449.085901	10522.755824
449.460369	10721.851154
449.834776	10930.587691
450.209124	12103.835590
450.583412	12191.624764
450.957640	12637.734112
451.331808	12341.097496
451.705917	12021.669824
452.079965	12254.724887
452.453954	12667.154286
452.827883	12867.688865
453.201752	13015.210671
453.575562	13320.195437
453.949311	14089.546090
454.323001	14368.871384
454.696632	14501.746117
455.070202	15531.152253
455.443713	15866.754467
455.817164	16432.629028
456.190556	16973.491903
456.563888	16932.552693
456.937160	17419.576045
457.310373	16739.799134
457.683526	17219.792598
458.056619	17466.410885
458.429653	17681.607661
458.802628	18292.865208
459.175542	18597.426518
459.548398	19675.658750
459.921194	20938.712284
460.293930	21636.166001
460.666607	23242.270055
461.039224	24704.797006
461.411782	25253.274544
461.784280	24670.882643
462.156719	24593.695016
462.529099	24456.880621
462.901419	23782.056644
463.273680	23266.071863
463.645882	23558.385689
464.018024	23775.326703
464.390106	24635.518949
464.762130	26897.764464
465.134094	30283.859611
465.505999	34711.283223
465.877845	38737.234385
466.249631	40020.296259
466.621358	38845.054583
466.993026	37319.770308
467.364634	35861.581270
467.736184	34473.605422
468.107674	33678.565049
468.479105	33236.909561
468.850477	32877.785323
469.221790	31865.425848
469.593043	30605.439856
469.964238	30018.790701
470.335373	30109.838980
470.706449	31722.189024
471.077467	34106.949700
471.448425	38345.889612
471.819324	41119.219906
472.190164	39672.005460
472.560945	36612.456094
472.931667	33977.354238
473.302330	33122.765235
473.672934	32513.148583
474.043479	33099.633901
474.413965	32502.524351
474.784393	32275.629578
475.154761	33197.402038
475.525070	33333.828264
475.895321	33018.909904
476.265513	33662.299767
476.635645	34648.021784
477.005719	34580.513172
477.375734	35104.883913
477.745691	35825.723542
478.115588	37137.353635
478.485427	39100.081515
478.855207	42350.831764
479.224928	44959.444877
479.594591	46622.234185
479.964194	45713.120062
480.333739	45870.880452
480.703226	45972.890720
481.072653	46648.249060
481.442022	47211.126654
481.811333	47524.452010
482.180584	46318.847465
482.549777	45866.633279
482.918912	45405.743268
483.287988	45163.490620
483.657005	44389.444133
484.025964	43816.718644
484.394864	43853.261968
484.763706	43462.549860
485.132489	42644.582319
485.501213	42518.470294
485.869879	42695.424876
486.238487	42328.358300
486.607036	42559.580904
486.975527	42066.296438
487.343959	42268.976028
487.712333	42390.079667
488.080648	42304.375011
488.448905	42760.720422
488.817104	42591.173815
489.185244	43516.883416
489.553326	45169.625705
489.921350	47874.527377
490.289315	50848.654391
490.657222	51495.993997
491.025070	51820.871157
491.392861	50879.342415
491.760593	49603.280183
492.128267	47893.802229
492.495883	46400.738488
492.863440	45017.652560
493.230939	43698.760685
493.598380	42640.418326
493.965763	42326.543485
494.333088	41579.348703
494.700354	41119.759310
495.067563	40844.479542
495.434713	40737.193706
495.801805	40792.464917
496.168839	40442.097163
496.535815	40131.758691
496.902733	40161.171303
497.269593	39772.818455
497.636395	39707.167508
498.003139	40094.386097
498.369825	39568.744985
498.736453	39866.959482
499.103023	39412.449051
499.469535	39309.604472
499.835989	39396.161083
500.202385	39075.001775
500.568723	39099.620249
500.935003	39291.421030
501.301226	39110.395716
501.667390	39704.427641
502.033497	39954.088265
502.399546	39393.118747
502.765537	38741.373172
503.131470	39108.464954
503.497345	39436.462588
503.863163	38152.301742
504.228923	38761.147098
504.594625	39153.963888
504.960269	38461.926891
505.325856	39115.956108
505.691385	38514.622072
506.056856	38648.530242
506.422270	39068.324766
506.787625	38656.770008
507.152924	38843.542237
507.518164	38943.750293
507.883347	38184.129067
508.248472	38423.873741
508.613540	38870.638439
508.978550	39185.715595
509.343503	38933.874673
509.708398	39115.467117
510.073236	39631.467021
510.438016	39634.564810
510.802738	39107.771795
511.167403	39708.815965
511.532010	39934.931880
511.896561	40232.654864
512.261053	41043.398432
512.625488	40614.960849
512.989866	40485.630047
513.354186	40326.042239
513.718449	40319.367752
514.082655	40986.904741
514.446803	40668.008911
514.810894	41181.062261
515.174927	41105.805396
515.538904	41000.094920
515.902822	41650.549960
516.266684	41115.189504
516.630488	41530.885570
516.994235	41399.840776
517.357925	41930.207969
517.721558	42105.511574
518.085133	42404.368818
518.448651	42535.078375
518.812112	42312.226608
519.175516	42416.013883
519.538863	42751.142229
519.902152	42716.801889
520.265385	43159.649611
520.628560	43196.928943
520.991678	42987.698373
521.354739	43232.043100
521.717743	43535.581056
522.080690	43430.314202
522.443580	43971.267818
522.806413	44035.003126
523.169189	43964.255573
523.531908	44156.550387
523.894569	44017.505281
524.257174	44187.540880
524.619722	44469.018746
524.982213	44487.086241
525.344647	44403.183797
525.707025	44436.485660
526.069345	44824.949413
526.431608	44747.678607
526.793815	45058.576647
527.155964	44592.075832
527.518057	44775.543585
527.880093	44570.219909
528.242072	45076.787815
528.603995	44792.857428
528.965860	44798.173325
529.327669	44876.263318
529.689421	44793.487572
530.051117	44759.757212
530.412755	44886.403599
530.774337	44974.129758
531.135862	44795.312470
531.497331	44966.321011
531.858743	44889.871913
532.220098	45223.019086
532.581396	44933.616526
532.942638	44605.573521
533.303824	44905.411270
533.664953	44868.494900
534.026025	44586.344040
534.387040	45070.972844
534.747999	45021.181368
535.108902	45168.761147
535.469748	44689.261716
535.830537	44824.074773
536.191270	45026.925763
536.551947	44657.371377
536.912567	44973.184542
537.273131	45085.269557
537.633638	44593.426861
537.994089	44934.720538
538.354483	44548.598401
538.714821	45102.107011
539.075103	45442.331963
539.435328	45229.328090
539.795497	45123.519312
540.155609	45101.343276
540.515665	45562.404686
540.875665	45011.956056
541.235609	45329.394993
541.595496	45310.203321
541.955328	45965.903681
542.315102	45360.115785
542.674821	45163.808213
543.034483	45184.202201
543.394090	45149.839176
543.753640	45098.447133
544.113134	46091.781292
544.472571	45143.986396
544.831953	46357.097219
545.191278	45584.857985
545.550548	45327.668398
545.909761	45755.785868
546.268918	45946.507842
546.628019	46275.405321
546.987064	45837.329052
547.346053	45127.317821
547.704986	45984.873543
548.063863	45556.201546
548.422684	45752.057935
548.781449	45616.173633
549.140158	45999.792838
549.498811	45838.251583
549.857408	45302.737372
550.215949	46120.528472
550.574434	46046.302523
550.932864	45840.154619
551.291237	46531.921914
551.649555	46149.769685
552.007817	46382.451703
552.366022	46038.876903
552.724173	46217.227885
553.082267	46608.870087
553.440305	46888.369300
553.798288	46224.656026
554.156215	46550.238947
554.514086	46744.522495
554.871902	46496.328848
555.229661	46519.538320
555.587365	46351.342742
555.945014	46443.421938
556.302606	46368.432254
556.660143	46599.916997
557.017625	46679.864656
557.375050	46465.096379
557.732421	46832.266299
558.089735	46807.708318
558.446994	46726.089516
558.804197	47189.731997
559.161345	47109.648227
559.518437	46398.424599
559.875474	46689.291614
560.232455	46861.598252
560.589381	47036.977474
560.946251	46726.041625
561.303065	47386.309271
561.659825	47207.917960
562.016528	46891.015906
562.373177	46628.482696
562.729770	47092.220958
563.086307	46633.158366
563.442789	47070.307063
563.799216	47112.602343
564.155587	46913.670851
564.511904	46955.318343
564.868164	47046.928712
565.224370	47285.478632
565.580520	47021.183539
565.936615	47230.509891
566.292654	46954.100905
566.648638	47188.312913
567.004567	47149.120462
567.360441	47184.716049
567.716260	47047.183290
568.072023	47357.310033
568.427732	47343.976182
568.783385	46888.759989
569.138982	47287.416956
569.494525	47254.198273
569.850013	47021.677572
570.205445	46982.112076
570.560823	46940.509954
570.916145	46835.306114
571.271412	46856.942747
571.626625	46606.036958
571.981782	46673.918615
572.336884	46361.223404
572.691931	46676.197217
573.046923	46279.791125
573.401860	46137.998591
573.756743	46119.623585
574.111570	46218.737711
574.466342	46070.273210
574.821059	46221.462455
575.175722	45740.191059
575.530330	45743.382109
575.884882	45480.286810
576.239380	45429.416527
576.593823	45416.168375
576.948211	45309.858002
577.302544	44853.444535
577.656823	44912.892342
578.011047	45115.350122
578.365216	44855.992839
578.719330	44650.941385
579.073389	44503.984189
579.427394	44575.190487
579.781344	44565.720680
580.135239	44208.527203
580.489080	44318.378987
580.842866	43796.894307
581.196597	44248.251496
581.550273	44184.932083
581.903895	44034.902303
582.257463	44458.260924
582.610975	43877.923293
582.964434	44137.741842
583.317837	43797.229543
583.671186	43608.380358
584.024481	43855.717010
584.377721	43373.238258
584.730906	43667.838248
585.084037	43685.817523
585.437113	43403.752362
585.790135	43438.382568
586.143103	43044.302969
586.496016	43175.781303
586.848874	43194.108418
587.201679	43212.735481
587.554428	42696.228940
587.907124	42880.760377
588.259765	42644.733554
588.612352	42891.770257
588.964884	42298.285297
589.317362	42586.450254
589.669786	42518.850901
590.022155	42291.983855
590.374470	42703.102554
590.726731	42233.209042
591.078937	41767.114040
591.431090	41853.990764
591.783188	41519.611030
592.135232	41216.337735
592.487222	41443.368619
592.839157	41517.634898
593.191038	41217.910575
593.542866	40973.598616
593.894639	40374.996884
594.246358	40655.615234
594.598022	40622.026026
594.949633	40236.939845
595.301190	40208.442203
595.652692	40047.924302
596.004141	40350.963183
596.355535	39391.616483
596.706876	39332.655148
597.058162	39175.882825
597.409395	39641.103187
597.760573	39718.646215
598.111698	39287.778796
598.462768	39301.188265
598.813785	39334.117082
599.164748	38799.709404
599.515657	39197.045589
599.866511	38680.339922
600.217312	39277.837641
600.568060	38264.278372
600.918753	39000.337245
601.269392	38959.629928
601.619978	38613.721074
601.970510	38828.529681
602.320988	38995.540587
602.671412	39309.647322
603.021783	39046.063031
603.372100	38709.301351
603.722363	38809.249788
604.072572	38894.026872
604.422728	38891.670133
604.772830	38728.581244
605.122878	38820.912497
605.472872	38754.898588
605.822813	39036.757061
606.172701	38865.909837
606.522534	39093.336451
606.872314	39339.566570
607.222041	39112.233216
607.571714	39502.557156
607.921333	38954.951737
608.270899	39252.886450
608.620411	39591.805743
608.969870	39382.113908
609.319276	39380.198270
609.668627	39430.776166
610.017926	39915.127707
610.367171	40069.167725
610.716362	40145.619343
611.065500	40102.603177
611.414585	40296.380090
611.763616	40585.437331
612.112594	40524.756962
612.461518	40734.771432
612.810389	41018.273321
613.159207	40883.939174
613.507971	40967.788686
613.856682	41436.242948
614.205340	41324.793119
614.553945	42005.905936
614.902496	41482.225833
615.250994	41926.873246
615.599439	42008.025741
615.947830	42221.387536
616.296169	42272.973663
616.644454	42407.456525
616.992686	42578.621342
617.340864	43089.207047
617.688990	42822.905575
618.037063	43418.943879
618.385082	43386.229311
618.733048	43693.863204
619.080961	43698.352352
619.428821	43717.755753
619.776628	43815.402903
620.124382	43626.379798
620.472083	43766.085295
620.819731	43888.063574
621.167326	43565.848143
621.514868	43550.394486
621.862357	43113.147487
622.209793	43128.888490
622.557176	42799.065958
622.904506	42559.548136
623.251783	42213.299005
623.599007	41984.339879
623.946179	41788.614561
624.293297	41737.371232
624.640363	41140.395273
624.987376	41138.149439
625.334336	40894.664229
625.681243	40545.927288
626.028097	40518.034584
626.374899	40372.758612
626.721647	40351.086692
627.068343	40245.335887
627.414987	40012.714363
627.761577	39795.685128
628.108115	40117.265373
628.454600	39565.337165
628.801032	39757.758007
629.147412	39735.206406
629.493739	39762.655488
629.840014	39399.851208
630.186236	39734.737578
630.532405	39345.026139
630.878521	39570.426210
631.224585	39460.675250
631.570597	39170.859315
631.916556	39326.971247
632.262462	39299.494438
632.608316	39296.948655
632.954117	39177.223772
633.299866	39192.818581
633.645562	39086.946789
633.991206	38619.467990
634.336797	38183.756022
634.682336	38182.049591
635.027823	37934.985162
635.373257	37763.054089
635.718639	37514.265585
636.063968	37387.369660
636.409245	36810.800292
636.754470	36862.449434
637.099642	36623.481098
637.444762	36160.841806
637.789829	36302.170554
638.134845	35958.565508
638.479808	35920.502276
638.824719	35822.681206
639.169577	35439.382115
639.514383	35492.306668
639.859137	35189.003127
640.203839	35430.665960
640.548489	35078.808545
640.893086	35139.297350
641.237632	34913.506589
641.582125	35013.462588
641.926566	34951.479081
642.270955	34918.610758
642.615292	34956.747087
642.959576	34907.376546
643.303809	34917.358031
643.647990	35060.877160
643.992118	35029.748035
644.336195	35019.640522
644.680219	35133.583202
645.024192	35417.621974
645.368112	35934.584739
645.711981	35950.235001
646.055797	36812.322721
646.399562	36751.261745
646.743274	37685.422840
647.086935	38118.059705
647.430544	38022.988584
647.774101	38144.873602
648.117606	38381.139880
648.461059	38679.825725
648.804460	38277.745814
649.147810	37684.780093
649.491108	37416.426871
649.834354	37065.297903
650.177548	36248.918326
650.520690	35804.651519
650.863781	35814.154094
651.206820	35670.418195
651.549807	35233.937451
651.892742	34758.455821
652.235626	34561.165224
652.578458	34430.937096
652.921238	33842.425235
653.263967	34169.838095
653.606644	33848.777088
653.949269	33800.805468
654.291843	33411.353649
654.634365	33814.812314
654.976836	33413.145779
655.319255	33410.191663
655.661622	33415.840276
656.003938	33180.330171
656.346203	33045.597772
656.688416	33276.913637
657.030577	33075.186825
657.372687	32919.692435
657.714746	33192.444063
658.056753	33307.853719
658.398708	32757.987343
658.740612	32809.787719
659.082465	33079.854933
659.424266	32913.401075
659.766016	33035.858263
660.107715	32909.836979
660.449362	33040.208779
660.790958	33022.912580
661.132503	33041.953018
661.473996	33072.993923
661.815438	33188.811912
662.156829	33387.075452
662.498168	33163.991791
662.839456	33177.252546
663.180693	33324.713858
663.521879	33493.300125
663.863013	33439.251394
664.204097	33441.131744
664.545129	33908.393774
664.886110	33868.606467
665.227040	33931.638534
665.567918	34061.682659
665.908746	34113.992192
666.249522	34285.893018
666.590248	34284.915034
666.930922	34391.669028
667.271545	34345.108932
667.612118	34446.703305
667.952639	34220.070672
668.293109	34275.510762
668.633528	34184.293603
668.973896	34097.142136
669.314213	34133.874503
669.654480	33877.753641
669.994695	33893.688728
670.334859	33799.842608
670.674973	33686.036039
671.015035	33841.457333
671.355047	33804.989626
671.695008	33755.654374
672.034918	33658.201308
672.374777	33744.863784
672.714585	33578.528393
673.054342	33805.773526
673.394049	33568.067998
673.733705	33830.218081
674.073310	33508.660521
674.412864	33584.832355
674.752368	33177.434028
675.091820	33467.350786
675.431223	33052.282342
675.770574	32779.850827
676.109875	32636.760196
676.449125	32358.864069
676.788324	32279.425567
677.127473	31749.869999
677.466571	31682.555472
677.805619	31325.694712
678.144616	31329.084888
678.483562	31255.789032
678.822458	30937.354467
679.161303	30872.903315
679.500098	30768.995052
679.838842	30659.153350
680.177535	30811.759160
680.516179	31096.107963
680.854771	31328.767295
681.193314	32191.916177
681.531805	33318.934175
681.870247	34104.033393
682.208638	34850.293041
682.546978	35066.545938
682.885268	35157.367366
683.223508	34621.270901
683.561697	34280.612409
683.899836	34095.624748
684.237925	33584.595421
684.575963	33442.666776
684.913951	32978.933554
685.251889	33145.389933
685.589776	33122.740029
685.927614	33107.150261
686.265401	33263.539456
686.603137	33372.229254
686.940824	33873.892117
687.278460	34262.378556
687.616046	34414.308850
687.953582	35014.541395
688.291068	34894.198970
688.628504	35162.360628
688.965889	35095.499805
689.303224	34701.886513
689.640510	34350.160168
689.977745	33616.984835
690.314930	32811.322750
690.652065	32291.239511
690.989150	31530.257173
691.326185	30643.626597
691.663170	29932.634861
692.000105	29181.379430
692.336990	28485.266660
692.673825	28065.625890
693.010610	27532.987657
693.347345	26948.465868
693.684030	26307.583980
694.020665	26031.568204
694.357251	25367.411308
694.693786	25311.517515
695.030272	25082.202988
695.366707	24537.173599
695.703093	24259.254788
696.039429	24245.278188
696.375716	23982.661799
696.711952	23948.709628
697.048139	23799.408295
697.384276	23628.004023
697.720363	23746.375357
698.056400	23546.722979
698.392388	23332.700793
698.728326	23284.252784
699.064214	23079.738213
699.400053	23019.357793
699.735842	22653.639726
700.071581	22387.817163
700.407270	22098.265889
700.742910	21906.838154
701.078501	21642.323770
701.414042	21359.830112
701.749533	21063.561500
702.084974	20716.667101
702.420366	20919.089593
702.755709	20483.170937
703.091002	20181.425112
703.426246	20211.142714
703.761440	20096.640466
704.096584	19830.084415
704.431679	19784.451891
704.766725	19700.131031
705.101721	19641.305807
705.436668	19738.242154
705.771565	19410.577236
706.106413	19756.725545
706.441212	19730.574559
706.775961	19865.120435
707.110661	19942.940727
707.445311	20296.514654
707.779913	20136.856271
708.114465	20380.759897
708.448967	20669.489463
708.783421	21366.333200
709.117825	21635.924026
709.452180	21849.878157
709.786485	22262.700766
710.120742	23051.192680
710.454949	23071.377460
710.789107	23546.299523
711.123216	24254.599282
711.457275	24371.864082
711.791286	24915.285343
712.125247	24979.403779
712.459159	24670.370966
712.793023	25332.697923
713.126837	24224.533840
713.460602	24469.496109
713.794318	24083.678961
714.127985	23692.886194
714.461602	22799.324031
714.795171	22753.913317
715.128691	21739.323132
715.462162	21199.221471
715.795584	20783.658995
716.128957	20521.801299
716.462281	20117.135277
716.795556	19880.422857
717.128782	19381.794768
717.461960	18830.988217
717.795088	18765.012116
718.128167	18367.645685
718.461198	17906.675015
718.794180	17756.365452
719.127113	17408.490548
719.459997	17201.916666
719.792833	16857.890684
720.125619	16828.566292
720.458357	16513.068199
720.791046	16338.586303
721.123686	16185.846903
721.456278	15950.989628
721.788821	15897.896195
722.121315	15650.650284
722.453761	15727.432098
722.786158	15640.492359
723.118506	15655.157076
723.450805	15516.220355
723.783056	15681.247567
724.115259	15579.386013
724.447412	15522.413413
724.779518	15752.731129
725.111574	15782.330264
725.443582	15978.945346
725.775542	15958.143025
726.107453	16419.771565
726.439315	16306.186807
726.771129	16709.443827
727.102895	17076.979230
727.434612	17287.039070
727.766281	17416.863905
728.097901	17669.521494
728.429473	17699.181123
728.760996	17680.491045
729.092471	17761.081451
729.423897	17646.087691
729.755276	17504.799272
730.086606	17622.490049
730.417887	18147.916912
730.749120	18665.787085
731.080305	18833.208845
731.411442	19162.587755
731.742530	19241.764117
732.073570	19328.257715
732.404562	19613.836559
732.735506	19434.288303
733.066401	19145.193254
733.397249	18627.323081
733.728048	17985.127972
734.058798	17147.043707
734.389501	16477.891028
734.720156	16008.582290
735.050762	15491.627086
735.381320	15147.437266
735.711831	14903.029525
736.042293	14556.155290
736.372707	14566.890428
736.703073	14355.996277
737.033391	14544.563157
737.363661	14515.997459
737.693883	14614.287356
738.024056	14795.857115
738.354182	14975.251615
738.684260	15259.297949
739.014290	15479.447658
739.344272	15672.138202
739.674207	15952.927951
740.004093	16066.179993
740.333931	16054.013168
740.663722	16090.753097
740.993464	16076.652990
741.323159	15903.406176
741.652806	15625.510050
741.982405	15410.252781
742.311956	15061.886365
742.641460	14953.864520
742.970915	14640.718126
743.300323	14315.909022
743.629683	14097.589251
743.958996	13823.350482
744.288260	13553.220253
744.617477	13252.838060
744.946647	13180.825178
745.275768	12907.614804
745.604842	12721.855846
745.933869	12564.395406
746.262847	12507.511026
746.591778	12435.490581
746.920662	12337.394769
747.249498	12338.357629
747.578286	12452.091101
747.907027	12598.312289
748.235720	12810.779279
748.564365	12849.177748
748.892963	12745.105648
749.221514	12806.431284
749.550017	12658.060044
749.878473	12617.209054
750.206881	12396.346022
750.535242	12309.738999
750.863555	12222.978220
751.191821	12127.055145
751.520039	12149.455512
751.848210	12057.194835
752.176334	12088.636512
752.504411	11991.120432
752.832440	11840.805827
753.160421	11902.277657
753.488356	11775.230498
753.816243	11683.899913
754.144082	11541.033613
754.471875	11492.431849
754.799620	11432.454721
755.127318	11406.359188
755.454969	11372.832995
755.782572	11323.631333
756.110129	11338.558190
756.437638	11255.648853
756.765100	11237.490617
757.092515	11246.196689
757.419882	11262.242682
757.747203	11267.152766
758.074477	11339.740340
758.401703	11301.044443
758.728882	11457.589914
759.056014	11500.031388
759.383099	11619.904986
759.710138	11714.373688
760.037129	11789.970831
760.364073	11815.176601
760.690970	11807.786269
761.017820	11804.975826
761.344623	11987.732776
761.671379	12299.518059
761.998088	12926.231785
762.324751	14476.469772
762.651366	17329.548599
762.977935	20988.133236
763.304456	23196.171223
763.630931	23666.142873
763.957359	22477.438796
764.283740	20562.203627
764.610074	18699.469554
764.936362	16573.403249
765.262602	15062.357713
765.588796	13606.240589
765.914943	12575.231366
766.241044	11725.771737
766.567097	11102.806109
766.893104	10556.682790
767.219064	10201.528460
767.544978	9826.627931
767.870845	9515.112350
768.196665	9323.777876
768.522438	9123.961661
768.848165	8963.310170
769.173846	8803.298906
769.499479	8677.146552
769.825066	8517.909104
770.150607	8339.522834
770.476101	8283.787838
770.801548	8171.382710
771.126949	8030.051441
771.452303	7936.550640
771.777611	7772.408150
772.102872	7761.564628
772.428087	7635.036708
772.753256	7515.337030
773.078378	7424.064419
773.403453	7295.101622
773.728482	7184.811258
774.053465	7121.572503
774.378401	7035.640995
774.703291	6943.821419
775.028135	6845.496234
775.352932	6807.881664
775.677683	6735.087403
776.002388	6645.690101
776.327046	6637.475541
776.651658	6554.742644
776.976224	6480.751109
777.300743	6461.751000
777.625216	6395.769858
777.949643	6353.575400
778.274024	6360.025557
778.598359	6289.582993
778.922647	6290.424866
779.246889	6257.891780
779.571086	6259.295741
779.895236	6274.091527
780.219339	6269.436022
780.543397	6265.962667
780.867409	6319.477036
781.191374	6313.281457
781.515294	6279.475480
781.839167	6331.263253
782.162995	6303.904911
782.486776	6253.158136
782.810511	6214.920984
783.134201	6135.447194
783.457844	6127.830010
783.781441	6076.009469
784.104993	6033.416761
784.428498	6004.498182
784.751958	5990.423280
785.075372	5963.415298
785.398739	5925.704947
785.722061	5950.552794
786.045337	5945.390653
786.368568	6053.936777
786.691752	6076.183389
787.014891	6324.293858
787.337983	6607.546210
787.661030	7040.256171
787.984031	7459.627239
788.306987	7722.389822
788.629897	7814.158986
788.952760	7717.825057
789.275579	7544.429529
789.598351	7252.024962
789.921078	6982.837429
790.243759	6709.506068
790.566395	6502.685169
790.888984	6310.967568
791.211529	6176.978740
791.534027	6010.623183
791.856480	5875.437081
792.178888	5816.846271
792.501249	5749.108287
792.823566	5643.743130
793.145836	5639.642151
793.468062	5627.520697
793.790241	5582.256177
794.112375	5626.673783
794.434464	5723.544595
794.756507	5751.510396
795.078505	5874.648141
795.400457	6089.096305
795.722364	6328.029353
796.044226	6522.824579
796.366042	6672.962743
796.687812	6621.348890
797.009538	6655.953890
797.331218	6563.332771
797.652852	6492.060937
797.974442	6368.656012
798.295986	6294.707326
798.617484	6172.635786
798.938938	6062.708385
799.260346	5990.824052
799.581709	5854.014698
799.903026	5803.288088
800.224299	5737.173355
800.545526	5617.876970
800.866708	5551.858019
801.187845	5503.808261
801.508936	5428.415285
801.829983	5400.867899
802.150984	5296.412671
802.471940	5269.223208
802.792851	5252.355507
803.113717	5231.099482
803.434538	5207.431265
803.755314	5174.694012
804.076045	5160.530890
804.396731	5127.932268
804.717372	5141.747551
805.037967	5151.199714
805.358518	5175.775339
805.679024	5236.995111
805.999485	5238.993929
806.319901	5261.989152
806.640272	5280.341473
806.960598	5329.132280
807.280879	5318.145085
807.601115	5355.666393
807.921306	5316.670548
808.241453	5314.752389
808.561554	5326.190767
808.881611	5288.838338
809.201623	5281.780722
809.521590	5234.378753
809.841513	5220.427359
810.161390	5238.081480
810.481223	5147.973376
810.801011	5132.149194
811.120755	5105.365543
811.440453	5055.727822
811.760107	5023.255229
812.079716	4998.419985
812.399281	4946.599444
812.718801	4941.182724
813.038276	4912.460750
813.357707	4870.556159
813.677093	4894.897370
813.996434	4834.494265
814.315731	4852.274414
814.634983	4851.374568
814.954191	4857.232389
815.273354	4916.687758
815.592473	4958.660405
815.911547	5032.956930
816.230577	5083.668417
816.549562	5171.928939
816.868502	5223.036156
817.187399	5276.064054
817.506250	5354.280076
817.825058	5382.331577
818.143821	5533.021747
818.462539	5698.800092
818.781213	5928.129742
819.099843	6286.215502
819.418429	6907.991418
819.736970	7524.222064
820.055466	8232.478974
820.373919	9138.132344
820.692327	10566.603781
821.010691	13235.811563
821.329011	19406.302338
821.647286	28929.848538
821.965517	39230.680167
822.283704	44694.000401
822.601847	46174.166349
822.919945	41582.885072
823.237999	36469.786399
823.556010	31303.369962
823.873976	26604.485256
824.191897	22432.675870
824.509775	19375.631958
824.827609	16627.953575
825.145398	15087.220683
825.463144	14335.062886
825.780845	14626.507113
826.098502	15872.324942
826.416116	18313.987643
826.733685	20613.078951
827.051210	21136.045731
827.368692	19711.430777
827.686129	17163.203125
828.003522	14701.590058
828.320872	12495.871002
828.638177	10852.172543
828.955439	9612.157082
829.272656	8565.994150
829.589830	7732.623364
829.906960	6996.282186
830.224046	6474.510160
830.541088	6065.518828
830.858086	5811.051464
831.175041	5609.727944
831.491952	5552.765427
831.808819	5579.007153
832.125642	5826.016130
832.442421	6371.957968
832.759157	7467.317519
833.075849	9233.397549
833.392497	11066.756818
833.709101	12174.593226
834.025662	11931.957450
834.342179	10876.017201
834.658653	9583.508204
834.975083	8484.350143
835.291469	7585.101558
835.607811	6850.418920
835.924110	6338.373801
836.240366	5851.660479
836.556578	5404.119444
836.872746	5056.035332
837.188871	4784.896873
837.504952	4566.332607
837.820990	4400.166093
838.136984	4285.804998
838.452935	4235.146443
838.768842	4267.634159
839.084706	4545.989030
839.400526	5280.885917
839.716303	6180.505027
840.032037	6742.039154
840.347727	6601.559840
840.663373	6004.813254
840.978977	5430.572898
841.294537	4989.741639
841.610054	4665.025796
841.925527	4423.362963
842.240957	4222.601532
842.556344	4037.674364
842.871687	3882.668966
843.186987	3730.731110
843.502244	3614.802215
843.817458	3527.315511
844.132629	3456.043678
844.447756	3409.894435
844.762840	3364.561859
845.077881	3328.842763
845.392879	3293.579892
845.707833	3268.961417
846.022745	3242.172726
846.337613	3231.432547
846.652438	3205.145451
846.967221	3195.090869
847.281960	3179.599404
847.596656	3167.077177
847.911309	3159.210457
848.225919	3143.794608
848.540485	3133.671972
848.855009	3126.400107
849.169490	3115.264198
849.483928	3110.533075
849.798323	3104.100563
850.112675	3091.366608
850.426984	3094.366095
850.741251	3087.069025
851.055474	3082.100968
851.369654	3083.996442
851.683792	3080.739856
851.997887	3085.138263
852.311938	3083.401585
852.625947	3085.770928
852.939914	3079.098961
853.253837	3082.726071
853.567718	3082.821853
853.881555	3077.022005
854.195350	3082.216914
854.509103	3076.482602
854.822812	3073.074782
855.136479	3071.537230
855.450103	3074.319947
855.763685	3069.520768
856.077224	3071.239802
856.390720	3076.878332
856.704173	3090.295363
857.017584	3096.415324
857.330953	3102.442023
857.644278	3108.267077
857.957561	3113.003241
858.270802	3107.089967
858.584000	3107.561315
858.897155	3100.972527
859.210268	3091.003645
859.523339	3080.497881
859.836367	3077.826069
860.149352	3073.692323
860.462295	3069.709812
860.775195	3058.503327
861.088054	3055.680280
861.400869	3056.257492
861.713642	3050.654250
862.026373	3062.251424
862.339062	3062.929460
862.651708	3075.124011
862.964312	3088.236052
863.276873	3100.493618
863.589392	3126.609315
863.901869	3155.222904
864.214303	3177.086388
864.526696	3195.118596
864.839045	3211.827500
865.151353	3221.503995
865.463619	3225.859552
865.775842	3226.426682
866.088023	3230.562948
866.400162	3223.144891
866.712258	3223.800241
867.024313	3223.258317
867.336325	3224.604305
867.648296	3225.289902
867.960224	3220.384859
868.272110	3222.887792
868.583954	3228.238977
868.895755	3231.921539
869.207515	3229.400962
869.519233	3254.301742
869.830909	3256.189654
870.142542	3262.178545
870.454134	3271.436624
870.765684	3286.539921
871.077191	3303.284113
871.388657	3312.501863
871.700081	3332.139678
872.011463	3349.952595
872.322803	3372.869680
872.634101	3389.465159
872.945357	3411.152203
873.256571	3437.096501
873.567744	3452.424129
873.878874	3458.423102
874.189963	3473.917089
874.501010	3473.725525
874.812015	3470.274855
875.122979	3488.027278
875.433900	3486.325889
875.744780	3484.155672
876.055618	3494.689163
876.366415	3491.503154
876.677169	3497.955831
876.987882	3517.041639
877.298554	3532.437323
877.609183	3573.268149
877.919771	3618.288173
878.230317	3685.496836
878.540822	3790.471303
878.851285	3939.906227
879.161707	4157.348836
879.472087	4527.785424
879.782425	5148.600999
880.092722	6322.481563
880.402977	8243.022547
880.713191	10614.688827
881.023363	13000.147703
881.333494	14338.369882
881.643583	14787.095589
881.953631	14386.001225
882.263637	13536.196277
882.573602	12505.970953
882.883526	11559.277549
883.193408	10600.760118
883.503248	9687.723978
883.813048	8861.325107
884.122806	8101.497194
884.432522	7338.793302
884.742197	6684.292737
885.051831	6121.780626
885.361424	5633.494464
885.670975	5239.404783
885.980485	4915.029218
886.289954	4650.081295
886.599382	4432.653809
886.908768	4257.241820
887.218113	4093.585802
887.527417	3961.419351
887.836680	3839.007532
888.145901	3740.659662
888.455082	3664.364319
888.764221	3592.684153
889.073319	3536.555946
889.382376	3506.921523
889.691392	3481.882112
890.000366	3469.087663
890.309300	3465.798310
890.618193	3470.035400
890.927044	3464.023824
891.235855	3474.459013
891.544625	3489.103565
891.853353	3516.532483
892.162041	3574.372161
892.470687	3666.398425
892.779293	3784.283287
893.087858	3954.543217
893.396381	4229.276019
893.704864	4643.237929
894.013306	5210.619794
894.321707	5782.790756
894.630068	6138.779397
894.938387	6179.088463
895.246665	6002.632955
895.554903	5682.532288
895.863100	5346.297409
896.171256	5076.242798
896.479371	4837.760932
896.787446	4614.886480
897.095480	4417.217796
897.403473	4271.515847
897.711425	4124.372128
898.019336	4005.322760
898.327207	3882.467320
898.635038	3783.552320
898.942827	3676.884025
899.250576	3591.128957
899.558284	3506.747603
899.865952	3454.251547
900.173579	3387.874675
900.481165	3344.339270
900.788711	3300.642549
901.096216	3269.795728
901.403681	3243.939650
901.711105	3232.153432
902.018489	3228.780901
902.325832	3259.300046
902.633135	3316.839776
902.940397	3488.919563
903.247619	3887.001838
903.554800	4635.330879
903.861941	5598.912149
904.169041	6298.117667
904.476101	6514.370564
904.783121	6243.441312
905.090100	5833.847562
905.397039	5422.096198
905.703938	5066.805758
906.010796	4746.533692
906.317614	4495.302749
906.624391	4256.967077
906.931129	4058.517015
907.237826	3880.612175
907.544483	3712.744273
907.851099	3540.724980
908.157675	3383.163717
908.464211	3241.275400
908.770707	3142.589773
909.077163	3066.281827
909.383578	3003.433762
909.689954	2958.844756
909.996289	2928.333173
910.302584	2909.015471
910.608839	2893.266906
910.915054	2882.332644
911.221229	2880.706872
911.527363	2883.633261
911.833458	2888.082080
912.139513	2903.172774
912.445527	2913.257602
912.751502	2948.487706
913.057436	2994.896568
913.363331	3049.270453
913.669186	3135.708598
913.975000	3252.444077
914.280775	3436.584824
914.586510	3704.295299
914.892205	4077.549891
915.197859	4572.442485
915.503475	5159.257998
915.809050	5652.852495
916.114585	5937.042502
916.420081	6006.312997
916.725536	5941.652637
917.030952	5706.109765
917.336328	5499.160317
917.641665	5288.119973
917.946961	5063.473555
918.252218	4863.775807
918.557435	4631.970950
918.862612	4436.202782
919.167750	4268.781021
919.472848	4077.504521
919.777906	3910.780960
920.082925	3750.419336
920.387904	3596.351592
920.692843	3487.944099
920.997743	3389.497926
921.302603	3294.207516
921.607423	3230.109245
921.912204	3165.511899
922.216946	3118.815691
922.521647	3070.418094
922.826310	3028.165663
923.130932	2993.926146
923.435516	2949.369908
923.740059	2922.596339
924.044564	2891.295815
924.349028	2868.333359
924.653454	2839.742455
924.957840	2813.420071
925.262186	2793.799900
925.566493	2776.223917
925.870761	2747.552354
926.174989	2735.975345
926.479178	2720.345247
926.783328	2703.933771
927.087438	2694.380784
927.391509	2681.193126
927.695541	2670.641991
927.999533	2662.891217
928.303486	2651.979639
928.607400	2645.327837
928.911275	2641.922537
929.215110	2631.323511
929.518906	2630.085908
929.822663	2630.897534
930.126381	2629.536422
930.430060	2633.864253
930.733699	2635.900879
931.037299	2639.472537
931.340861	2638.300468
931.644383	2640.137969
931.947866	2641.640233
932.251309	2639.371713
932.554714	2635.439613
932.858080	2635.689151
933.161407	2634.660755
933.464694	2627.870321
933.767943	2621.939403
934.071153	2621.609208
934.374323	2618.350102
934.677455	2614.203753
934.980548	2609.880963
935.283602	2609.268463
935.586617	2603.188832
935.889593	2611.395830
936.192530	2610.206118
936.495428	2614.977570
936.798287	2623.897892
937.101108	2640.074954
937.403890	2663.072698
937.706632	2685.432736
938.009336	2720.075545
938.312002	2750.667787
938.614628	2774.807353
938.917216	2791.138171
939.219765	2801.525468
939.522275	2812.769762
939.824747	2808.908238
940.127179	2805.056796
940.429573	2798.331897
940.731929	2797.689150
941.034246	2789.116668
941.336524	2787.059877
941.638763	2780.566871
941.940964	2774.648556
942.243126	2757.929570
942.545250	2749.523446
942.847335	2732.285220
943.149381	2719.342057
943.451389	2707.800336
943.753359	2693.186031
944.055290	2685.561286
944.357182	2676.023422
944.659036	2670.790705
944.960851	2671.272135
945.262628	2663.261742
945.564367	2666.888852
945.866067	2665.008501
946.167729	2661.963644
946.469352	2662.056906
946.770937	2658.908705
947.072484	2653.234887
947.373992	2652.818991
947.675462	2649.070893
947.976893	2642.905562
948.278286	2642.202321
948.579641	2637.032618
948.880958	2634.438944
949.182236	2631.326032
949.483476	2627.698922
949.784678	2629.962400
950.085841	2630.189252
950.386967	2634.995992
950.688054	2641.105870
950.989103	2650.232879
951.290114	2655.233704
951.591087	2668.476815
951.892021	2679.617765
952.192917	2691.149405
952.493776	2700.876311
952.794596	2704.475695
953.095378	2706.880325
953.396122	2705.637681
953.696828	2701.773636
953.997496	2696.873635
954.298126	2686.907274
954.598718	2681.712365
954.899272	2668.076043
955.199788	2659.788387
955.500266	2651.014258
955.800706	2631.363841
956.101108	2615.383383
956.401472	2600.837133
956.701798	2586.547983
957.002087	2571.182546
957.302337	2567.079047
957.602550	2556.545556
957.902724	2543.229348
958.202861	2536.428831
958.502960	2526.107069
958.803022	2521.431399
959.103045	2510.822290
959.403031	2505.024963
959.702979	2500.848368
960.002889	2494.441061
960.302762	2488.837818
960.602596	2487.557365
960.902393	2481.969246
961.202153	2481.152579
961.501875	2476.741570
961.801559	2475.219141
962.101205	2472.229737
962.400814	2471.589511
962.700385	2468.620271
962.999918	2466.321505
963.299414	2463.193469
963.598873	2461.928139
963.898293	2463.427882
964.197677	2462.026442
964.497022	2462.810341
964.796331	2460.919908
965.095601	2457.980916
965.394835	2458.343879
965.694030	2456.481172
965.993189	2456.977726
966.292309	2456.841615
966.591393	2455.004114
966.890439	2457.194496
967.189447	2454.242900
967.488419	2455.278857
967.787353	2455.236008
968.086249	2455.654423
968.385108	2458.086780
968.683930	2457.895216
968.982714	2458.243056
969.281462	2459.740278
969.580172	2463.566514
969.878844	2461.068623
970.177480	2466.845785
970.476078	2470.593883
970.774639	2473.580766
971.073162	2474.218472
971.371649	2476.529841
971.670098	2476.242496
971.968510	2479.304997
972.266885	2476.867599
972.565223	2481.497898
972.863524	2482.440594
973.161788	2484.633496
973.460014	2485.061994
973.758204	2484.464618
974.056356	2487.096100
974.354471	2489.737664
974.652550	2486.881851
974.950591	2489.130205
975.248595	2484.318424
975.546563	2488.663899
975.844493	2485.041830
976.142386	2480.645943
976.440243	2477.648977
976.738062	2477.835500
977.035845	2474.888946
977.333590	2474.606641
977.631299	2470.419963
977.928971	2470.989613
978.226606	2466.833182
978.524204	2466.918882
978.821765	2465.467029
979.119290	2464.133644
979.416777	2460.950155
979.714228	2464.078191
980.011642	2464.912502
980.309020	2471.347535
980.606360	2472.471712
980.903664	2482.977477
981.200931	2499.633449
981.498162	2513.330264
981.795356	2541.543082
982.092513	2582.469689
982.389633	2627.242697
982.686717	2669.066630
982.983764	2699.502597
983.280775	2716.740822
983.577749	2717.696121
983.874686	2707.006354
984.171587	2692.475228
984.468451	2676.406550
984.765279	2657.131698
985.062070	2640.619399
985.358824	2621.488220
985.655543	2603.834099
985.952224	2581.383321
986.248869	2549.636654
986.545478	2523.654548
986.842050	2504.266270
987.138586	2483.388331
987.435086	2470.278811
987.731549	2460.188941
988.027975	2454.074022
988.324366	2450.376335
988.620719	2443.608586
988.917037	2444.619338
989.213318	2438.650611
989.509563	2435.923347
989.805772	2436.477874
990.101944	2434.279931
990.398080	2434.138779
990.694180	2431.814807
990.990244	2433.236412
991.286271	2432.187852
991.582262	2433.458223
991.878217	2432.734817
992.174136	2435.474684
992.470019	2436.124993
992.765865	2437.019798
993.061676	2439.106836
993.357450	2442.365942
993.653188	2444.805860
993.948890	2450.797272
994.244556	2456.118209
994.540186	2465.845116
994.835780	2475.902218
995.131337	2490.461070
995.426859	2506.423884
995.722345	2529.620753
996.017795	2543.768751
996.313208	2559.923129
996.608586	2570.358317
996.903928	2573.196487
997.199234	2573.478792
997.494504	2569.990313
997.789738	2561.264076
998.084936	2552.089176
998.380099	2540.794471
998.675225	2528.224353
998.970316	2514.492250
999.265371	2498.486587
999.560390	2490.282109
999.855373	2478.392548
1000.150320	2466.497945
1000.445232	2457.764146
1000.740108	2454.568055
1001.034948	2446.504729
1001.329752	2440.120108
1001.624521	2439.583225
1001.919254	2428.245670
1002.213951	2428.948911
1002.508613	2422.982705
1002.803239	2430.201637
1003.097829	2422.360123
1003.392384	2421.717376
1003.686903	2419.789134
1003.981386	2421.951789
1004.275834	2418.175965
1004.570246	2417.818043
1004.864623	2418.047416
1005.158964	2418.554052
1005.453270	2417.384504
1005.747540	2414.775707
1006.041775	2414.649678
1006.335974	2413.104564
1006.630138	2414.730336
1006.924266	2416.096489
1007.218359	2416.114133
1007.512416	2414.339647
1007.806438	2416.340985
1008.100425	2412.053484
1008.394376	2414.405182
1008.688292	2414.228742
1008.982172	2409.979049
1009.276017	2411.733370
1009.569827	2411.435942
1009.863602	2410.553740
1010.157341	2411.751014
1010.451045	2412.257650
1010.744714	2411.206570
1011.038347	2411.088103
1011.331945	2409.820253
1011.625508	2411.390572
1011.919036	2411.440983
1012.212528	2408.587690
1012.505986	2410.102557
1012.799408	2410.266395
1013.092795	2408.668349
1013.386147	2409.853020
1013.679464	2404.776578
1013.972745	2410.520973
1014.265992	2410.389903
1014.559204	2410.359656
1014.852380	2407.629871
1015.145521	2408.799419
1015.438628	2407.955026
1015.731699	2409.439645
1016.024736	2410.120201
1016.317737	2407.246743
1016.610703	2411.766138
1016.903635	2408.396127
1017.196531	2404.461506
1017.489393	2410.888977
1017.782219	2406.523338
1018.075011	2411.826632
1018.367768	2411.330078
1018.660490	2409.482495
1018.953177	2409.482495
1019.245829	2409.482495
