Dividing Wavelength (nm)	Counts (n)	Blue Motor Position (mm): 9.200000	Red Motor Position (mm): 0.000000	
326.493990	1977.758080
326.888308	1977.758080
327.282561	1977.758080
327.676750	1951.591971
328.070874	1954.538525
328.464933	1958.465584
328.858929	1968.263067
329.252859	1980.848307
329.646726	1993.216778
330.040528	2009.356032
330.434265	2030.624660
330.827938	2047.683925
331.221547	2070.467420
331.615091	2085.938721
332.008571	2109.979983
332.401986	2131.427573
332.795338	2151.322486
333.188625	2169.185815
333.581847	2190.131809
333.975006	2208.494212
334.368100	2226.569269
334.761129	2242.277504
335.154095	2257.932808
335.546996	2281.661519
335.939833	2317.486479
336.332606	2333.209838
336.725315	2342.624192
337.117960	2349.076869
337.510540	2357.929135
337.903056	2368.051772
338.295508	2373.710468
338.687896	2381.413351
339.080220	2387.656820
339.472480	2393.582696
339.864676	2394.086811
340.256807	2399.843809
340.648875	2399.153171
341.040879	2403.710374
341.432818	2407.428225
341.824694	2403.579304
342.216506	2403.722977
342.608253	2405.280693
342.999937	2402.639129
343.391557	2403.279355
343.783113	2398.792728
344.174605	2399.193500
344.566033	2398.833058
344.957397	2397.630743
345.348697	2393.318035
345.739934	2395.342059
346.131106	2390.316028
346.522215	2386.830070
346.913260	2387.745040
347.304241	2384.680018
347.695159	2381.935110
348.086012	2383.150028
348.476802	2379.535521
348.867528	2377.571991
349.258191	2378.013092
349.648789	2378.330685
350.039324	2376.014275
350.429796	2378.088710
350.820203	2374.799357
351.210548	2375.885725
351.600828	2374.159130
351.991045	2372.442617
352.381198	2370.335415
352.771288	2371.915817
353.161314	2372.382123
353.551276	2372.949253
353.941175	2372.697196
354.331010	2370.443800
354.720782	2371.278111
355.110490	2374.070910
355.500135	2371.636033
355.889717	2373.733153
356.279235	2373.566795
356.668689	2373.327340
357.058080	2370.388347
357.447408	2373.649974
357.836672	2368.036649
358.225873	2373.561753
358.615010	2370.768954
359.004084	2376.954450
359.393095	2376.941847
359.782043	2376.175592
360.170927	2378.892774
360.559748	2377.788761
360.948505	2380.609287
361.337199	2379.621220
361.725830	2379.656508
362.114398	2382.834956
362.502903	2379.722043
362.891344	2378.650798
363.279722	2380.435367
363.668037	2381.625079
364.056289	2380.127856
364.444478	2384.879144
364.832603	2383.371839
365.220665	2383.268495
365.608665	2383.233207
365.996601	2384.715306
366.384474	2384.992570
366.772284	2384.191026
367.160031	2381.796478
367.547715	2385.726058
367.935336	2385.602549
368.322893	2384.967364
368.710388	2383.959133
369.097820	2387.137581
369.485189	2387.361912
369.872495	2384.412837
370.259738	2386.217570
370.646918	2387.140101
371.034035	2387.475338
371.421090	2387.629093
371.808081	2387.162787
372.195010	2388.037427
372.581875	2385.831922
372.968678	2386.096583
373.355418	2388.339896
373.742096	2389.098590
374.128710	2389.050699
374.515262	2387.583723
374.901751	2390.731923
375.288177	2390.918446
375.674540	2387.863507
376.060841	2389.212016
376.447079	2389.506923
376.833254	2387.808054
377.219367	2384.165821
377.605417	2391.460370
377.991404	2387.596326
378.377329	2387.172869
378.763191	2385.405944
379.148991	2387.924001
379.534727	2393.209651
379.920402	2394.306102
380.306013	2394.474980
380.691563	2391.193189
381.077049	2391.737634
381.462474	2392.967675
381.847835	2394.774929
382.233134	2392.022459
382.618371	2394.517830
383.003545	2395.289127
383.388657	2394.205278
383.773706	2394.812737
384.158693	2393.582696
384.543618	2395.800804
384.928480	2395.571431
385.313280	2393.423900
385.698017	2392.400545
386.082692	2394.439692
386.467305	2394.588406
386.851856	2396.032697
387.236344	2398.439848
387.620770	2399.090157
388.005133	2396.320043
388.389435	2397.655948
388.773674	2395.442882
389.157851	2397.850033
389.541965	2395.664693
389.926018	2398.248284
390.310008	2394.782491
390.693936	2398.734755
391.077802	2396.516648
391.461606	2397.678633
391.845348	2398.525547
392.229027	2398.669220
392.612645	2397.156874
392.996200	2399.798439
393.379694	2397.701319
393.763125	2401.663666
394.146494	2400.257184
394.529801	2401.759448
394.913047	2399.407749
395.296230	2400.650394
395.679351	2401.114180
396.062410	2400.557132
396.445408	2401.353635
396.828343	2399.037224
397.211217	2398.457492
397.594028	2399.657286
397.976778	2398.177708
398.359466	2402.772719
398.742092	2396.738458
399.124656	2403.037380
399.507158	2402.485374
399.889598	2404.305230
400.271977	2402.137534
400.654294	2404.307751
401.036549	2403.579304
401.418742	2401.426731
401.800874	2404.559808
402.182944	2405.295817
402.564952	2406.934192
402.946898	2403.516290
403.328783	2403.906979
403.710606	2404.544685
404.092367	2404.408574
404.474067	2404.756413
404.855705	2405.056362
405.237282	2407.609707
405.618797	2403.307082
406.000250	2404.330436
406.381642	2404.557288
406.762972	2405.633574
407.144240	2405.603327
407.525447	2406.334295
407.906593	2405.835220
408.287677	2407.256826
408.668700	2404.748852
409.049661	2406.195663
409.430560	2407.619789
409.811399	2405.694068
410.192176	2405.300858
410.572891	2407.728174
410.953545	2407.627351
411.334138	2407.498801
411.714669	2406.205745
412.095139	2409.227917
412.475547	2407.791188
412.855894	2406.135169
413.236180	2407.506363
413.616405	2409.631209
413.996568	2406.447721
414.376670	2408.249933
414.756711	2407.017371
415.136691	2411.141035
415.516609	2406.145251
415.896466	2407.314799
416.276262	2410.326888
416.655997	2406.304048
417.035670	2403.750703
417.415283	2407.541651
417.794834	2403.304561
418.174324	2410.712537
418.553753	2411.448545
418.933121	2410.485685
419.312428	2408.801939
419.691674	2409.807650
420.070859	2410.210942
420.449983	2412.713875
420.829045	2412.418967
421.208047	2411.128432
421.586988	2409.053997
421.965867	2412.030798
422.344686	2410.820922
422.723444	2410.904101
423.102141	2413.293608
423.480777	2409.036353
423.859352	2411.352763
424.237866	2411.688000
424.616319	2409.739594
424.994712	2413.147414
425.373044	2411.768658
425.751314	2413.202867
426.129524	2412.106416
426.507673	2411.148597
426.885762	2411.803947
427.263789	2412.875192
427.641756	2411.168761
428.019662	2412.451735
428.397508	2411.438463
428.775292	2414.606828
429.153016	2414.959709
429.530679	2415.383166
429.908282	2411.844276
430.285824	2412.802095
430.663305	2411.158679
431.040726	2413.991807
431.418086	2414.175809
431.795385	2414.339647
432.172624	2413.533062
432.549802	2414.710172
432.926920	2414.125398
433.303977	2417.908784
433.680974	2414.153124
434.057910	2412.867630
434.434786	2415.521798
434.811601	2415.741088
435.188355	2416.328382
435.565050	2415.390727
435.941683	2416.003228
436.318257	2413.051632
436.694770	2409.006106
437.071222	2413.386869
437.447614	2409.618606
437.823946	2413.525501
438.200218	2413.936355
438.576429	2417.933990
438.952580	2412.913000
439.328670	2416.119174
439.704700	2415.426016
440.080670	2412.721437
440.456580	2413.180182
440.832429	2414.934503
441.208218	2415.194122
441.583947	2417.666808
441.959616	2416.640934
442.335224	2417.190419
442.710773	2417.195461
443.086261	2416.814853
443.461689	2415.491551
443.837057	2416.577919
444.212365	2417.253434
444.587612	2415.781417
444.962800	2415.219328
445.337927	2418.095307
445.712995	2413.326375
446.088002	2418.516243
446.462949	2414.011972
446.837837	2418.859041
447.212664	2417.639082
447.587431	2421.901378
447.962139	2419.070770
448.336786	2419.592529
448.711374	2419.063208
449.085901	2415.889802
449.460369	2420.351223
449.834776	2417.969278
450.209124	2418.909453
450.583412	2421.084711
450.957640	2420.199988
451.331808	2418.022210
451.705917	2418.594381
452.079965	2419.156469
452.453954	2419.385842
452.827883	2421.450194
453.201752	2419.847107
453.575562	2421.669485
453.949311	2419.239648
454.323001	2423.892633
454.696632	2419.300142
455.070202	2423.426327
455.443713	2423.272572
455.817164	2419.370718
456.190556	2420.550348
456.563888	2419.302663
456.937160	2414.536252
457.310373	2422.607139
457.683526	2423.133940
458.056619	2422.334917
458.429653	2422.113106
458.802628	2421.646799
459.175542	2419.584968
459.548398	2424.865576
459.921194	2423.685946
460.293930	2425.677202
460.666607	2424.651327
461.039224	2428.180135
461.411782	2425.188210
461.784280	2425.536050
462.156719	2428.543098
462.529099	2426.093097
462.901419	2426.761050
463.273680	2426.440937
463.645882	2426.982861
464.018024	2424.885741
464.390106	2427.978489
464.762130	2432.152564
465.134094	2429.931936
465.505999	2431.787080
465.877845	2431.635846
466.249631	2433.354879
466.621358	2435.653645
466.993026	2433.899324
467.364634	2437.879315
467.736184	2433.541402
468.107674	2429.586617
468.479105	2430.882193
468.850477	2433.281782
469.221790	2429.747934
469.593043	2429.871442
469.964238	2430.267173
470.335373	2430.839343
470.706449	2432.449992
471.077467	2433.496032
471.448425	2436.853440
471.819324	2439.497525
472.190164	2434.262287
472.560945	2433.052410
472.931667	2435.041145
473.302330	2432.891093
473.672934	2432.576021
474.043479	2434.910075
474.413965	2432.659200
474.784393	2426.796338
475.154761	2432.744900
475.525070	2430.599889
475.895321	2431.146854
476.265513	2428.800197
476.635645	2433.133068
477.005719	2432.444951
477.375734	2433.949735
477.745691	2435.741866
478.115588	2438.668255
478.485427	2435.404108
478.855207	2438.837134
479.224928	2440.581373
479.594591	2444.228648
479.964194	2437.186156
480.333739	2439.389140
480.703226	2438.784202
481.072653	2441.728236
481.442022	2441.526590
481.811333	2442.214707
482.180584	2439.293358
482.549777	2440.689758
482.918912	2439.275714
483.287988	2440.425098
483.657005	2437.551640
484.025964	2437.886877
484.394864	2438.499377
484.763706	2440.354521
485.132489	2439.598348
485.501213	2439.890735
485.869879	2440.258739
486.238487	2440.409974
486.607036	2437.380241
486.975527	2440.936775
487.343959	2437.239088
487.712333	2438.660694
488.080648	2437.339911
488.448905	2438.605241
488.817104	2442.328133
489.185244	2440.689758
489.553326	2439.636157
489.921350	2443.474996
490.289315	2446.078752
490.657222	2441.758483
491.025070	2446.411468
491.392861	2444.483226
491.760593	2443.132197
492.128267	2443.858123
492.495883	2442.030705
492.863440	2443.457352
493.230939	2440.581373
493.598380	2441.471137
493.965763	2436.838317
494.333088	2439.510128
494.700354	2439.056424
495.067563	2440.485591
495.434713	2436.954263
495.801805	2440.704882
496.168839	2439.991558
496.535815	2440.528441
496.902733	2443.086827
497.269593	2442.123966
497.636395	2439.547937
498.003139	2441.932402
498.369825	2438.597679
498.736453	2442.726384
499.103023	2440.440221
499.469535	2442.199584
499.835989	2441.251847
500.202385	2440.198246
500.568723	2442.673452
500.935003	2441.519028
501.301226	2441.496343
501.667390	2442.827207
502.033497	2443.487598
502.399546	2443.807712
502.765537	2442.554985
503.131470	2444.952054
503.497345	2445.388113
503.863163	2446.255192
504.228923	2446.466920
504.594625	2446.487085
504.960269	2446.091354
505.325856	2450.101592
505.691385	2447.961623
506.056856	2450.600667
506.422270	2449.569751
506.787625	2450.068825
507.152924	2451.170317
507.518164	2455.518312
507.883347	2453.340534
508.248472	2455.762808
508.613540	2455.152828
508.978550	2458.318673
509.343503	2458.905967
509.708398	2460.630042
510.073236	2461.653396
510.438016	2461.119034
510.802738	2464.917543
511.167403	2464.335290
511.532010	2465.469550
511.896561	2468.567339
512.261053	2471.972638
512.625488	2469.298306
512.989866	2470.067082
513.354186	2472.660756
513.718449	2472.688482
514.082655	2477.457414
514.446803	2479.357929
514.810894	2483.000162
515.174927	2483.055615
515.538904	2486.110554
515.902822	2485.697180
516.266684	2488.852942
516.630488	2491.108858
516.994235	2493.936946
517.357925	2493.896616
517.721558	2497.092708
518.085133	2501.044973
518.448651	2503.048831
518.812112	2506.378513
519.175516	2504.742659
519.538863	2507.036384
519.902152	2512.909328
520.265385	2514.709020
520.628560	2514.131808
520.991678	2516.768331
521.354739	2520.105575
521.717743	2518.623476
522.080690	2524.670340
522.443580	2527.788294
522.806413	2529.330887
523.169189	2530.611340
523.531908	2534.135106
523.894569	2536.118800
524.257174	2542.410160
524.619722	2542.836138
524.982213	2545.623896
525.344647	2545.124822
525.707025	2546.589277
526.069345	2552.638662
526.431608	2553.891388
526.793815	2555.819630
527.155964	2559.355999
527.518057	2559.383725
527.880093	2562.990671
528.242072	2561.027142
528.603995	2565.244067
528.965860	2566.343038
529.327669	2569.266907
529.689421	2571.563153
530.051117	2575.185222
530.412755	2576.851323
530.774337	2579.603793
531.135862	2579.424832
531.497331	2580.400296
531.858743	2580.175964
532.220098	2583.488002
532.581396	2583.062025
532.942638	2585.645616
533.303824	2589.794486
533.664953	2592.738520
534.026025	2594.996957
534.387040	2600.811928
534.747999	2597.318408
535.108902	2601.898296
535.469748	2599.760847
535.830537	2604.691096
536.191270	2606.405088
536.551947	2604.837289
536.912567	2607.188987
537.273131	2609.525562
537.633638	2609.903649
537.994089	2610.712754
538.354483	2610.493464
538.714821	2614.720471
539.075103	2617.291460
539.435328	2620.245576
539.795497	2620.696759
540.155609	2622.786317
540.515665	2624.001235
540.875665	2624.913684
541.235609	2626.506689
541.595496	2628.903757
541.955328	2631.779736
542.315102	2632.724952
542.674821	2626.368057
543.034483	2632.974489
543.394090	2634.166722
543.753640	2635.432052
544.113134	2640.037146
544.472571	2636.321815
544.831953	2641.073103
545.191278	2639.780047
545.550548	2639.139820
545.909761	2643.883546
546.268918	2640.324492
546.628019	2645.196767
546.987064	2647.427477
547.346053	2643.805408
547.704986	2645.836993
548.063863	2646.298259
548.422684	2645.945378
548.781449	2647.329175
549.140158	2650.558034
549.498811	2649.103661
549.857408	2646.570481
550.215949	2652.879485
550.574434	2646.898156
550.932864	2648.153403
551.291237	2652.206491
551.649555	2651.097437
552.007817	2656.118427
552.366022	2651.599032
552.724173	2652.372849
553.082267	2655.180772
553.440305	2655.347130
553.798288	2653.035761
554.156215	2654.928714
554.514086	2655.974754
554.871902	2658.699497
555.229661	2658.218067
555.587365	2655.266472
555.945014	2656.027686
556.302606	2653.983498
556.660143	2654.449805
557.017625	2653.693632
557.375050	2655.818478
557.732421	2656.549445
558.089735	2656.005001
558.446994	2656.685556
558.804197	2658.875938
559.161345	2655.934424
559.518437	2654.747233
559.875474	2656.340237
560.232455	2654.296049
560.589381	2653.592808
560.946251	2654.036430
561.303065	2659.906854
561.659825	2655.425268
562.016528	2653.547438
562.373177	2652.798827
562.729770	2654.442243
563.086307	2650.827736
563.442789	2652.103147
563.799216	2651.964516
564.155587	2650.966367
564.511904	2651.626758
564.868164	2652.816471
565.224370	2652.282108
565.580520	2651.130205
565.936615	2653.802016
566.292654	2650.190030
566.648638	2652.798827
567.004567	2650.462252
567.360441	2653.040802
567.716260	2651.510812
568.072023	2653.002993
568.427732	2648.919659
568.783385	2650.452170
569.138982	2649.902684
569.494525	2650.363949
569.850013	2647.417395
570.205445	2654.853097
570.560823	2652.403096
570.916145	2653.343271
571.271412	2653.920483
571.626625	2653.776811
571.981782	2652.375370
572.336884	2655.929383
572.691931	2657.968530
573.046923	2659.974909
573.401860	2657.996256
573.756743	2660.839467
574.111570	2663.105466
574.466342	2661.754437
574.821059	2664.801814
575.175722	2661.867862
575.530330	2662.618994
575.884882	2664.396001
576.239380	2667.539161
576.593823	2667.662669
576.948211	2671.564522
577.302544	2667.650066
577.656823	2670.909172
578.011047	2677.891170
578.365216	2677.545851
578.719330	2678.357477
579.073389	2682.715554
579.427394	2687.587829
579.781344	2688.946420
580.135239	2688.212932
580.489080	2693.259127
580.842866	2694.403469
581.196597	2701.488811
581.550273	2704.475695
581.903895	2710.159596
582.257463	2720.108313
582.610975	2718.880792
582.964434	2726.162739
583.317837	2730.941752
583.671186	2735.241857
584.024481	2739.610017
584.377721	2742.697723
584.730906	2750.261975
585.084037	2752.641399
585.437113	2757.919487
585.790135	2763.484921
586.143103	2766.272679
586.496016	2774.557816
586.848874	2775.210645
587.201679	2786.265895
587.554428	2788.229425
587.907124	2801.013791
588.259765	2802.392547
588.612352	2817.352171
588.964884	2824.283757
589.317362	2834.071157
589.669786	2841.247240
590.022155	2847.079855
590.374470	2860.086032
590.726731	2864.456712
591.078937	2866.480735
591.431090	2877.382231
591.783188	2877.891387
592.135232	2885.284239
592.487222	2896.468039
592.839157	2906.023546
593.191038	2911.450348
593.542866	2923.410486
593.894639	2923.869231
594.246358	2938.365069
594.598022	2946.388065
594.949633	2952.094651
595.301190	2960.034468
595.652692	2970.280614
596.004141	2983.359887
596.355535	2978.046511
596.706876	2987.629745
597.058162	2995.060405
597.409395	3013.657222
597.760573	3025.574510
598.111698	3028.389994
598.462768	3041.776778
598.813785	3053.903274
599.164748	3057.661454
599.515657	3077.014443
599.866511	3078.804053
600.217312	3103.137703
600.568060	3101.128803
600.918753	3126.500930
601.269392	3139.537354
601.619978	3145.906852
601.970510	3163.646672
602.320988	3181.935978
602.671412	3204.308619
603.021783	3211.580484
603.372100	3220.493244
603.722363	3238.109556
604.072572	3254.664705
604.422728	3272.885956
604.772830	3283.006072
605.122878	3295.790438
605.472872	3312.330464
605.822813	3335.764268
606.172701	3352.962164
606.522534	3374.818086
606.872314	3399.882703
607.222041	3416.384920
607.571714	3440.171605
607.921333	3449.026392
608.270899	3476.735094
608.620411	3504.219464
608.969870	3520.245293
609.319276	3538.554763
609.668627	3564.683064
610.017926	3600.838219
610.367171	3627.286633
610.716362	3654.753359
611.065500	3677.650280
611.414585	3709.593552
611.763616	3743.754931
612.112594	3764.884927
612.461518	3797.677633
612.810389	3833.449660
613.159207	3857.861448
613.507971	3889.913104
613.856682	3936.551339
614.205340	3961.300884
614.553945	4015.657125
614.902496	4025.184906
615.250994	4072.395312
615.599439	4108.598358
615.947830	4151.468330
616.296169	4190.595246
616.644454	4234.818768
616.992686	4284.950522
617.340864	4345.091488
617.688990	4375.444275
618.037063	4447.444555
618.385082	4487.791430
618.733048	4539.175911
619.080961	4582.096295
619.428821	4615.015029
619.776628	4658.855424
620.124382	4682.415256
620.472083	4718.542685
620.819731	4752.020988
621.167326	4763.298049
621.514868	4791.465496
621.862357	4789.000372
622.209793	4813.689423
622.557176	4820.920958
622.904506	4827.154345
623.251783	4833.919573
623.599007	4847.959187
623.946179	4857.363459
624.293297	4888.048963
624.640363	4880.106625
624.987376	4909.368002
625.334336	4925.209828
625.681243	4933.941107
626.028097	4963.237772
626.374899	4994.639120
626.721647	5020.870764
627.068343	5052.955187
627.414987	5076.489814
627.761577	5099.464873
628.108115	5158.000231
628.454600	5160.301517
628.801032	5213.891503
629.147412	5254.195528
629.493739	5291.520231
629.840014	5306.454650
630.186236	5382.515579
630.532405	5396.910594
630.878521	5450.969407
631.224585	5489.541796
631.570597	5512.050547
631.916556	5567.972067
632.262462	5609.327173
632.608316	5651.178832
632.954117	5680.430127
633.299866	5718.513524
633.645562	5745.670220
633.991206	5738.337861
634.336797	5727.829576
634.682336	5757.108598
635.027823	5763.281491
635.373257	5775.531494
635.718639	5785.477691
636.063968	5802.622655
636.409245	5781.222957
636.754470	5813.241846
637.099642	5822.288196
637.444762	5808.203213
637.789829	5861.805801
638.134845	5855.945460
638.479808	5891.117590
638.824719	5917.298823
639.169577	5911.020066
639.514383	5953.176715
639.859137	5960.264577
640.203839	6016.730541
640.548489	6019.722466
640.893086	6060.359207
641.237632	6067.810033
641.582125	6120.177539
641.926566	6149.748947
642.270955	6191.681265
642.615292	6229.868005
642.959576	6264.896463
643.303809	6307.232073
643.647990	6363.917327
643.992118	6398.222379
644.336195	6441.190654
644.680219	6493.822821
645.024192	6581.826243
645.368112	6689.628798
645.711981	6751.695484
646.055797	6918.088849
646.399562	6974.582540
646.743274	7152.913357
647.086935	7277.639065
647.430544	7325.759399
647.774101	7398.198259
648.117606	7476.825136
648.461059	7561.395533
648.804460	7550.572175
649.147810	7499.084350
649.491108	7491.421797
649.834354	7474.922100
650.177548	7393.003350
650.520690	7361.140737
650.863781	7397.689103
651.206820	7415.925477
651.549807	7394.276241
651.892742	7364.198197
652.235626	7371.633899
652.578458	7402.480719
652.921238	7353.894078
653.263967	7444.682739
653.606644	7439.959177
653.949269	7476.598284
654.291843	7466.757951
654.634365	7567.265956
654.976836	7558.010398
655.319255	7600.383816
655.661622	7643.130280
656.003938	7649.136815
656.346203	7669.248498
656.688416	7748.644151
657.030577	7758.091273
657.372687	7776.017616
657.714746	7859.279834
658.056753	7930.075278
658.398708	7880.929069
658.740612	7932.366482
659.082465	8025.133795
659.424266	8036.554529
659.766016	8110.228472
660.107715	8140.593862
660.449362	8211.711940
660.790958	8255.270030
661.132503	8312.159451
661.473996	8363.100311
661.815438	8429.262935
662.156829	8513.114967
662.498168	8521.271554
662.839456	8565.686640
663.180693	8645.538517
663.521879	8725.040034
663.863013	8775.058362
664.204097	8823.085435
664.545129	8967.577507
664.886110	9017.467286
665.227040	9076.186646
665.567918	9158.148246
665.908746	9229.551149
666.249522	9315.210435
666.590248	9366.179021
666.930922	9447.273542
667.271545	9489.820881
667.612118	9557.788238
667.952639	9563.767046
668.293109	9633.738261
668.633528	9650.013627
668.973896	9680.787350
669.314213	9739.703315
669.654480	9729.457170
669.994695	9793.862952
670.334859	9816.185181
670.674973	9848.188946
671.015035	9921.777189
671.355047	9975.473039
671.695008	10013.886632
672.034918	10039.939315
672.374777	10120.166758
672.714585	10139.761723
673.054342	10242.777702
673.394049	10245.250388
673.733705	10366.747236
674.073310	10338.753709
674.412864	10402.557073
674.752368	10348.253763
675.091820	10472.689605
675.431223	10415.308671
675.770574	10386.170802
676.109875	10397.936855
676.449125	10377.305933
676.788324	10405.138143
677.127473	10306.770108
677.466571	10331.756588
677.805619	10287.636409
678.144616	10340.301343
678.483562	10367.924346
678.822458	10325.772738
679.161303	10354.172078
679.500098	10375.256704
679.838842	10396.958871
680.177535	10491.687193
680.516179	10611.575914
680.854771	10740.962169
681.193314	11047.303006
681.531805	11443.991402
681.870247	11735.153324
682.208638	12012.820078
682.546978	12133.641413
682.885268	12213.352137
683.223508	12110.946138
683.561697	12058.603837
683.899836	12053.976058
684.237925	11963.089096
684.575963	11973.403296
684.913951	11884.719318
685.251889	11991.773261
685.589776	12048.869369
685.927614	12102.552617
686.265401	12206.423071
686.603137	12304.884367
686.940824	12529.155220
687.278460	12720.560270
687.616046	12831.760562
687.953582	13088.262031
688.291068	13109.278602
688.628504	13255.673709
688.965889	13288.234522
689.303224	13212.697873
689.640510	13152.662772
689.977745	12949.655506
690.314930	12713.048950
690.652065	12584.313005
690.989150	12364.337215
691.326185	12113.161725
691.663170	11906.958368
692.000105	11701.501102
692.336990	11514.549912
692.673825	11405.610577
693.010610	11265.642940
693.347345	11108.535381
693.684030	10921.117884
694.020665	10866.111333
694.357251	10676.775677
694.693786	10692.483913
695.030272	10645.989351
695.366707	10501.436785
695.703093	10436.080746
696.039429	10472.581220
696.375716	10409.902034
696.711952	10431.115209
697.048139	10421.244630
697.384276	10386.869002
697.720363	10476.314195
698.056400	10434.427247
698.392388	10391.184230
698.728326	10416.667262
699.064214	10373.671261
699.400053	10387.680628
699.735842	10293.290063
700.071581	10223.152490
700.407270	10153.004834
700.742910	10106.948852
701.078501	10044.970386
701.414042	9969.032965
701.749533	9891.469772
702.084974	9789.157034
702.420366	9893.571933
702.755709	9765.791286
703.091002	9678.486063
703.426246	9718.737156
703.761440	9709.779026
704.096584	9636.972162
704.431679	9646.946084
704.766725	9637.456112
705.101721	9649.151589
705.436668	9716.733298
705.771565	9611.499211
706.106413	9791.302045
706.441212	9817.077465
706.775961	9900.362368
707.110661	9955.467220
707.445311	10134.720569
707.779913	10103.525909
708.114465	10231.646834
708.448967	10391.937882
708.783421	10703.513957
709.117825	10852.711947
709.452180	10979.249949
709.786485	11171.615339
710.120742	11537.136801
710.454949	11577.052658
710.789107	11788.029987
711.123216	12121.036007
711.457275	12196.028212
711.791286	12458.521093
712.125247	12516.239784
712.459159	12408.623752
712.793023	12751.414652
713.126837	12298.787092
713.460602	12442.948968
713.794318	12314.248311
714.127985	12186.056810
714.461602	11841.504027
714.795171	11859.722757
715.128691	11445.380240
715.462162	11238.385422
715.795584	11089.174829
716.128957	11006.204999
716.462281	10855.807215
716.795556	10780.469691
717.128782	10592.144787
717.461960	10371.233863
717.795088	10356.417912
718.128167	10202.395539
718.461198	10007.378502
718.794180	9975.765426
719.127113	9830.988529
719.459997	9765.362788
719.792833	9623.673598
720.125619	9632.825813
720.458357	9509.937605
720.791046	9445.146175
721.123686	9388.425633
721.456278	9297.672261
721.788821	9298.589751
722.121315	9185.763687
722.453761	9247.916072
722.786158	9236.981810
723.118506	9254.149459
723.450805	9208.756389
723.783056	9305.687695
724.115259	9276.922872
724.447412	9260.539122
724.779518	9399.818641
725.111574	9431.237632
725.443582	9549.067041
725.775542	9560.785203
726.107453	9814.405653
726.439315	9768.001832
726.771129	9993.734619
727.102895	10182.563639
727.434612	10300.463625
727.766281	10379.297189
728.097901	10530.738492
728.429473	10573.139637
728.760996	10592.721999
729.092471	10660.553244
729.423897	10622.474889
729.755276	10588.278222
730.086606	10680.480925
730.417887	10964.043309
730.749120	11261.216807
731.080305	11379.825075
731.411442	11585.037845
731.742530	11655.172898
732.073570	11732.410937
732.404562	11902.159190
732.735506	11826.942654
733.066401	11708.188193
733.397249	11470.767490
733.728048	11171.804382
734.058798	10764.763977
734.389501	10419.109701
734.720156	10197.866062
735.050762	9933.512995
735.381320	9755.300645
735.711831	9642.623295
736.042293	9460.554462
736.372707	9478.700095
736.703073	9383.717195
737.033391	9496.507971
737.363661	9495.033434
737.693883	9560.165142
738.024056	9664.431327
738.354182	9767.689281
738.684260	9933.094580
739.014290	10064.068798
739.344272	10176.378144
739.674207	10332.432102
740.004093	10417.143651
740.333931	10425.534652
740.663722	10471.126847
740.993464	10482.025822
741.323159	10413.357745
741.652806	10277.357496
741.982405	10184.499442
742.311956	10012.275983
742.641460	9968.609508
742.970915	9818.902363
743.300323	9646.623451
743.629683	9543.597389
743.958996	9401.169670
744.288260	9264.052806
744.617477	9103.582797
744.946647	9073.852592
745.275768	8943.342160
745.604842	8844.018826
745.933869	8758.944314
746.262847	8746.230524
746.591778	8720.689518
746.920662	8668.090119
747.249498	8678.958846
747.578286	8761.956403
747.907027	8844.041511
748.235720	8982.431267
748.564365	9011.075103
748.892963	8971.497004
749.221514	9010.495370
749.550017	8945.741749
749.878473	8925.229294
750.206881	8810.038929
750.535242	8774.055172
750.863555	8730.625632
751.191821	8688.955454
751.520039	8708.217703
751.848210	8662.554932
752.176334	8691.292029
752.504411	8642.642374
752.832440	8552.720792
753.160421	8595.709232
753.488356	8526.060650
753.816243	8471.253226
754.144082	8387.106286
754.471875	8367.344963
754.799620	8335.865477
755.127318	8328.223088
755.454969	8313.875964
755.782572	8291.069784
756.110129	8301.273080
756.437638	8260.364116
756.765100	8258.382943
757.092515	8269.029860
757.419882	8286.956203
757.747203	8289.875031
758.074477	8340.246240
758.401703	8320.167324
758.728882	8426.898633
759.056014	8464.727452
759.383099	8541.163947
759.710138	8614.923590
760.037129	8678.787447
760.364073	8696.839819
760.690970	8696.000467
761.017820	8705.011529
761.344623	8845.092592
761.671379	9078.069517
761.998088	9505.829065
762.324751	10511.801397
762.651366	12352.291378
762.977935	14714.255957
763.304456	16187.180288
763.630931	16571.981643
763.957359	15854.050760
764.283740	14642.011182
764.610074	13447.051033
764.936362	12051.175697
765.262602	11067.646582
765.588796	10088.866233
765.914943	9433.914485
766.241044	8866.199903
766.567097	8436.141589
766.893104	8066.446051
767.219064	7830.094074
767.544978	7573.557316
767.870845	7364.873712
768.196665	7240.614310
768.522438	7114.093952
768.848165	7012.673498
769.173846	6906.471510
769.499479	6822.725342
769.825066	6721.670372
770.150607	6602.376507
770.476101	6571.796868
770.801548	6494.374827
771.126949	6407.936683
771.452303	6348.466191
771.777611	6243.040540
772.102872	6230.306586
772.428087	6155.813455
772.753256	6074.000570
773.078378	6018.391602
773.403453	5923.895173
773.728482	5854.178536
774.053465	5813.342669
774.378401	5756.591879
774.703291	5696.198856
775.028135	5634.331296
775.352932	5605.715186
775.677683	5550.081012
776.002388	5489.927444
776.327046	5496.107898
776.651658	5434.247900
776.976224	5381.847626
777.300743	5378.182707
777.625216	5329.336447
777.949643	5297.748577
778.274024	5307.621677
778.598359	5261.732053
778.922647	5262.664667
779.246889	5236.357405
779.571086	5240.445781
779.895236	5253.411629
780.219339	5253.078913
780.543397	5255.145786
780.867409	5291.343791
781.191374	5289.178615
781.515294	5270.362509
781.839167	5310.159898
782.162995	5292.490653
782.486776	5262.354636
782.810511	5234.003187
783.134201	5185.048542
783.457844	5180.503941
783.781441	5152.570908
784.104993	5120.453717
784.428498	5099.759780
784.751958	5091.212504
785.075372	5077.760185
785.398739	5049.013005
785.722061	5070.596705
786.045337	5076.787242
786.368568	5157.591897
786.691752	5176.768446
787.014891	5357.292166
787.337983	5552.548657
787.661030	5866.657912
787.984031	6172.476989
788.306987	6371.690787
788.629897	6451.358661
788.952760	6399.369242
789.275579	6287.069978
789.598351	6075.928811
789.921078	5887.825717
790.243759	5686.356003
790.566395	5536.616090
790.888984	5394.621910
791.211529	5293.067866
791.534027	5173.574875
791.856480	5066.226025
792.178888	5026.842010
792.501249	4978.625894
792.823566	4898.189244
793.145836	4900.772835
793.468062	4888.021236
793.790241	4858.215414
794.112375	4891.209766
794.434464	4965.453359
794.756507	4986.459848
795.078505	5073.659206
795.400457	5229.718206
795.722364	5403.020472
796.044226	5549.816352
796.366042	5667.426471
796.687812	5637.003107
797.009538	5660.320964
797.331218	5601.820895
797.652852	5551.358945
797.974442	5467.234690
798.295986	5414.100928
798.617484	5323.254295
798.938938	5243.687243
799.260346	5197.674111
799.581709	5088.775106
799.903026	5055.173295
800.224299	4998.793030
800.545526	4907.054113
800.866708	4858.288511
801.187845	4821.692255
801.508936	4759.912914
801.829983	4745.850616
802.150984	4664.529242
802.471940	4643.973937
802.792851	4630.985405
803.113717	4612.701140
803.434538	4597.214715
803.755314	4570.489038
804.076045	4562.529056
804.396731	4532.330024
804.717372	4546.460378
805.037967	4542.130027
805.358518	4567.071136
805.679024	4609.245429
805.999485	4615.809011
806.319901	4634.418430
806.640272	4645.070388
806.960598	4686.014640
807.280879	4677.371582
807.601115	4706.791756
807.921306	4680.608002
808.241453	4679.420811
808.561554	4690.531514
808.881611	4661.796937
809.201623	4663.279036
809.521590	4630.811485
809.841513	4617.850678
810.161390	4634.332731
810.481223	4567.469387
810.801011	4561.147780
811.120755	4539.606929
811.440453	4500.248121
811.760107	4478.775326
812.079716	4465.128922
812.399281	4423.816667
812.718801	4422.717695
813.038276	4394.653592
813.357707	4372.976630
813.677093	4389.546903
813.996434	4341.666024
814.315731	4360.328375
814.634983	4361.412223
814.954191	4367.391032
815.273354	4414.626643
815.592473	4450.050831
815.911547	4505.604347
816.230577	4551.597314
816.549562	4620.144403
816.868502	4663.674767
817.187399	4712.364751
817.506250	4779.936377
817.825058	4802.717352
818.143821	4930.276188
818.462539	5063.342485
818.781213	5250.840640
819.099843	5534.198857
819.418429	6033.537748
819.736970	6520.601430
820.055466	7083.239570
820.373919	7833.963159
820.692327	8996.186055
821.010691	11040.741944
821.329011	15512.053842
821.647286	22205.430737
821.965517	29467.595980
822.283704	33470.045282
822.601847	34972.868697
822.919945	31948.599846
823.237999	28431.132229
823.556010	24670.968343
823.873976	21196.262313
824.191897	18036.225107
824.509775	15724.742643
824.827609	13675.236341
825.145398	12498.101712
825.463144	11931.743201
825.780845	12168.705158
826.098502	13121.863842
826.416116	14949.375373
826.733685	16690.690734
827.051210	17146.360630
827.368692	16092.872903
827.686129	14186.406820
828.003522	12245.809606
828.320872	10524.351350
828.638177	9230.070388
828.955439	8231.896720
829.272656	7384.312401
829.589830	6728.382668
829.906960	6149.809441
830.224046	5720.764399
830.541088	5396.076283
830.858086	5193.069017
831.175041	5028.009038
831.491952	4986.953881
831.808819	5017.785578
832.125642	5224.553544
832.442421	5669.841183
832.759157	6557.243057
833.075849	7948.135212
833.392497	9403.654959
833.709101	10294.323500
834.025662	10109.890366
834.342179	9300.729721
834.658653	8264.815455
834.975083	7371.371759
835.291469	6647.217571
835.607811	6051.375871
835.924110	5632.148476
836.240366	5235.964195
836.556578	4872.360892
836.872746	4585.262139
837.188871	4363.716031
837.504952	4181.627033
837.820990	4047.587793
838.136984	3954.321406
838.452935	3916.863112
838.768842	3937.441102
839.084706	4161.991739
839.400526	4753.558540
839.716303	5481.407894
840.032037	5943.638852
840.347727	5838.369477
840.663373	5357.035067
840.978977	4886.619796
841.294537	4528.528994
841.610054	4259.507819
841.925527	4060.273857
842.240957	3895.934762
842.556344	3739.467429
842.871687	3615.288687
843.186987	3489.373266
843.502244	3394.511354
843.817458	3322.075014
844.132629	3264.941097
844.447756	3227.608832
844.762840	3185.278263
845.077881	3158.587874
845.392879	3127.398256
845.707833	3107.838579
846.022745	3085.932245
846.337613	3075.895307
846.652438	3056.242369
846.967221	3048.433622
847.281960	3032.082639
847.596656	3024.276413
847.911309	3013.258971
848.225919	3004.822600
848.540485	2993.842967
848.855009	2989.000938
849.169490	2977.698672
849.483928	2972.914617
849.798323	2968.415387
850.112675	2962.734006
850.426984	2960.820888
850.741251	2956.419961
851.055474	2951.061215
851.369654	2956.651854
851.683792	2951.837552
851.997887	2951.973663
852.311938	2950.736060
852.625947	2957.269396
852.939914	2950.564661
853.253837	2952.490382
853.567718	2953.254117
853.881555	2948.659105
854.195350	2953.576750
854.509103	2950.420988
854.822812	2949.208591
855.136479	2941.132662
855.450103	2947.875205
855.763685	2944.643826
856.077224	2946.859413
856.390720	2949.314455
856.704173	2962.497072
857.017584	2963.182669
857.330953	2968.639718
857.644278	2976.657673
857.957561	2977.650781
858.270802	2974.709267
858.584000	2974.905872
858.897155	2972.360090
859.210268	2961.282154
859.523339	2951.915690
859.836367	2949.596759
860.149352	2949.942078
860.462295	2944.772375
860.775195	2934.374995
861.088054	2932.870211
861.400869	2930.705035
861.713642	2931.879624
862.026373	2935.607558
862.339062	2940.293310
862.651708	2949.163220
862.964312	2963.008749
863.276873	2971.979483
863.589392	2996.731548
863.901869	3018.597553
864.214303	3033.123638
864.526696	3048.128632
864.839045	3066.357444
865.151353	3075.728949
865.463619	3076.381779
865.775842	3079.204825
866.088023	3084.886205
866.400162	3077.263981
866.712258	3077.107705
867.024313	3076.301120
867.336325	3078.022674
867.648296	3077.127869
867.960224	3080.812953
868.272110	3078.967891
868.583954	3079.323292
868.895755	3088.024323
869.207515	3084.026688
869.519233	3099.949173
869.830909	3105.096191
870.142542	3117.487347
870.454134	3117.787296
870.765684	3130.622073
871.077191	3146.501708
871.388657	3156.495796
871.700081	3171.243691
872.011463	3186.979653
872.322803	3205.289124
872.634101	3219.248079
872.945357	3236.060327
873.256571	3255.304932
873.567744	3267.867487
873.878874	3274.269752
874.189963	3287.449849
874.501010	3288.415230
874.812015	3283.439611
875.122979	3301.081129
875.433900	3302.936274
875.744780	3304.030204
876.055618	3310.543375
876.366415	3305.875266
876.677169	3311.203766
876.987882	3329.603978
877.298554	3348.775486
877.609183	3380.701113
877.919771	3419.084458
878.230317	3477.214003
878.540822	3568.521902
878.851285	3695.143084
879.161707	3886.366652
879.472087	4203.624108
879.782425	4730.926280
880.092722	5705.842584
880.402977	7209.578447
880.713191	8976.800298
881.023363	10694.865858
881.333494	11681.119717
881.643583	12102.908018
881.953631	11912.165880
882.263637	11350.452792
882.573602	10592.701834
882.883526	9863.607315
883.193408	9111.986400
883.503248	8378.438022
883.813048	7712.027730
884.122806	7086.627225
884.432522	6473.935469
884.742197	5946.681188
885.051831	5491.056662
885.361424	5089.223769
885.670975	4771.502527
885.980485	4506.799100
886.289954	4280.849544
886.599382	4104.736834
886.908768	3956.829380
887.218113	3817.554902
887.527417	3708.688664
887.836680	3603.709156
888.145901	3521.389634
888.455082	3459.413689
888.764221	3398.728279
889.073319	3349.289683
889.382376	3322.763132
889.691392	3300.337559
890.000366	3296.967548
890.309300	3290.000673
890.618193	3291.323976
890.927044	3286.736526
891.235855	3294.257927
891.544625	3303.705050
891.853353	3328.557938
892.162041	3378.840927
892.470687	3459.189358
892.779293	3559.052095
893.087858	3701.472253
893.396381	3940.521247
893.704864	4283.050007
894.013306	4756.109364
894.321707	5234.093927
894.630068	5540.991812
894.938387	5575.185958
895.246665	5433.017858
895.554903	5168.132950
895.863100	4885.906472
896.171256	4657.476668
896.479371	4450.474288
896.787446	4262.169548
897.095480	4098.866410
897.403473	3970.508551
897.711425	3848.913400
898.019336	3745.247112
898.327207	3643.176350
898.635038	3556.357598
898.942827	3467.373671
899.250576	3392.600757
899.558284	3320.877740
899.865952	3277.271759
900.173579	3224.143039
900.481165	3184.943027
900.788711	3146.161430
901.096216	3123.158645
901.403681	3097.655448
901.711105	3090.005497
902.018489	3085.750763
902.325832	3112.917541
902.633135	3164.284378
902.940397	3308.726039
903.247619	3648.217503
903.554800	4274.454840
903.861941	5071.743568
904.169041	5656.343494
904.476101	5835.410320
904.783121	5613.372699
905.090100	5280.926247
905.397039	4935.861786
905.703938	4631.791989
906.010796	4362.241493
906.317614	4152.441273
906.624391	3950.832928
906.931129	3788.091879
907.237826	3632.801655
907.544483	3490.807475
907.851099	3344.230885
908.157675	3213.105433
908.464211	3090.617997
908.770707	3005.558608
909.077163	2940.694082
909.383578	2887.913201
909.689954	2852.355422
909.996289	2826.912719
910.302584	2811.998465
910.608839	2796.882565
910.915054	2788.103396
911.221229	2783.636934
911.527363	2786.061729
911.833458	2792.610187
912.139513	2802.735345
912.445527	2815.935606
912.751502	2843.528362
913.057436	2879.658312
913.363331	2929.525405
913.669186	3009.702437
913.975000	3103.588886
914.280775	3263.209461
914.586510	3490.285715
914.892205	3811.666835
915.197859	4224.570102
915.503475	4716.087643
915.809050	5129.981498
916.114585	5375.916708
916.420081	5439.397438
916.725536	5385.275611
917.030952	5182.956463
917.336328	5014.823900
917.641665	4830.042926
917.946961	4642.328001
918.252218	4471.097649
918.557435	4278.533133
918.862612	4113.725211
919.167750	3965.779949
919.472848	3802.645690
919.777906	3663.714010
920.082925	3530.105789
920.387904	3397.321797
920.692843	3304.332673
920.997743	3220.788151
921.302603	3143.083806
921.607423	3088.178079
921.912204	3029.796476
922.216946	2990.316680
922.521647	2948.175154
922.826310	2911.994793
923.130932	2882.819115
923.435516	2850.076821
923.740059	2825.400373
924.044564	2796.678399
924.349028	2778.482354
924.653454	2750.216604
924.957840	2731.778584
925.262186	2711.472816
925.566493	2692.341637
925.870761	2672.807166
926.174989	2663.697801
926.479178	2654.840494
926.783328	2638.471867
927.087438	2624.752367
927.391509	2614.546551
927.695541	2606.263936
927.999533	2598.561052
928.303486	2590.124682
928.607400	2587.576378
928.911275	2577.310068
929.215110	2575.223031
929.518906	2569.960066
929.822663	2569.410580
930.126381	2569.231619
930.430060	2574.766806
930.733699	2574.217321
931.037299	2578.933320
931.340861	2575.868298
931.644383	2580.627148
931.947866	2580.095306
932.251309	2574.429049
932.554714	2575.656570
932.858080	2575.233113
933.161407	2570.025601
933.464694	2566.466547
933.767943	2566.832030
934.071153	2562.846998
934.374323	2559.106462
934.677455	2558.987995
934.980548	2553.871224
935.283602	2552.290822
935.586617	2549.162786
935.889593	2552.144628
936.192530	2553.553631
936.495428	2560.190310
936.798287	2568.057031
937.101108	2580.478434
937.403890	2599.039962
937.706632	2625.243880
938.009336	2651.901501
938.312002	2680.807477
938.614628	2697.055116
938.917216	2715.420040
939.219765	2722.278530
939.522275	2732.373440
939.824747	2728.708521
940.127179	2726.008983
940.429573	2721.620659
940.731929	2720.307438
941.034246	2711.752600
941.336524	2709.398382
941.638763	2702.242464
941.940964	2699.694160
942.243126	2685.079855
942.545250	2675.796571
942.847335	2665.568069
943.149381	2653.549959
943.451389	2639.384316
943.753359	2630.781587
944.055290	2624.180196
944.357182	2615.416150
944.659036	2610.042280
944.960851	2604.260077
945.262628	2603.468616
945.564367	2603.967690
945.866067	2601.772267
946.167729	2600.166660
946.469352	2599.733121
946.770937	2601.633636
947.072484	2592.166349
947.373992	2593.787080
947.675462	2588.582088
947.976893	2584.435739
948.278286	2582.681418
948.579641	2578.202353
948.880958	2575.918710
949.182236	2577.184040
949.483476	2573.183884
949.784678	2571.757237
950.085841	2574.209759
950.386967	2578.517425
950.688054	2583.540935
950.989103	2587.783066
951.290114	2597.993923
951.591087	2607.302413
951.892021	2620.653909
952.192917	2628.089611
952.493776	2638.597896
952.794596	2640.072434
953.095378	2642.119142
953.396122	2639.490181
953.696828	2637.360293
953.997496	2636.107566
954.298126	2623.870165
954.598718	2619.270112
954.899272	2608.529934
955.199788	2597.545260
955.500266	2590.651482
955.800706	2574.761765
956.101108	2562.330280
956.401472	2552.545400
956.701798	2535.770961
957.002087	2526.943900
957.302337	2515.790348
957.602550	2508.798267
957.902724	2500.051865
958.202861	2492.308653
958.502960	2486.284474
958.803022	2480.222487
959.103045	2472.474233
959.403031	2468.622792
959.702979	2465.623305
960.002889	2461.545012
960.302762	2455.702314
960.602596	2451.334154
960.902393	2450.819957
961.202153	2447.326437
961.501875	2443.520366
961.801559	2443.714450
962.101205	2439.313523
962.400814	2441.014912
962.700385	2436.220775
962.999918	2438.149017
963.299414	2434.758841
963.598873	2435.822524
963.898293	2430.809097
964.197677	2431.487132
964.497022	2428.598551
964.796331	2428.384302
965.095601	2427.713828
965.394835	2429.354724
965.694030	2426.088056
965.993189	2428.911102
966.292309	2424.235432
966.591393	2425.939342
966.890439	2425.122675
967.189447	2425.594023
967.488419	2429.102666
967.787353	2428.588468
968.086249	2428.333890
968.385108	2426.803900
968.683930	2428.946390
968.982714	2431.010743
969.281462	2432.066864
969.580172	2430.965372
969.878844	2435.023501
970.177480	2437.791095
970.476078	2437.140786
970.774639	2443.346446
971.073162	2441.017433
971.371649	2444.072372
971.670098	2442.789399
971.968510	2446.124122
972.266885	2444.079934
972.565223	2446.141766
972.863524	2449.695779
973.161788	2455.044444
973.460014	2454.293312
973.758204	2452.917077
974.056356	2457.171811
974.354471	2455.220884
974.652550	2456.783642
974.950591	2456.019907
975.248595	2455.102417
975.546563	2454.179886
975.844493	2453.237190
976.142386	2450.850204
976.440243	2448.296859
976.738062	2450.512446
977.035845	2444.384924
977.333590	2445.746035
977.631299	2439.520210
977.928971	2440.866198
978.226606	2442.381065
978.524204	2440.916610
978.821765	2435.429314
979.119290	2436.021650
979.416777	2433.468305
979.714228	2437.145827
980.011642	2438.128852
980.309020	2441.652618
980.606360	2445.569595
980.903664	2449.920111
981.200931	2461.938222
981.498162	2478.228710
981.795356	2504.276352
982.092513	2537.043852
982.389633	2573.624985
982.686717	2611.446242
982.983764	2638.726446
983.280775	2655.642037
983.577749	2656.307470
983.874686	2645.814308
984.171587	2635.588327
984.468451	2619.353292
984.765279	2601.666403
985.062070	2585.728795
985.358824	2570.900241
985.655543	2552.878116
985.952224	2531.967410
986.248869	2510.522342
986.545478	2487.950575
986.842050	2472.360807
987.138586	2455.611573
987.435086	2443.114553
987.731549	2434.196752
988.027975	2431.456885
988.324366	2426.259455
988.620719	2422.992787
988.917037	2418.480955
989.213318	2417.999525
989.509563	2416.373753
989.805772	2410.828483
990.101944	2411.914852
990.398080	2411.062897
990.694180	2410.140366
990.990244	2414.039698
991.286271	2410.142886
991.582262	2413.051632
991.878217	2412.421488
992.174136	2414.536252
992.470019	2413.903587
992.765865	2419.098496
993.061676	2418.445667
993.357450	2421.069587
993.653188	2422.846594
993.948890	2429.755495
994.244556	2433.397729
994.540186	2437.959973
994.835780	2451.535801
995.131337	2461.466874
995.426859	2477.767445
995.722345	2494.693119
996.017795	2511.094513
996.313208	2521.444002
996.608586	2532.272400
996.903928	2533.041176
997.199234	2529.739220
997.494504	2529.003212
997.789738	2522.626152
998.084936	2512.765655
998.380099	2501.964983
998.675225	2495.958448
998.970316	2484.164669
999.265371	2472.774182
999.560390	2461.850001
999.855373	2450.583022
1000.150320	2441.302258
1000.445232	2436.654314
1000.740108	2429.682399
1001.034948	2423.222160
1001.329752	2421.067067
1001.624521	2417.722261
1001.919254	2410.742784
1002.213951	2411.355284
1002.508613	2408.610376
1002.803239	2407.599624
1003.097829	2406.709861
1003.392384	2406.427556
1003.686903	2407.647515
1003.981386	2405.762124
1004.275834	2404.796743
1004.570246	2402.099725
1004.864623	2402.248439
1005.158964	2402.548388
1005.453270	2398.759961
1005.747540	2400.952863
1006.041775	2398.006308
1006.335974	2401.819941
1006.630138	2399.584190
1006.924266	2400.274828
1007.218359	2399.906823
1007.512416	2399.435476
1007.806438	2400.330280
1008.100425	2401.023439
1008.394376	2396.768705
1008.688292	2401.351114
1008.982172	2400.080743
1009.276017	2400.080743
1009.569827	2398.976731
1009.863602	2397.562687
1010.157341	2401.154509
1010.451045	2398.031514
1010.744714	2397.116545
1011.038347	2395.891544
1011.331945	2397.512275
1011.625508	2398.545712
1011.919036	2397.247615
1012.212528	2399.286762
1012.505986	2397.441699
1012.799408	2396.932543
1013.092795	2395.095042
1013.386147	2396.574621
1013.679464	2394.227964
1013.972745	2392.791235
1014.265992	2396.186452
1014.559204	2396.718294
1014.852380	2394.875752
1015.145521	2396.173849
1015.438628	2394.608571
1015.731699	2398.016391
1016.024736	2397.250135
1016.317737	2395.810886
1016.610703	2397.698798
1016.903635	2395.064795
1017.196531	2392.569424
1017.489393	2395.989847
1017.782219	2395.636966
1018.075011	2394.948849
1018.367768	2398.318860
1018.660490	2398.661658
1018.953177	2398.661658
1019.245829	2398.661658
