Dividing Wavelength (nm)	Counts (n)	Blue Motor Position (mm): 16.000000	Red Motor Position (mm): 0.000000	
326.493990	1974.829169
326.888308	1974.829169
327.282561	1974.829169
327.676750	1951.992742
328.070874	1953.744543
328.464933	1958.490790
328.858929	1967.615278
329.252859	1981.302011
329.646726	1993.917498
330.040528	2009.920641
330.434265	2030.123065
330.827938	2048.961857
331.221547	2067.576318
331.615091	2087.239338
332.008571	2108.190374
332.401986	2131.460340
332.795338	2150.846097
333.188625	2171.386278
333.581847	2190.139371
333.975006	2208.403471
334.368100	2225.112376
334.761129	2243.298338
335.154095	2255.409710
335.546996	2289.601336
335.939833	2346.117712
336.332606	2361.185721
336.725315	2368.686958
337.117960	2379.172558
337.510540	2385.514329
337.903056	2398.008829
338.295508	2401.542678
338.687896	2409.711868
339.080220	2419.887437
339.472480	2422.249217
339.864676	2424.789959
340.256807	2430.148705
340.648875	2426.725762
341.040879	2432.218099
341.432818	2430.766247
341.824694	2435.114242
342.216506	2436.500559
342.608253	2433.473346
342.999937	2432.439910
343.391557	2430.925043
343.783113	2427.872624
344.174605	2426.854311
344.566033	2425.440268
344.957397	2423.315421
345.348697	2421.518250
345.739934	2420.842735
346.131106	2419.426171
346.522215	2419.005235
346.913260	2415.305028
347.304241	2415.015162
347.695159	2412.408885
348.086012	2412.446694
348.476802	2409.424522
348.867528	2406.866136
349.258191	2403.959911
349.648789	2405.701630
350.039324	2405.303379
350.429796	2404.494273
350.820203	2403.352452
351.210548	2403.486043
351.600828	2401.744324
351.991045	2400.693243
352.381198	2401.288100
352.771288	2400.294992
353.161314	2399.528737
353.551276	2400.098387
353.941175	2398.986813
354.331010	2402.003943
354.720782	2403.347411
355.110490	2405.777247
355.500135	2402.999571
355.889717	2400.940260
356.279235	2400.226937
356.668689	2401.857750
357.058080	2403.843965
357.447408	2401.073851
357.836672	2400.211813
358.225873	2400.277348
358.615010	2398.661658
359.004084	2403.435631
359.393095	2404.060734
359.782043	2404.799263
360.170927	2404.370765
360.559748	2404.900086
360.948505	2407.846641
361.337199	2406.230951
361.725830	2407.145920
362.114398	2409.858061
362.502903	2406.987124
362.891344	2408.930489
363.279722	2409.991652
363.668037	2410.528535
364.056289	2411.256981
364.444478	2412.436611
364.832603	2410.412588
365.220665	2411.751014
365.608665	2411.627506
365.996601	2413.074317
366.384474	2411.398134
366.772284	2415.854514
367.160031	2413.525501
367.547715	2416.580440
367.935336	2417.044226
368.322893	2414.725295
368.710388	2414.609349
369.097820	2417.013979
369.485189	2416.454411
369.872495	2416.018351
370.259738	2413.419636
370.646918	2417.883578
371.034035	2414.037178
371.421090	2417.470203
371.808081	2417.820564
372.195010	2417.140008
372.581875	2416.484658
372.968678	2416.144380
373.355418	2417.893660
373.742096	2418.669998
374.128710	2420.371387
374.515262	2420.021027
374.901751	2420.928435
375.288177	2419.418609
375.674540	2420.179824
376.060841	2422.218970
376.447079	2420.242838
376.833254	2422.602098
377.219367	2416.819895
377.605417	2419.708476
377.991404	2415.670512
378.377329	2414.069945
378.763191	2416.431726
379.148991	2421.430030
379.534727	2421.387180
379.920402	2422.050092
380.306013	2420.961202
380.691563	2423.275092
381.077049	2423.849784
381.462474	2423.506985
381.847835	2422.589495
382.233134	2424.600916
382.618371	2423.506985
383.003545	2424.729465
383.388657	2428.031421
383.773706	2420.615883
384.158693	2424.565627
384.543618	2424.956317
384.928480	2422.604619
385.313280	2423.733837
385.698017	2424.976482
386.082692	2425.233580
386.467305	2426.337593
386.851856	2427.005546
387.236344	2424.532860
387.620770	2429.853798
388.005133	2428.023859
388.389435	2427.408838
388.773674	2429.150557
389.157851	2427.282809
389.541965	2428.792635
389.926018	2427.955803
390.310008	2429.125351
390.693936	2427.648293
391.077802	2428.843047
391.461606	2431.527461
391.845348	2431.668613
392.229027	2431.174580
392.612645	2430.156267
392.996200	2433.652307
393.379694	2429.016966
393.763125	2429.342121
394.146494	2432.669282
394.529801	2432.298757
394.913047	2431.814807
395.296230	2433.327153
395.679351	2433.470826
396.062410	2435.202462
396.445408	2433.858995
396.828343	2431.744231
397.211217	2430.277255
397.594028	2429.039652
397.976778	2432.197934
398.359466	2435.537699
398.742092	2427.479414
399.124656	2433.848912
399.507158	2433.178439
399.889598	2434.108532
400.271977	2433.332194
400.654294	2435.756989
401.036549	2435.638522
401.418742	2436.583738
401.800874	2434.080805
402.182944	2438.559871
402.564952	2435.331012
402.946898	2437.881835
403.328783	2435.152051
403.710606	2438.993410
404.092367	2436.956784
404.474067	2435.971238
404.855705	2440.339398
405.237282	2434.632812
405.618797	2438.743873
406.000250	2439.479881
406.381642	2436.858481
406.762972	2436.266146
407.144240	2437.148347
407.525447	2440.283945
407.906593	2438.799325
408.287677	2441.708071
408.668700	2439.104315
409.049661	2444.079934
409.430560	2440.495674
409.811399	2442.842331
410.192176	2443.868206
410.572891	2444.548761
410.953545	2442.002979
411.334138	2442.403750
411.714669	2442.625561
412.095139	2442.865016
412.475547	2441.539192
412.855894	2441.715633
413.236180	2441.067845
413.616405	2444.284101
413.996568	2439.646239
414.376670	2441.398040
414.756711	2441.761003
415.136691	2444.362239
415.516609	2442.154213
415.896466	2445.491457
416.276262	2447.996911
416.655997	2441.166147
417.035670	2440.614141
417.415283	2442.466765
417.794834	2438.932916
418.174324	2443.212856
418.553753	2443.356528
418.933121	2444.863833
419.312428	2440.682196
419.691674	2446.459359
420.070859	2444.135387
420.449983	2446.255192
420.829045	2445.798968
421.208047	2446.686211
421.586988	2446.096396
421.965867	2443.606066
422.344686	2444.846189
422.723444	2447.598659
423.102141	2445.567074
423.480777	2446.716457
423.859352	2444.586570
424.237866	2448.826180
424.616319	2449.632765
424.994712	2445.287290
425.373044	2450.436829
425.751314	2447.228135
426.129524	2447.379369
426.507673	2448.203598
426.885762	2448.198557
427.263789	2451.056891
427.641756	2448.443053
428.019662	2449.080759
428.397508	2449.816767
428.775292	2446.943309
429.153016	2448.538835
429.530679	2450.262909
429.908282	2451.853393
430.285824	2448.564040
430.663305	2448.034719
431.040726	2448.221242
431.418086	2449.642847
431.795385	2449.562189
432.172624	2450.865327
432.549802	2449.463886
432.926920	2450.900615
433.303977	2451.245934
433.680974	2447.880964
434.057910	2450.252827
434.434786	2453.070832
434.811601	2451.785338
435.188355	2450.290636
435.565050	2454.994032
435.941683	2450.245265
436.318257	2453.665688
436.694770	2449.879782
437.071222	2453.290122
437.447614	2450.109154
437.823946	2452.140739
438.200218	2455.379680
438.576429	2454.527725
438.952580	2452.032354
439.328670	2454.414299
439.704700	2453.983281
440.080670	2456.050154
440.456580	2452.639813
440.832429	2454.338682
441.208218	2455.039402
441.583947	2458.175000
441.959616	2456.266923
442.335224	2458.422017
442.710773	2456.619804
443.086261	2457.197016
443.461689	2456.148456
443.837057	2456.798765
444.212365	2458.381687
444.587612	2459.682305
444.962800	2458.754733
445.337927	2458.182562
445.712995	2458.850515
446.088002	2459.768005
446.462949	2457.706173
446.837837	2457.993519
447.212664	2457.096193
447.587431	2462.737244
447.962139	2464.272276
448.336786	2468.446351
448.711374	2467.080198
449.085901	2463.175825
449.460369	2463.821093
449.834776	2462.492748
450.209124	2464.930146
450.583412	2466.379478
450.957640	2465.383850
451.331808	2465.625826
451.705917	2464.529375
452.079965	2466.200517
452.453954	2465.472070
452.827883	2465.220013
453.201752	2465.078860
453.575562	2467.571711
453.949311	2468.642956
454.323001	2466.722277
454.696632	2466.578604
455.070202	2471.092957
455.443713	2465.829992
455.817164	2470.664459
456.190556	2467.400312
456.563888	2470.339304
456.937160	2466.991978
457.310373	2468.675724
457.683526	2469.759572
458.056619	2471.163533
458.429653	2473.154789
458.802628	2471.155971
459.175542	2472.819552
459.548398	2475.972794
459.921194	2478.009420
460.293930	2478.538741
460.666607	2477.749801
461.039224	2478.372383
461.411782	2481.530666
461.784280	2481.681901
462.156719	2480.726602
462.529099	2480.308186
462.901419	2479.763742
463.273680	2477.464975
463.645882	2481.689462
464.018024	2480.225007
464.390106	2480.174596
464.762130	2485.614001
465.134094	2489.208343
465.505999	2496.328973
465.877845	2501.909530
466.249631	2503.807525
466.621358	2501.256701
466.993026	2504.248626
467.364634	2503.217710
467.736184	2495.724035
468.107674	2496.245794
468.479105	2496.220588
468.850477	2495.812255
469.221790	2492.674137
469.593043	2492.550628
469.964238	2489.967037
470.335373	2492.502737
470.706449	2494.209168
471.077467	2495.610609
471.448425	2505.892042
471.819324	2508.271467
472.190164	2508.500839
472.560945	2501.060096
472.931667	2500.404746
473.302330	2498.572287
473.672934	2497.919457
474.043479	2498.932729
474.413965	2495.703870
474.784393	2496.109683
475.154761	2500.840806
475.525070	2498.426093
475.895321	2498.746206
476.265513	2497.425424
476.635645	2504.772906
477.005719	2505.738287
477.375734	2508.178205
477.745691	2511.497805
478.115588	2512.347239
478.485427	2514.794720
478.855207	2525.855011
479.224928	2528.297450
479.594591	2534.001516
479.964194	2532.900024
480.333739	2538.689789
480.703226	2536.055786
481.072653	2540.290355
481.442022	2541.691796
481.811333	2541.699358
482.180584	2542.889070
482.549777	2546.962322
482.918912	2545.485264
483.287988	2547.836962
483.657005	2543.393185
484.025964	2549.805533
484.394864	2548.588094
484.763706	2553.959444
485.132489	2550.773435
485.501213	2553.621687
485.869879	2555.229815
486.238487	2559.025803
486.607036	2558.801472
486.975527	2562.826833
487.343959	2563.784653
487.712333	2566.960580
488.080648	2568.288924
488.448905	2571.984089
488.817104	2575.396951
489.185244	2580.712847
489.553326	2588.604774
489.921350	2597.441916
490.289315	2610.589246
490.657222	2618.387911
491.025070	2622.015021
491.392861	2623.086266
491.760593	2621.359671
492.128267	2617.684670
492.495883	2613.591253
492.863440	2616.152159
493.230939	2612.824997
493.598380	2614.289453
493.965763	2607.068000
494.333088	2612.184771
494.700354	2611.088320
495.067563	2614.659977
495.434713	2613.329113
495.801805	2623.207254
496.168839	2624.875876
496.535815	2624.966616
496.902733	2630.022894
497.269593	2629.760754
497.636395	2632.319139
498.003139	2636.599079
498.369825	2638.381127
498.736453	2644.125522
499.103023	2644.813639
499.469535	2645.920172
499.835989	2650.928559
500.202385	2650.381593
500.568723	2652.980308
500.935003	2659.969868
501.301226	2659.984992
501.667390	2668.728873
502.033497	2674.982424
502.399546	2672.996210
502.765537	2669.543019
503.131470	2675.572239
503.497345	2683.325534
503.863163	2678.546520
504.228923	2682.153466
504.594625	2686.962726
504.960269	2688.255782
505.325856	2696.558563
505.691385	2696.833306
506.056856	2697.609643
506.422270	2703.918647
506.787625	2706.721529
507.152924	2711.810574
507.518164	2715.535986
507.883347	2714.260574
508.248472	2719.195864
508.613540	2728.416134
508.978550	2732.887638
509.343503	2734.614233
509.708398	2738.717732
510.073236	2748.416912
510.438016	2751.426481
510.802738	2750.456059
511.167403	2760.112389
511.532010	2767.391815
511.896561	2770.174532
512.261053	2785.708848
512.625488	2783.581481
512.989866	2785.434105
513.354186	2792.574899
513.718449	2794.266207
514.082655	2812.064000
514.446803	2812.812612
514.810894	2824.404745
515.174927	2828.969510
515.538904	2833.589727
515.902822	2848.446007
516.266684	2848.272088
516.630488	2858.419930
516.994235	2866.682382
517.357925	2880.648898
517.721558	2893.019890
518.085133	2902.749317
518.448651	2914.588467
518.812112	2921.416709
519.175516	2929.071702
519.538863	2942.672735
519.902152	2952.893674
520.265385	2969.957980
520.628560	2984.516832
520.991678	2993.734582
521.354739	3007.617920
521.717743	3026.877648
522.080690	3037.443906
522.443580	3057.623645
522.806413	3072.994123
523.169189	3085.355033
523.531908	3103.745162
523.894569	3119.904580
524.257174	3137.654483
524.619722	3159.228101
524.982213	3180.486647
525.344647	3198.367619
525.707025	3220.372256
526.069345	3248.012902
526.431608	3266.181221
526.793815	3294.772125
527.155964	3307.488436
527.518057	3334.264524
527.880093	3356.460725
528.242072	3391.378277
528.603995	3409.808735
528.965860	3440.287551
529.327669	3468.114721
529.689421	3493.191940
530.051117	3522.564223
530.412755	3557.827094
530.774337	3591.484358
531.135862	3617.451342
531.497331	3655.199502
531.858743	3687.793082
532.220098	3729.009556
532.581396	3762.192951
532.942638	3789.659678
533.303824	3837.187676
533.664953	3880.171074
534.026025	3905.684354
534.387040	3964.832212
534.747999	4008.415508
535.108902	4054.574833
535.469748	4086.185388
535.830537	4136.498624
536.191270	4188.936706
536.551947	4223.208991
536.912567	4285.280718
537.273131	4339.284078
537.633638	4368.852966
537.994089	4438.186476
538.354483	4472.667968
538.714821	4556.683838
539.075103	4630.922390
539.435328	4677.331253
539.795497	4727.606680
540.155609	4789.486843
540.515665	4871.035068
540.875665	4904.846087
541.235609	4984.566894
541.595496	5047.319177
541.955328	5149.536133
542.315102	5178.462274
542.674821	5235.538218
543.034483	5303.651768
543.394090	5367.515626
543.753640	5436.327376
544.113134	5579.024797
544.472571	5586.808338
544.831953	5741.584364
545.191278	5768.073107
545.550548	5822.739380
545.909761	5934.388334
546.268918	6032.012799
546.628019	6139.175127
546.987064	6181.631725
547.346053	6204.135436
547.704986	6362.407502
548.063863	6411.803248
548.422684	6514.751171
548.781449	6588.341935
549.140158	6716.966975
549.498811	6792.420445
549.857408	6827.035528
550.215949	7005.356263
550.574434	7091.378512
550.932864	7168.452714
551.291237	7335.110739
551.649555	7393.018473
552.007817	7523.160901
552.366022	7588.370747
552.724173	7718.122485
553.082267	7870.960187
553.440305	8021.610029
553.798288	8045.842855
554.156215	8197.657203
554.514086	8337.491249
554.871902	8419.054598
555.229661	8536.203452
555.587365	8627.138305
555.945014	8761.996732
556.302606	8871.094863
556.660143	9024.814768
557.017625	9167.860029
557.375050	9254.628369
557.732421	9440.145351
558.089735	9566.214526
558.446994	9680.802474
558.804197	9886.534483
559.161345	10020.465338
559.518437	10019.744452
559.875474	10209.513648
560.232455	10367.770591
560.589381	10539.036231
560.946251	10625.073603
561.303065	10895.140818
561.659825	11007.722386
562.016528	11091.098030
562.373177	11184.402226
562.729770	11428.104205
563.086307	11479.586989
563.442789	11728.025133
563.799216	11890.425904
564.155587	12003.115857
564.511904	12176.644975
564.868164	12347.318280
565.224370	12576.965523
565.580520	12685.252028
565.936615	12907.004824
566.292654	13017.010363
566.648638	13247.103748
567.004567	13404.601997
567.360441	13593.032766
567.716260	13731.556112
568.072023	13978.217249
568.427732	14160.356658
568.783385	14225.498448
569.138982	14500.581610
569.494525	14669.183001
569.850013	14802.093022
570.205445	14972.100894
570.560823	15142.350742
570.916145	15289.297856
571.271412	15492.736140
571.626625	15616.347753
571.981782	15807.304140
572.336884	15912.031591
572.691931	16202.936414
573.046923	16267.884120
573.401860	16407.962662
573.756743	16595.622134
574.111570	16825.498750
574.466342	16973.353272
574.821059	17206.194085
575.175722	17232.019917
575.530330	17441.547914
575.884882	17538.741361
576.239380	17723.731542
576.593823	17916.326304
576.948211	18100.666177
577.302544	18100.603162
577.656823	18324.294282
578.011047	18613.674157
578.365216	18699.948464
578.719330	18815.151432
579.073389	18970.613055
579.427394	19199.630154
579.781344	19397.334125
580.135239	19452.509554
580.489080	19693.842192
580.842866	19680.251241
581.196597	20073.983000
581.550273	20249.644527
581.903895	20392.256248
582.257463	20801.691202
582.610975	20731.455326
582.964434	21054.396683
583.317837	21090.955130
583.671186	21219.060932
584.024481	21541.861136
584.377721	21516.287362
584.730906	21845.086540
585.084037	22053.374414
585.437113	22111.703084
585.790135	22340.881500
586.143103	22335.842867
586.496016	22586.995672
586.848874	22810.233088
587.201679	23012.859746
587.554428	22940.748561
587.907124	23241.178645
588.259765	23310.539881
588.612352	23639.500375
588.964884	23514.220140
589.317362	23859.352656
589.669786	24027.114694
590.022155	24093.365538
590.374470	24510.006821
590.726731	24449.364261
591.078937	24362.018709
591.431090	24611.649085
591.783188	24594.549492
592.135232	24585.354427
592.487222	24911.633027
592.839157	25146.195395
593.191038	25140.652647
593.542866	25169.414950
593.894639	24993.156047
594.246358	25328.992675
594.598022	25485.800286
594.949633	25425.346769
595.301190	25570.915127
595.652692	25644.977239
596.004141	26025.758274
596.355535	25575.328657
596.706876	25715.513064
597.058162	25778.784586
597.409395	26229.380560
597.760573	26445.764528
598.111698	26340.530441
598.462768	26504.846851
598.813785	26682.056011
599.164748	26485.781207
599.515657	26909.084375
599.866511	26719.040436
600.217312	27291.566799
600.568060	26734.844454
600.918753	27400.919508
601.269392	27530.393983
601.619978	27432.305732
601.970510	27736.103307
602.320988	28015.781481
602.671412	28371.112251
603.021783	28326.316558
603.372100	28251.173119
603.722363	28469.734865
604.072572	28656.239913
604.422728	28810.068202
604.772830	28810.751278
605.122878	29032.269661
605.472872	29116.167063
605.822813	29467.974067
606.172701	29464.503233
606.522534	29777.896644
606.872314	30099.292887
607.222041	30059.697144
607.571714	30492.001292
607.921333	30187.263542
608.270899	30536.282787
608.620411	30929.205441
608.969870	30900.768293
609.319276	31019.608453
609.668627	31180.673319
610.017926	31679.402230
610.367171	31924.833326
610.716362	32116.530763
611.065500	32189.667823
611.414585	32455.520632
611.763616	32817.533452
612.112594	32860.516850
612.461518	33147.953360
612.810389	33498.895806
613.159207	33505.802187
613.507971	33680.440359
613.856682	34184.664128
614.205340	34182.166236
614.553945	34868.486565
614.902496	34514.128738
615.250994	35004.537225
615.599439	35170.474366
615.947830	35453.210000
616.296169	35583.932160
616.644454	35814.680895
616.992686	36033.623248
617.340864	36582.277227
617.688990	36429.885666
618.037063	37018.236211
618.385082	37068.730929
618.733048	37419.557428
619.080961	37525.285547
619.428821	37612.951213
619.776628	37799.874677
620.124382	37728.076043
620.472083	37954.111299
620.819731	38128.895665
621.167326	37938.468599
621.514868	38018.083542
621.862357	37724.005311
622.209793	37836.665017
622.557176	37635.822928
622.904506	37487.676019
623.251783	37268.239633
623.599007	37148.807137
623.946179	37031.005454
624.293297	37053.814154
624.640363	36619.536395
624.987376	36669.534558
625.334336	36523.862856
625.681243	36280.256658
626.028097	36313.485424
626.374899	36239.839208
626.721647	36293.066230
627.068343	36253.470488
627.414987	36102.901304
627.761577	35955.676927
628.108115	36320.974058
628.454600	35872.553341
628.801032	36088.329849
629.147412	36115.552080
629.493739	36181.460125
629.840014	35912.335607
630.186236	36279.540815
630.532405	35975.680225
630.878521	36230.994503
631.224585	36150.930898
631.570597	35929.717505
631.916556	36129.742928
632.262462	36123.325539
632.608316	36181.979364
632.954117	36127.912989
633.299866	36171.695410
633.645562	36131.898021
633.991206	35743.666161
634.336797	35391.062655
634.682336	35436.024706
635.027823	35253.056027
635.373257	35125.353518
635.718639	34957.157941
636.063968	34878.233636
636.409245	34360.131570
636.754470	34467.800534
637.099642	34284.161382
637.444762	33877.942684
637.789829	34039.988054
638.134845	33766.878503
638.479808	33740.435131
638.824719	33693.383521
639.169577	33355.764845
639.514383	33450.853610
639.859137	33210.471230
640.203839	33458.624548
640.548489	33153.712878
640.893086	33237.063316
641.237632	33051.148083
641.582125	33188.819474
641.926566	33137.742503
642.270955	33145.599141
642.615292	33190.230997
642.959576	33197.656617
643.303809	33232.982502
643.647990	33391.672984
643.992118	33390.526122
644.336195	33402.753440
644.680219	33525.434960
645.024192	33827.712627
645.368112	34347.236298
645.711981	34375.391143
646.055797	35224.568467
646.399562	35184.143454
646.743274	36079.787614
647.086935	36527.341253
647.430544	36458.143854
647.774101	36585.468277
648.117606	36849.750767
648.461059	37150.934504
648.804460	36800.841493
649.147810	36248.930928
649.491108	36043.776132
649.834354	35715.188683
650.177548	34951.620233
650.520690	34533.708579
650.863781	34573.125361
651.206820	34460.442970
651.549807	34050.821493
651.892742	33598.156125
652.235626	33436.496403
652.578458	33317.033660
652.921238	32757.601694
653.263967	33103.656741
653.606644	32810.942143
653.949269	32768.079733
654.291843	32426.428134
654.634365	32814.733091
654.976836	32433.513475
655.319255	32446.925465
655.661622	32473.895638
656.003938	32273.653446
656.346203	32160.066167
656.688416	32384.417678
657.030577	32205.592828
657.372687	32055.598336
657.714746	32330.235357
658.056753	32458.865438
658.398708	31943.674638
658.740612	32025.152288
659.082465	32275.750566
659.424266	32125.367905
659.766016	32258.925715
660.107715	32151.675167
660.449362	32288.749181
660.790958	32277.648560
661.132503	32310.332881
661.473996	32348.169261
661.815438	32451.490230
662.156829	32654.981446
662.498168	32456.854018
662.839456	32493.170490
663.180693	32632.613847
663.521879	32816.570592
663.863013	32783.805612
664.204097	32780.049953
664.545129	33252.680811
664.886110	33223.401789
665.227040	33299.311484
665.567918	33417.234155
665.908746	33481.115656
666.249522	33651.811646
666.590248	33669.659851
666.930922	33773.668937
667.271545	33737.307095
667.612118	33819.021678
667.952639	33625.874909
668.293109	33683.936399
668.633528	33592.512553
668.973896	33536.805283
669.314213	33575.796087
669.654480	33310.326405
669.994695	33353.450956
670.334859	33262.334620
670.674973	33162.827285
671.015035	33327.315093
671.355047	33300.075219
671.695008	33255.103085
672.034918	33140.994047
672.374777	33236.647421
672.714585	33076.333687
673.054342	33302.996567
673.394049	33068.214909
673.733705	33342.551981
674.073310	33035.986813
674.412864	33114.099492
674.752368	32725.171952
675.091820	33022.272354
675.431223	32603.307099
675.770574	32323.434840
676.109875	32209.056100
676.449125	31945.738991
676.788324	31883.248848
677.127473	31344.213391
677.466571	31276.919028
677.805619	30934.700299
678.144616	30940.238007
678.483562	30879.131660
678.822458	30559.744317
679.161303	30486.214047
679.500098	30399.473433
679.838842	30298.363011
680.177535	30445.504209
680.516179	30729.079195
680.854771	30975.836114
681.193314	31829.230364
681.531805	32922.102106
681.870247	33690.222718
682.208638	34437.331800
682.546978	34657.647867
682.885268	34738.407152
683.223508	34212.700505
683.561697	33880.518714
683.899836	33706.309040
684.237925	33197.528067
684.575963	33053.759401
684.913951	32612.776906
685.251889	32774.335805
685.589776	32761.105296
685.927614	32745.742380
686.265401	32909.378234
686.603137	33006.044879
686.940824	33504.317567
687.278460	33893.943306
687.616046	34022.386865
687.953582	34624.469513
688.291068	34492.106457
688.628504	34762.042602
688.965889	34712.321701
689.303224	34332.387580
689.640510	33996.946682
689.977745	33268.452061
690.314930	32473.532675
690.652065	31949.902984
690.989150	31200.785002
691.326185	30323.294037
691.663170	29614.727097
692.000105	28889.360511
692.336990	28219.159272
692.673825	27786.298076
693.010610	27263.492613
693.347345	26695.924225
693.684030	26061.132051
694.020665	25789.968385
694.357251	25120.021724
694.693786	25082.903709
695.030272	24848.482493
695.366707	24312.393590
695.703093	24029.758779
696.039429	24024.755434
696.375716	23756.281224
696.711952	23734.417740
697.048139	23573.367998
697.384276	23397.933324
697.720363	23525.845041
698.056400	23331.652233
698.392388	23121.264718
698.728326	23081.346342
699.064214	22880.327811
699.400053	22831.879802
699.735842	22472.816058
700.071581	22194.443543
700.407270	21909.388978
700.742910	21742.975448
701.078501	21463.798869
701.414042	21183.286383
701.749533	20899.597971
702.084974	20546.495391
702.420366	20744.453941
702.755709	20320.205557
703.091002	20025.250166
703.426246	20055.209743
703.761440	19958.091914
704.096584	19686.598053
704.431679	19636.950250
704.766725	19554.729031
705.101721	19492.473301
705.436668	19577.409182
705.771565	19258.200800
706.106413	19599.149158
706.441212	19584.474359
706.775961	19720.799762
707.110661	19798.882194
707.445311	20151.382356
707.779913	19991.028293
708.114465	20239.494163
708.448967	20521.150990
708.783421	21208.507276
709.117825	21474.773461
709.452180	21693.577182
709.786485	22098.946445
710.120742	22897.150142
710.454949	22901.735071
710.789107	23368.669426
711.123216	24077.405245
711.457275	24196.200035
711.791286	24720.094387
712.125247	24794.395953
712.459159	24488.791125
712.793023	25139.175588
713.126837	24048.433734
713.460602	24291.238388
713.794318	23919.102932
714.127985	23534.815774
714.461602	22646.907265
714.795171	22604.856480
715.128691	21604.310950
715.462162	21061.855070
715.795584	20650.043212
716.128957	20390.569982
716.462281	19988.532922
716.795556	19758.011039
717.128782	19264.204814
717.461960	18726.233040
717.795088	18646.865114
718.128167	18245.546418
718.461198	17801.574519
718.794180	17651.890059
719.127113	17294.739432
719.459997	17106.865711
719.792833	16764.525994
720.125619	16735.632621
720.458357	16413.157571
720.791046	16255.276194
721.123686	16094.193685
721.456278	15858.925555
721.788821	15817.197404
722.121315	15558.455142
722.453761	15634.866432
722.786158	15561.696604
723.118506	15570.011987
723.450805	15439.947698
723.783056	15596.014259
724.115259	15497.424413
724.447412	15433.971410
724.779518	15676.203893
725.111574	15695.254413
725.443582	15886.578805
725.775542	15866.411669
726.107453	16337.414234
726.439315	16220.119187
726.771129	16623.393851
727.102895	16989.051425
727.434612	17185.613575
727.766281	17305.993808
728.097901	17574.644458
728.429473	17600.515660
728.760996	17581.757526
729.092471	17660.964136
729.423897	17542.509623
729.755276	17416.868946
730.086606	17532.326492
730.417887	18049.062406
730.749120	18566.088185
731.080305	18739.579495
731.411442	19065.885822
731.742530	19130.606675
732.073570	19225.166118
732.404562	19513.429378
732.735506	19332.424228
733.066401	19053.071208
733.397249	18531.203401
733.728048	17887.382519
734.058798	17069.636789
734.389501	16405.051396
734.720156	15946.518124
735.050762	15428.428661
735.381320	15073.460854
735.711831	14838.974103
736.042293	14496.727648
736.372707	14508.939843
736.703073	14297.904541
737.033391	14480.661491
737.363661	14453.328355
737.693883	14557.428182
738.024056	14724.824736
738.354182	14906.195369
738.684260	15191.181879
739.014290	15418.147228
739.344272	15599.248159
739.674207	15868.362595
740.004093	15991.114692
740.333931	15978.632795
740.663722	16017.633681
740.993464	16002.966444
741.323159	15833.934035
741.652806	15562.687191
741.982405	15347.021588
742.311956	15011.734446
742.641460	14886.406320
742.970915	14593.033851
743.300323	14259.695115
743.629683	14045.488926
743.958996	13769.299231
744.288260	13496.701357
744.617477	13205.173951
744.946647	13126.247125
745.275768	12859.640663
745.604842	12681.128364
745.933869	12512.138805
746.262847	12462.979993
746.591778	12387.274465
746.920662	12289.801235
747.249498	12290.222172
747.578286	12417.533991
747.907027	12551.018704
748.235720	12762.144748
748.564365	12804.356849
748.892963	12699.848689
749.221514	12757.910178
749.550017	12609.778393
749.878473	12569.507136
750.206881	12357.040145
750.535242	12268.580498
750.863555	12186.659227
751.191821	12088.863363
751.520039	12107.424892
751.848210	12014.748320
752.176334	12043.087166
752.504411	11950.312291
752.832440	11800.723612
753.160421	11862.208045
753.488356	11739.282029
753.816243	11649.945222
754.144082	11508.240907
754.471875	11454.386261
754.799620	11395.152703
755.127318	11371.749147
755.454969	11334.197592
755.782572	11288.640684
756.110129	11295.395830
756.437638	11213.996319
756.765100	11208.879548
757.092515	11209.411390
757.419882	11226.450490
757.747203	11228.860161
758.074477	11308.031483
758.401703	11260.069945
758.728882	11418.284038
759.056014	11457.884822
759.383099	11576.145250
759.710138	11679.703153
760.037129	11764.029054
760.364073	11781.249635
760.690970	11763.535021
761.017820	11761.589135
761.344623	11945.676950
761.671379	12262.480702
761.998088	12891.684757
762.324751	14437.090798
762.651366	17280.609078
762.977935	20911.298489
763.304456	23120.374955
763.630931	23581.126334
763.957359	22399.918453
764.283740	20502.647435
764.610074	18640.419999
764.936362	16532.965633
765.262602	15025.900088
765.588796	13567.181729
765.914943	12543.517467
766.241044	11707.278264
766.567097	11077.708725
766.893104	10534.801662
767.219064	10172.640128
767.544978	9793.620976
767.870845	9483.829469
768.196665	9299.860122
768.522438	9108.608827
768.848165	8946.366852
769.173846	8781.881564
769.499479	8661.196341
769.825066	8501.106939
770.150607	8323.287798
770.476101	8260.119620
770.801548	8150.776993
771.126949	8013.491251
771.452303	7920.421468
771.777611	7748.215653
772.102872	7737.220896
772.428087	7624.697301
772.753256	7496.994792
773.078378	7412.653768
773.403453	7268.365862
773.728482	7167.794843
774.053465	7103.073989
774.378401	7017.780187
774.703291	6923.939108
775.028135	6833.412588
775.352932	6797.224665
775.677683	6717.377829
776.002388	6627.423480
776.327046	6624.963397
776.651658	6542.238062
776.976224	6464.619417
777.300743	6447.247600
777.625216	6380.606067
777.949643	6341.060736
778.274024	6344.213977
778.598359	6277.930366
778.922647	6278.626045
779.246889	6243.655561
779.571086	6249.846098
779.895236	6258.239619
780.219339	6251.048413
780.543397	6254.627632
780.867409	6305.180323
781.191374	6300.381145
781.515294	6265.851762
781.839167	6318.249515
782.162995	6288.310102
782.486776	6239.864613
782.810511	6202.454211
783.134201	6125.720288
783.457844	6111.889882
783.781441	6064.558488
784.104993	6021.638105
784.428498	5995.126677
784.751958	5979.582279
785.075372	5952.806190
785.398739	5910.609212
785.722061	5938.249858
786.045337	5930.665442
786.368568	6041.492689
786.691752	6065.254168
787.014891	6315.330687
787.337983	6593.579694
787.661030	7026.171188
787.984031	7445.091072
788.306987	7712.340282
788.629897	7799.862274
788.952760	7706.237965
789.275579	7533.533075
789.598351	7239.913590
789.921078	6974.637992
790.243759	6695.542071
790.566395	6494.639488
790.888984	6299.657739
791.211529	6162.692110
791.534027	6005.098079
791.856480	5864.558271
792.178888	5803.119209
792.501249	5740.379529
792.823566	5635.742819
793.145836	5635.359691
793.468062	5610.058140
793.790241	5570.744702
794.112375	5614.716166
794.434464	5713.321135
794.756507	5743.807513
795.078505	5865.979877
795.400457	6077.451239
795.722364	6315.290357
796.044226	6507.020562
796.366042	6660.722822
796.687812	6606.963957
797.009538	6635.184336
797.331218	6545.913063
797.652852	6474.237938
797.974442	6355.322160
798.295986	6284.715759
798.617484	6154.099463
798.938938	6045.308843
799.260346	5982.364996
799.581709	5845.689233
799.903026	5795.131501
800.224299	5723.030398
800.545526	5606.799034
800.866708	5542.554569
801.187845	5494.469523
801.508936	5419.174850
801.829983	5386.745107
802.150984	5285.611999
802.471940	5261.132156
802.792851	5243.851081
803.113717	5220.893666
803.434538	5196.955747
803.755314	5163.172454
804.076045	5151.305578
804.396731	5118.583449
804.717372	5128.761538
805.037967	5132.507116
805.358518	5165.836704
805.679024	5222.690837
805.999485	5229.388010
806.319901	5247.137913
806.640272	5264.081231
806.960598	5315.790867
807.280879	5306.457170
807.601115	5344.273386
807.921306	5307.508251
808.241453	5298.101458
808.561554	5311.553777
808.881611	5275.207057
809.201623	5274.778559
809.521590	5223.152103
809.841513	5207.781625
810.161390	5228.054625
810.481223	5141.656810
810.801011	5125.552844
811.120755	5097.019913
811.440453	5043.112334
811.760107	5016.553015
812.079716	4985.817100
812.399281	4937.026293
812.718801	4936.103762
813.038276	4900.238473
813.357707	4864.499213
813.677093	4890.168768
813.996434	4829.614428
814.315731	4847.679403
814.634983	4843.049103
814.954191	4845.678065
815.273354	4907.217950
815.592473	4946.327222
815.911547	5023.164489
816.230577	5075.869752
816.549562	5160.488040
816.868502	5215.280341
817.187399	5265.275984
817.506250	5349.012070
817.825058	5375.193303
818.143821	5526.803484
818.462539	5694.532755
818.781213	5916.898051
819.099843	6281.670902
819.418429	6910.126347
819.736970	7515.435333
820.055466	8221.844660
820.373919	9127.372002
820.692327	10565.552700
821.010691	13240.532604
821.329011	19432.022305
821.647286	28934.715772
821.965517	39239.789532
822.283704	44679.340726
822.601847	46145.930847
822.919945	41558.407750
823.237999	36471.230690
823.556010	31293.877469
823.873976	26605.332170
824.191897	22430.367022
824.509775	19370.850423
824.827609	16623.928213
825.145398	15079.303551
825.463144	14337.616230
825.780845	14624.888903
826.098502	15874.457350
826.416116	18305.725192
826.733685	20573.732746
827.051210	21115.387082
827.368692	19676.435087
827.686129	17143.272924
828.003522	14682.398386
828.320872	12469.835962
828.638177	10842.029742
828.955439	9606.387481
829.272656	8560.771515
829.589830	7714.820529
829.906960	6995.553740
830.224046	6472.733154
830.541088	6059.741666
830.858086	5802.408406
831.175041	5603.655875
831.491952	5543.245207
831.808819	5580.209468
832.125642	5819.414739
832.442421	6363.544282
832.759157	7464.300389
833.075849	9219.693173
833.392497	11052.402133
833.709101	12158.103612
834.025662	11907.381825
834.342179	10854.798984
834.658653	9564.893744
834.975083	8468.651990
835.291469	7572.430618
835.607811	6846.292736
835.924110	6323.373847
836.240366	5844.686043
836.556578	5399.010234
836.872746	5047.611564
837.188871	4781.405874
837.504952	4556.978746
837.820990	4392.125453
838.136984	4278.071868
838.452935	4232.013366
838.768842	4259.422119
839.084706	4538.311353
839.400526	5269.757570
839.716303	6172.303070
840.032037	6734.195118
840.347727	6591.606082
840.663373	5995.560216
840.978977	5416.429941
841.294537	4976.853929
841.610054	4650.756810
841.925527	4414.253598
842.240957	4212.315057
842.556344	4030.455432
842.871687	3871.873335
843.186987	3724.666602
843.502244	3606.116307
843.817458	3521.147659
844.132629	3452.101495
844.447756	3401.173239
844.762840	3359.782845
845.077881	3320.597956
845.392879	3284.828449
845.707833	3262.478493
846.022745	3233.668299
846.337613	3221.803944
846.652438	3198.566745
846.967221	3189.303625
847.281960	3167.278824
847.596656	3160.581651
847.911309	3150.895074
848.225919	3133.208185
848.540485	3126.321969
848.855009	3116.683283
849.169490	3108.675410
849.483928	3103.452775
849.798323	3096.511106
850.112675	3082.451328
850.426984	3088.699838
850.741251	3078.050401
851.055474	3076.500246
851.369654	3077.422777
851.683792	3074.577046
851.997887	3079.489650
852.311938	3074.130903
852.625947	3077.160637
852.939914	3071.645615
853.253837	3075.103846
853.567718	3074.428332
853.881555	3065.381981
854.195350	3072.910944
854.509103	3070.385326
854.822812	3066.891807
855.136479	3064.030952
855.450103	3067.365675
855.763685	3058.319324
856.077224	3063.058009
856.390720	3073.417580
856.704173	3083.394024
857.017584	3086.557348
857.330953	3091.459870
857.644278	3098.691405
857.957561	3103.820779
858.270802	3100.995212
858.584000	3101.549739
858.897155	3092.889037
859.210268	3082.942840
859.523339	3070.191242
859.836367	3068.313412
860.149352	3060.610529
860.462295	3060.156825
860.775195	3052.728685
861.088054	3047.256512
861.400869	3048.773900
861.713642	3041.728887
862.026373	3054.276319
862.339062	3055.120712
862.651708	3065.074471
862.964312	3084.868561
863.276873	3092.997422
863.589392	3120.575054
863.901869	3147.109167
864.214303	3169.217147
864.526696	3188.214736
864.839045	3204.356510
865.151353	3216.268757
865.463619	3216.185578
865.775842	3216.924107
866.088023	3221.398131
866.400162	3215.169785
866.712258	3215.893191
867.024313	3217.481154
867.336325	3212.986966
867.648296	3216.450238
867.960224	3214.940413
868.272110	3217.365208
868.583954	3218.590208
868.895755	3223.885940
869.207515	3219.583315
869.519233	3237.625605
869.830909	3246.646750
870.142542	3259.884820
870.454134	3263.262393
870.765684	3274.978034
871.077191	3293.857156
871.388657	3301.882673
871.700081	3324.646003
872.011463	3342.937829
872.322803	3363.213350
872.634101	3383.229252
872.945357	3400.154926
873.256571	3424.559151
873.567744	3440.826955
873.878874	3448.628140
874.189963	3464.220429
874.501010	3465.004329
874.812015	3461.372177
875.122979	3480.082420
875.433900	3474.527068
875.744780	3476.049497
876.055618	3489.244717
876.366415	3482.509735
876.677169	3488.493585
876.987882	3504.284999
877.298554	3528.477497
877.609183	3563.016962
877.919771	3610.595372
878.230317	3679.235723
878.540822	3779.073254
878.851285	3926.433743
879.161707	4152.136283
879.472087	4517.342673
879.782425	5139.960462
880.092722	6310.299615
880.402977	8239.476095
880.713191	10603.036199
881.023363	12977.127274
881.333494	14321.484538
881.643583	14766.562970
881.953631	14362.985837
882.263637	13513.866486
882.573602	12483.583189
882.883526	11533.013138
883.193408	10584.061296
883.503248	9672.817286
883.813048	8838.682765
884.122806	8078.996004
884.432522	7321.373595
884.742197	6671.253792
885.051831	6103.196412
885.361424	5614.360765
885.670975	5217.669848
885.980485	4903.913474
886.289954	4633.871465
886.599382	4420.083692
886.908768	4243.870160
887.218113	4081.542485
887.527417	3950.432156
887.836680	3825.966067
888.145901	3731.404104
888.455082	3651.098523
888.764221	3585.374480
889.073319	3528.434647
889.382376	3493.809482
889.691392	3471.318374
890.000366	3462.559369
890.309300	3456.850262
890.618193	3461.362095
890.927044	3453.432360
891.235855	3459.822022
891.544625	3473.526399
891.853353	3505.709125
892.162041	3563.493351
892.470687	3654.032474
892.779293	3769.973972
893.087858	3945.030560
893.396381	4222.813260
893.704864	4627.678408
894.013306	5191.929717
894.321707	5759.102374
894.630068	6116.439523
894.938387	6155.878990
895.246665	5975.975333
895.554903	5658.687631
895.863100	5323.980221
896.171256	5056.882246
896.479371	4819.085978
896.787446	4593.622893
897.095480	4401.474273
897.403473	4256.125205
897.711425	4109.102473
898.019336	3989.637209
898.327207	3870.018190
898.635038	3766.800565
898.942827	3663.950945
899.250576	3577.946339
899.558284	3492.816374
899.865952	3440.912654
900.173579	3378.019219
900.481165	3331.146571
900.788711	3289.771300
901.096216	3258.543873
901.403681	3230.741909
901.711105	3219.411916
902.018489	3218.829663
902.325832	3248.897625
902.633135	3307.130514
902.940397	3475.714260
903.247619	3874.940877
903.554800	4624.830156
903.861941	5580.867339
904.169041	6279.054543
904.476101	6487.652448
904.783121	6219.851233
905.090100	5816.286703
905.397039	5402.244134
905.703938	5051.021905
906.010796	4732.214294
906.317614	4478.094770
906.624391	4237.611567
906.931129	4046.655180
907.237826	3867.900906
907.544483	3697.542673
907.851099	3526.720655
908.157675	3368.831716
908.464211	3229.035479
908.770707	3129.492855
909.077163	3052.320351
909.383578	2990.263748
909.689954	2948.598611
909.996289	2916.940165
910.302584	2896.422669
910.608839	2883.053529
910.915054	2872.537682
911.221229	2868.144316
911.527363	2870.223792
911.833458	2879.330637
912.139513	2894.340672
912.445527	2907.220820
912.751502	2938.249122
913.057436	2979.740339
913.363331	3040.672765
913.669186	3125.618728
913.975000	3241.782036
914.280775	3425.393462
914.586510	3692.372970
914.892205	4062.580185
915.197859	4555.350453
915.503475	5137.303773
915.809050	5628.415502
916.114585	5917.192959
916.420081	5982.203679
916.725536	5915.078195
917.030952	5679.530281
917.336328	5474.854394
917.641665	5266.271612
917.946961	5039.699473
918.252218	4844.327035
918.557435	4616.217344
918.862612	4420.005554
919.167750	4246.743617
919.472848	4058.701017
919.777906	3893.981315
920.082925	3735.926019
920.387904	3582.672421
920.692843	3474.249805
920.997743	3376.000237
921.302603	3281.899539
921.607423	3217.191288
921.912204	3156.621824
922.216946	3106.469905
922.521647	3053.862944
922.826310	3017.402799
923.130932	2981.406440
923.435516	2941.672066
923.740059	2913.794485
924.044564	2881.611759
924.349028	2853.943386
924.653454	2829.743327
924.957840	2802.115283
925.262186	2784.347736
925.566493	2763.923502
925.870761	2737.643967
926.174989	2725.857749
926.479178	2715.568754
926.783328	2697.770960
927.087438	2684.230421
927.391509	2673.858247
927.695541	2659.377532
927.999533	2650.671460
928.303486	2640.243833
928.607400	2637.549336
928.911275	2633.072792
929.215110	2625.911833
929.518906	2621.780607
929.822663	2624.044085
930.126381	2621.324383
930.430060	2623.731534
930.733699	2627.580455
931.037299	2628.434930
931.340861	2629.606998
931.644383	2633.859212
931.947866	2631.797380
932.251309	2628.177831
932.554714	2626.904940
932.858080	2627.144395
933.161407	2624.974178
933.464694	2617.273816
933.767943	2615.005296
934.071153	2611.589915
934.374323	2610.344750
934.677455	2606.941971
934.980548	2600.101125
935.283602	2599.188676
935.586617	2596.733634
935.889593	2602.404932
936.192530	2601.452154
936.495428	2607.511621
936.798287	2617.901439
937.101108	2628.316463
937.403890	2650.837818
937.706632	2678.841428
938.009336	2711.780327
938.312002	2741.165212
938.614628	2765.314860
938.917216	2781.202056
939.219765	2791.133129
939.522275	2802.962197
939.824747	2801.341466
940.127179	2797.883234
940.429573	2789.618263
940.731929	2785.292953
941.034246	2776.155861
941.336524	2779.276336
941.638763	2772.685027
941.940964	2763.742020
942.243126	2748.794999
942.545250	2736.918040
942.847335	2725.272975
943.149381	2711.253526
943.451389	2696.175435
943.753359	2685.286543
944.055290	2676.265398
944.357182	2668.108811
944.659036	2666.036897
944.960851	2661.174704
945.262628	2656.453663
945.564367	2655.604229
945.866067	2655.558858
946.167729	2653.164310
946.469352	2651.707417
946.770937	2651.657005
947.072484	2643.621406
947.373992	2643.523104
947.675462	2639.543113
947.976893	2635.754686
948.278286	2630.206896
948.579641	2627.048613
948.880958	2627.013325
949.182236	2626.940228
949.483476	2623.602984
949.784678	2619.827160
950.085841	2622.690535
950.386967	2627.489714
950.688054	2630.683285
950.989103	2638.275262
951.290114	2647.702220
951.591087	2658.707059
951.892021	2669.694254
952.192917	2683.852334
952.493776	2692.717203
952.794596	2694.469004
953.095378	2697.289530
953.396122	2696.689633
953.696828	2693.624611
953.997496	2688.520443
954.298126	2681.137673
954.598718	2671.027639
954.899272	2659.100269
955.199788	2649.350677
955.500266	2637.435910
955.800706	2621.284053
956.101108	2605.906014
956.401472	2594.659199
956.701798	2580.838876
957.002087	2568.775395
957.302337	2557.531101
957.602550	2547.358053
957.902724	2538.278935
958.202861	2529.419107
958.502960	2521.628004
958.803022	2512.863958
959.103045	2503.686537
959.403031	2500.434993
959.702979	2494.088180
960.002889	2487.592653
960.302762	2484.615852
960.602596	2480.598053
960.902393	2477.928762
961.202153	2474.210911
961.501875	2471.934830
961.801559	2470.218317
962.101205	2467.914509
962.400814	2467.002061
962.700385	2462.265897
962.999918	2460.599795
963.299414	2460.088118
963.598873	2459.072326
963.898293	2455.404886
964.197677	2456.334979
964.497022	2455.004114
964.796331	2453.587550
965.095601	2448.927003
965.394835	2451.006479
965.694030	2452.912036
965.993189	2452.506223
966.292309	2449.136211
966.591393	2451.656788
966.890439	2450.489761
967.189447	2449.920111
967.488419	2451.598815
967.787353	2453.237190
968.086249	2451.213167
968.385108	2454.081583
968.683930	2453.332972
968.982714	2454.424382
969.281462	2452.765842
969.580172	2457.260031
969.878844	2459.394959
970.177480	2461.562656
970.476078	2462.732203
970.774639	2467.939715
971.073162	2470.104891
971.371649	2469.497432
971.670098	2468.791670
971.968510	2473.447176
972.266885	2471.718060
972.565223	2477.676704
972.863524	2477.464975
973.161788	2476.784420
973.460014	2481.255923
973.758204	2480.683752
974.056356	2482.740543
974.354471	2484.588126
974.652550	2482.367498
974.950591	2482.115440
975.248595	2482.314565
975.546563	2480.071252
975.844493	2479.400778
976.142386	2478.090078
976.440243	2473.386682
976.738062	2475.060345
977.035845	2469.588172
977.333590	2467.100363
977.631299	2464.688171
977.928971	2466.152626
978.226606	2463.294292
978.524204	2462.104580
978.821765	2460.176338
979.119290	2462.238170
979.416777	2456.397993
979.714228	2457.340689
980.011642	2461.887810
980.309020	2466.054324
980.606360	2468.005250
980.903664	2477.943885
981.200931	2490.849239
981.498162	2508.735253
981.795356	2536.391023
982.092513	2574.978535
982.389633	2619.885133
982.686717	2660.569765
982.983764	2693.296936
983.280775	2712.221428
983.577749	2712.163454
983.874686	2703.752289
984.171587	2686.947603
984.468451	2670.997392
984.765279	2653.900319
985.062070	2633.667648
985.358824	2617.621655
985.655543	2595.425455
985.952224	2573.418298
986.248869	2545.608772
986.545478	2518.169772
986.842050	2501.891886
987.138586	2481.152579
987.435086	2470.951805
987.731549	2455.714917
988.027975	2452.886830
988.324366	2447.439863
988.620719	2442.184460
988.917037	2435.943512
989.213318	2436.026691
989.509563	2433.433017
989.805772	2432.318922
990.101944	2432.208017
990.398080	2429.185845
990.694180	2430.272214
990.990244	2429.286668
991.286271	2431.852615
991.582262	2430.264652
991.878217	2430.390681
992.174136	2430.433531
992.470019	2434.824376
992.765865	2435.194900
993.061676	2437.367638
993.357450	2440.989707
993.653188	2439.515169
993.948890	2448.027157
994.244556	2454.179886
994.540186	2460.577110
994.835780	2473.694192
995.131337	2487.673312
995.426859	2503.749552
995.722345	2525.865093
996.017795	2541.462423
996.313208	2555.527243
996.608586	2565.733059
996.903928	2571.464851
997.199234	2564.419838
997.494504	2561.674930
997.789738	2557.871379
998.084936	2545.563402
998.380099	2534.813142
998.675225	2524.879548
998.970316	2507.784995
999.265371	2497.639673
999.560390	2486.591984
999.855373	2472.862402
1000.150320	2469.328553
1000.445232	2459.188272
1000.740108	2450.900615
1001.034948	2441.904676
1001.329752	2437.894438
1001.624521	2434.610127
1001.919254	2424.668971
1002.213951	2428.328849
1002.508613	2423.338107
1002.803239	2422.355082
1003.097829	2418.959864
1003.392384	2420.578075
1003.686903	2419.355595
1003.981386	2420.797365
1004.275834	2419.771490
1004.570246	2417.084555
1004.864623	2417.407189
1005.158964	2416.111613
1005.453270	2416.083886
1005.747540	2412.741601
1006.041775	2412.640778
1006.335974	2413.424678
1006.630138	2411.561971
1006.924266	2415.322672
1007.218359	2414.049781
1007.512416	2413.971643
1007.806438	2415.060532
1008.100425	2412.078689
1008.394376	2411.743453
1008.688292	2410.198339
1008.982172	2409.600962
1009.276017	2411.229255
1009.569827	2410.682290
1009.863602	2409.613565
1010.157341	2411.103226
1010.451045	2409.880746
1010.744714	2410.992321
1011.038347	2409.719429
1011.331945	2410.006775
1011.625508	2408.012999
1011.919036	2409.119532
1012.212528	2409.522824
1012.505986	2408.338153
1012.799408	2407.692886
1013.092795	2409.661456
1013.386147	2407.584501
1013.679464	2405.648698
1013.972745	2406.031825
1014.265992	2407.680283
1014.559204	2407.982752
1014.852380	2407.705488
1015.145521	2406.724984
1015.438628	2406.719943
1015.731699	2405.689027
1016.024736	2406.667011
1016.317737	2408.076013
1016.610703	2409.888308
1016.903635	2406.031825
1017.196531	2407.692886
1017.489393	2407.894532
1017.782219	2405.875550
1018.075011	2411.037691
1018.367768	2409.721950
1018.660490	2411.168761
1018.953177	2411.168761
1019.245829	2411.168761
