Dividing Wavelength (nm)	Counts (n)	Blue Motor Position (mm): 35.600000	Red Motor Position (mm): 0.000000	
326.493990	1971.905300
326.888308	1971.905300
327.282561	1971.905300
327.676750	1945.434201
328.070874	1947.334716
328.464933	1952.849739
328.858929	1962.932046
329.252859	1975.461834
329.646726	1989.186376
330.040528	2005.227327
330.434265	2024.338341
330.827938	2041.082534
331.221547	2063.538354
331.615091	2082.470407
332.008571	2101.548654
332.401986	2124.579165
332.795338	2143.541465
333.188625	2164.273210
333.581847	2184.626869
333.975006	2201.136648
334.368100	2218.173227
334.761129	2236.172667
335.154095	2253.083218
335.546996	2291.824485
335.939833	2371.817514
336.332606	2385.358053
336.725315	2395.102604
337.117960	2409.051477
337.510540	2410.125242
337.903056	2425.624270
338.295508	2429.543767
338.687896	2438.335539
339.080220	2446.212342
339.472480	2449.277364
339.864676	2453.459001
340.256807	2455.825823
340.648875	2457.731379
341.040879	2462.954014
341.432818	2460.433437
341.824694	2459.299178
342.216506	2462.459981
342.608253	2461.635752
342.999937	2461.121555
343.391557	2460.486369
343.783113	2457.620473
344.174605	2457.859928
344.566033	2454.943621
344.957397	2450.504885
345.348697	2451.175358
345.739934	2449.784000
346.131106	2449.970522
346.522215	2446.792075
346.913260	2445.771241
347.304241	2445.186467
347.695159	2444.354677
348.086012	2440.294028
348.476802	2441.743359
348.867528	2440.397371
349.258191	2434.045517
349.648789	2437.435693
350.039324	2431.429158
350.429796	2434.181628
350.820203	2435.598193
351.210548	2434.915116
351.600828	2433.009560
351.991045	2430.211720
352.381198	2429.778181
352.771288	2432.139961
353.161314	2428.870773
353.551276	2428.033941
353.941175	2428.222985
354.331010	2431.673654
354.720782	2431.842533
355.110490	2436.452668
355.500135	2431.761875
355.889717	2431.000660
356.279235	2432.092070
356.668689	2433.438058
357.058080	2433.203645
357.447408	2433.077616
357.836672	2431.840013
358.225873	2432.838161
358.615010	2427.189548
359.004084	2434.146340
359.393095	2434.859664
359.782043	2435.898141
360.170927	2437.934767
360.559748	2434.889911
360.948505	2436.107349
361.337199	2440.904007
361.725830	2441.244285
362.114398	2444.445418
362.502903	2440.241095
362.891344	2441.884512
363.279722	2439.351332
363.668037	2442.295366
364.056289	2443.207814
364.444478	2442.912907
364.832603	2441.934923
365.220665	2445.506581
365.608665	2445.589760
365.996601	2446.837445
366.384474	2443.442228
366.772284	2446.847527
367.160031	2448.715275
367.547715	2445.113371
367.935336	2443.875767
368.322893	2448.667384
368.710388	2449.605039
369.097820	2449.068156
369.485189	2450.698969
369.872495	2451.432457
370.259738	2451.293825
370.646918	2451.382045
371.034035	2448.964812
371.421090	2452.279371
371.808081	2452.402879
372.195010	2456.047633
372.581875	2453.688373
372.968678	2454.716769
373.355418	2453.587550
373.742096	2454.749536
374.128710	2457.043261
374.515262	2452.826336
374.901751	2458.855556
375.288177	2458.074177
375.674540	2456.763477
376.060841	2456.224074
376.447079	2460.544342
376.833254	2457.252469
377.219367	2455.278857
377.605417	2461.050978
377.991404	2458.575772
378.377329	2459.132819
378.763191	2457.680967
379.148991	2462.822944
379.534727	2465.711525
379.920402	2464.975517
380.306013	2464.753706
380.691563	2466.238326
381.077049	2461.194651
381.462474	2465.225054
381.847835	2467.009622
382.233134	2466.074488
382.618371	2469.290744
383.003545	2472.423822
383.388657	2469.794860
383.773706	2470.011629
384.158693	2471.924747
384.543618	2471.607155
384.928480	2474.203349
385.313280	2472.514562
385.698017	2473.469861
386.082692	2477.351549
386.467305	2480.285501
386.851856	2477.124698
387.236344	2479.030254
387.620770	2477.104533
388.005133	2477.989255
388.389435	2478.679893
388.773674	2479.733495
389.157851	2485.059474
389.541965	2481.961685
389.926018	2481.671818
390.310008	2483.509319
390.693936	2485.979484
391.077802	2484.041161
391.461606	2487.088538
391.845348	2489.679691
392.229027	2488.444608
392.612645	2488.963847
392.996200	2488.472335
393.379694	2491.839826
393.763125	2495.230002
394.146494	2493.367295
394.529801	2496.533140
394.913047	2496.991885
395.296230	2496.424755
395.679351	2496.782677
396.062410	2500.361896
396.445408	2499.285610
396.828343	2501.639829
397.211217	2498.549601
397.594028	2500.787874
397.976778	2500.714777
398.359466	2502.910199
398.742092	2500.571104
399.124656	2507.222907
399.507158	2508.911693
399.889598	2512.380007
400.271977	2512.627023
400.654294	2517.247241
401.036549	2516.886798
401.418742	2517.267406
401.800874	2521.622962
402.182944	2522.674043
402.564952	2528.748633
402.946898	2524.912315
403.328783	2531.831299
403.710606	2537.346321
404.092367	2541.822866
404.474067	2550.508774
404.855705	2552.903322
405.237282	2558.015052
405.618797	2567.038718
406.000250	2577.920048
406.381642	2589.723910
406.762972	2606.871395
407.144240	2613.470265
407.525447	2632.687143
407.906593	2647.868578
408.287677	2667.362720
408.668700	2690.872141
409.049661	2713.650595
409.430560	2744.520100
409.811399	2772.314502
410.192176	2805.452527
410.572891	2844.072807
410.953545	2899.291085
411.334138	2920.322779
411.714669	2992.078563
412.095139	3006.813856
412.475547	3088.047009
412.855894	3135.572487
413.236180	3217.213973
413.616405	3258.833739
413.996568	3347.553006
414.376670	3424.176024
414.756711	3483.654077
415.136691	3589.651899
415.516609	3693.824822
415.896466	3794.146304
416.276262	3924.248403
416.655997	4079.934357
417.035670	4192.697407
417.415283	4397.267430
417.794834	4525.521946
418.174324	4601.794603
418.553753	4707.079101
418.933121	4925.852575
419.312428	5019.925547
419.691674	5127.047546
420.070859	5365.962950
420.449983	5429.136170
420.829045	5699.810843
421.208047	5787.468947
421.586988	6056.560698
421.965867	6289.441841
422.344686	6445.231139
422.723444	6781.438292
423.102141	6525.975300
423.480777	7071.959988
423.859352	7074.697334
424.237866	7637.456462
424.616319	7712.889767
424.994712	8137.291907
425.373044	8242.788133
425.751314	8704.018422
426.129524	8526.990743
426.507673	9177.604579
426.885762	9239.756965
427.263789	9517.953040
427.641756	9784.428432
428.019662	9999.733592
428.397508	10214.494308
428.775292	10547.051665
429.153016	10730.658050
429.530679	10960.345622
429.908282	11163.330202
430.285824	11195.971674
430.663305	11768.016606
431.040726	11735.518808
431.418086	11809.021352
431.795385	12364.314530
432.172624	12829.081188
432.549802	12735.766910
432.926920	13034.893856
433.303977	13135.175009
433.680974	13467.049290
434.057910	13837.813553
434.434786	14025.757850
434.811601	14134.331701
435.188355	15026.878072
435.565050	14950.043326
435.941683	15066.355348
436.318257	15866.802358
436.694770	15887.624844
437.071222	16502.481776
437.447614	15944.007629
437.823946	16092.232676
438.200218	16354.377717
438.576429	16309.776108
438.952580	16671.945204
439.328670	16772.601922
439.704700	17227.603866
440.080670	16998.861510
440.456580	17616.523844
440.832429	17888.327736
441.208218	17134.493754
441.583947	17616.125593
441.959616	17820.859453
442.335224	18124.455382
442.710773	18333.832145
443.086261	18906.822294
443.461689	18415.256862
443.837057	18619.305126
444.212365	19274.201422
444.587612	19363.951604
444.962800	19051.097597
445.337927	19503.788171
445.712995	18405.197240
446.088002	20173.374389
446.462949	20407.483053
446.837837	20614.656833
447.212664	20658.154428
447.587431	23311.918636
447.962139	26109.738856
448.336786	28396.776766
448.711374	26985.183113
449.085901	23594.505556
449.460369	23579.674482
449.834776	23535.967678
450.209124	25929.192452
450.583412	25544.610387
450.957640	26081.647026
451.331808	24836.522356
451.705917	23568.157966
452.079965	23616.618578
452.453954	23983.551563
452.827883	23907.173041
453.201752	23734.924376
453.575562	23903.934100
453.949311	24980.381763
454.323001	25062.197169
454.696632	24856.530695
455.070202	26353.702976
455.443713	26517.641299
455.817164	27078.845230
456.190556	27611.551519
456.563888	27086.611128
456.937160	27507.436569
457.310373	25927.969972
457.683526	26345.158220
458.056619	26341.029515
458.429653	26292.095035
458.802628	26849.805447
459.175542	26975.423439
459.548398	28237.574607
459.921194	29792.657142
460.293930	30477.455042
460.666607	32443.804991
461.039224	34158.029192
461.411782	34541.018252
461.784280	33325.896009
462.156719	32832.004084
462.529099	32247.633530
462.901419	31009.296773
463.273680	29988.125362
463.645882	30080.930484
464.018024	30070.676777
464.390106	30908.035116
464.762130	33555.034095
465.134094	37552.308653
465.505999	42789.820482
465.877845	47299.956826
466.249631	48407.735260
466.621358	46607.763553
466.993026	44443.470178
467.364634	42366.547561
467.736184	40452.192073
468.107674	39241.291796
468.479105	38479.422215
468.850477	37801.044224
469.221790	36428.189318
469.593043	34743.965024
469.964238	33877.320102
470.335373	33777.994247
470.706449	35436.929593
471.077467	37930.959800
471.448425	42413.538677
471.819324	45262.186330
472.190164	43468.742918
472.560945	39959.653698
472.931667	36929.353107
473.302330	35849.590885
473.672934	35044.737906
474.043479	35543.854987
474.413965	34783.233092
474.784393	34425.948875
475.154761	35284.167508
475.525070	35323.193601
475.895321	34873.618460
476.265513	35463.035208
476.635645	36388.553246
477.005719	36226.079378
477.375734	36684.872269
477.745691	37355.648200
478.115588	38640.986155
478.485427	40580.668400
478.855207	43893.717228
479.224928	46487.426170
479.594591	48106.105382
479.964194	47067.340344
480.333739	47146.700708
480.703226	47165.804161
481.072653	47796.754976
481.442022	48316.997012
481.811333	48595.687120
482.180584	47281.947304
482.549777	46777.766384
482.918912	46278.404808
483.287988	45972.552963
483.657005	45152.700031
484.025964	44522.215522
484.394864	44504.533675
484.763706	44083.672946
485.132489	43214.661202
485.501213	43076.657095
485.869879	43216.158425
486.238487	42828.707943
486.607036	43027.712532
486.975527	42504.907070
487.343959	42721.611150
487.712333	42779.682722
488.080648	42700.826473
488.448905	43121.044454
488.817104	42942.927886
489.185244	43884.423861
489.553326	45535.555501
489.921350	48238.775948
490.289315	51192.448480
490.657222	51829.121005
491.025070	52115.473667
491.392861	51193.834798
491.760593	49885.428523
492.128267	48165.006223
492.495883	46649.683268
492.863440	45259.499395
493.230939	43946.046925
493.598380	42870.990621
493.965763	42561.214238
494.333088	41780.727676
494.700354	41315.683754
495.067563	41044.076467
495.434713	40922.057859
495.801805	40988.971614
496.168839	40621.279935
496.535815	40307.400053
496.902733	40336.795021
497.269593	39938.566552
497.636395	39864.809430
498.003139	40263.932703
498.369825	39728.360519
498.736453	40037.199247
499.103023	39580.528682
499.469535	39454.338519
499.835989	39563.771887
500.202385	39226.616997
500.568723	39245.927137
500.935003	39440.445099
501.301226	39240.323894
501.667390	39859.455725
502.033497	40095.318710
502.399546	39526.374087
502.765537	38877.781754
503.131470	39239.355993
503.497345	39579.732180
503.863163	38289.257289
504.228923	38883.120336
504.594625	39277.625912
504.960269	38584.056404
505.325856	39243.930840
505.691385	38625.086356
506.056856	38768.693705
506.422270	39188.347078
506.787625	38781.195767
507.152924	38965.250814
507.518164	39061.007532
507.883347	38309.182450
508.248472	38537.103097
508.613540	39001.859673
508.978550	39281.184967
509.343503	39035.312770
509.708398	39231.549766
510.073236	39763.464594
510.438016	39754.841700
510.802738	39236.701825
511.167403	39819.575157
511.532010	40040.097911
511.896561	40351.210200
512.261053	41154.782726
512.625488	40727.244989
512.989866	40587.526889
513.354186	40435.594074
513.718449	40423.880953
514.082655	41083.800759
514.446803	40761.444177
514.810894	41270.348657
515.174927	41189.501153
515.538904	41101.994283
515.902822	41750.407656
516.266684	41212.796324
516.630488	41617.865639
516.994235	41475.208547
517.357925	42021.720035
517.721558	42189.855119
518.085133	42486.524502
518.448651	42624.594144
518.812112	42408.595825
519.175516	42505.035619
519.538863	42829.121318
519.902152	42786.727734
520.265385	43244.164555
520.628560	43283.142756
520.991678	43069.977566
521.354739	43319.812109
521.717743	43602.157054
522.080690	43504.545192
522.443580	44065.607971
522.806413	44097.546201
523.169189	44036.694433
523.531908	44208.197008
523.894569	44070.553343
524.257174	44240.656997
524.619722	44548.212752
524.982213	44508.027194
525.344647	44437.544302
525.707025	44501.002347
526.069345	44881.327157
526.431608	44793.810206
526.793815	45123.050484
527.155964	44643.137679
527.518057	44812.865768
527.880093	44604.794663
528.242072	45128.862935
528.603995	44830.845043
528.965860	44829.869579
529.327669	44923.209063
529.689421	44818.539586
530.051117	44797.286082
530.412755	44928.792141
530.774337	44994.475855
531.135862	44801.571062
531.497331	45002.934912
531.858743	44918.679587
532.220098	45239.675058
532.581396	44958.527387
532.942638	44632.654600
533.303824	44918.571202
533.664953	44904.118214
534.026025	44620.520542
534.387040	45077.233958
534.747999	45043.470830
535.108902	45200.018821
535.469748	44727.496348
535.830537	44843.508421
536.191270	45043.007043
536.551947	44689.392786
536.912567	44996.772101
537.273131	45122.450587
537.633638	44614.811436
537.994089	44952.793075
538.354483	44573.652935
538.714821	45123.776410
539.075103	45461.750488
539.435328	45238.903761
539.795497	45130.851670
540.155609	45136.139840
540.515665	45584.396720
540.875665	45034.411876
541.235609	45363.359768
541.595496	45329.324417
541.955328	45998.517426
542.315102	45372.005346
542.674821	45179.536613
543.034483	45219.828035
543.394090	45192.404158
543.753640	45152.642057
544.113134	46141.343397
544.472571	45190.543972
544.831953	46404.075732
545.191278	45626.223173
545.550548	45369.252876
545.909761	45808.667572
546.268918	46020.196908
546.628019	46322.502301
546.987064	45896.582774
547.346053	45183.972828
547.704986	46047.998871
548.063863	45629.063863
548.422684	45819.387586
548.781449	45676.692685
549.140158	46073.993581
549.498811	45920.727381
549.857408	45378.606737
550.215949	46192.238886
550.574434	46139.084960
550.932864	45907.249856
551.291237	46629.407747
551.649555	46235.507109
552.007817	46485.359297
552.366022	46130.857797
552.724173	46314.438976
553.082267	46709.052937
553.440305	47006.954882
553.798288	46340.849581
554.156215	46653.098650
554.514086	46862.251082
554.871902	46608.570138
555.229661	46617.649256
555.587365	46450.237578
555.945014	46556.689103
556.302606	46476.386043
556.660143	46705.105713
557.017625	46785.146634
557.375050	46589.706140
557.732421	46926.485464
558.089735	46909.151457
558.446994	46856.068107
558.804197	47314.624063
559.161345	47240.798886
559.518437	46512.573966
559.875474	46817.830955
560.232455	46985.787077
560.589381	47157.526586
560.946251	46854.704474
561.303065	47525.160292
561.659825	47337.543669
562.016528	47016.833023
562.373177	46741.233142
562.729770	47210.854432
563.086307	46746.458298
563.442789	47190.422635
563.799216	47242.217971
564.155587	47041.738844
564.511904	47065.843121
564.868164	47163.076896
565.224370	47416.664579
565.580520	47137.114954
565.936615	47346.111110
566.292654	47077.533557
566.648638	47315.513827
567.004567	47264.794778
567.360441	47294.214952
567.716260	47168.738112
568.072023	47458.183522
568.427732	47443.798589
568.783385	46999.032709
569.138982	47406.859535
569.494525	47355.538068
569.850013	47128.340826
570.205445	47091.956298
570.560823	47051.216213
570.916145	46934.596681
571.271412	46956.258519
571.626625	46716.188690
571.981782	46774.078780
572.336884	46460.582026
572.691931	46772.258924
573.046923	46400.614980
573.401860	46237.054743
573.756743	46225.011427
574.111570	46363.539814
574.466342	46190.300562
574.821059	46312.387226
575.175722	45845.752820
575.530330	45851.046032
575.884882	45576.310709
576.239380	45546.076389
576.593823	45512.938364
576.948211	45431.029696
577.302544	44979.246530
577.656823	45004.994223
578.011047	45224.133181
578.365216	44951.689062
578.719330	44754.751346
579.073389	44611.902690
579.427394	44688.147621
579.781344	44666.102656
580.135239	44308.258870
580.489080	44406.891566
580.842866	43900.515224
581.196597	44350.380231
581.550273	44291.416375
581.903895	44143.647553
582.257463	44583.231128
582.610975	43964.021159
582.964434	44240.359569
583.317837	43912.114919
583.671186	43731.220675
584.024481	43970.884690
584.377721	43500.482022
584.730906	43775.701296
585.084037	43790.413903
585.437113	43526.196948
585.790135	43568.774533
586.143103	43166.797967
586.496016	43299.418122
586.848874	43315.728775
587.201679	43344.743136
587.554428	42817.665295
587.907124	43020.284392
588.259765	42771.256433
588.612352	43026.124569
588.964884	42432.337139
589.317362	42709.414078
589.669786	42647.483503
590.022155	42425.826489
590.374470	42837.892925
590.726731	42374.005948
591.078937	41893.251271
591.431090	41986.187462
591.783188	41647.467294
592.135232	41332.856444
592.487222	41577.392735
592.839157	41662.250478
593.191038	41334.739315
593.542866	41111.327980
593.894639	40514.099963
594.246358	40783.637856
594.598022	40769.938521
594.949633	40373.827337
595.301190	40331.423671
595.652692	40171.243528
596.004141	40495.195636
596.355535	39520.632213
596.706876	39479.178805
597.058162	39312.281324
597.409395	39769.496334
597.760573	39849.834683
598.111698	39431.144170
598.462768	39430.624932
598.813785	39487.915124
599.164748	38938.041186
599.515657	39338.313843
599.866511	38800.329466
600.217312	39421.003889
600.568060	38398.577231
600.918753	39111.401426
601.269392	39075.420190
601.619978	38744.627237
601.970510	38948.950243
602.320988	39133.264910
602.671412	39449.889701
603.021783	39180.253505
603.372100	38832.197120
603.722363	38938.111763
604.072572	39013.023309
604.422728	39014.457517
604.772830	38843.201959
605.122878	38937.617729
605.472872	38875.044407
605.822813	39142.338987
606.172701	38991.535390
606.522534	39227.169003
606.872314	39471.284358
607.222041	39228.063808
607.571714	39619.448911
607.921333	39083.213814
608.270899	39370.972958
608.620411	39711.989372
608.969870	39497.165642
609.319276	39504.755099
609.668627	39551.784023
610.017926	40022.554696
610.367171	40176.211585
610.716362	40264.668712
611.065500	40224.031971
611.414585	40411.305795
611.763616	40695.425226
612.112594	40632.635134
612.461518	40840.867555
612.810389	41129.352625
613.159207	40983.839720
613.507971	41062.174209
613.856682	41532.501260
614.205340	41423.619899
614.553945	42116.889458
614.902496	41578.506830
615.250994	42017.006556
615.599439	42106.401337
615.947830	42313.305415
616.296169	42360.699823
616.644454	42478.705672
616.992686	42656.756706
617.340864	43172.005479
617.688990	42906.319027
618.037063	43486.601205
618.385082	43462.932988
618.733048	43747.427984
619.080961	43778.443683
619.428821	43783.182368
619.776628	43886.236156
620.124382	43715.504878
620.472083	43845.057490
620.819731	43948.277636
621.167326	43622.419972
621.514868	43596.652114
621.862357	43155.528467
622.209793	43188.043910
622.557176	42850.185779
622.904506	42602.889456
623.251783	42262.102415
623.599007	42035.782334
623.946179	41810.636841
624.293297	41774.332972
624.640363	41185.609382
624.987376	41173.868534
625.334336	40941.501589
625.681243	40573.751937
626.028097	40540.790352
626.374899	40388.275284
626.721647	40373.290454
627.068343	40261.089493
627.414987	40032.024503
627.761577	39812.900669
628.108115	40140.016101
628.454600	39604.564904
628.801032	39788.027616
629.147412	39759.144325
629.493739	39762.950396
629.840014	39402.283565
630.186236	39734.175490
630.532405	39356.809836
630.878521	39576.715049
631.224585	39461.935538
631.570597	39165.818161
631.916556	39335.793266
632.262462	39276.615161
632.608316	39289.437336
632.954117	39190.154331
633.299866	39179.280563
633.645562	39090.941903
633.991206	38585.339378
634.336797	38167.130296
634.682336	38176.262346
635.027823	37918.684591
635.373257	37743.703620
635.718639	37502.111363
636.063968	37368.193111
636.409245	36798.870402
636.754470	36838.642585
637.099642	36594.474298
637.444762	36144.347151
637.789829	36284.758409
638.134845	35920.711484
638.479808	35891.162761
638.824719	35783.176204
639.169577	35396.701186
639.514383	35448.647755
639.859137	35163.426833
640.203839	35411.101242
640.548489	35033.780958
640.893086	35099.477275
641.237632	34859.946850
641.582125	34964.896112
641.926566	34908.435189
642.270955	34882.679934
642.615292	34890.534051
642.959576	34863.621852
643.303809	34851.046693
643.647990	35008.214747
643.992118	34969.521370
644.336195	34960.157427
644.680219	35065.144497
645.024192	35350.602354
645.368112	35874.557200
645.711981	35890.588069
646.055797	36743.198419
646.399562	36683.012083
646.743274	37618.499003
647.086935	38051.897081
647.430544	37945.148128
647.774101	38059.181548
648.117606	38303.322108
648.461059	38583.668236
648.804460	38204.515493
649.147810	37582.147242
649.491108	37345.646551
649.834354	36984.231108
650.177548	36161.895407
650.520690	35711.415379
650.863781	35712.753805
651.206820	35562.572791
651.549807	35138.672247
651.892742	34661.138866
652.235626	34472.715659
652.578458	34330.217363
652.921238	33756.176133
653.263967	34070.320677
653.606644	33769.991416
653.949269	33712.161819
654.291843	33315.947292
654.634365	33696.675395
654.976836	33323.708148
655.319255	33310.855726
655.661622	33315.672549
656.003938	33075.708584
656.346203	32947.995993
656.688416	33169.539581
657.030577	32968.420228
657.372687	32802.861174
657.714746	33068.313212
658.056753	33189.610935
658.398708	32667.526358
658.740612	32702.247305
659.082465	32980.496312
659.424266	32798.775318
659.766016	32899.306008
660.107715	32798.341779
660.449362	32910.240271
660.790958	32902.305495
661.132503	32931.980247
661.473996	32953.619400
661.815438	33061.807603
662.156829	33258.087448
662.498168	33037.713408
662.839456	33060.633014
663.180693	33200.441854
663.521879	33362.209960
663.863013	33308.856909
664.204097	33315.055007
664.545129	33788.169816
664.886110	33746.194649
665.227040	33815.500432
665.567918	33922.453552
665.908746	33986.203983
666.249522	34156.143800
666.590248	34146.782378
666.930922	34264.856283
667.271545	34221.802308
667.612118	34293.127074
667.952639	34089.482102
668.293109	34135.401973
668.633528	34034.737692
668.973896	33958.507884
669.314213	33973.359123
669.654480	33727.456680
669.994695	33750.976183
670.334859	33637.971158
670.674973	33551.182653
671.015035	33697.066084
671.355047	33655.935310
671.695008	33601.072433
672.034918	33501.676002
672.374777	33585.873354
672.714585	33415.807508
673.054342	33641.084071
673.394049	33401.838471
673.733705	33688.087789
674.073310	33354.489433
674.412864	33415.865481
674.752368	33023.562889
675.091820	33323.327541
675.431223	32904.974786
675.770574	32627.996150
676.109875	32483.970384
676.449125	32208.501573
676.788324	32147.165855
677.127473	31600.445158
677.466571	31528.044107
677.805619	31178.654337
678.144616	31173.446825
678.483562	31101.751535
678.822458	30788.950459
679.161303	30706.774610
679.500098	30619.444182
679.838842	30505.453611
680.177535	30658.324081
680.516179	30933.840782
680.854771	31165.282676
681.193314	32031.221837
681.531805	33150.219359
681.870247	33954.603511
682.208638	34657.554606
682.546978	34892.721912
682.885268	34965.155731
683.223508	34433.321562
683.561697	34100.698670
683.899836	33909.822941
684.237925	33407.489604
684.575963	33257.185082
684.913951	32804.313026
685.251889	32969.957780
685.589776	32951.877681
685.927614	32949.553709
686.265401	33088.855914
686.603137	33200.104097
686.940824	33708.189390
687.278460	34071.593568
687.616046	34234.863938
687.953582	34841.647462
688.291068	34713.347576
688.628504	34995.659753
688.965889	34896.545627
689.303224	34517.808780
689.640510	34166.720141
689.977745	33435.001701
690.314930	32640.863695
690.652065	32109.924331
690.989150	31373.139531
691.326185	30481.172893
691.663170	29783.179773
692.000105	29026.240441
692.336990	28348.666514
692.673825	27890.995280
693.010610	27384.142548
693.347345	26816.216238
693.684030	26174.716809
694.020665	25898.388481
694.357251	25227.912499
694.693786	25191.472518
695.030272	24942.552944
695.366707	24407.820112
695.703093	24114.823209
696.039429	24119.723211
696.375716	23855.627243
696.711952	23819.509896
697.048139	23657.900586
697.384276	23495.187264
697.720363	23615.615388
698.056400	23421.125152
698.392388	23204.224467
698.728326	23161.611593
699.064214	22960.242703
699.400053	22897.626531
699.735842	22550.596021
700.071581	22263.290581
700.407270	21989.495433
700.742910	21800.958800
701.078501	21522.190554
701.414042	21252.088051
701.749533	20946.470620
702.084974	20608.728436
702.420366	20801.638270
702.755709	20369.903772
703.091002	20073.763710
703.426246	20103.720767
703.761440	20003.343832
704.096584	19728.739579
704.431679	19683.495223
704.766725	19596.212686
705.101721	19536.220434
705.436668	19637.479571
705.771565	19308.503953
706.106413	19656.167128
706.441212	19640.779006
706.775961	19760.329970
707.110661	19826.845474
707.445311	20177.835811
707.779913	20025.109014
708.114465	20281.401275
708.448967	20563.209337
708.783421	21252.856827
709.117825	21524.353209
709.452180	21751.363928
709.786485	22139.016056
710.120742	22940.022635
710.454949	22950.223409
710.789107	23422.198918
711.123216	24129.641681
711.457275	24255.972996
711.791286	24786.904799
712.125247	24848.081721
712.459159	24548.198602
712.793023	25195.480236
713.126837	24094.688841
713.460602	24353.549570
713.794318	23963.046670
714.127985	23582.323608
714.461602	22685.948481
714.795171	22649.841216
715.128691	21644.040283
715.462162	21096.744895
715.795584	20678.009013
716.128957	20414.132335
716.462281	20011.243320
716.795556	19778.649523
717.128782	19280.397000
717.461960	18750.735568
717.795088	18674.044495
718.128167	18283.183673
718.461198	17808.669943
718.794180	17671.361515
719.127113	17318.631981
719.459997	17120.106301
719.792833	16784.909900
720.125619	16743.678302
720.458357	16432.787824
720.791046	16267.621980
721.123686	16109.412928
721.456278	15876.299892
721.788821	15833.555949
722.121315	15581.712505
722.453761	15658.811912
722.786158	15583.159317
723.118506	15582.065386
723.450805	15458.862107
723.783056	15609.786691
724.115259	15517.581467
724.447412	15447.103615
724.779518	15691.375246
725.111574	15704.951073
725.443582	15906.834161
725.775542	15879.760644
726.107453	16355.915269
726.439315	16238.295067
726.771129	16639.752395
727.102895	17001.966861
727.434612	17216.467957
727.766281	17339.756936
728.097901	17595.764372
728.429473	17626.170092
728.760996	17606.895240
729.092471	17700.481741
729.423897	17566.165238
729.755276	17436.426102
730.086606	17548.732928
730.417887	18067.202998
730.749120	18579.225432
731.080305	18754.836547
731.411442	19085.271579
731.742530	19154.794131
732.073570	19253.026055
732.404562	19533.629281
732.735506	19351.570531
733.066401	19061.608402
733.397249	18542.120019
733.728048	17914.314884
734.058798	17076.966627
734.389501	16417.296358
734.720156	15949.391582
735.050762	15429.751964
735.381320	15084.548872
735.711831	14847.274363
736.042293	14494.131454
736.372707	14504.959853
736.703073	14298.567452
737.033391	14492.362009
737.363661	14452.932624
737.693883	14562.832299
738.024056	14736.895779
738.354182	14927.085911
738.684260	15202.156471
739.014290	15416.952474
739.344272	15614.089316
739.674207	15900.633542
740.004093	16006.938873
740.333931	15996.720455
740.663722	16036.056578
740.993464	16024.464445
741.323159	15848.379462
741.652806	15571.844447
741.982405	15356.808988
742.311956	15025.136353
742.641460	14905.061110
742.970915	14596.484521
743.300323	14265.389098
743.629683	14053.489237
743.958996	13780.455304
744.288260	13514.501671
744.617477	13221.507289
744.946647	13140.329589
745.275768	12869.125594
745.604842	12688.430476
745.933869	12511.276768
746.262847	12471.239924
746.591778	12390.914178
746.920662	12294.058490
747.249498	12292.455403
747.578286	12414.247159
747.907027	12557.738562
748.235720	12782.538736
748.564365	12806.784165
748.892963	12706.266078
749.221514	12769.288063
749.550017	12616.841050
749.878473	12581.444588
750.206881	12365.206814
750.535242	12273.046960
750.863555	12191.445803
751.191821	12090.610123
751.520039	12112.513937
751.848210	12022.446162
752.176334	12062.573746
752.504411	11964.833335
752.832440	11806.841053
753.160421	11866.803057
753.488356	11747.126065
753.816243	11658.124494
754.144082	11514.565035
754.471875	11459.182919
754.799620	11406.339024
755.127318	11378.179138
755.454969	11341.892913
755.782572	11293.598659
756.110129	11308.956534
756.437638	11227.468803
756.765100	11222.099974
757.092515	11216.368182
757.419882	11239.290309
757.747203	11238.952551
758.074477	11316.387195
758.401703	11275.987388
758.728882	11431.932962
759.056014	11485.149902
759.383099	11587.997003
759.710138	11696.091944
760.037129	11771.895774
760.364073	11789.502004
760.690970	11778.015735
761.017820	11778.850046
761.344623	11961.460803
761.671379	12279.028289
761.998088	12905.842838
762.324751	14457.966216
762.651366	17315.453533
762.977935	20958.425716
763.304456	23153.891066
763.630931	23613.848463
763.957359	22425.104057
764.283740	20534.794873
764.610074	18648.039703
764.936362	16540.595420
765.262602	15035.989957
765.588796	13578.849479
765.914943	12555.790156
766.241044	11711.306146
766.567097	11087.722977
766.893104	10539.648731
767.219064	10182.566160
767.544978	9806.158326
767.870845	9495.819854
768.196665	9315.197832
768.522438	9112.989590
768.848165	8950.072100
769.173846	8798.540057
769.499479	8664.659613
769.825066	8510.581787
770.150607	8338.350766
770.476101	8272.215869
770.801548	8161.292840
771.126949	8020.092642
771.452303	7937.276566
771.777611	7774.734643
772.102872	7753.960048
772.428087	7629.151161
772.753256	7506.562902
773.078378	7417.906650
773.403453	7280.124354
773.728482	7178.053591
774.053465	7114.114116
774.378401	7029.989862
774.703291	6940.118691
775.028135	6843.615883
775.352932	6802.101981
775.677683	6725.499128
776.002388	6637.684749
776.327046	6639.345809
776.651658	6552.053189
776.976224	6471.760211
777.300743	6462.635723
777.625216	6398.650877
777.949643	6351.952149
778.274024	6359.581935
778.598359	6289.358662
778.922647	6294.160361
779.246889	6252.341469
779.571086	6258.874805
779.895236	6276.037413
780.219339	6268.639520
780.543397	6263.984014
780.867409	6315.217261
781.191374	6310.675181
781.515294	6276.778462
781.839167	6330.799467
782.162995	6302.173275
782.486776	6252.162508
782.810511	6213.648093
783.134201	6134.791844
783.457844	6126.889835
783.781441	6081.758905
784.104993	6033.847779
784.428498	6003.094220
784.751958	5988.694164
785.075372	5966.160207
785.398739	5930.289876
785.722061	5950.174708
786.045337	5952.942301
786.368568	6054.718156
786.691752	6086.190080
787.014891	6333.867009
787.337983	6606.795078
787.661030	7041.340019
787.984031	7471.191646
788.306987	7730.052376
788.629897	7812.487844
788.952760	7725.870738
789.275579	7545.042029
789.598351	7252.818944
789.921078	6986.071329
790.243759	6704.285953
790.566395	6502.261712
790.888984	6312.439585
791.211529	6174.213667
791.534027	6015.548391
791.856480	5875.237956
792.178888	5818.232588
792.501249	5748.326908
792.823566	5646.142719
793.145836	5647.392925
793.468062	5622.184636
793.790241	5584.953194
794.112375	5627.424915
794.434464	5725.858485
794.756507	5759.747642
795.078505	5879.049068
795.400457	6092.489001
795.722364	6336.148131
796.044226	6529.917482
796.366042	6679.685122
796.687812	6626.183356
797.009538	6657.453633
797.331218	6562.788326
797.652852	6491.201421
797.974442	6369.601228
798.295986	6302.445497
798.617484	6174.969840
798.938938	6066.088479
799.260346	5998.418550
799.581709	5864.021388
799.903026	5813.423327
800.224299	5740.361885
800.545526	5622.648422
800.866708	5563.019133
801.187845	5507.868910
801.508936	5435.959371
801.829983	5410.214199
802.150984	5296.195902
802.471940	5275.680926
802.792851	5258.931692
803.113717	5235.041664
803.434538	5211.436461
803.755314	5178.421945
804.076045	5167.737219
804.396731	5130.152897
804.717372	5150.476308
805.037967	5150.690558
805.358518	5179.984703
805.679024	5239.140122
805.999485	5252.090847
806.319901	5268.005769
806.640272	5282.095794
806.960598	5332.368701
807.280879	5322.919058
807.601115	5360.100088
807.921306	5323.327392
808.241453	5321.971321
808.561554	5328.469368
808.881611	5294.660870
809.201623	5290.413698
809.521590	5246.701853
809.841513	5227.285849
810.161390	5244.503910
810.481223	5154.589890
810.801011	5138.017097
811.120755	5116.630002
811.440453	5062.422474
811.760107	5037.733423
812.079716	5005.706973
812.399281	4954.481288
812.718801	4950.206390
813.038276	4916.483591
813.357707	4883.040576
813.677093	4906.277775
813.996434	4840.311756
814.315731	4860.519222
814.634983	4860.914952
814.954191	4867.176065
815.273354	4922.827883
815.592473	4963.376404
815.911547	5038.933218
816.230577	5093.501188
816.549562	5183.944529
816.868502	5232.395058
817.187399	5282.241988
817.506250	5362.527404
817.825058	5392.683586
818.143821	5545.077667
818.462539	5713.416917
818.781213	5943.661537
819.099843	6303.501619
819.418429	6932.907321
819.736970	7547.204684
820.055466	8260.787573
820.373919	9173.647273
820.692327	10623.692327
821.010691	13317.483297
821.329011	19566.162368
821.647286	29211.402021
821.965517	39612.262746
822.283704	45103.591630
822.601847	46574.101248
822.919945	41916.947214
823.237999	36743.165652
823.556010	31497.459426
823.873976	26790.196323
824.191897	22569.437333
824.509775	19491.545729
824.827609	16719.319447
825.145398	15164.133568
825.463144	14410.385286
825.780845	14707.778075
826.098502	15975.756816
826.416116	18449.045196
826.733685	20724.513657
827.051210	21250.794995
827.368692	19819.344237
827.686129	17249.303513
828.003522	14765.746303
828.320872	12546.045606
828.638177	10897.858000
828.955439	9651.147886
829.272656	8599.686702
829.589830	7752.641786
829.906960	7023.950559
830.224046	6495.486402
830.541088	6090.664104
830.858086	5828.191388
831.175041	5623.679338
831.491952	5570.114557
831.808819	5604.666626
832.125642	5848.126630
832.442421	6398.222379
832.759157	7511.440218
833.075849	9280.706258
833.392497	11132.727878
833.709101	12250.938980
834.025662	11994.266112
834.342179	10932.591550
834.658653	9629.123085
834.975083	8523.953448
835.291469	7620.634131
835.607811	6882.420165
835.924110	6355.478436
836.240366	5873.002204
836.556578	5423.323719
836.872746	5072.025872
837.188871	4802.069563
837.504952	4579.106890
837.820990	4409.696395
838.136984	4297.255979
838.452935	4250.237137
838.768842	4281.643525
839.084706	4562.541659
839.400526	5308.186286
839.716303	6212.493669
840.032037	6773.952178
840.347727	6626.793336
840.663373	6019.422518
840.978977	5448.930260
841.294537	5002.899050
841.610054	4675.435779
841.925527	4435.950724
842.240957	4232.109148
842.556344	4046.297258
842.871687	3891.617014
843.186987	3739.956421
843.502244	3622.764718
843.817458	3533.243908
844.132629	3464.593475
844.447756	3420.024633
844.762840	3370.028990
845.077881	3332.421983
845.392879	3299.369657
845.707833	3272.175153
846.022745	3246.533324
846.337613	3236.766088
846.652438	3210.103426
846.967221	3203.192004
847.281960	3183.163499
847.596656	3173.350893
847.911309	3162.739265
848.225919	3148.949188
848.540485	3138.471150
848.855009	3133.394708
849.169490	3119.040023
849.483928	3114.563478
849.798323	3107.513424
850.112675	3094.925663
850.426984	3099.699636
850.741251	3090.209664
851.055474	3087.479879
851.369654	3089.970209
851.683792	3086.786720
851.997887	3088.924169
852.311938	3087.318562
852.625947	3089.466093
852.939914	3085.652461
853.253837	3087.885692
853.567718	3085.433170
853.881555	3078.378076
854.195350	3088.951896
854.509103	3084.049374
854.822812	3079.850093
855.136479	3079.938313
855.450103	3081.072572
855.763685	3071.917837
856.077224	3076.490163
856.390720	3087.069025
856.704173	3096.478338
857.017584	3101.285079
857.330953	3103.921602
857.644278	3114.124898
857.957561	3114.626492
858.270802	3115.513735
858.584000	3115.135649
858.897155	3108.730863
859.210268	3096.185952
859.523339	3085.985177
859.836367	3082.791606
860.149352	3080.293714
860.462295	3073.450348
860.775195	3063.725962
861.088054	3057.976526
861.400869	3061.908626
861.713642	3060.524829
862.026373	3068.010943
862.339062	3069.566139
862.651708	3079.184660
862.964312	3095.485231
863.276873	3101.980758
863.589392	3135.829585
863.901869	3163.694563
864.214303	3181.210052
864.526696	3202.234184
864.839045	3219.621124
865.151353	3235.843557
865.463619	3232.763412
865.775842	3235.052096
866.088023	3235.135275
866.400162	3231.190572
866.712258	3231.982033
867.024313	3229.143864
867.336325	3229.839543
867.648296	3230.532702
867.960224	3225.516753
868.272110	3235.031931
868.583954	3232.347517
868.895755	3240.138620
869.207515	3238.568301
869.519233	3256.794592
869.830909	3260.633431
870.142542	3273.548867
870.454134	3278.002727
870.765684	3296.569296
871.077191	3312.368273
871.388657	3324.204902
871.700081	3344.200638
872.011463	3362.008514
872.322803	3378.757748
872.634101	3399.371026
872.945357	3422.048657
873.256571	3449.127215
873.567744	3462.667754
873.878874	3468.654124
874.189963	3485.277329
874.501010	3487.134994
874.812015	3481.756083
875.122979	3500.007580
875.433900	3495.999863
875.744780	3500.675533
876.055618	3504.295082
876.366415	3507.067716
876.677169	3509.195083
876.987882	3526.614790
877.298554	3545.866957
877.609183	3587.186774
877.919771	3633.071357
878.230317	3702.399825
878.540822	3806.774395
878.851285	3960.335503
879.161707	4182.335315
879.472087	4560.862955
879.782425	5191.959963
880.092722	6393.216513
880.402977	8359.074950
880.713191	10772.103897
881.023363	13194.680789
881.333494	14571.956787
881.643583	15019.880950
881.953631	14599.080715
882.263637	13746.195623
882.573602	12694.628574
882.883526	11717.877290
883.193408	10741.420914
883.503248	9808.688985
883.813048	8969.616654
884.122806	8192.739558
884.432522	7421.536281
884.742197	6746.084680
885.051831	6184.855543
885.361424	5675.114230
885.670975	5278.750989
885.980485	4955.401299
886.289954	4681.394422
886.599382	4461.733705
886.908768	4280.451293
887.218113	4114.458699
887.527417	3983.832321
887.836680	3861.080225
888.145901	3757.562651
888.455082	3679.754962
888.764221	3611.356587
889.073319	3549.899880
889.382376	3519.819315
889.691392	3493.144049
890.000366	3487.263543
890.309300	3481.622492
890.618193	3484.884119
890.927044	3483.250785
891.235855	3490.545335
891.544625	3503.415400
891.853353	3533.236346
892.162041	3593.314297
892.470687	3684.206301
892.779293	3806.839930
893.087858	3980.991631
893.396381	4259.959002
893.704864	4680.403836
894.013306	5257.063945
894.321707	5835.266647
894.630068	6203.162493
894.938387	6239.998204
895.246665	6058.282252
895.554903	5738.894909
895.863100	5392.993617
896.171256	5120.552019
896.479371	4877.621336
896.787446	4648.533661
897.095480	4446.217034
897.403473	4301.291422
897.711425	4151.717867
898.019336	4033.830485
898.327207	3906.415321
898.635038	3800.992191
898.942827	3696.773897
899.250576	3606.748972
899.558284	3520.328472
899.865952	3469.092704
900.173579	3404.737334
900.481165	3361.413658
900.788711	3313.787357
901.096216	3279.242851
901.403681	3255.428440
901.711105	3242.757500
902.018489	3241.008219
902.325832	3275.310751
902.633135	3332.399297
902.940397	3505.300792
903.247619	3916.873195
903.554800	4679.710677
903.861941	5667.129043
904.169041	6379.192023
904.476101	6592.957111
904.783121	6312.437064
905.090100	5903.687707
905.397039	5482.070806
905.703938	5113.055823
906.010796	4789.222183
906.317614	4529.569992
906.624391	4286.596459
906.931129	4089.784772
907.237826	3905.399529
907.544483	3735.643714
907.851099	3564.010070
908.157675	3398.564442
908.464211	3252.411309
908.770707	3153.324910
909.077163	3074.670307
909.383578	3010.037673
909.689954	2967.303812
909.996289	2938.816252
910.302584	2914.233065
910.608839	2902.862743
910.915054	2893.045096
911.221229	2885.614435
911.527363	2891.605846
911.833458	2897.819068
912.139513	2911.299114
912.445527	2924.857297
912.751502	2960.031948
913.057436	3003.665655
913.363331	3061.117165
913.669186	3148.152686
913.975000	3267.958228
914.280775	3459.703555
914.586510	3733.687746
914.892205	4113.316878
915.197859	4628.210249
915.503475	5217.138006
915.809050	5721.578545
916.114585	6019.102404
916.420081	6082.230253
916.725536	6015.467732
917.030952	5772.879847
917.336328	5563.190533
917.641665	5349.080126
917.946961	5116.196462
918.252218	4912.438065
918.557435	4677.822765
918.862612	4476.675685
919.167750	4304.389212
919.472848	4110.355200
919.777906	3939.094601
920.082925	3775.539406
920.387904	3619.961836
920.692843	3508.617871
920.997743	3405.715318
921.302603	3312.738797
921.607423	3246.288828
921.912204	3180.642922
922.216946	3129.084522
922.521647	3082.118612
922.826310	3036.586910
923.130932	3001.412259
923.435516	2961.813996
923.740059	2933.485232
924.044564	2902.184708
924.349028	2877.538506
924.653454	2845.355780
924.957840	2820.187820
925.262186	2801.270890
925.566493	2778.436983
925.870761	2752.621235
926.174989	2741.102198
926.479178	2726.802965
926.783328	2709.360573
927.087438	2697.712987
927.391509	2686.861903
927.695541	2669.734583
927.999533	2663.312153
928.303486	2653.186996
928.607400	2649.217087
928.911275	2643.626447
929.215110	2636.422638
929.518906	2633.171094
929.822663	2631.986423
930.126381	2630.456433
930.430060	2637.768627
930.733699	2636.309212
931.037299	2641.103350
931.340861	2642.003196
931.644383	2644.798516
931.947866	2641.594862
932.251309	2637.463637
932.554714	2641.685603
932.858080	2639.863226
933.161407	2635.275776
933.464694	2629.564149
933.767943	2628.946607
934.071153	2626.607512
934.374323	2617.667026
934.677455	2615.834566
934.980548	2613.016561
935.283602	2612.436828
935.586617	2608.807198
935.889593	2612.988835
936.192530	2614.125615
936.495428	2620.432098
936.798287	2632.367030
937.101108	2641.378093
937.403890	2664.025476
937.706632	2692.853315
938.009336	2727.309601
938.312002	2754.395721
938.614628	2777.143927
938.917216	2799.234264
939.219765	2807.970583
939.522275	2820.946513
939.824747	2817.853765
940.127179	2810.869247
940.429573	2807.053093
940.731929	2806.433031
941.034246	2795.521454
941.336524	2796.196968
941.638763	2786.946451
941.940964	2781.070986
942.243126	2764.977103
942.545250	2752.371697
942.847335	2740.729153
943.149381	2728.267420
943.451389	2715.306614
943.753359	2701.816486
944.055290	2691.898016
944.357182	2680.757066
944.659036	2674.165757
944.960851	2673.578463
945.262628	2668.456651
945.564367	2666.863646
945.866067	2666.717453
946.167729	2667.445899
946.469352	2665.734427
946.770937	2664.789211
947.072484	2655.775628
947.373992	2658.076915
947.675462	2651.805719
947.976893	2647.717344
948.278286	2644.294400
948.579641	2641.345325
948.880958	2636.543626
949.182236	2636.420118
949.483476	2630.395939
949.784678	2634.290230
950.085841	2634.111269
950.386967	2636.644449
950.688054	2642.640902
950.989103	2651.639361
951.290114	2659.435506
951.591087	2674.690037
951.892021	2687.741585
952.192917	2695.028572
952.493776	2707.029039
952.794596	2711.306458
953.095378	2713.874926
953.396122	2712.128166
953.696828	2708.969883
953.997496	2703.051569
954.298126	2695.663758
954.598718	2688.071780
954.899272	2673.399502
955.199788	2664.985816
955.500266	2651.115081
955.800706	2634.507000
956.101108	2617.256172
956.401472	2606.911724
956.701798	2592.115937
957.002087	2574.943247
957.302337	2568.999726
957.602550	2554.024979
957.902724	2543.166333
958.202861	2538.036959
958.502960	2526.593540
958.803022	2517.751356
959.103045	2512.521159
959.403031	2506.504542
959.702979	2501.024808
960.002889	2496.326452
960.302762	2492.681698
960.602596	2486.690287
960.902393	2482.647282
961.202153	2482.669967
961.501875	2477.243165
961.801559	2478.516056
962.101205	2474.450365
962.400814	2469.948615
962.700385	2470.871146
962.999918	2467.334777
963.299414	2466.989458
963.598873	2464.763788
963.898293	2460.892182
964.197677	2461.287913
964.497022	2461.315639
964.796331	2460.123406
965.095601	2457.554938
965.394835	2457.035699
965.694030	2455.966975
965.993189	2456.070318
966.292309	2456.841615
966.591393	2454.873044
966.890439	2457.527212
967.189447	2453.658126
967.488419	2454.772221
967.787353	2454.633590
968.086249	2454.920935
968.385108	2456.365226
968.683930	2455.009156
968.982714	2458.495113
969.281462	2459.329424
969.580172	2462.197841
969.878844	2462.165073
970.177480	2465.993830
970.476078	2470.987093
970.774639	2473.991620
971.073162	2476.058493
971.371649	2473.963894
971.670098	2476.393730
971.968510	2479.799030
972.266885	2481.041674
972.565223	2482.785913
972.863524	2485.079638
973.161788	2484.754484
973.460014	2483.831953
973.758204	2489.203302
974.056356	2488.671460
974.354471	2488.081645
974.652550	2486.425626
974.950591	2489.886378
975.248595	2485.326655
975.546563	2482.934627
975.844493	2487.154073
976.142386	2480.701396
976.440243	2479.415902
976.738062	2478.664770
977.035845	2475.234265
977.333590	2474.223513
977.631299	2470.298975
977.928971	2466.876032
978.226606	2465.973665
978.524204	2464.211782
978.821765	2465.446865
979.119290	2462.951493
979.416777	2462.712039
979.714228	2464.194138
980.011642	2465.847636
980.309020	2468.012812
980.606360	2474.052114
980.903664	2482.112919
981.200931	2497.075064
981.498162	2514.623320
981.795356	2544.953423
982.092513	2585.353229
982.389633	2633.639922
982.686717	2678.377641
982.983764	2709.378217
983.280775	2729.436968
983.577749	2727.165928
983.874686	2718.946327
984.171587	2700.427648
984.468451	2685.261337
984.765279	2666.132679
985.062070	2647.545944
985.358824	2625.390073
985.655543	2604.141610
985.952224	2582.046232
986.248869	2553.079763
986.545478	2526.759898
986.842050	2503.368944
987.138586	2486.697849
987.435086	2473.051445
987.731549	2459.967130
988.027975	2457.527212
988.324366	2451.470266
988.620719	2443.359049
988.917037	2440.982145
989.213318	2438.774120
989.509563	2437.632298
989.805772	2435.497370
990.101944	2433.813624
990.398080	2434.484098
990.694180	2432.661721
990.990244	2433.120466
991.286271	2431.638366
991.582262	2432.492842
991.878217	2432.187852
992.174136	2437.937288
992.470019	2437.206321
992.765865	2439.308482
993.061676	2439.505087
993.357450	2442.484409
993.653188	2444.904163
993.948890	2450.973712
994.244556	2457.388580
994.540186	2467.279324
994.835780	2477.762403
995.131337	2491.688591
995.426859	2509.889677
995.722345	2531.700229
996.017795	2547.118598
996.313208	2564.843295
996.608586	2574.648339
996.903928	2579.949112
997.199234	2575.175140
997.494504	2573.269584
997.789738	2565.460836
998.084936	2555.973385
998.380099	2545.208001
998.675225	2530.455064
998.970316	2519.099865
999.265371	2503.701661
999.560390	2489.841008
999.855373	2479.698207
1000.150320	2467.559108
1000.445232	2457.355813
1000.740108	2455.679629
1001.034948	2446.908021
1001.329752	2440.125149
1001.624521	2438.658173
1001.919254	2428.830444
1002.213951	2426.728283
1002.508613	2425.457912
1002.803239	2426.292223
1003.097829	2418.450708
1003.392384	2419.766449
1003.686903	2422.266861
1003.981386	2421.193096
1004.275834	2421.321645
1004.570246	2418.574216
1004.864623	2418.198650
1005.158964	2414.616910
1005.453270	2416.444329
1005.747540	2416.681263
1006.041775	2415.375604
1006.335974	2414.541293
1006.630138	2412.154307
1006.924266	2412.635737
1007.218359	2412.728998
1007.512416	2412.779410
1007.806438	2414.168248
1008.100425	2411.524162
1008.394376	2410.422670
1008.688292	2411.655232
1008.982172	2411.176323
1009.276017	2412.618093
1009.569827	2409.318658
1009.863602	2408.799419
1010.157341	2409.517783
1010.451045	2410.946950
1010.744714	2411.493916
1011.038347	2409.028791
1011.331945	2406.667011
1011.625508	2408.088616
1011.919036	2407.118194
1012.212528	2406.924110
1012.505986	2405.570560
1012.799408	2406.094840
1013.092795	2406.127607
1013.386147	2407.970149
1013.679464	2407.460993
1013.972745	2405.810015
1014.265992	2408.426373
1014.559204	2409.374110
1014.852380	2407.249264
1015.145521	2407.405540
1015.438628	2407.040056
1015.731699	2406.034346
1016.024736	2407.355128
1016.317737	2406.609037
1016.610703	2407.433266
1016.903635	2405.885632
1017.196531	2403.105436
1017.489393	2405.573080
1017.782219	2401.661145
1018.075011	2409.215314
1018.367768	2409.142217
1018.660490	2410.296642
1018.953177	2410.296642
1019.245829	2410.296642
