Dividing Wavelength (nm)	Counts (n)	Blue Motor Position (mm): 26.200000	Red Motor Position (mm): 0.000000	
326.493990	1972.933696
326.888308	1972.933696
327.282561	1972.933696
327.676750	1947.052412
328.070874	1949.600715
328.464933	1955.024997
328.858929	1965.011522
329.252859	1978.925107
329.646726	1991.361633
330.040528	2007.803357
330.434265	2024.993691
330.827938	2045.869109
331.221547	2065.741338
331.615091	2086.977198
332.008571	2106.017637
332.401986	2126.807355
332.795338	2147.400468
333.188625	2168.626247
333.581847	2185.120902
333.975006	2204.763758
334.368100	2225.026676
334.761129	2239.431773
335.154095	2256.959865
335.546996	2289.936573
335.939833	2364.475074
336.332606	2380.316900
336.725315	2390.530277
337.117960	2401.172153
337.510540	2405.010992
337.903056	2416.033475
338.295508	2421.508168
338.687896	2428.336411
339.080220	2435.938471
339.472480	2441.614810
339.864676	2444.510953
340.256807	2446.872733
340.648875	2450.391459
341.040879	2453.617797
341.432818	2453.106120
341.824694	2455.246090
342.216506	2453.572427
342.608253	2456.090483
342.999937	2452.385235
343.391557	2451.384566
343.783113	2449.763835
344.174605	2447.520522
344.566033	2446.948351
344.957397	2447.722168
345.348697	2442.617999
345.739934	2441.110694
346.131106	2440.893925
346.522215	2437.281938
346.913260	2437.286979
347.304241	2434.463933
347.695159	2433.548964
348.086012	2432.999478
348.476802	2428.432192
348.867528	2429.821030
349.258191	2426.161153
349.648789	2426.955134
350.039324	2426.304826
350.429796	2426.443457
350.820203	2420.625966
351.210548	2423.156625
351.600828	2424.036306
351.991045	2421.296439
352.381198	2421.069587
352.771288	2422.344999
353.161314	2420.746953
353.551276	2419.678229
353.941175	2420.134453
354.331010	2421.992118
354.720782	2421.979516
355.110490	2426.198961
355.500135	2421.848446
355.889717	2420.920873
356.279235	2421.888775
356.668689	2419.615214
357.058080	2423.204516
357.447408	2422.680236
357.836672	2421.752664
358.225873	2421.452715
358.615010	2418.037333
359.004084	2426.574527
359.393095	2427.212233
359.782043	2426.249373
360.170927	2424.903385
360.559748	2426.871955
360.948505	2429.251380
361.337199	2432.253387
361.725830	2430.375557
362.114398	2428.863211
362.502903	2428.522933
362.891344	2431.686257
363.279722	2430.574683
363.668037	2431.408994
364.056289	2431.628284
364.444478	2432.104673
364.832603	2431.101483
365.220665	2435.976279
365.608665	2433.460743
365.996601	2433.702719
366.384474	2436.949222
366.772284	2435.812442
367.160031	2433.743048
367.547715	2436.775302
367.935336	2435.550302
368.322893	2436.379572
368.710388	2437.163471
369.097820	2440.606579
369.485189	2436.114911
369.872495	2438.859819
370.259738	2436.828234
370.646918	2437.871753
371.034035	2440.573812
371.421090	2438.577515
371.808081	2440.142793
372.195010	2437.723039
372.581875	2438.877463
372.968678	2441.201435
373.355418	2440.745211
373.742096	2441.861826
374.128710	2442.872578
374.515262	2445.831735
374.901751	2441.022474
375.288177	2443.248144
375.674540	2443.265788
376.060841	2443.943823
376.447079	2446.416509
376.833254	2445.438525
377.219367	2442.489450
377.605417	2443.734615
377.991404	2439.396702
378.377329	2445.622527
378.763191	2440.631785
379.148991	2448.334668
379.534727	2445.352825
379.920402	2449.269802
380.306013	2447.286108
380.691563	2447.800306
381.077049	2447.351643
381.462474	2447.656633
381.847835	2448.682507
382.233134	2451.316510
382.618371	2449.090841
383.003545	2449.915070
383.388657	2451.001438
383.773706	2450.295677
384.158693	2451.417333
384.543618	2453.552262
384.928480	2455.236007
385.313280	2454.547890
385.698017	2451.172837
386.082692	2454.139557
386.467305	2454.777262
386.851856	2454.852880
387.236344	2456.093004
387.620770	2449.718465
388.005133	2456.839094
388.389435	2457.247428
388.773674	2455.344392
389.157851	2458.729527
389.541965	2456.198868
389.926018	2456.612242
390.310008	2456.287088
390.693936	2458.270782
391.077802	2458.401852
391.461606	2457.519650
391.845348	2461.577779
392.229027	2459.417645
392.612645	2456.524022
392.996200	2458.777418
393.379694	2460.940073
393.763125	2462.442337
394.146494	2463.506020
394.529801	2462.046606
394.913047	2462.540639
395.296230	2459.165587
395.679351	2462.424693
396.062410	2464.431072
396.445408	2464.599951
396.828343	2464.983078
397.211217	2460.380505
397.594028	2464.584827
397.976778	2461.262707
398.359466	2464.103397
398.742092	2461.063581
399.124656	2466.379478
399.507158	2467.927112
399.889598	2467.173460
400.271977	2467.927112
400.654294	2467.450723
401.036549	2468.826958
401.418742	2467.566670
401.800874	2467.942236
402.182944	2467.670013
402.564952	2471.455920
402.946898	2469.265539
403.328783	2470.515745
403.710606	2470.936681
404.092367	2473.573205
404.474067	2473.391723
404.855705	2475.297279
405.237282	2473.636219
405.618797	2473.026239
406.000250	2474.036991
406.381642	2472.580097
406.762972	2477.921200
407.144240	2474.624285
407.525447	2476.406333
407.906593	2477.023874
408.287677	2476.406333
408.668700	2474.999851
409.049661	2476.151755
409.430560	2478.155613
409.811399	2478.042188
410.192176	2481.384473
410.572891	2478.858854
410.953545	2481.621407
411.334138	2477.785089
411.714669	2480.643423
412.095139	2478.810963
412.475547	2482.100316
412.855894	2482.901860
413.236180	2478.720223
413.616405	2481.278608
413.996568	2481.097127
414.376670	2482.112919
414.756711	2483.133753
415.136691	2483.559730
415.516609	2483.426140
415.896466	2484.799854
416.276262	2485.369505
416.655997	2483.960502
417.035670	2482.859010
417.415283	2486.135760
417.794834	2483.060656
418.174324	2488.275730
418.553753	2489.185658
418.933121	2488.028713
419.312428	2487.718682
419.691674	2491.000473
420.070859	2486.801192
420.449983	2491.986019
420.829045	2489.851090
421.208047	2489.432675
421.586988	2490.985350
421.965867	2495.582882
422.344686	2494.821668
422.723444	2494.342758
423.102141	2493.364775
423.480777	2493.674806
423.859352	2497.753099
424.237866	2498.831906
424.616319	2495.643376
424.994712	2497.569097
425.373044	2498.884838
425.751314	2499.288130
426.129524	2497.012049
426.507673	2501.241578
426.885762	2501.198728
427.263789	2500.717297
427.641756	2500.676968
428.019662	2501.919613
428.397508	2504.367093
428.775292	2505.662669
429.153016	2503.961280
429.530679	2507.595952
429.908282	2508.899090
430.285824	2505.453462
430.663305	2508.266425
431.040726	2505.090498
431.418086	2510.418998
431.795385	2512.296828
432.172624	2511.646519
432.549802	2513.229441
432.926920	2512.755573
433.303977	2514.928310
433.680974	2514.459483
434.057910	2515.137518
434.434786	2517.322858
434.811601	2520.579444
435.188355	2523.117665
435.565050	2521.393590
435.941683	2524.241842
436.318257	2524.342665
436.694770	2522.351409
437.071222	2529.676206
437.447614	2527.251411
437.823946	2527.979858
438.200218	2531.934643
438.576429	2534.243491
438.952580	2536.527134
439.328670	2537.013605
439.704700	2539.032587
440.080670	2541.888401
440.456580	2543.476364
440.832429	2544.958464
441.208218	2548.237734
441.583947	2550.697817
441.959616	2550.360060
442.335224	2557.183262
442.710773	2560.891030
443.086261	2564.253480
443.461689	2565.972513
443.837057	2571.207752
444.212365	2578.910635
444.587612	2585.789289
444.962800	2588.738364
445.337927	2595.357399
445.712995	2599.153388
446.088002	2613.518156
446.462949	2623.839918
446.837837	2636.301651
447.212664	2647.253557
447.587431	2680.247909
447.962139	2714.989021
448.336786	2752.845566
448.711374	2755.771956
449.085901	2739.350397
449.460369	2755.673653
449.834776	2779.659463
450.209124	2830.186948
450.583412	2852.952799
450.957640	2885.818602
451.331808	2892.427554
451.705917	2904.987589
452.079965	2936.066303
452.453954	2972.322281
452.827883	3011.040863
453.201752	3043.624361
453.575562	3091.545569
453.949311	3159.568379
454.323001	3212.755072
454.696632	3262.957403
455.070202	3361.022969
455.443713	3429.048299
455.817164	3518.521218
456.190556	3608.795680
456.563888	3660.558248
456.937160	3747.465220
457.310373	3750.101743
457.683526	3845.457689
458.056619	3928.165379
458.429653	4013.791898
458.802628	4141.564983
459.175542	4249.130604
459.548398	4441.616981
459.921194	4672.847146
460.293930	4866.777814
460.666607	5168.929452
461.039224	5459.370490
461.411782	5628.665039
461.784280	5642.099714
462.156719	5718.090067
462.529099	5799.938241
462.901419	5810.698584
463.273680	5835.493499
463.645882	5989.578887
464.018024	6138.126567
464.390106	6408.289563
464.762130	6948.973478
465.134094	7762.227540
465.505999	8802.557856
465.877845	9762.295246
466.249631	10170.512761
466.621358	10092.180792
466.993026	9956.102406
467.364634	9820.581067
467.736184	9710.041166
468.107674	9722.439884
468.479105	9799.458632
468.850477	9892.135205
469.221790	9842.220220
469.593043	9697.735709
469.964238	9729.530267
470.335373	9921.366335
470.706449	10549.637777
471.077467	11421.966601
471.448425	12851.534488
471.819324	13888.144433
472.190164	13679.670036
472.560945	12974.372283
472.931667	12363.780168
473.302330	12306.860500
473.672934	12313.504741
474.043479	12726.982700
474.413965	12747.681677
474.784393	12880.793345
475.154761	13406.862954
475.525070	13676.317668
475.895321	13775.023461
476.265513	14237.519079
476.635645	14824.848790
477.005719	15038.656728
477.375734	15478.235261
477.745691	16016.277611
478.115588	16797.238041
478.485427	17904.091424
478.855207	19613.801271
479.224928	21098.680698
479.594591	22160.743429
479.964194	22050.432901
480.333739	22456.094551
480.703226	22841.760464
481.072653	23530.911400
481.442022	24140.938907
481.811333	24641.596060
482.180584	24345.040102
482.549777	24436.481592
482.918912	24503.357539
483.287988	24703.947571
483.657005	24615.097235
484.025964	24623.203410
484.394864	24952.572238
484.763706	25050.108482
485.132489	24900.625668
485.501213	25122.990964
485.869879	25525.879979
486.238487	25611.803926
486.607036	26049.822222
486.975527	26041.345522
487.343959	26473.556409
487.712333	26821.789234
488.080648	27062.738744
488.448905	27646.617785
488.817104	27840.429986
489.185244	28769.292829
489.553326	30167.444245
489.921350	32314.852276
490.289315	34777.687822
490.657222	35594.644612
491.025070	36143.787583
491.392861	35755.525475
491.760593	35118.711798
492.128267	34186.138666
492.495883	33371.989799
492.863440	32657.108813
493.230939	31971.650522
493.598380	31471.996558
493.965763	31496.350373
494.333088	31172.057987
494.700354	31080.462742
495.067563	31099.969487
495.434713	31254.919433
495.801805	31550.298280
496.168839	31503.062669
496.535815	31490.026245
496.902733	31721.999980
497.269593	31638.667187
497.636395	31805.796560
498.003139	32323.087000
498.369825	32109.553806
498.736453	32550.911866
499.103023	32385.297359
499.469535	32478.299086
499.835989	32767.537809
500.202385	32692.717003
500.568723	32900.024373
500.935003	33237.040631
501.301226	33262.596760
501.667390	33943.139927
502.033497	34344.249415
502.399546	34039.040317
502.765537	33627.825836
503.131470	34118.156185
503.497345	34584.266311
503.863163	33617.630102
504.228923	34278.270793
504.594625	34780.233605
504.960269	34333.489072
505.325856	35068.365794
505.691385	34672.584806
506.056856	34908.805713
506.422270	35434.988749
506.787625	35196.915218
507.152924	35483.414073
507.518164	35695.301331
507.883347	35137.696783
508.248472	35469.346733
508.613540	36009.045102
508.978550	36400.195791
509.343503	36274.663498
509.708398	36543.500671
510.073236	37155.693353
510.438016	37242.300376
510.802738	36844.623914
511.167403	37512.448249
511.532010	37825.662699
511.896561	38189.213071
512.261053	39060.062315
512.625488	38707.322698
512.989866	38675.646608
513.354186	38603.512738
513.718449	38665.549177
514.082655	39374.169050
514.446803	39142.512907
514.810894	39701.037465
515.174927	39703.202641
515.538904	39674.578969
515.902822	40345.846412
516.266684	39899.928628
516.630488	40352.367145
516.994235	40275.686154
517.357925	40850.327281
517.721558	41065.836607
518.085133	41401.912690
518.448651	41573.334606
518.812112	41410.608681
519.175516	41547.312170
519.538863	41912.783221
519.902152	41901.322158
520.265385	42382.901064
520.628560	42463.501553
520.991678	42282.740899
521.354739	42539.154148
521.717743	42876.593863
522.080690	42813.294615
522.443580	43371.027712
522.806413	43446.014875
523.169189	43411.460286
523.531908	43601.305099
523.894569	43514.065411
524.257174	43685.999004
524.619722	44007.191080
524.982213	44022.644737
525.344647	43947.740753
525.707025	44019.178944
526.069345	44429.102890
526.431608	44368.319177
526.793815	44675.307803
527.155964	44244.445424
527.518057	44412.250313
527.880093	44221.966919
528.242072	44758.784269
528.603995	44466.210823
528.965860	44470.039580
529.327669	44582.071662
529.689421	44497.115617
530.051117	44480.487371
530.412755	44623.711593
530.774337	44689.387745
531.135862	44524.289957
531.497331	44706.129417
531.858743	44639.563501
532.220098	44971.016846
532.581396	44708.196290
532.942638	44374.290424
533.303824	44671.191700
533.664953	44657.247869
534.026025	44393.328342
534.387040	44841.779305
534.747999	44804.194983
535.108902	44972.062885
535.469748	44498.262479
535.830537	44626.572448
536.191270	44824.336913
536.551947	44488.243186
536.912567	44776.090550
537.273131	44914.321509
537.633638	44414.896918
537.994089	44751.343526
538.354483	44366.035535
538.714821	44919.072797
539.075103	45280.853723
539.435328	45066.392956
539.795497	44943.945850
540.155609	44945.546416
540.515665	45395.242545
540.875665	44863.413417
541.235609	45174.639132
541.595496	45166.240570
541.955328	45840.358786
542.315102	45210.776643
542.674821	45016.160379
543.034483	45056.466924
543.394090	45018.650709
543.753640	44982.772817
544.113134	45962.372353
544.472571	45007.227454
544.831953	46230.518887
545.191278	45461.145549
545.550548	45210.567436
545.909761	45642.158260
546.268918	45846.733325
546.628019	46141.252656
546.987064	45717.001751
547.346053	45018.537283
547.704986	45885.615744
548.063863	45453.987111
548.422684	45655.033367
548.781449	45501.812537
549.140158	45891.476086
549.498811	45751.780671
549.857408	45195.239807
550.215949	46010.341452
550.574434	45959.226673
550.932864	45739.142499
551.291237	46432.502799
551.649555	46062.041005
552.007817	46304.651575
552.366022	45967.615153
552.724173	46125.877137
553.082267	46524.350101
553.440305	46822.010071
553.798288	46157.361663
554.156215	46464.183930
554.514086	46669.038778
554.871902	46421.613906
555.229661	46437.128057
555.587365	46261.524504
555.945014	46352.086313
556.302606	46304.182748
556.660143	46525.433949
557.017625	46603.226515
557.375050	46413.966476
557.732421	46751.862415
558.089735	46733.260558
558.446994	46654.323650
558.804197	47106.928525
559.161345	47047.682364
559.518437	46313.392936
559.875474	46625.836090
560.232455	46817.672158
560.589381	46965.244375
560.946251	46663.536359
561.303065	47341.874020
561.659825	47143.088721
562.016528	46831.830239
562.373177	46548.197279
562.729770	47034.121660
563.086307	46561.039619
563.442789	47018.123559
563.799216	47056.156544
564.155587	46857.272942
564.511904	46895.363901
564.868164	46979.268865
565.224370	47218.358189
565.580520	46945.694781
565.936615	47177.519802
566.292654	46894.300217
566.648638	47135.234604
567.004567	47086.373220
567.360441	47117.177191
567.716260	46983.387488
568.072023	47287.210269
568.427732	47272.593443
568.783385	46831.192533
569.138982	47233.174141
569.494525	47186.619085
569.850013	46948.225440
570.205445	46928.063345
570.560823	46887.431645
570.916145	46757.589166
571.271412	46793.673745
571.626625	46562.027685
571.981782	46620.041283
572.336884	46302.108313
572.691931	46615.050541
573.046923	46227.741212
573.401860	46086.510766
573.756743	46072.337562
574.111570	46178.292534
574.466342	46029.397014
574.821059	46156.232444
575.175722	45690.525611
575.530330	45716.245578
575.884882	45434.923987
576.239380	45402.287558
576.593823	45359.442791
576.948211	45287.220700
577.302544	44831.956617
577.656823	44877.942022
578.011047	45097.582575
578.365216	44817.869113
578.719330	44619.232528
579.073389	44474.836237
579.427394	44563.076594
579.781344	44535.221699
580.135239	44207.196339
580.489080	44277.517914
580.842866	43775.567705
581.196597	44245.226803
581.550273	44168.076985
581.903895	44034.998085
582.257463	44465.424403
582.610975	43852.392369
582.964434	44142.596473
583.317837	43793.657886
583.671186	43637.195594
584.024481	43855.800189
584.377721	43411.084720
584.730906	43688.154097
585.084037	43712.086975
585.437113	43427.760857
585.790135	43470.701406
586.143103	43070.335488
586.496016	43214.946027
586.848874	43219.649424
587.201679	43250.178651
587.554428	42728.976276
587.907124	42933.097636
588.259765	42675.058615
588.612352	42934.819190
588.964884	42331.526665
589.317362	42615.315901
589.669786	42564.924527
590.022155	42332.015657
590.374470	42769.393727
590.726731	42293.692806
591.078937	41823.895076
591.431090	41909.017479
591.783188	41567.368401
592.135232	41265.705755
592.487222	41493.674293
592.839157	41580.823240
593.191038	41269.516867
593.542866	41037.948944
593.894639	40443.415424
594.246358	40720.199976
594.598022	40698.497809
594.949633	40299.740019
595.301190	40268.633579
595.652692	40103.203075
596.004141	40423.197877
596.355535	39462.946289
596.706876	39405.076364
597.058162	39238.037731
597.409395	39688.515239
597.760573	39773.211665
598.111698	39355.279846
598.462768	39351.879588
598.813785	39422.859034
599.164748	38865.393118
599.515657	39253.337633
599.866511	38750.681662
600.217312	39354.364877
600.568060	38335.640946
600.918753	39062.983664
601.269392	39015.793423
601.619978	38694.417344
601.970510	38894.793128
602.320988	39060.649610
602.671412	39367.628152
603.021783	39115.371335
603.372100	38751.843648
603.722363	38872.740600
604.072572	38954.170358
604.422728	38960.691091
604.772830	38777.971949
605.122878	38872.102894
605.472872	38791.285636
605.822813	39066.462060
606.172701	38908.429449
606.522534	39140.972834
606.872314	39398.525384
607.222041	39167.786732
607.571714	39550.700175
607.921333	39001.007718
608.270899	39288.106471
608.620411	39621.147779
608.969870	39430.390518
609.319276	39421.911297
609.668627	39467.861414
610.017926	39937.402045
610.367171	40108.735741
610.716362	40200.991377
611.065500	40141.004167
611.414585	40329.228249
611.763616	40603.590526
612.112594	40545.075333
612.461518	40762.401996
612.810389	41052.689278
613.159207	40913.503021
613.507971	40989.183343
613.856682	41461.962915
614.205340	41338.502537
614.553945	42030.708413
614.902496	41502.927331
615.250994	41954.844088
615.599439	42029.387630
615.947830	42237.995618
616.296169	42285.447999
616.644454	42409.450301
616.992686	42591.320008
617.340864	43097.474540
617.688990	42830.623581
618.037063	43408.339812
618.385082	43381.064649
618.733048	43680.811657
619.080961	43694.107700
619.428821	43701.860995
619.776628	43803.546109
620.124382	43611.266419
620.472083	43754.394859
620.819731	43884.101227
621.167326	43542.144638
621.514868	43531.253225
621.862357	43085.370729
622.209793	43122.032521
622.557176	42797.052017
622.904506	42540.048953
623.251783	42190.893597
623.599007	41982.393994
623.946179	41758.629778
624.293297	41705.475852
624.640363	41119.421552
624.987376	41106.029727
625.334336	40869.990301
625.681243	40516.887721
626.028097	40479.396660
626.374899	40323.249440
626.721647	40314.127472
627.068343	40202.276871
627.414987	39966.229884
627.761577	39738.276468
628.108115	40078.856822
628.454600	39532.176455
628.801032	39729.164583
629.147412	39691.373573
629.493739	39700.366992
629.840014	39352.701296
630.186236	39685.644302
630.532405	39310.968104
630.878521	39525.834684
631.224585	39402.160056
631.570597	39113.203638
631.916556	39270.538050
632.262462	39225.114733
632.608316	39259.525649
632.954117	39137.013008
633.299866	39120.140266
633.645562	39036.903254
633.991206	38549.640447
634.336797	38143.457038
634.682336	38132.500090
635.027823	37883.217553
635.373257	37698.696198
635.718639	37466.452761
636.063968	37325.711308
636.409245	36761.638960
636.754470	36805.539848
637.099642	36570.559064
637.444762	36109.235514
637.789829	36240.771821
638.134845	35895.793060
638.479808	35855.766299
638.824719	35754.151761
639.169577	35359.832707
639.514383	35432.095127
639.859137	35145.956714
640.203839	35364.720106
640.548489	35014.775808
640.893086	35074.253862
641.237632	34831.872665
641.582125	34943.819047
641.926566	34878.851177
642.270955	34843.477401
642.615292	34862.238055
642.959576	34823.680790
643.303809	34844.198286
643.647990	34985.431252
643.992118	34959.285308
644.336195	34950.332218
644.680219	35049.804266
645.024192	35328.020506
645.368112	35855.496597
645.711981	35859.106063
646.055797	36725.612354
646.399562	36662.766809
646.743274	37578.278157
647.086935	38024.856332
647.430544	37919.231556
647.774101	38036.587097
648.117606	38294.603433
648.461059	38579.166485
648.804460	38194.123154
649.147810	37578.275636
649.491108	37325.340783
649.834354	36976.016548
650.177548	36174.533580
650.520690	35708.413372
650.863781	35732.217700
651.206820	35565.811733
651.549807	35144.724152
651.892742	34656.916900
652.235626	34479.059951
652.578458	34349.923233
652.921238	33743.018722
653.263967	34078.996502
653.606644	33760.907256
653.949269	33711.511510
654.291843	33324.716379
654.634365	33728.724530
654.976836	33318.470389
655.319255	33314.079544
655.661622	33317.474761
656.003938	33082.216714
656.346203	32952.212918
656.688416	33169.224509
657.030577	32967.659013
657.372687	32807.882163
657.714746	33087.031016
658.056753	33203.259859
658.398708	32656.166117
658.740612	32710.476988
659.082465	32987.967302
659.424266	32816.608400
659.766016	32930.137705
660.107715	32821.997394
660.449362	32936.517286
660.790958	32917.103802
661.132503	32957.599391
661.473996	32965.244301
661.815438	33103.450054
662.156829	33276.061682
662.498168	33057.338620
662.839456	33074.738162
663.180693	33220.172930
663.521879	33384.441449
663.863013	33345.727908
664.204097	33340.825386
664.545129	33797.868996
664.886110	33767.783390
665.227040	33833.237732
665.567918	33935.815130
665.908746	34016.544168
666.249522	34175.413611
666.590248	34170.765667
666.930922	34291.836538
667.271545	34241.142695
667.612118	34330.565203
667.952639	34133.516581
668.293109	34176.721790
668.633528	34074.504834
668.973896	33997.871734
669.314213	34022.424674
669.654480	33779.110863
669.994695	33794.390600
670.334859	33689.020402
670.674973	33591.731174
671.015035	33744.715070
671.355047	33705.671334
671.695008	33643.241684
672.034918	33537.387536
672.374777	33630.096876
672.714585	33474.065603
673.054342	33694.316135
673.394049	33463.935404
673.733705	33756.844086
674.073310	33397.939138
674.412864	33471.013184
674.752368	33063.892120
675.091820	33377.217475
675.431223	32949.084882
675.770574	32674.737728
676.109875	32541.197563
676.449125	32258.734151
676.788324	32197.126210
677.127473	31659.648469
677.466571	31582.909505
677.805619	31248.905336
678.144616	31250.571437
678.483562	31170.553202
678.822458	30845.212257
679.161303	30776.687852
679.500098	30688.099656
679.838842	30568.873847
680.177535	30734.634547
680.516179	31000.719250
680.854771	31241.013410
681.193314	32099.370675
681.531805	33215.162023
681.870247	33998.756457
682.208638	34731.558744
682.546978	34962.057942
682.885268	35035.497471
683.223508	34512.175291
683.561697	34168.673588
683.899836	33988.265815
684.237925	33482.716223
684.575963	33343.923175
684.913951	32868.128992
685.251889	33034.363561
685.589776	33027.691594
685.927614	33026.489279
686.265401	33165.637728
686.603137	33268.494910
686.940824	33777.802683
687.278460	34147.437728
687.616046	34311.464271
687.953582	34925.247437
688.291068	34784.750479
688.628504	35059.984876
688.965889	34992.125904
689.303224	34609.361175
689.640510	34255.875467
689.977745	33526.007131
690.314930	32732.920205
690.652065	32199.692157
690.989150	31452.643569
691.326185	30555.620653
691.663170	29860.357318
692.000105	29109.490055
692.336990	28431.399410
692.673825	27982.182191
693.010610	27466.953583
693.347345	26885.111168
693.684030	26239.949339
694.020665	25974.441849
694.357251	25317.047661
694.693786	25255.903506
695.030272	25022.992116
695.366707	24489.040662
695.703093	24202.509039
696.039429	24192.492267
696.375716	23926.730198
696.711952	23899.709613
697.048139	23749.495831
697.384276	23566.522111
697.720363	23684.346479
698.056400	23494.708354
698.392388	23278.190796
698.728326	23240.566145
699.064214	23034.536707
699.400053	22977.443120
699.735842	22618.059262
700.071581	22350.759641
700.407270	22059.345661
700.742910	21865.329293
701.078501	21596.766863
701.414042	21321.345943
701.749533	21027.618073
702.084974	20677.177223
702.420366	20877.991586
702.755709	20433.472722
703.091002	20153.242542
703.426246	20163.738224
703.761440	20063.177287
704.096584	19798.020156
704.431679	19759.694784
704.766725	19666.138531
705.101721	19607.250292
705.436668	19703.725374
705.771565	19378.308811
706.106413	19712.507064
706.441212	19705.966167
706.775961	19836.469037
707.110661	19897.761906
707.445311	20251.076214
707.779913	20101.361507
708.114465	20346.036429
708.448967	20628.308277
708.783421	21320.249492
709.117825	21597.812903
709.452180	21823.928817
709.786485	22224.940003
710.120742	23012.806814
710.454949	23034.365308
710.789107	23494.733560
711.123216	24212.740061
711.457275	24325.535878
711.791286	24870.532500
712.125247	24939.558499
712.459159	24630.344204
712.793023	25289.172601
713.126837	24183.458519
713.460602	24439.541573
713.794318	24060.179622
714.127985	23669.154962
714.461602	22782.040435
714.795171	22730.154359
715.128691	21719.529042
715.462162	21178.824962
715.795584	20763.028072
716.128957	20498.972434
716.462281	20092.448747
716.795556	19865.780826
717.128782	19377.429129
717.461960	18826.373041
717.795088	18741.074197
718.128167	18348.244804
718.461198	17894.445176
718.794180	17747.301457
719.127113	17390.092857
719.459997	17196.439453
719.792833	16850.858274
720.125619	16814.262018
720.458357	16500.651837
720.791046	16332.940210
721.123686	16175.560428
721.456278	15947.423011
721.788821	15902.123203
722.121315	15642.476053
722.453761	15714.415839
722.786158	15634.959693
723.118506	15651.459389
723.450805	15514.425704
723.783056	15674.164746
724.115259	15581.931796
724.447412	15510.922103
724.779518	15750.732312
725.111574	15777.248781
725.443582	15980.666900
725.775542	15956.567664
726.107453	16423.640650
726.439315	16302.819316
726.771129	16709.224536
727.102895	17078.789004
727.434612	17281.161084
727.766281	17407.842760
728.097901	17668.714910
728.429473	17698.132563
728.760996	17676.637083
729.092471	17767.667718
729.423897	17643.183986
729.755276	17511.672885
730.086606	17616.843957
730.417887	18145.033372
730.749120	18660.680396
731.080305	18836.367128
731.411442	19164.687396
731.742530	19224.324246
732.073570	19330.972376
732.404562	19620.964751
732.735506	19437.822152
733.066401	19143.464138
733.397249	18617.434858
733.728048	17986.738621
734.058798	17153.844223
734.389501	16481.371944
734.720156	16018.367169
735.050762	15497.605895
735.381320	15140.823272
735.711831	14909.305761
736.042293	14561.655189
736.372707	14574.923506
736.703073	14357.417882
737.033391	14551.328386
737.363661	14516.821687
737.693883	14626.401249
738.024056	14790.662206
738.354182	14976.937881
738.684260	15258.650161
739.014290	15492.113558
739.344272	15677.093657
739.674207	15949.794874
740.004093	16067.972123
740.333931	16064.486165
740.663722	16091.279898
740.993464	16084.388641
741.323159	15911.083854
741.652806	15632.129085
741.982405	15420.811478
742.311956	15092.869296
742.641460	14965.728876
742.970915	14665.596220
743.300323	14333.205220
743.629683	14117.705976
743.958996	13832.797604
744.288260	13568.787336
744.617477	13271.283642
744.946647	13199.679093
745.275768	12926.027618
745.604842	12745.650092
745.933869	12571.384966
746.262847	12522.795804
746.591778	12453.076647
746.920662	12356.914116
747.249498	12350.370699
747.578286	12472.913587
747.907027	12617.725772
748.235720	12832.325171
748.564365	12866.163916
748.892963	12764.032660
749.221514	12821.035507
749.550017	12675.588136
749.878473	12638.560861
750.206881	12413.347313
750.535242	12324.428921
750.863555	12236.362484
751.191821	12150.899803
751.520039	12170.109119
751.848210	12073.455077
752.176334	12100.286618
752.504411	12008.656085
752.832440	11852.955007
753.160421	11915.180490
753.488356	11795.387551
753.816243	11704.359436
754.144082	11557.424925
754.471875	11503.386276
754.799620	11452.190838
755.127318	11427.567322
755.454969	11389.584749
755.782572	11339.047182
756.110129	11350.412463
756.437638	11269.537232
756.765100	11263.001376
757.092515	11261.814184
757.419882	11279.480908
757.747203	11285.396702
758.074477	11362.206242
758.401703	11315.424335
758.728882	11475.733027
759.056014	11519.286076
759.383099	11639.767132
759.710138	11733.668705
760.037129	11818.042497
760.364073	11836.140239
760.690970	11824.175060
761.017820	11821.750265
761.344623	12006.904284
761.671379	12324.383551
761.998088	12962.943988
762.324751	14509.108722
762.651366	17366.222994
762.977935	21022.639934
763.304456	23242.804417
763.630931	23706.880437
763.957359	22514.181246
764.283740	20599.490521
764.610074	18727.460561
764.936362	16617.344466
765.262602	15093.055819
765.588796	13637.168068
765.914943	12602.529214
766.241044	11759.996131
766.567097	11127.903494
766.893104	10587.229662
767.219064	10230.091638
767.544978	9850.636426
767.870845	9535.839054
768.196665	9351.932720
768.522438	9149.663984
768.848165	8993.075663
769.173846	8826.503337
769.499479	8697.500210
769.825066	8545.839617
770.150607	8358.107048
770.476101	8294.908623
770.801548	8186.596912
771.126949	8049.774955
771.452303	7959.971841
771.777611	7805.042060
772.102872	7773.295393
772.428087	7660.736510
772.753256	7534.621964
773.078378	7448.203985
773.403453	7305.695607
773.728482	7205.936213
774.053465	7136.995914
774.378401	7053.022893
774.703291	6955.411032
775.028135	6865.675973
775.352932	6824.451937
775.677683	6741.827425
776.002388	6662.386403
776.327046	6651.913405
776.651658	6569.251085
776.976224	6497.649057
777.300743	6481.615667
777.625216	6417.111583
777.949643	6372.588112
778.274024	6378.214040
778.598359	6308.482279
778.922647	6312.502599
779.246889	6274.661178
779.571086	6279.198216
779.895236	6293.671369
780.219339	6284.970337
780.543397	6282.343896
780.867409	6337.635272
781.191374	6330.098747
781.515294	6298.563809
781.839167	6352.428538
782.162995	6317.987375
782.486776	6274.169665
782.810511	6232.801957
783.134201	6157.280431
783.457844	6143.361805
783.781441	6098.200629
784.104993	6054.362755
784.428498	6018.671386
784.751958	6004.515826
785.075372	5980.335931
785.398739	5946.391322
785.722061	5968.395958
786.045337	5968.388397
786.368568	6078.116672
786.691752	6096.756338
787.014891	6350.081881
787.337983	6625.366689
787.661030	7066.276087
787.984031	7487.600602
788.306987	7749.937207
788.629897	7836.748397
788.952760	7746.592401
789.275579	7571.024136
789.598351	7271.304855
789.921078	7008.247365
790.243759	6729.103553
790.566395	6526.207193
790.888984	6333.027657
791.211529	6193.962387
791.534027	6035.942379
791.856480	5895.579012
792.178888	5834.623900
792.501249	5768.365494
792.823566	5668.122150
793.145836	5660.938506
793.468062	5643.385208
793.790241	5603.522284
794.112375	5645.918388
794.434464	5743.081587
794.756507	5775.886896
795.078505	5892.456017
795.400457	6111.365602
795.722364	6348.987950
796.044226	6543.515995
796.366042	6699.091044
796.687812	6646.370657
797.009538	6670.442166
797.331218	6582.166521
797.652852	6507.438977
797.974442	6385.601851
798.295986	6322.542057
798.617484	6188.664134
798.938938	6082.159677
799.260346	6011.298698
799.581709	5877.423296
799.903026	5823.671993
800.224299	5749.781281
800.545526	5632.229135
800.866708	5572.468776
801.187845	5523.942629
801.508936	5446.767605
801.829983	5419.469757
802.150984	5316.783974
802.471940	5286.620230
802.792851	5269.329072
803.113717	5247.488273
803.434538	5222.874839
803.755314	5185.235064
804.076045	5179.220968
804.396731	5144.391636
804.717372	5159.366383
805.037967	5161.939892
805.358518	5194.409964
805.679024	5246.785032
805.999485	5258.462865
806.319901	5274.914671
806.640272	5294.774296
806.960598	5342.108210
807.280879	5333.906253
807.601115	5370.414289
807.921306	5335.348023
808.241453	5327.072969
808.561554	5340.313559
808.881611	5306.646213
809.201623	5302.217560
809.521590	5254.480353
809.841513	5238.257920
810.161390	5248.698150
810.481223	5163.542979
810.801011	5152.429756
811.120755	5129.021158
811.440453	5072.678702
811.760107	5043.954207
812.079716	5013.598899
812.399281	4963.368842
812.718801	4959.930775
813.038276	4928.675622
813.357707	4892.880909
813.677093	4910.751799
813.996434	4850.394064
814.315731	4869.431982
814.634983	4875.010018
814.954191	4876.550091
815.273354	4930.492958
815.592473	4973.703208
815.911547	5055.241351
816.230577	5103.898568
816.549562	5188.544582
816.868502	5246.661524
817.187399	5298.139266
817.506250	5376.728334
817.825058	5405.263786
818.143821	5555.800201
818.462539	5726.420574
818.781213	5956.042611
819.099843	6319.358568
819.418429	6948.139167
819.736970	7568.826193
820.055466	8270.970704
820.373919	9185.443573
820.692327	10641.651438
821.010691	13334.177077
821.329011	19566.550536
821.647286	29154.222734
821.965517	39520.158344
822.283704	44988.469321
822.601847	46463.838611
822.919945	41861.638195
823.237999	36737.388489
823.556010	31520.099248
823.873976	26801.075133
824.191897	22597.864400
824.509775	19529.190545
824.827609	16739.506748
825.145398	15201.491038
825.463144	14446.598414
825.780845	14731.090891
826.098502	15999.094838
826.416116	18471.997569
826.733685	20738.991851
827.051210	21271.889703
827.368692	19834.359314
827.686129	17273.901823
828.003522	14784.703562
828.320872	12566.981518
828.638177	10918.249467
828.955439	9674.795939
829.272656	8614.802602
829.589830	7771.657018
829.906960	7042.391100
830.224046	6510.037692
830.541088	6101.414364
830.858086	5844.844839
831.175041	5635.263909
831.491952	5583.950004
831.808819	5616.687257
832.125642	5860.812694
832.442421	6414.142343
832.759157	7521.310798
833.075849	9289.997104
833.392497	11142.747171
833.709101	12253.457037
834.025662	12003.975374
834.342179	10941.617736
834.658653	9639.959045
834.975083	8530.839664
835.291469	7626.217209
835.607811	6890.241515
835.924110	6370.760694
836.240366	5884.548967
836.556578	5435.235966
836.872746	5076.386470
837.188871	4806.561231
837.504952	4585.516718
837.820990	4418.868774
838.136984	4305.132782
838.452935	4250.564812
838.768842	4288.630565
839.084706	4567.832350
839.400526	5309.449095
839.716303	6216.997940
840.032037	6780.891327
840.347727	6633.309027
840.663373	6035.486154
840.978977	5456.844872
841.294537	5012.129403
841.610054	4680.829813
841.925527	4443.386426
842.240957	4235.154005
842.556344	4054.746232
842.871687	3893.731778
843.186987	3744.790888
843.502244	3625.378556
843.817458	3543.454765
844.132629	3465.518526
844.447756	3420.420364
844.762840	3376.211965
845.077881	3336.840554
845.392879	3297.733803
845.707833	3276.376955
846.022745	3250.384765
846.337613	3238.477560
846.652438	3210.408415
846.967221	3205.042107
847.281960	3183.894467
847.596656	3175.226203
847.911309	3166.986437
848.225919	3150.191833
848.540485	3140.560708
848.855009	3137.805718
849.169490	3121.177472
849.483928	3114.271091
849.798323	3110.495267
850.112675	3096.135540
850.426984	3100.614605
850.741251	3092.755446
851.055474	3090.174376
851.369654	3090.963316
851.683792	3085.602049
851.997887	3087.648758
852.311938	3093.448605
852.625947	3090.529777
852.939914	3086.375866
853.253837	3092.694952
853.567718	3090.948193
853.881555	3079.033426
854.195350	3086.564909
854.509103	3083.789754
854.822812	3081.753128
855.136479	3077.006882
855.450103	3081.206163
855.763685	3075.318095
856.077224	3076.028898
856.390720	3086.491813
856.704173	3095.860797
857.017584	3105.806994
857.330953	3107.468054
857.644278	3117.827625
857.957561	3117.744446
858.270802	3113.913169
858.584000	3116.582460
858.897155	3109.333281
859.210268	3098.797269
859.523339	3088.117585
859.836367	3085.944848
860.149352	3079.083837
860.462295	3074.256932
860.775195	3065.966755
861.088054	3064.774522
861.400869	3063.126065
861.713642	3058.415106
862.026373	3068.056313
862.339062	3072.520255
862.651708	3079.098961
862.964312	3095.646548
863.276873	3106.749689
863.589392	3138.728249
863.901869	3165.406035
864.214303	3185.404292
864.526696	3203.388609
864.839045	3218.837225
865.151353	3233.963207
865.463619	3231.818196
865.775842	3234.699215
866.088023	3239.160636
866.400162	3233.343145
866.712258	3234.084194
867.024313	3233.912795
867.336325	3231.387177
867.648296	3233.239801
867.960224	3231.296436
868.272110	3234.207703
868.583954	3236.531675
868.895755	3239.894124
869.207515	3238.671644
869.519233	3259.524377
869.830909	3260.920777
870.142542	3272.938888
870.454134	3280.603962
870.765684	3293.915129
871.077191	3314.813232
871.388657	3324.467042
871.700081	3341.785926
872.011463	3362.522712
872.322803	3381.729508
872.634101	3401.460584
872.945357	3421.330292
873.256571	3449.669139
873.567744	3464.316211
873.878874	3464.996767
874.189963	3482.993686
874.501010	3486.449397
874.812015	3481.859427
875.122979	3499.727796
875.433900	3500.088239
875.744780	3500.594875
876.055618	3507.521420
876.366415	3509.565608
876.677169	3510.921678
876.987882	3526.718134
877.298554	3548.697565
877.609183	3585.944130
877.919771	3632.673106
878.230317	3702.707335
878.540822	3803.127120
878.851285	3960.728713
879.161707	4180.407074
879.472087	4557.135021
879.782425	5190.218245
880.092722	6376.994080
880.402977	8329.778284
880.713191	10712.330935
881.023363	13123.008184
881.333494	14469.979286
881.643583	14938.768785
881.953631	14523.223953
882.263637	13662.840144
882.573602	12636.123463
882.883526	11658.222796
883.193408	10699.002125
883.503248	9778.474829
883.813048	8942.280997
884.122806	8175.841610
884.432522	7400.837303
884.742197	6733.519604
885.051831	6166.462893
885.361424	5670.320093
885.670975	5272.318476
885.980485	4948.164722
886.289954	4672.738761
886.599382	4456.019558
886.908768	4279.566570
887.218113	4116.954070
887.527417	3982.393071
887.836680	3859.504864
888.145901	3758.739760
888.455082	3680.238913
888.764221	3608.886421
889.073319	3550.867782
889.382376	3519.680683
889.691392	3491.495592
890.000366	3486.812360
890.309300	3480.755414
890.618193	3485.504181
890.927044	3482.003099
891.235855	3485.052998
891.544625	3499.417765
891.853353	3528.177548
892.162041	3590.798761
892.470687	3680.508614
892.779293	3801.012356
893.087858	3974.291937
893.396381	4257.198970
893.704864	4671.380170
894.013306	5249.149333
894.321707	5818.096477
894.630068	6180.487383
894.938387	6218.752261
895.246665	6043.983019
895.554903	5720.114090
895.863100	5383.070106
896.171256	5107.820585
896.479371	4862.760014
896.787446	4639.860356
897.095480	4442.847023
897.403473	4293.260864
897.711425	4146.580932
898.019336	4022.011499
898.327207	3900.058426
898.635038	3799.565545
898.942827	3689.426416
899.250576	3601.569186
899.558284	3521.152700
899.865952	3464.888382
900.173579	3400.790111
900.481165	3357.118595
900.788711	3311.816266
901.096216	3279.134466
901.403681	3253.724530
901.711105	3242.477716
902.018489	3237.386150
902.325832	3269.828496
902.633135	3332.520285
902.940397	3504.111080
903.247619	3909.676948
903.554800	4669.562834
903.861941	5641.146936
904.169041	6348.461150
904.476101	6561.875877
904.783121	6286.354134
905.090100	5880.705087
905.397039	5463.216890
905.703938	5098.628041
906.010796	4777.645173
906.317614	4515.522817
906.624391	4276.909882
906.931129	4080.914862
907.237826	3897.749578
907.544483	3726.599884
907.851099	3555.659398
908.157675	3392.469687
908.464211	3251.304776
908.770707	3151.686535
909.077163	3070.352559
909.383578	3011.628157
909.689954	2966.963534
909.996289	2936.714091
910.302584	2915.155596
910.608839	2901.788977
910.915054	2892.059550
911.221229	2886.282388
911.527363	2890.143912
911.833458	2897.667834
912.139513	2908.297107
912.445527	2919.624579
912.751502	2959.429530
913.057436	3000.063751
913.363331	3060.393759
913.669186	3148.903818
913.975000	3266.244235
914.280775	3455.043009
914.586510	3726.141139
914.892205	4101.205506
915.197859	4604.771405
915.503475	5192.721178
915.809050	5696.692889
916.114585	5986.213917
916.420081	6050.907044
916.725536	5984.628474
917.030952	5745.095528
917.336328	5537.483169
917.641665	5326.205890
917.946961	5094.133853
918.252218	4891.693717
918.557435	4663.997401
918.862612	4462.983912
919.167750	4291.241882
919.472848	4100.290536
919.777906	3931.013631
920.082925	3767.339969
920.387904	3615.457565
920.692843	3500.857015
920.997743	3402.085688
921.302603	3307.778302
921.607423	3243.780854
921.912204	3175.143024
922.216946	3130.029738
922.521647	3078.196594
922.826310	3033.448792
923.130932	2998.952176
923.435516	2956.793007
923.740059	2932.852567
924.044564	2901.005078
924.349028	2871.806714
924.653454	2843.107426
924.957840	2821.077583
925.262186	2797.973975
925.566493	2774.688886
925.870761	2751.391193
926.174989	2740.482136
926.479178	2725.129302
926.783328	2712.221428
927.087438	2701.332535
927.391509	2686.067922
927.695541	2673.427228
927.999533	2662.770229
928.303486	2657.265289
928.607400	2649.030564
928.911275	2643.099647
929.215110	2636.137813
929.518906	2633.163532
929.822663	2633.839047
930.126381	2631.353758
930.430060	2636.331898
930.733699	2637.624954
931.037299	2644.022178
931.340861	2640.473206
931.644383	2646.096613
931.947866	2643.550830
932.251309	2642.199801
932.554714	2639.742238
932.858080	2637.715694
933.161407	2633.947432
933.464694	2630.337966
933.767943	2628.155146
934.071153	2623.489558
934.374323	2619.643158
934.677455	2616.048815
934.980548	2613.694596
935.283602	2609.873402
935.586617	2609.709564
935.889593	2613.505553
936.192530	2614.440687
936.495428	2619.449073
936.798287	2628.508027
937.101108	2644.627116
937.403890	2667.082936
937.706632	2688.684280
938.009336	2725.583006
938.312002	2754.710793
938.614628	2775.782816
938.917216	2798.538584
939.219765	2805.354224
939.522275	2816.822849
939.824747	2819.093889
940.127179	2811.106181
940.429573	2802.067392
940.731929	2801.533030
941.034246	2792.101031
941.336524	2794.873666
941.638763	2786.845628
941.940964	2782.540483
942.243126	2763.391660
942.545250	2753.964702
942.847335	2737.528020
943.149381	2724.441185
943.451389	2711.122456
943.753359	2698.822041
944.055290	2690.287367
944.357182	2681.152797
944.659036	2677.810512
944.960851	2672.146775
945.262628	2667.372802
945.564367	2669.477484
945.866067	2666.210817
946.167729	2661.915753
946.469352	2664.459016
946.770937	2662.419869
947.072484	2655.800834
947.373992	2655.768066
947.675462	2652.312355
947.976893	2648.763383
948.278286	2642.403967
948.579641	2638.991106
948.880958	2638.308030
949.182236	2638.078658
949.483476	2632.656897
949.784678	2633.339973
950.085841	2633.390384
950.386967	2636.533544
950.688054	2643.737353
950.989103	2652.634989
951.290114	2660.564724
951.591087	2672.444203
951.892021	2683.993487
952.192917	2695.661237
952.493776	2705.519214
952.794596	2710.328474
953.095378	2713.206973
953.396122	2711.732436
953.696828	2708.460727
953.997496	2700.515868
954.298126	2693.916998
954.598718	2684.661440
954.899272	2671.957732
955.199788	2663.228974
955.500266	2651.364618
955.800706	2633.665127
956.101108	2614.879267
956.401472	2606.339553
956.701798	2594.903695
957.002087	2575.253278
957.302337	2567.547874
957.602550	2557.803324
957.902724	2546.301931
958.202861	2537.371527
958.502960	2529.880373
958.803022	2519.291429
959.103045	2514.265398
959.403031	2507.248112
959.702979	2503.560508
960.002889	2497.304436
960.302762	2492.424599
960.602596	2489.833446
960.902393	2483.161479
961.202153	2482.828763
961.501875	2478.221148
961.801559	2476.918010
962.101205	2474.193267
962.400814	2473.416929
962.700385	2474.319295
962.999918	2469.875518
963.299414	2467.730507
963.598873	2464.577266
963.898293	2464.978037
964.197677	2463.775722
964.497022	2460.849332
964.796331	2461.550053
965.095601	2459.009311
965.394835	2458.611060
965.694030	2458.406893
965.993189	2455.654423
966.292309	2459.752881
966.591393	2456.496296
966.890439	2457.282716
967.189447	2456.100565
967.488419	2458.200206
967.787353	2455.871193
968.086249	2458.119548
968.385108	2460.645166
968.683930	2459.185752
968.982714	2461.610547
969.281462	2463.150619
969.580172	2464.083233
969.878844	2465.240177
970.177480	2468.413584
970.476078	2471.922227
970.774639	2473.182515
971.073162	2477.961529
971.371649	2475.796353
971.670098	2476.776858
971.968510	2478.952116
972.266885	2478.445480
972.565223	2483.753815
972.863524	2486.319762
973.161788	2487.370843
973.460014	2485.435040
973.758204	2489.969557
974.056356	2489.014259
974.354471	2488.101810
974.652550	2490.317397
974.950591	2491.544918
975.248595	2489.490648
975.546563	2488.507623
975.844493	2485.732468
976.142386	2484.923363
976.440243	2478.745428
976.738062	2481.921355
977.035845	2475.453555
977.333590	2473.968935
977.631299	2471.687813
977.928971	2471.927268
978.226606	2467.549026
978.524204	2465.328397
978.821765	2466.376958
979.119290	2467.352421
979.416777	2466.109776
979.714228	2464.763788
980.011642	2470.530868
980.309020	2469.091619
980.606360	2475.982876
980.903664	2484.860348
981.200931	2498.446258
981.498162	2515.540810
981.795356	2544.761859
982.092513	2584.564289
982.389633	2631.925929
982.686717	2672.492094
982.983764	2705.201621
983.280775	2723.705176
983.577749	2726.666854
983.874686	2712.234031
984.171587	2695.222657
984.468451	2683.625482
984.765279	2664.091011
985.062070	2644.430511
985.358824	2624.878396
985.655543	2602.031887
985.952224	2583.349371
986.248869	2554.619835
986.545478	2524.698066
986.842050	2509.297341
987.138586	2488.623569
987.435086	2475.440952
987.731549	2462.467543
988.027975	2456.730710
988.324366	2452.140739
988.620719	2445.962805
988.917037	2446.850048
989.213318	2441.851744
989.509563	2436.145158
989.805772	2437.695313
990.101944	2436.417380
990.398080	2432.220620
990.694180	2433.526278
990.990244	2432.936463
991.286271	2433.788418
991.582262	2436.800508
991.878217	2434.768923
992.174136	2438.862340
992.470019	2440.470468
992.765865	2439.626075
993.061676	2441.609769
993.357450	2443.500201
993.653188	2445.607404
993.948890	2451.845832
994.244556	2459.238684
994.540186	2470.545992
994.835780	2479.405820
995.131337	2492.805207
995.426859	2507.530417
995.722345	2530.815507
996.017795	2548.189843
996.313208	2562.957903
996.608586	2572.894018
996.903928	2580.614545
997.199234	2573.151117
997.494504	2573.345201
997.789738	2563.467060
998.084936	2556.613611
998.380099	2538.057124
998.675225	2529.683768
998.970316	2519.805627
999.265371	2503.963801
999.560390	2490.793786
999.855373	2482.208701
1000.150320	2470.495580
1000.445232	2460.377984
1000.740108	2453.423713
1001.034948	2448.508588
1001.329752	2443.578339
1001.624521	2439.890735
1001.919254	2431.719025
1002.213951	2432.845723
1002.508613	2428.860691
1002.803239	2429.437903
1003.097829	2421.467838
1003.392384	2425.379774
1003.686903	2422.682757
1003.981386	2422.715524
1004.275834	2420.023548
1004.570246	2419.559762
1004.864623	2419.360636
1005.158964	2418.238979
1005.453270	2418.722930
1005.747540	2419.199319
1006.041775	2417.618918
1006.335974	2416.855183
1006.630138	2416.431726
1006.924266	2415.894843
1007.218359	2415.786458
1007.512416	2418.758218
1007.806438	2415.733526
1008.100425	2414.977353
1008.394376	2413.223031
1008.688292	2413.583474
1008.982172	2413.961560
1009.276017	2411.307393
1009.569827	2413.543145
1009.863602	2414.458114
1010.157341	2413.759914
1010.451045	2413.933834
1010.744714	2410.757907
1011.038347	2411.987949
1011.331945	2413.258319
1011.625508	2412.736560
1011.919036	2413.780079
1012.212528	2410.972156
1012.505986	2409.837897
1012.799408	2409.069121
1013.092795	2411.158679
1013.386147	2409.580798
1013.679464	2409.459810
1013.972745	2410.031981
1014.265992	2408.471744
1014.559204	2409.563154
1014.852380	2408.562485
1015.145521	2406.412433
1015.438628	2407.949984
1015.731699	2408.461662
1016.024736	2412.434091
1016.317737	2409.048956
1016.610703	2412.849986
1016.903635	2408.333112
1017.196531	2405.537792
1017.489393	2409.033833
1017.782219	2404.786660
1018.075011	2413.404513
1018.367768	2412.265212
1018.660490	2412.391241
1018.953177	2412.391241
1019.245829	2412.391241
