Dividing Wavelength (nm)	Counts (n)	Blue Motor Position (mm): 39.600000	Red Motor Position (mm): 0.000000	
326.493990	1972.089302
326.888308	1972.089302
327.282561	1972.089302
327.676750	1946.762545
328.070874	1948.380756
328.464933	1953.184975
328.858929	1963.310133
329.252859	1977.195991
329.646726	1992.264000
330.040528	2006.777482
330.434265	2023.554442
330.827938	2043.303162
331.221547	2065.940463
331.615091	2085.263206
332.008571	2106.551999
332.401986	2126.018414
332.795338	2146.188071
333.188625	2169.107677
333.581847	2183.043947
333.975006	2203.621937
334.368100	2219.796479
334.761129	2239.242730
335.154095	2253.574730
335.546996	2295.375978
335.939833	2378.935623
336.332606	2390.338713
336.725315	2403.208779
337.117960	2411.244378
337.510540	2420.361305
337.903056	2431.202307
338.295508	2434.337904
338.687896	2445.748556
339.080220	2448.594287
339.472480	2453.955554
339.864676	2456.725668
340.256807	2461.766822
340.648875	2460.902264
341.040879	2464.960393
341.432818	2465.988789
341.824694	2467.549026
342.216506	2467.054993
342.608253	2470.170426
342.999937	2464.181535
343.391557	2465.220013
343.783113	2465.522482
344.174605	2463.856381
344.566033	2461.416462
344.957397	2459.208437
345.348697	2455.331789
345.739934	2455.873713
346.131106	2453.935390
346.522215	2454.124433
346.913260	2447.762497
347.304241	2449.577312
347.695159	2446.915583
348.086012	2448.183433
348.476802	2444.442897
348.867528	2443.795109
349.258191	2441.249326
349.648789	2439.810077
350.039324	2442.512135
350.429796	2441.579522
350.820203	2437.748245
351.210548	2437.375199
351.600828	2435.315888
351.991045	2438.285128
352.381198	2436.072061
352.771288	2437.344953
353.161314	2434.950404
353.551276	2436.639191
353.941175	2438.461568
354.331010	2434.683223
354.720782	2440.346960
355.110490	2439.462237
355.500135	2437.014757
355.889717	2437.370158
356.279235	2436.576177
356.668689	2442.028184
357.058080	2438.005344
357.447408	2437.337391
357.836672	2434.143820
358.225873	2435.220106
358.615010	2436.790426
359.004084	2444.528597
359.393095	2441.052721
359.782043	2442.020623
360.170927	2441.871909
360.559748	2444.871395
360.948505	2443.853082
361.337199	2444.619338
361.725830	2447.321396
362.114398	2446.237548
362.502903	2445.385593
362.891344	2445.403237
363.279722	2445.335181
363.668037	2446.887857
364.056289	2446.363577
364.444478	2451.495471
364.832603	2449.171499
365.220665	2450.704010
365.608665	2452.188630
365.996601	2453.549742
366.384474	2451.281222
366.772284	2453.214505
367.160031	2457.857408
367.547715	2456.695422
367.935336	2454.331120
368.322893	2456.123251
368.710388	2457.214660
369.097820	2459.309260
369.485189	2457.398663
369.872495	2461.434106
370.259738	2458.631225
370.646918	2460.304888
371.034035	2460.163735
371.421090	2461.330762
371.808081	2460.123406
372.195010	2461.202213
372.581875	2463.211113
372.968678	2464.857050
373.355418	2463.440485
373.742096	2466.747482
374.128710	2464.592389
374.515262	2467.213789
374.901751	2466.195476
375.288177	2470.737556
375.674540	2466.104735
376.060841	2472.479274
376.447079	2471.907103
376.833254	2469.323512
377.219367	2468.658080
377.605417	2471.634881
377.991404	2470.377113
378.377329	2469.923409
378.763191	2470.919037
379.148991	2478.127887
379.534727	2479.178968
379.920402	2477.684266
380.306013	2476.739049
380.691563	2479.042857
381.077049	2477.858185
381.462474	2483.463948
381.847835	2482.269195
382.233134	2484.822539
382.618371	2481.656695
383.003545	2485.175420
383.388657	2487.111223
383.773706	2487.643065
384.158693	2487.799341
384.543618	2489.036944
384.928480	2489.488127
385.313280	2487.953096
385.698017	2494.362923
386.082692	2492.164980
386.467305	2494.206647
386.851856	2498.168994
387.236344	2498.219406
387.620770	2500.278717
388.005133	2499.676299
388.389435	2502.534633
388.773674	2505.198883
389.157851	2507.359018
389.541965	2505.471106
389.926018	2508.699965
390.310008	2510.373628
390.693936	2513.058042
391.077802	2515.235821
391.461606	2519.183044
391.845348	2523.687315
392.229027	2528.196627
392.612645	2536.156609
392.996200	2540.842362
393.379694	2547.955430
393.763125	2562.612584
394.146494	2571.495097
394.529801	2585.078487
394.913047	2600.542226
395.296230	2617.069649
395.679351	2630.847122
396.062410	2656.645227
396.445408	2671.635098
396.828343	2700.379757
397.211217	2730.102400
397.594028	2755.000659
397.976778	2791.314611
398.359466	2837.239522
398.742092	2870.720346
399.124656	2929.822833
399.507158	2986.371977
399.889598	3040.145965
400.271977	3107.420163
400.654294	3171.253773
401.036549	3250.904004
401.418742	3317.739622
401.800874	3420.591763
402.182944	3505.497397
402.564952	3634.407262
402.946898	3689.882640
403.328783	3776.590486
403.710606	3897.510123
404.092367	4037.737379
404.474067	4208.501424
404.855705	4263.550824
405.237282	4349.830172
405.618797	4563.678439
406.000250	4734.223194
406.381642	4953.888953
406.762972	5053.300506
407.144240	5115.147902
407.525447	5314.497811
407.906593	5422.320530
408.287677	5630.250482
408.668700	5815.467515
409.049661	5936.893788
409.430560	6134.965764
409.811399	6262.819507
410.192176	6464.606814
410.572891	6631.980683
410.953545	6987.949159
411.334138	6885.407049
411.714669	7309.491595
412.095139	7128.892259
412.475547	7510.870568
412.855894	7574.111843
413.236180	7889.635142
413.616405	7859.804114
413.996568	8158.086666
414.376670	8281.209287
414.756711	8341.801436
415.136691	8642.357549
415.516609	8891.743430
415.896466	9077.716636
416.276262	9394.863186
416.655997	9815.411364
417.035670	9987.614658
417.415283	10556.486185
417.794834	10765.948648
418.174324	10712.502335
418.553753	10777.911306
418.933121	11273.060998
419.312428	11265.481623
419.691674	11319.280817
420.070859	11800.504322
420.449983	11651.107208
420.829045	12201.293697
421.208047	12117.744134
421.586988	12605.886622
421.965867	12939.149742
422.344686	13046.649827
422.723444	13634.322336
423.102141	12612.460287
423.480777	13733.133993
423.859352	13406.671390
424.237866	14453.424137
424.616319	14292.959169
424.994712	14954.388800
425.373044	14851.813922
425.751314	15536.760537
426.129524	14838.265821
426.507673	15884.116201
426.885762	15693.895823
427.263789	15931.056905
427.641756	16156.353632
428.019662	16273.474760
428.397508	16366.506733
428.775292	16701.521653
429.153016	16720.965384
429.530679	16842.661358
429.908282	16911.669713
430.285824	16687.507246
430.663305	17388.908186
431.040726	17050.820683
431.418086	16920.418636
431.795385	17561.676090
432.172624	18003.152617
432.549802	17589.815811
432.926920	17809.267320
433.303977	17708.159418
433.680974	17972.104151
434.057910	18292.298079
434.434786	18339.818515
434.811601	18264.876722
435.188355	19297.680596
435.565050	18963.651222
435.941683	18931.594524
436.318257	19801.538882
436.694770	19625.494228
437.071222	20205.300017
437.447614	19317.003339
437.823946	19337.540999
438.200218	19489.819134
438.576429	19279.182082
438.952580	19566.565660
439.328670	19537.904180
439.704700	19939.744635
440.080670	19533.490649
440.456580	20104.970973
440.832429	20277.378434
441.208218	19305.950609
441.583947	19733.112780
441.959616	19838.672021
442.335224	20073.700696
442.710773	20213.441480
443.086261	20734.212837
443.461689	20111.985738
443.837057	20239.537013
444.212365	20867.871470
444.587612	20871.339783
444.962800	20481.784620
445.337927	20874.235926
445.712995	19634.422111
446.088002	21442.414294
446.462949	21639.621712
446.837837	21799.832102
447.212664	21770.429572
447.587431	24538.020513
447.962139	27436.076515
448.336786	29783.767067
448.711374	28250.295958
449.085901	24640.940710
449.460369	24569.058897
449.834776	24473.861748
450.209124	26917.301455
450.583412	26483.079148
450.957640	27008.906783
451.331808	25682.864031
451.705917	24334.060469
452.079965	24349.229301
452.453954	24700.012951
452.827883	24605.413178
453.201752	24414.973509
453.575562	24568.181736
453.949311	25656.755895
454.323001	25729.779529
454.696632	25496.611040
455.070202	27019.629317
455.443713	27161.729361
455.817164	27733.991064
456.190556	28266.402445
456.563888	27718.386172
456.937160	28150.579415
457.310373	26517.479982
457.683526	26918.760869
458.056619	26909.820383
458.429653	26860.091921
458.802628	27425.550586
459.175542	27541.870170
459.548398	28826.814915
459.921194	30387.046989
460.293930	31079.020972
460.666607	33077.125149
461.039224	34835.908108
461.411782	35184.226633
461.784280	33966.558607
462.156719	33473.175839
462.529099	32886.337640
462.901419	31596.006422
463.273680	30571.989280
463.645882	30672.381338
464.018024	30641.161472
464.390106	31485.090955
464.762130	34170.637118
465.134094	38228.977692
465.505999	43521.637224
465.877845	48097.016181
466.249631	49199.655159
466.621358	47407.282992
466.993026	45234.235653
467.364634	43122.196358
467.736184	41180.810203
468.107674	39949.566350
468.479105	39182.917755
468.850477	38489.272630
469.221790	37067.384941
469.593043	35371.969285
469.964238	34503.383518
470.335373	34409.935649
470.706449	36066.229431
471.077467	38586.519008
471.448425	43158.606092
471.819324	46039.817079
472.190164	44245.894756
472.560945	40686.247805
472.931667	37592.784077
473.302330	36494.301530
473.672934	35673.271488
474.043479	36181.520619
474.413965	35402.100261
474.784393	35032.107295
475.154761	35920.363644
475.525070	35950.388757
475.895321	35506.956261
476.265513	36090.570642
476.635645	37031.943108
477.005719	36853.602209
477.375734	37331.168357
477.745691	38026.247690
478.115588	39324.256585
478.485427	41294.248768
478.855207	44639.142565
479.224928	47250.561080
479.594591	48872.549810
479.964194	47843.647789
480.333739	47939.311245
480.703226	47955.810942
481.072653	48612.189337
481.442022	49111.760121
481.811333	49376.400534
482.180584	48079.699818
482.549777	47552.241370
482.918912	47043.140285
483.287988	46748.817558
483.657005	45921.743173
484.025964	45270.804183
484.394864	45280.790709
484.763706	44837.978275
485.132489	43966.082991
485.501213	43810.616327
485.869879	43968.598527
486.238487	43566.563987
486.607036	43777.085093
486.975527	43249.934155
487.343959	43453.316987
487.712333	43532.193400
488.080648	43432.741517
488.448905	43885.238007
488.817104	43689.805075
489.185244	44640.236495
489.553326	46308.505537
489.921350	49021.775525
490.289315	51954.330664
490.657222	52602.875106
491.025070	52883.833734
491.392861	51943.754323
491.760593	50681.212466
492.128267	48952.767170
492.495883	47419.964014
492.863440	46035.038065
493.230939	44684.283577
493.598380	43623.985250
493.965763	43282.401707
494.333088	42497.766275
494.700354	42020.121989
495.067563	41738.427354
495.434713	41611.440688
495.801805	41681.684126
496.168839	41313.379947
496.535815	40982.977682
496.902733	41010.557835
497.269593	40618.262804
497.636395	40560.629813
498.003139	40950.469802
498.369825	40410.186659
498.736453	40702.765146
499.103023	40249.580538
499.469535	40133.134926
499.835989	40206.786183
500.202385	39887.701310
500.568723	39905.325183
500.935003	40120.032967
501.301226	39905.685626
501.667390	40512.743893
502.033497	40762.558272
502.399546	40189.815139
502.765537	39539.014780
503.131470	39883.305423
503.497345	40240.476215
503.863163	38915.716437
504.228923	39531.022031
504.594625	39931.193864
504.960269	39227.020289
505.325856	39892.195498
505.691385	39272.806569
506.056856	39407.896889
506.422270	39849.043221
506.787625	39423.204353
507.152924	39610.203434
507.518164	39717.320392
507.883347	38935.513048
508.248472	39182.474133
508.613540	39644.853805
508.978550	39929.205129
509.343503	39685.104898
509.708398	39891.270447
510.073236	40425.758783
510.438016	40418.454151
510.802738	39875.632787
511.167403	40476.195527
511.532010	40700.161390
511.896561	40992.475216
512.261053	41821.626557
512.625488	41377.233722
512.989866	41260.667121
513.354186	41098.531011
513.718449	41085.416449
514.082655	41753.074426
514.446803	41418.225864
514.810894	41932.539503
515.174927	41858.762217
515.538904	41765.669749
515.902822	42421.163422
516.266684	41877.850546
516.630488	42300.614310
516.994235	42135.072900
517.357925	42698.878067
517.721558	42867.461813
518.085133	43176.756766
518.448651	43308.565295
518.812112	43070.237185
519.175516	43186.647510
519.538863	43528.984706
519.902152	43487.241432
520.265385	43931.888845
520.628560	43976.319054
520.991678	43772.386737
521.354739	43993.461498
521.717743	44322.464842
522.080690	44204.257346
522.443580	44765.365495
522.806413	44822.640565
523.169189	44741.772895
523.531908	44928.484631
523.894569	44778.971570
524.257174	44965.809334
524.619722	45282.232479
524.982213	45260.694149
525.344647	45185.132294
525.707025	45231.304222
526.069345	45620.854344
526.431608	45546.487243
526.793815	45859.154728
527.155964	45399.522485
527.518057	45573.870790
527.880093	45368.393360
528.242072	45869.516819
528.603995	45596.618997
528.965860	45594.471466
529.327669	45702.510954
529.689421	45593.334685
530.051117	45552.471092
530.412755	45709.717284
530.774337	45771.254649
531.135862	45586.713130
531.497331	45797.468649
531.858743	45719.713892
532.220098	46042.635084
532.581396	45769.608712
532.942638	45438.939267
533.303824	45719.512246
533.664953	45705.437344
534.026025	45419.001503
534.387040	45900.063691
534.747999	45838.934660
535.108902	46022.467948
535.469748	45540.074895
535.830537	45666.880079
536.191270	45862.186982
536.551947	45512.482139
536.912567	45829.338823
537.273131	45947.876515
537.633638	45440.665862
537.994089	45782.748479
538.354483	45399.025931
538.714821	45970.662530
539.075103	46309.806155
539.435328	46077.159426
539.795497	45962.866386
540.155609	45977.299209
540.515665	46438.158973
540.875665	45875.737603
541.235609	46195.313990
541.595496	46174.657862
541.955328	46841.398349
542.315102	46219.564460
542.674821	46024.582712
543.034483	46052.951805
543.394090	46010.122162
543.753640	45986.337998
544.113134	46987.760689
544.472571	46006.747109
544.831953	47237.040706
545.191278	46467.374980
545.550548	46192.536314
545.909761	46635.194992
546.268918	46837.446084
546.628019	47136.482289
546.987064	46715.772795
547.346053	46011.203489
547.704986	46876.678864
548.063863	46432.250741
548.422684	46647.765109
548.781449	46483.720922
549.140158	46875.577372
549.498811	46728.718478
549.857408	46163.602611
550.215949	46989.646081
550.574434	46932.476875
550.932864	46693.692541
551.291237	47428.246630
551.649555	47026.512039
552.007817	47281.029814
552.366022	46931.264478
552.724173	47107.679657
553.082267	47503.148094
553.440305	47796.205490
553.798288	47105.834594
554.156215	47426.928368
554.514086	47634.124832
554.871902	47365.995942
555.229661	47388.199704
555.587365	47213.196048
555.945014	47310.545770
556.302606	47236.201353
556.660143	47454.372410
557.017625	47554.154488
557.375050	47348.964403
557.732421	47691.321764
558.089735	47659.096188
558.446994	47592.681507
558.804197	48046.201351
559.161345	47983.935539
559.518437	47257.084333
559.875474	47552.642142
560.232455	47717.041731
560.589381	47888.955159
560.946251	47598.478833
561.303065	48246.907329
561.659825	48072.745546
562.016528	47750.804859
562.373177	47469.100141
562.729770	47947.409859
563.086307	47463.287690
563.442789	47929.286911
563.799216	47972.308117
564.155587	47761.799615
564.511904	47794.254564
564.868164	47902.556192
565.224370	48136.347264
565.580520	47868.372128
565.936615	48074.666226
566.292654	47796.215572
566.648638	48025.346097
567.004567	48006.431688
567.360441	48033.487561
567.716260	47876.639620
568.072023	48180.958955
568.427732	48147.856218
568.783385	47718.576762
569.138982	48114.703070
569.494525	48080.796269
569.850013	47836.358281
570.205445	47802.698496
570.560823	47772.622972
570.916145	47633.948392
571.271412	47659.970828
571.626625	47433.189481
571.981782	47478.161615
572.336884	47155.210176
572.691931	47471.897981
573.046923	47082.597396
573.401860	46920.864578
573.756743	46917.166891
574.111570	47037.917649
574.466342	46899.928666
574.821059	46990.946698
575.175722	46522.409257
575.530330	46542.369706
575.884882	46262.288239
576.239380	46232.734475
576.593823	46194.520008
576.948211	46116.566125
577.302544	45647.292676
577.656823	45674.724114
578.011047	45919.409119
578.365216	45630.172917
578.719330	45432.902485
579.073389	45288.952337
579.427394	45353.201842
579.781344	45333.115365
580.135239	44987.665257
580.489080	45068.875724
580.842866	44572.395167
581.196597	45017.743301
581.550273	44967.084746
581.903895	44817.838866
582.257463	45245.424494
582.610975	44641.254808
582.964434	44920.315441
583.317837	44552.391869
583.671186	44392.425975
584.024481	44624.167817
584.377721	44152.260365
584.730906	44423.814719
585.084037	44460.705883
585.437113	44168.460113
585.790135	44215.655395
586.143103	43812.567254
586.496016	43944.557264
586.848874	43962.173577
587.201679	43971.661028
587.554428	43466.136641
587.907124	43647.446780
588.259765	43412.874330
588.612352	43657.098069
588.964884	43041.026219
589.317362	43330.385930
589.669786	43273.990542
590.022155	43035.501115
590.374470	43455.330928
590.726731	42981.865758
591.078937	42480.749860
591.431090	42595.862088
591.783188	42242.469642
592.135232	41929.802157
592.487222	42182.568131
592.839157	42246.459715
593.191038	41935.203753
593.542866	41696.250540
593.894639	41089.177150
594.246358	41380.855791
594.598022	41351.634743
594.949633	40961.971194
595.301190	40924.822932
595.652692	40746.368606
596.004141	41069.383059
596.355535	40097.612435
596.706876	40050.787678
597.058162	39876.893076
597.409395	40333.621614
597.760573	40421.020098
598.111698	39999.937559
598.462768	40015.071103
598.813785	40052.095857
599.164748	39511.779947
599.515657	39902.083722
599.866511	39371.431703
600.217312	39972.528805
600.568060	38954.949216
600.918753	39701.891941
601.269392	39671.206437
601.619978	39305.009460
601.970510	39509.758444
602.320988	39704.478053
602.671412	40006.705308
603.021783	39741.825441
603.372100	39390.174713
603.722363	39497.339562
604.072572	39574.920399
604.422728	39600.327814
604.772830	39402.838092
605.122878	39488.313376
605.472872	39442.421232
605.822813	39707.152385
606.172701	39544.454185
606.522534	39780.619640
606.872314	40039.210668
607.222041	39785.002923
607.571714	40191.458555
607.921333	39639.870625
608.270899	39942.213827
608.620411	40263.965471
608.969870	40059.859234
609.319276	40050.618799
609.668627	40102.308270
610.017926	40595.186923
610.367171	40758.225400
610.716362	40844.948369
611.065500	40775.340117
611.414585	40976.875366
611.763616	41270.275561
612.112594	41184.858250
612.461518	41413.310739
612.810389	41697.329347
613.159207	41573.112796
613.507971	41644.835812
613.856682	42116.216464
614.205340	41998.293793
614.553945	42705.088768
614.902496	42160.833196
615.250994	42615.056281
615.599439	42694.777088
615.947830	42892.045000
616.296169	42937.992597
616.644454	43069.123090
616.992686	43247.131274
617.340864	43760.877783
617.688990	43491.997760
618.037063	44093.122589
618.385082	44041.957398
618.733048	44350.597001
619.080961	44356.951375
619.428821	44379.349222
619.776628	44483.721271
620.124382	44287.874965
620.472083	44429.163384
620.819731	44552.598556
621.167326	44223.829626
621.514868	44212.388727
621.862357	43751.528963
622.209793	43763.821817
622.557176	43436.066158
622.904506	43191.741596
623.251783	42852.532436
623.599007	42614.186682
623.946179	42403.206832
624.293297	42351.363606
624.640363	41774.370781
624.987376	41745.933632
625.334336	41501.921621
625.681243	41170.160766
626.028097	41121.483384
626.374899	40985.513383
626.721647	40933.161000
627.068343	40849.515655
627.414987	40610.882555
627.761577	40387.468699
628.108115	40717.553371
628.454600	40170.252942
628.801032	40370.101924
629.147412	40319.466054
629.493739	40328.439308
629.840014	39972.823713
630.186236	40308.325104
630.532405	39923.833780
630.878521	40140.812603
631.224585	40015.388695
631.570597	39729.260365
631.916556	39899.701776
632.262462	39836.226088
632.608316	39862.659378
632.954117	39738.485676
633.299866	39733.893185
633.645562	39664.416003
633.991206	39156.050926
634.336797	38708.711536
634.682336	38724.513033
635.027823	38464.152560
635.373257	38302.220616
635.718639	38053.245590
636.063968	37912.257119
636.409245	37323.568817
636.754470	37373.579584
637.099642	37128.582028
637.444762	36664.952150
637.789829	36808.519170
638.134845	36461.579401
638.479808	36409.383294
638.824719	36307.776317
639.169577	35921.986896
639.514383	35983.027707
639.859137	35684.966965
640.203839	35925.581238
640.548489	35566.449438
640.893086	35614.811748
641.237632	35378.011108
641.582125	35490.186863
641.926566	35439.989574
642.270955	35402.516157
642.615292	35407.960603
642.959576	35382.248197
643.303809	35374.010952
643.647990	35529.124735
643.992118	35503.316548
644.336195	35493.032594
644.680219	35594.067400
645.024192	35889.869705
645.368112	36406.978663
645.711981	36421.779491
646.055797	37292.028838
646.399562	37213.217960
646.743274	38178.233437
647.086935	38613.806774
647.430544	38509.918675
647.774101	38633.421903
648.117606	38862.635607
648.461059	39155.889609
648.804460	38763.816389
649.147810	38147.142121
649.491108	37880.455000
649.834354	37525.109107
650.177548	36698.435493
650.520690	36241.722078
650.863781	36263.396519
651.206820	36103.191171
651.549807	35672.984143
651.892742	35191.296852
652.235626	34997.708982
652.578458	34866.326431
652.921238	34243.282665
653.263967	34591.137404
653.606644	34268.995070
653.949269	34229.442177
654.291843	33822.946216
654.634365	34229.860593
654.976836	33829.580375
655.319255	33833.822506
655.661622	33812.064886
656.003938	33594.821402
656.346203	33466.496310
656.688416	33675.061447
657.030577	33478.975686
657.372687	33318.603980
657.714746	33585.079372
658.056753	33699.548852
658.398708	33160.445339
658.740612	33220.966912
659.082465	33502.505272
659.424266	33314.820594
659.766016	33438.313739
660.107715	33300.775939
660.449362	33440.977989
660.790958	33421.486368
661.132503	33445.515028
661.473996	33474.413442
661.815438	33590.745629
662.156829	33777.969042
662.498168	33551.749783
662.839456	33577.121911
663.180693	33732.437340
663.521879	33899.730551
663.863013	33834.286292
664.204097	33845.565873
664.545129	34312.432172
664.886110	34256.722381
665.227040	34326.993545
665.567918	34454.665807
665.908746	34521.083009
666.249522	34686.596693
666.590248	34681.812638
666.930922	34774.579951
667.271545	34746.599027
667.612118	34838.095969
667.952639	34627.456397
668.293109	34676.101011
668.633528	34566.705452
668.973896	34481.530116
669.314213	34518.890107
669.654480	34257.463431
669.994695	34297.187723
670.334859	34155.579191
670.674973	34090.510498
671.015035	34236.945935
671.355047	34195.260633
671.695008	34128.611538
672.034918	34033.759708
672.374777	34107.799135
672.714585	33955.339519
673.054342	34182.307389
673.394049	33945.398364
673.733705	34223.140735
674.073310	33871.086715
674.412864	33960.562154
674.752368	33544.419946
675.091820	33842.599154
675.431223	33414.887497
675.770574	33148.255829
676.109875	33014.476209
676.449125	32737.227871
676.788324	32664.501665
677.127473	32108.664042
677.466571	32041.848589
677.805619	31696.073326
678.144616	31694.324046
678.483562	31612.143156
678.822458	31282.388680
679.161303	31212.505685
679.500098	31121.848094
679.838842	31005.962050
680.177535	31170.858192
680.516179	31446.354729
680.854771	31682.285770
681.193314	32565.450554
681.531805	33706.656879
681.870247	34506.249414
682.208638	35229.902008
682.546978	35465.233152
682.885268	35533.288728
683.223508	35007.990415
683.561697	34654.330788
683.899836	34468.846573
684.237925	33955.936896
684.575963	33797.485869
684.913951	33333.170394
685.251889	33499.815816
685.589776	33491.114785
685.927614	33468.943790
686.265401	33617.834269
686.603137	33717.293714
686.940824	34240.104217
687.278460	34606.507882
687.616046	34767.746667
687.953582	35383.886572
688.291068	35245.844657
688.628504	35514.321387
688.965889	35432.339623
689.303224	35042.003080
689.640510	34680.012946
689.977745	33940.672282
690.314930	33139.703512
690.652065	32615.766310
690.989150	31859.963758
691.326185	30964.695164
691.663170	30260.267011
692.000105	29482.432096
692.336990	28796.799885
692.673825	28344.923457
693.010610	27835.814810
693.347345	27247.623061
693.684030	26598.534174
694.020665	26324.721382
694.357251	25634.519365
694.693786	25586.373826
695.030272	25345.225190
695.366707	24808.853983
695.703093	24518.299519
696.039429	24505.951213
696.375716	24244.590071
696.711952	24211.046233
697.048139	24049.865421
697.384276	23883.020873
697.720363	24003.509491
698.056400	23793.464775
698.392388	23588.317540
698.728326	23552.338825
699.064214	23347.307536
699.400053	23279.446044
699.735842	22910.231936
700.071581	22630.478144
700.407270	22341.657838
700.742910	22155.266215
701.078501	21876.997044
701.414042	21595.821647
701.749533	21296.001542
702.084974	20943.516504
702.420366	21151.854789
702.755709	20714.186853
703.091002	20414.384393
703.426246	20432.207392
703.761440	20321.584312
704.096584	20065.546629
704.431679	20020.234218
704.766725	19920.752088
705.101721	19859.149188
705.436668	19959.241297
705.771565	19634.636360
706.106413	19982.107971
706.441212	19957.328180
706.775961	20097.905796
707.110661	20161.303347
707.445311	20519.076556
707.779913	20364.474449
708.114465	20605.290369
708.448967	20897.271479
708.783421	21606.251794
709.117825	21878.799256
709.452180	22104.567331
709.786485	22503.592302
710.120742	23317.453823
710.454949	23327.558816
710.789107	23797.132214
711.123216	24508.272664
711.457275	24631.203721
711.791286	25169.261195
712.125247	25220.963268
712.459159	24922.519399
712.793023	25592.345072
713.126837	24474.040709
713.460602	24719.630601
713.794318	24338.652961
714.127985	23944.616211
714.461602	23037.163149
714.795171	23011.670034
715.128691	21984.872695
715.462162	21427.149680
715.795584	21004.811893
716.128957	20750.861248
716.462281	20326.045734
716.795556	20095.758264
717.128782	19598.730742
717.461960	19052.627587
717.795088	18987.337083
718.128167	18576.823322
718.461198	18107.847301
718.794180	17969.170199
719.127113	17601.478520
719.459997	17406.940393
719.792833	17048.196762
720.125619	17017.170981
720.458357	16702.552569
720.791046	16528.050508
721.123686	16373.282044
721.456278	16141.227650
721.788821	16093.694611
722.121315	15818.586242
722.453761	15907.915488
722.786158	15827.458673
723.118506	15835.574931
723.450805	15698.891606
723.783056	15862.106523
724.115259	15754.364463
724.447412	15698.173242
724.779518	15934.424396
725.111574	15965.119982
725.443582	16158.687687
725.775542	16139.659851
726.107453	16616.469826
726.439315	16494.446177
726.771129	16901.789052
727.102895	17272.278571
727.434612	17487.487949
727.766281	17613.461343
728.097901	17874.600674
728.429473	17911.958144
728.760996	17888.985606
729.092471	17979.184452
729.423897	17845.949276
729.755276	17708.587916
730.086606	17827.337336
730.417887	18354.911730
730.749120	18871.682931
731.080305	19060.380882
731.411442	19390.785666
731.742530	19453.180027
732.073570	19556.564011
732.404562	19842.717547
732.735506	19652.318207
733.066401	19371.793119
733.397249	18841.859465
733.728048	18198.855251
734.058798	17351.185232
734.389501	16669.996798
734.720156	16205.207454
735.050762	15675.006619
735.381320	15324.679194
735.711831	15075.449589
736.042293	14725.926228
736.372707	14734.430655
736.703073	14534.952197
737.033391	14717.068921
737.363661	14680.129866
737.693883	14791.383091
738.024056	14955.873420
738.354182	15153.413554
738.684260	15442.594303
739.014290	15670.658624
739.344272	15854.804412
739.674207	16141.449461
740.004093	16246.411325
740.333931	16230.133439
740.663722	16272.569873
740.993464	16257.995897
741.323159	16081.530306
741.652806	15800.838860
741.982405	15598.723879
742.311956	15249.157668
742.641460	15119.292504
742.970915	14818.113809
743.300323	14483.867665
743.629683	14257.850053
743.958996	13991.656965
744.288260	13715.522722
744.617477	13418.666816
744.946647	13341.038088
745.275768	13068.253692
745.604842	12879.623797
745.933869	12707.468393
746.262847	12659.869818
746.591778	12587.776277
746.920662	12487.341369
747.249498	12484.435144
747.578286	12611.010955
747.907027	12750.222419
748.235720	12971.292138
748.564365	13001.332374
748.892963	12901.472158
749.221514	12959.843678
749.550017	12816.526195
749.878473	12778.052109
750.206881	12549.702963
750.535242	12465.853451
750.863555	12367.891229
751.191821	12266.130497
751.520039	12290.239816
751.848210	12199.735981
752.176334	12227.956360
752.504411	12133.069242
752.832440	11978.066364
753.160421	12036.992411
753.488356	11919.006726
753.816243	11819.252373
754.144082	11685.117352
754.471875	11624.494956
754.799620	11569.437995
755.127318	11540.809282
755.454969	11499.807057
755.782572	11445.844026
756.110129	11462.898249
756.437638	11385.047710
756.765100	11377.967410
757.092515	11379.378933
757.419882	11390.343442
757.747203	11399.909032
758.074477	11470.659106
758.401703	11432.346336
758.728882	11592.087899
759.056014	11633.508539
759.383099	11745.175138
759.710138	11853.575069
760.037129	11938.208481
760.364073	11947.716097
760.690970	11936.958275
761.017820	11939.778800
761.344623	12128.005402
761.671379	12450.457767
761.998088	13094.109770
762.324751	14659.287216
762.651366	17558.873208
762.977935	21248.649984
763.304456	23480.136899
763.630931	23952.828251
763.957359	22768.313373
764.283740	20819.504119
764.610074	18929.872970
764.936362	16778.595854
765.262602	15245.220527
765.588796	13760.515020
765.914943	12728.328688
766.241044	11869.003521
766.567097	11234.165976
766.893104	10686.280773
767.219064	10323.751235
767.544978	9936.903171
767.870845	9621.286611
768.196665	9437.692829
768.522438	9238.078261
768.848165	9068.055265
769.173846	8898.027228
769.499479	8774.221531
769.825066	8623.032286
770.150607	8439.844317
770.476101	8371.980303
770.801548	8259.716328
771.126949	8125.152808
771.452303	8032.193931
771.777611	7866.392902
772.102872	7844.756270
772.428087	7725.545584
772.753256	7601.765093
773.078378	7513.408789
773.403453	7367.827828
773.728482	7267.150944
774.053465	7195.160747
774.378401	7116.780887
774.703291	7014.788262
775.028135	6924.060096
775.352932	6887.673047
775.677683	6801.005530
776.002388	6710.567230
776.327046	6711.126798
776.651658	6623.582121
776.976224	6550.303908
777.300743	6535.787906
777.625216	6465.065559
777.949643	6426.024343
778.274024	6431.849396
778.598359	6363.103181
778.922647	6362.770465
779.246889	6323.736811
779.571086	6326.239743
779.895236	6341.935376
780.219339	6330.386092
780.543397	6335.608728
780.867409	6381.755450
781.191374	6383.265276
781.515294	6345.786817
781.839167	6394.933026
782.162995	6370.604418
782.486776	6322.345452
782.810511	6283.261386
783.134201	6202.454211
783.457844	6194.932809
783.781441	6144.904398
784.104993	6100.401092
784.428498	6069.682821
784.751958	6054.256891
785.075372	6029.855185
785.398739	5986.748279
785.722061	6018.169791
786.045337	6016.291961
786.368568	6126.983097
786.691752	6143.666795
787.014891	6399.165075
787.337983	6678.444998
787.661030	7121.116279
787.984031	7551.461939
788.306987	7816.750139
788.629897	7904.569560
788.952760	7816.253586
789.275579	7635.838251
789.598351	7340.040988
789.921078	7073.222797
790.243759	6783.474918
790.566395	6580.714669
790.888984	6385.430451
791.211529	6244.613380
791.534027	6083.641776
791.856480	5940.175579
792.178888	5878.706270
792.501249	5811.111958
792.823566	5708.680753
793.145836	5702.817891
793.468062	5679.842833
793.790241	5646.785466
794.112375	5688.193504
794.434464	5785.994409
794.756507	5816.321991
795.078505	5936.840856
795.400457	6155.856305
795.722364	6398.729015
796.044226	6593.476350
796.366042	6750.291523
796.687812	6699.310334
797.009538	6724.415280
797.331218	6631.461444
797.652852	6564.502318
797.974442	6443.000428
798.295986	6370.352360
798.617484	6238.276650
798.938938	6130.153982
799.260346	6060.863323
799.581709	5922.498773
799.903026	5869.410382
800.224299	5799.653416
800.545526	5678.942987
800.866708	5613.904540
801.187845	5563.311520
801.508936	5490.497094
801.829983	5459.133556
802.150984	5349.337225
802.471940	5323.622299
802.792851	5307.057068
803.113717	5285.806083
803.434538	5258.117546
803.755314	5226.595211
804.076045	5213.520978
804.396731	5179.452861
804.717372	5200.371129
805.037967	5198.561354
805.358518	5227.447166
805.679024	5288.067041
805.999485	5294.998628
806.319901	5316.438655
806.640272	5337.261141
806.960598	5381.744282
807.280879	5376.025093
807.601115	5407.048354
807.921306	5369.504361
808.241453	5366.598136
808.561554	5380.345362
808.881611	5344.285989
809.201623	5337.727448
809.521590	5288.651815
809.841513	5273.238487
810.161390	5290.900169
810.481223	5196.880130
810.801011	5185.431669
811.120755	5162.469213
811.440453	5104.155666
811.760107	5077.122479
812.079716	5052.090629
812.399281	4997.026106
812.718801	4992.355477
813.038276	4960.576043
813.357707	4925.545065
813.677093	4945.934012
813.996434	4884.734404
814.315731	4903.111930
814.634983	4903.366509
814.954191	4905.728289
815.273354	4967.255572
815.592473	5007.761243
815.911547	5086.556998
816.230577	5142.259228
816.549562	5230.877671
816.868502	5279.703767
817.187399	5341.515875
817.506250	5412.845681
817.825058	5445.046051
818.143821	5597.361994
818.462539	5772.279950
818.781213	6001.604559
819.099843	6369.631475
819.418429	7006.049422
819.736970	7630.108980
820.055466	8351.520781
820.373919	9275.856667
820.692327	10742.066181
821.010691	13468.347387
821.329011	19753.902498
821.647286	29425.134342
821.965517	39851.679745
822.283704	45341.529051
822.601847	46853.408898
822.919945	42231.598393
823.237999	37048.019348
823.556010	31822.918839
823.873976	27056.160038
824.191897	22802.510040
824.509775	19703.377534
824.827609	16916.017708
825.145398	15330.479042
825.463144	14573.053238
825.780845	14871.171953
826.098502	16154.120401
826.416116	18638.050656
826.733685	20956.479831
827.051210	21490.983291
827.368692	20046.891839
827.686129	17437.656144
828.003522	14935.844916
828.320872	12688.072554
828.638177	11022.692092
828.955439	9758.816850
829.272656	8688.141308
829.589830	7842.787699
829.906960	7094.456137
830.224046	6559.720784
830.541088	6145.597557
830.858086	5886.462085
831.175041	5673.838818
831.491952	5620.662207
831.808819	5655.783926
832.125642	5906.692235
832.442421	6460.982224
832.759157	7593.593382
833.075849	9376.276452
833.392497	11250.038049
833.709101	12379.395142
834.025662	12118.969134
834.342179	11047.436596
834.658653	9731.178724
834.975083	8608.339843
835.291469	7697.126079
835.607811	6949.316277
835.924110	6425.293375
836.240366	5927.088744
836.556578	5470.695442
836.872746	5118.328870
837.188871	4838.897713
837.504952	4616.512252
837.820990	4447.580666
838.136984	4330.038602
838.452935	4277.565232
838.768842	4312.969255
839.084706	4594.731947
839.400526	5346.380588
839.716303	6264.727584
840.032037	6828.046280
840.347727	6680.002715
840.663373	6075.580971
840.978977	5496.453217
841.294537	5047.548550
841.610054	4709.418197
841.925527	4470.117144
842.240957	4259.487654
842.556344	4071.379519
842.871687	3912.636105
843.186987	3762.044237
843.502244	3640.620485
843.817458	3552.934655
844.132629	3481.710713
844.447756	3434.054165
844.762840	3390.823750
845.077881	3346.569981
845.392879	3312.748880
845.707833	3289.945220
846.022745	3264.719286
846.337613	3248.786720
846.652438	3228.133112
846.967221	3217.438304
847.281960	3196.908205
847.596656	3189.071732
847.911309	3176.917510
848.225919	3161.083246
848.540485	3153.952533
848.855009	3145.929537
849.169490	3132.762043
849.483928	3126.518574
849.798323	3120.171762
850.112675	3111.664814
850.426984	3113.630864
850.741251	3104.458485
851.055474	3098.772063
851.369654	3099.543360
851.683792	3102.444544
851.997887	3101.093515
852.311938	3104.287086
852.625947	3104.125769
852.939914	3095.069336
853.253837	3101.700974
853.567718	3099.122424
853.881555	3092.692432
854.195350	3100.102928
854.509103	3097.514296
854.822812	3092.768049
855.136479	3088.288984
855.450103	3092.931887
855.763685	3087.716813
856.077224	3091.159921
856.390720	3095.253338
856.704173	3107.732714
857.017584	3112.579784
857.330953	3118.314096
857.644278	3125.359109
857.957561	3128.653503
858.270802	3124.217288
858.584000	3124.055971
858.897155	3119.796196
859.210268	3106.414453
859.523339	3092.866352
859.836367	3093.342741
860.149352	3088.225970
860.462295	3084.815629
860.775195	3077.435380
861.088054	3068.918350
861.400869	3072.774833
861.713642	3068.862898
862.026373	3082.597521
862.339062	3081.869075
862.651708	3092.606732
862.964312	3107.818414
863.276873	3117.643623
863.589392	3149.075217
863.901869	3175.453055
864.214303	3196.048689
864.526696	3215.452090
864.839045	3233.660737
865.151353	3242.238261
865.463619	3244.373189
865.775842	3246.346801
866.088023	3254.334509
866.400162	3245.867892
866.712258	3246.208169
867.024313	3245.726739
867.336325	3246.306472
867.648296	3246.732449
867.960224	3241.426635
868.272110	3245.799836
868.583954	3245.779671
868.895755	3254.435332
869.207515	3252.149169
869.519233	3271.794546
869.830909	3276.472737
870.142542	3287.515384
870.454134	3295.409831
870.765684	3307.140596
871.077191	3326.854028
871.388657	3338.085719
871.700081	3356.906867
872.011463	3376.083416
872.322803	3397.243659
872.634101	3411.195053
872.945357	3433.280348
873.256571	3462.705563
873.567744	3478.247440
873.878874	3481.115856
874.189963	3502.225688
874.501010	3500.536902
874.812015	3498.102024
875.122979	3515.859489
875.433900	3510.165505
875.744780	3515.909900
876.055618	3525.039430
876.366415	3526.909698
876.677169	3530.882127
876.987882	3542.108777
877.298554	3565.141809
877.609183	3608.349538
877.919771	3651.567350
878.230317	3723.948237
878.540822	3829.694001
878.851285	3989.380111
879.161707	4212.589800
879.472087	4592.657512
879.782425	5234.678701
880.092722	6432.030877
880.402977	8397.634735
880.713191	10810.094032
881.023363	13215.921691
881.333494	14587.312142
881.643583	15046.707451
881.953631	14645.552592
882.263637	13794.154640
882.573602	12744.709917
882.883526	11761.873960
883.193408	10793.899325
883.503248	9862.936842
883.813048	9012.897480
884.122806	8240.895180
884.432522	7461.704195
884.742197	6792.324663
885.051831	6212.965017
885.361424	5713.041351
885.670975	5307.084794
885.980485	4979.931553
886.289954	4710.454154
886.599382	4487.809074
886.908768	4308.202844
887.218113	4141.680930
887.527417	4003.351668
887.836680	3878.482288
888.145901	3776.093933
888.455082	3696.524360
888.764221	3628.183958
889.073319	3566.497879
889.382376	3539.358827
889.691392	3511.680372
890.000366	3506.518231
890.309300	3498.885924
890.618193	3500.794000
890.927044	3495.830984
891.235855	3500.723424
891.544625	3517.238244
891.853353	3545.730846
892.162041	3609.695526
892.470687	3700.398487
892.779293	3822.079338
893.087858	3999.124661
893.396381	4283.748207
893.704864	4703.618349
894.013306	5280.487666
894.321707	5864.533066
894.630068	6231.140897
894.938387	6275.190499
895.246665	6094.843220
895.554903	5772.963027
895.863100	5423.873205
896.171256	5149.999919
896.479371	4901.274430
896.787446	4673.447043
897.095480	4472.801559
897.403473	4319.253054
897.711425	4173.485570
898.019336	4048.699368
898.327207	3923.383845
898.635038	3820.879543
898.942827	3712.444324
899.250576	3625.073566
899.558284	3537.450751
899.865952	3484.304386
900.173579	3417.375507
900.481165	3370.931357
900.788711	3326.649861
901.096216	3294.484779
901.403681	3265.641818
901.711105	3257.379366
902.018489	3251.876947
902.325832	3284.465486
902.633135	3346.945547
902.940397	3516.855117
903.247619	3933.125875
903.554800	4700.109706
903.861941	5687.207958
904.169041	6407.518267
904.476101	6619.337469
904.783121	6339.356826
905.090100	5930.763745
905.397039	5508.819168
905.703938	5141.392149
906.010796	4809.296057
906.317614	4549.449782
906.624391	4311.242660
906.931129	4107.383440
907.237826	3921.528700
907.544483	3747.470261
907.851099	3570.530802
908.157675	3410.607758
908.464211	3267.519647
908.770707	3162.789676
909.077163	3083.230186
909.383578	3021.803727
909.689954	2977.214721
909.996289	2946.246913
910.302584	2923.781011
910.608839	2911.841038
910.915054	2900.132958
911.221229	2895.331259
911.527363	2898.683626
911.833458	2903.954153
912.139513	2917.353539
912.445527	2933.054213
912.751502	2968.188535
913.057436	3012.459948
913.363331	3069.571180
913.669186	3161.632731
913.975000	3280.036832
914.280775	3470.516830
914.586510	3746.691403
914.892205	4126.980925
915.197859	4635.116630
915.503475	5236.082663
915.809050	5737.740485
916.114585	6042.851280
916.420081	6110.493482
916.725536	6038.601587
917.030952	5797.929341
917.336328	5586.631898
917.641665	5367.132498
917.946961	5137.694463
918.252218	4929.240231
918.557435	4701.112896
918.862612	4492.517511
919.167750	4324.876461
919.472848	4123.557982
919.777906	3956.630255
920.082925	3791.529946
920.387904	3630.840646
920.692843	3519.836959
920.997743	3421.191661
921.302603	3324.028461
921.607423	3260.981271
921.912204	3189.676670
922.216946	3139.759165
922.521647	3088.901484
922.826310	3047.632078
923.130932	3009.223527
923.435516	2966.880355
923.740059	2941.530913
924.044564	2906.865419
924.349028	2883.008158
924.653454	2854.578571
924.957840	2826.554797
925.262186	2807.915131
925.566493	2783.972170
925.870761	2757.551483
926.174989	2746.758373
926.479178	2733.734552
926.783328	2715.485575
927.087438	2705.037783
927.391509	2690.940197
927.695541	2677.724812
927.999533	2667.488749
928.303486	2657.673622
928.607400	2654.258241
928.911275	2648.138280
929.215110	2642.144348
929.518906	2640.097640
929.822663	2636.412556
930.126381	2637.924902
930.430060	2641.166364
930.733699	2640.397588
931.037299	2647.072076
931.340861	2645.660553
931.644383	2648.168527
931.947866	2649.338075
932.251309	2646.580563
932.554714	2645.668115
932.858080	2641.103350
933.161407	2636.944398
933.464694	2636.334418
933.767943	2633.186218
934.071153	2628.286216
934.374323	2623.161883
934.677455	2621.946965
934.980548	2618.566872
935.283602	2615.305245
935.586617	2613.624020
935.889593	2616.678959
936.192530	2616.585698
936.495428	2624.722120
936.798287	2634.199490
937.101108	2646.494864
937.403890	2670.594100
937.706632	2694.751309
938.009336	2732.675909
938.312002	2762.625404
938.614628	2785.834877
938.917216	2803.357927
939.219765	2815.292859
939.522275	2823.472131
939.824747	2825.871721
940.127179	2821.677481
940.429573	2812.729432
940.731929	2812.346305
941.034246	2802.881538
941.336524	2801.225519
941.638763	2792.612708
941.940964	2789.540125
942.243126	2768.979779
942.545250	2757.962337
942.847335	2745.714854
943.149381	2732.474263
943.451389	2717.552448
943.753359	2703.263297
944.055290	2696.026721
944.357182	2689.689991
944.659036	2682.748322
944.960851	2678.803619
945.262628	2672.124090
945.564367	2673.611230
945.866067	2673.139882
946.167729	2672.038390
946.469352	2668.252484
946.770937	2670.463030
947.072484	2660.050527
947.373992	2660.383243
947.675462	2658.742347
947.976893	2649.000317
948.278286	2650.096768
948.579641	2644.732981
948.880958	2643.830614
949.182236	2641.017650
949.483476	2641.859523
949.784678	2637.685447
950.085841	2637.365334
950.386967	2641.226858
950.688054	2646.877992
950.989103	2656.965340
951.290114	2663.899447
951.591087	2677.026612
951.892021	2687.648323
952.192917	2703.417052
952.493776	2712.032384
952.794596	2718.059084
953.095378	2718.548076
953.396122	2714.021120
953.696828	2710.668752
953.997496	2710.230172
954.298126	2698.186855
954.598718	2692.722245
954.899272	2676.935871
955.199788	2667.491270
955.500266	2652.667757
955.800706	2638.313071
956.101108	2622.272120
956.401472	2610.395161
956.701798	2593.277923
957.002087	2579.298804
957.302337	2570.864953
957.602550	2558.662840
957.902724	2550.760832
958.202861	2538.520910
958.502960	2529.885414
958.803022	2523.873838
959.103045	2515.132477
959.403031	2511.727178
959.702979	2504.689727
960.002889	2500.843326
960.302762	2494.156236
960.602596	2491.186996
960.902393	2485.142653
961.202153	2485.566110
961.501875	2482.730461
961.801559	2479.173927
962.101205	2477.452373
962.400814	2475.723257
962.700385	2473.038842
962.999918	2471.725622
963.299414	2469.099181
963.598873	2470.112452
963.898293	2466.613892
964.197677	2464.597430
964.497022	2462.563325
964.796331	2462.049127
965.095601	2461.693726
965.394835	2459.112655
965.694030	2458.502675
965.993189	2459.412603
966.292309	2461.366051
966.591393	2456.808848
966.890439	2459.470577
967.189447	2458.416976
967.488419	2459.954528
967.787353	2459.205916
968.086249	2460.720783
968.385108	2460.561987
968.683930	2461.260186
968.982714	2460.718262
969.281462	2462.381843
969.580172	2463.995012
969.878844	2465.860239
970.177480	2469.880559
970.476078	2474.591518
970.774639	2476.446662
971.073162	2477.452373
971.371649	2474.634368
971.670098	2478.261478
971.968510	2480.557723
972.266885	2479.836838
972.565223	2487.196923
972.863524	2484.774648
973.161788	2489.084835
973.460014	2489.183138
973.758204	2490.138436
974.056356	2490.627428
974.354471	2489.122644
974.652550	2490.607263
974.950591	2488.391676
975.248595	2489.067191
975.546563	2489.576347
975.844493	2488.217757
976.142386	2483.158959
976.440243	2482.954792
976.738062	2481.767600
977.035845	2477.651498
977.333590	2474.016826
977.631299	2473.921044
977.928971	2473.520273
978.226606	2470.150261
978.524204	2469.303347
978.821765	2466.298820
979.119290	2468.877370
979.416777	2464.617595
979.714228	2464.602471
980.011642	2468.416104
980.309020	2474.752835
980.606360	2476.552527
980.903664	2488.071563
981.200931	2499.908192
981.498162	2522.666481
981.795356	2547.421067
982.092513	2588.680391
982.389633	2635.583286
982.686717	2676.903104
982.983764	2709.652960
983.280775	2730.306567
983.577749	2728.728686
983.874686	2718.895915
984.171587	2701.365303
984.468451	2687.587829
984.765279	2670.899090
985.062070	2650.532828
985.358824	2630.496762
985.655543	2607.796446
985.952224	2584.733167
986.248869	2557.541184
986.545478	2528.085722
986.842050	2506.938081
987.138586	2487.136429
987.435086	2474.278966
987.731549	2463.506020
988.027975	2459.455453
988.324366	2451.956737
988.620719	2450.416664
988.917037	2444.682352
989.213318	2441.037598
989.509563	2437.927206
989.805772	2436.369489
990.101944	2438.665735
990.398080	2432.323963
990.694180	2435.169695
990.990244	2435.341094
991.286271	2433.354879
991.582262	2435.227668
991.878217	2435.991403
992.174136	2436.185487
992.470019	2436.256063
992.765865	2439.565581
993.061676	2442.005499
993.357450	2444.082455
993.653188	2446.819801
993.948890	2453.239711
994.244556	2457.388580
994.540186	2468.209417
994.835780	2478.180819
995.131337	2496.754951
995.426859	2512.291787
995.722345	2533.855322
996.017795	2551.824515
996.313208	2569.274469
996.608586	2576.127918
996.903928	2581.481623
997.199234	2579.548341
997.494504	2578.562795
997.789738	2568.364541
998.084936	2557.909188
998.380099	2544.033412
998.675225	2532.753830
998.970316	2521.262520
999.265371	2506.562515
999.560390	2491.658344
999.855373	2481.288691
1000.150320	2472.519603
1000.445232	2460.080556
1000.740108	2455.982098
1001.034948	2447.661674
1001.329752	2444.694955
1001.624521	2439.293358
1001.919254	2431.633325
1002.213951	2430.420928
1002.508613	2426.191400
1002.803239	2430.166349
1003.097829	2422.846594
1003.392384	2426.025042
1003.686903	2420.777200
1003.981386	2420.086562
1004.275834	2422.385328
1004.570246	2422.367684
1004.864623	2420.401634
1005.158964	2417.470203
1005.453270	2417.140008
1005.747540	2418.770821
1006.041775	2416.698907
1006.335974	2413.656571
1006.630138	2415.453742
1006.924266	2415.458783
1007.218359	2417.344175
1007.512416	2416.890471
1007.806438	2416.023392
1008.100425	2413.318813
1008.394376	2414.836201
1008.688292	2415.698238
1008.982172	2413.401992
1009.276017	2411.914852
1009.569827	2411.917372
1009.863602	2412.827301
1010.157341	2415.627662
1010.451045	2412.401323
1010.744714	2410.684810
1011.038347	2410.969636
1011.331945	2408.706158
1011.625508	2409.888308
1011.919036	2409.469892
1012.212528	2409.013668
1012.505986	2409.701785
1012.799408	2410.115160
1013.092795	2409.152300
1013.386147	2411.839235
1013.679464	2409.966446
1013.972745	2411.128432
1014.265992	2409.464851
1014.559204	2408.665828
1014.852380	2409.416960
1015.145521	2411.100706
1015.438628	2409.437125
1015.731699	2408.171795
1016.024736	2410.130283
1016.317737	2410.594070
1016.610703	2410.369738
1016.903635	2406.949315
1017.196531	2406.334295
1017.489393	2410.881415
1017.782219	2405.845303
1018.075011	2414.122877
1018.367768	2411.458628
1018.660490	2412.474420
1018.953177	2412.474420
1019.245829	2412.474420
