Dividing Wavelength (nm)	Counts (n)	Blue Motor Position (mm): 22.600000	Red Motor Position (mm): 0.000000	
326.493990	1973.732718
326.888308	1973.732718
327.282561	1973.732718
327.676750	1950.757660
328.070874	1952.355706
328.464933	1955.294698
328.858929	1965.545885
329.252859	1977.158182
329.646726	1994.315750
330.040528	2005.872595
330.434265	2027.932684
330.827938	2046.990766
331.221547	2067.954404
331.615091	2085.326221
332.008571	2110.274891
332.401986	2130.189969
332.795338	2148.756539
333.188625	2169.253870
333.581847	2188.075018
333.975006	2205.749304
334.368100	2220.978629
334.761129	2241.322206
335.154095	2258.323497
335.546996	2289.941614
335.939833	2358.733199
336.332606	2373.327340
336.725315	2384.422919
337.117960	2393.217212
337.510540	2399.768192
337.903056	2410.473082
338.295508	2417.341654
338.687896	2423.627973
339.080220	2430.168870
339.472480	2436.460230
339.864676	2440.220931
340.256807	2442.464244
340.648875	2445.683021
341.040879	2449.010182
341.432818	2450.714093
341.824694	2447.971705
342.216506	2450.462035
342.608253	2446.711416
342.999937	2448.158228
343.391557	2445.809050
343.783113	2444.783175
344.174605	2444.006837
344.566033	2440.364604
344.957397	2440.150355
345.348697	2437.896959
345.739934	2435.530137
346.131106	2434.862184
346.522215	2430.090732
346.913260	2431.557708
347.304241	2431.787080
347.695159	2426.251893
348.086012	2429.142995
348.476802	2426.047727
348.867528	2420.530184
349.258191	2422.912129
349.648789	2421.848446
350.039324	2416.862744
350.429796	2421.024217
350.820203	2419.542118
351.210548	2418.770821
351.600828	2418.367529
351.991045	2417.767632
352.381198	2415.012641
352.771288	2414.871489
353.161314	2414.889133
353.551276	2414.233783
353.941175	2412.308062
354.331010	2415.574730
354.720782	2418.301994
355.110490	2418.859041
355.500135	2417.092117
355.889717	2416.598084
356.279235	2416.146901
356.668689	2416.829977
357.058080	2416.363670
357.447408	2416.285532
357.836672	2413.795202
358.225873	2415.993145
358.615010	2414.004410
359.004084	2419.363157
359.393095	2420.114289
359.782043	2420.452046
360.170927	2419.632858
360.559748	2422.123188
360.948505	2421.389701
361.337199	2424.817685
361.725830	2426.120823
362.114398	2426.456060
362.502903	2423.128899
362.891344	2425.641914
363.279722	2424.174938
363.668037	2426.445978
364.056289	2424.709300
364.444478	2425.949424
364.832603	2428.293561
365.220665	2426.614857
365.608665	2429.853798
365.996601	2426.682912
366.384474	2426.786256
366.772284	2430.862029
367.160031	2429.631987
367.547715	2431.093922
367.935336	2428.709456
368.322893	2429.795825
368.710388	2430.070567
369.097820	2430.655341
369.485189	2431.056113
369.872495	2434.496701
370.259738	2431.288006
370.646918	2431.192224
371.034035	2429.180804
371.421090	2432.321443
371.808081	2430.332708
372.195010	2434.423604
372.581875	2430.637697
372.968678	2432.709612
373.355418	2432.666762
373.742096	2434.070723
374.128710	2435.323450
374.515262	2436.155240
374.901751	2434.872267
375.288177	2436.203131
375.674540	2436.944181
376.060841	2437.934768
376.447079	2436.868563
376.833254	2437.223965
377.219367	2432.170208
377.605417	2433.738007
377.991404	2430.889755
378.377329	2437.791095
378.763191	2431.224992
379.148991	2440.815787
379.534727	2438.388471
379.920402	2436.137596
380.306013	2441.735798
380.691563	2439.353852
381.077049	2439.278235
381.462474	2440.954419
381.847835	2441.392999
382.233134	2443.608586
382.618371	2442.330654
383.003545	2441.168668
383.388657	2441.687907
383.773706	2442.597835
384.158693	2440.919131
384.543618	2442.174378
384.928480	2443.840479
385.313280	2443.197732
385.698017	2445.436004
386.082692	2445.715788
386.467305	2446.161931
386.851856	2442.701178
387.236344	2444.674790
387.620770	2448.085131
388.005133	2447.104626
388.389435	2447.457507
388.773674	2447.543207
389.157851	2446.550099
389.541965	2449.022785
389.926018	2447.792744
390.310008	2446.151848
390.693936	2447.339040
391.077802	2447.782662
391.461606	2448.974894
391.845348	2448.674946
392.229027	2449.743670
392.612645	2447.734771
392.996200	2450.951027
393.379694	2451.661829
393.763125	2450.777107
394.146494	2453.448918
394.529801	2454.124433
394.913047	2452.486058
395.296230	2454.515122
395.679351	2450.295677
396.062410	2453.022941
396.445408	2450.991356
396.828343	2452.077725
397.211217	2447.573454
397.594028	2451.200564
397.976778	2448.057404
398.359466	2454.656275
398.742092	2451.069494
399.124656	2452.415482
399.507158	2456.589557
399.889598	2459.377315
400.271977	2456.584516
400.654294	2457.139043
401.036549	2455.288940
401.418742	2457.993519
401.800874	2459.929322
402.182944	2456.874382
402.564952	2454.873044
402.946898	2456.203909
403.328783	2457.139043
403.710606	2459.233643
404.092367	2458.578292
404.474067	2460.680454
404.855705	2458.858077
405.237282	2457.222222
405.618797	2459.720114
406.000250	2460.443519
406.381642	2460.640124
406.762972	2462.875876
407.144240	2461.434106
407.525447	2463.992492
407.906593	2461.240022
408.287677	2461.620629
408.668700	2459.432768
409.049661	2462.558283
409.430560	2461.297995
409.811399	2467.173460
410.192176	2460.690536
410.572891	2464.567183
410.953545	2463.223716
411.334138	2463.556432
411.714669	2462.747327
412.095139	2461.575258
412.475547	2464.836885
412.855894	2465.998871
413.236180	2465.363686
413.616405	2466.848305
413.996568	2464.657924
414.376670	2467.491052
414.756711	2464.731021
415.136691	2468.204376
415.516609	2469.880559
415.896466	2469.177318
416.276262	2468.181691
416.655997	2468.642956
417.035670	2465.172122
417.415283	2471.155971
417.794834	2466.737400
418.174324	2469.149592
418.553753	2469.331074
418.933121	2472.209572
419.312428	2472.507001
419.691674	2469.956177
420.070859	2473.492546
420.449983	2474.959522
420.829045	2472.857361
421.208047	2472.070941
421.586988	2474.296610
421.965867	2472.670838
422.344686	2473.850468
422.723444	2475.216621
423.102141	2474.379789
423.480777	2478.591673
423.859352	2474.919193
424.237866	2478.553865
424.616319	2476.993628
424.994712	2480.008238
425.373044	2477.502784
425.751314	2478.221148
426.129524	2476.305510
426.507673	2478.150572
426.885762	2476.895325
427.263789	2477.245685
427.641756	2480.756849
428.019662	2480.328351
428.397508	2480.401447
428.775292	2480.184678
429.153016	2481.313896
429.530679	2483.373208
429.908282	2479.685604
430.285824	2481.039153
430.663305	2481.770121
431.040726	2482.125522
431.418086	2482.450677
431.795385	2483.521922
432.172624	2484.638537
432.549802	2485.122488
432.926920	2487.360760
433.303977	2487.635503
433.680974	2484.948568
434.057910	2484.651140
434.434786	2486.526449
434.811601	2487.529639
435.188355	2488.721872
435.565050	2489.092397
435.941683	2487.219608
436.318257	2489.362098
436.694770	2484.608290
437.071222	2488.941162
437.447614	2486.687766
437.823946	2487.907726
438.200218	2489.810761
438.576429	2490.720689
438.952580	2489.790597
439.328670	2492.532984
439.704700	2493.571462
440.080670	2492.137254
440.456580	2493.669764
440.832429	2496.379385
441.208218	2491.507109
441.583947	2496.361741
441.959616	2490.453508
442.335224	2494.985506
442.710773	2497.160763
443.086261	2495.512306
443.461689	2496.371823
443.837057	2497.165805
444.212365	2500.233347
444.587612	2497.790908
444.962800	2498.867194
445.337927	2502.542195
445.712995	2500.026659
446.088002	2502.259891
446.462949	2502.547236
446.837837	2505.216527
447.212664	2505.934892
447.587431	2510.519821
447.962139	2516.798578
448.336786	2520.831501
448.711374	2520.821419
449.085901	2515.223218
449.460369	2514.043588
449.834776	2517.325379
450.209124	2522.187572
450.583412	2522.104393
450.957640	2523.654547
451.331808	2521.869979
451.705917	2521.716224
452.079965	2523.238652
452.453954	2522.217819
452.827883	2524.072963
453.201752	2526.533046
453.575562	2526.086904
453.949311	2531.634694
454.323001	2534.288862
454.696632	2533.820034
455.070202	2538.253729
455.443713	2541.326312
455.817164	2538.712474
456.190556	2541.797660
456.563888	2544.487116
456.937160	2542.170706
457.310373	2546.339740
457.683526	2547.247148
458.056619	2549.989535
458.429653	2550.337375
458.802628	2553.147818
459.175542	2556.558159
459.548398	2561.193500
459.921194	2569.092988
460.293930	2573.703123
460.666607	2585.688466
461.039224	2590.091914
461.411782	2595.531319
461.784280	2593.706421
462.156719	2598.750096
462.529099	2597.991402
462.901419	2595.886720
463.273680	2596.980651
463.645882	2596.179107
464.018024	2600.829572
464.390106	2607.683020
464.762130	2623.436626
465.134094	2647.871099
465.505999	2678.480985
465.877845	2705.408308
466.249631	2714.550441
466.621358	2713.587580
466.993026	2709.511807
467.364634	2709.489122
467.736184	2703.159954
468.107674	2708.576673
468.479105	2714.237889
468.850477	2720.201574
469.221790	2717.441542
469.593043	2718.825339
469.964238	2721.766852
470.335373	2729.368912
470.706449	2759.920825
471.077467	2796.063378
471.448425	2853.721575
471.819324	2897.466188
472.190164	2895.575755
472.560945	2880.147303
472.931667	2867.216744
473.302330	2877.956922
473.672934	2890.340517
474.043479	2916.844383
474.413965	2931.748554
474.784393	2950.637758
475.154761	2987.438181
475.525070	3017.307017
475.895321	3042.817776
476.265513	3078.221800
476.635645	3134.221457
477.005719	3168.009791
477.375734	3220.034499
477.745691	3275.459465
478.115588	3348.926720
478.485427	3452.303142
478.855207	3607.227882
479.224928	3753.330602
479.594591	3863.431923
479.964194	3890.518043
480.333739	3952.793937
480.703226	4034.168242
481.072653	4154.366994
481.442022	4270.452164
481.811333	4370.569479
482.180584	4407.377464
482.549777	4482.616685
482.918912	4558.559147
483.287988	4650.532479
483.657005	4712.878949
484.025964	4784.017191
484.394864	4880.091501
484.763706	4974.328311
485.132489	5038.446747
485.501213	5138.332169
485.869879	5271.433754
486.238487	5373.431420
486.607036	5515.478532
486.975527	5611.978820
487.343959	5765.207211
487.712333	5919.159009
488.080648	6052.764709
488.448905	6242.390232
488.817104	6386.453806
489.185244	6642.446118
489.553326	7011.816502
489.921350	7532.048455
490.289315	8107.904500
490.657222	8409.776354
491.025070	8666.665993
491.392861	8740.685255
491.760593	8756.930373
492.128267	8722.705979
492.495883	8710.352632
492.863440	8722.431237
493.230939	8735.147547
493.598380	8787.217625
493.965763	8951.692831
494.333088	9036.621150
494.700354	9176.550978
495.067563	9348.194705
495.434713	9542.352224
495.801805	9782.873236
496.168839	9943.713770
496.535815	10111.957239
496.902733	10352.165699
497.269593	10500.116002
497.636395	10718.662625
498.003139	11046.839219
498.369825	11171.070894
498.736453	11484.502114
499.103023	11626.206428
499.469535	11846.212464
499.835989	12121.898045
500.202385	12297.176443
500.568723	12568.876992
500.935003	12905.048856
501.301226	13118.594654
501.667390	13561.946491
502.033497	13923.334207
502.399546	14021.871121
502.765537	14082.947220
503.131470	14473.923989
503.497345	14874.199166
503.863163	14711.430391
504.228923	15194.282188
504.594625	15635.914992
504.960269	15679.793195
505.325856	16206.790377
505.691385	16265.628204
506.056856	16607.393229
506.422270	17070.211481
506.787625	17202.390535
507.152924	17581.913802
507.518164	17935.669212
507.883347	17905.147546
508.248472	18310.567220
508.613540	18831.850254
508.978550	19277.833573
509.343503	19459.375606
509.708398	19850.770790
510.073236	20414.775083
510.438016	20725.768904
510.802738	20765.321797
511.167403	21382.104450
511.532010	21796.346144
511.896561	22262.610025
512.261053	23022.412733
512.625488	23090.992589
512.989866	23321.322909
513.354186	23548.426889
513.718449	23840.350026
514.082655	24532.828124
514.446803	24655.933101
514.810894	25258.837457
515.174927	25505.823749
515.538904	25738.929223
515.902822	26432.856653
516.266684	26397.432465
516.630488	26953.527187
516.994235	27152.410788
517.357925	27782.756665
517.721558	28211.040493
518.085133	28694.686273
518.448651	29078.928060
518.812112	29194.859475
519.175516	29541.426199
519.538863	30052.165660
519.902152	30275.193868
520.265385	30862.223630
520.628560	31168.408191
520.991678	31279.104368
521.354739	31704.134131
521.717743	32194.346013
522.080690	32361.394728
522.443580	33019.724050
522.806413	33322.886440
523.169189	33524.320865
523.531908	33891.082452
523.894569	34020.020043
524.257174	34383.577977
524.619722	34845.002350
524.982213	35063.569137
525.344647	35220.560750
525.707025	35484.709649
526.069345	36007.903281
526.431608	36165.368762
526.793815	36609.748994
527.155964	36457.501107
527.518057	36777.407689
527.880093	36800.765875
528.242072	37444.107847
528.603995	37372.689820
528.965860	37569.461178
529.327669	37829.299892
529.689421	37923.831609
530.051117	38078.073272
530.412755	38353.864717
530.774337	38585.165458
531.135862	38583.779141
531.497331	38923.963764
531.858743	39001.156433
532.220098	39437.594327
532.581396	39351.188950
532.942638	39201.408707
533.303824	39605.063978
533.664953	39720.783665
534.026025	39605.996592
534.387040	40155.936065
534.747999	40231.568496
535.108902	40518.432835
535.469748	40217.632226
535.830537	40451.728287
536.191270	40747.442372
536.551947	40547.505169
536.912567	40932.888778
537.273131	41150.517910
537.633638	40788.038784
537.994089	41226.868705
538.354483	40958.586059
538.714821	41573.412744
539.075103	41988.478667
539.435328	41879.294836
539.795497	41859.538554
540.155609	41951.020373
540.515665	42475.398676
540.875665	42052.047617
541.235609	42440.009776
541.595496	42489.493742
541.955328	43228.272317
542.315102	42702.036350
542.674821	42588.368413
543.034483	42706.530538
543.394090	42737.301741
543.753640	42782.243628
544.113134	43789.453563
544.472571	42926.765947
544.831953	44182.005693
545.191278	43483.006862
545.550548	43296.635405
545.909761	43814.094723
546.268918	44049.279674
546.628019	44422.730871
546.987064	44058.386518
547.346053	43413.577571
547.704986	44318.134491
548.063863	43939.107777
548.422684	44183.190364
548.781449	44101.135503
549.140158	44515.145304
549.498811	44431.888127
549.857408	43913.382769
550.215949	44781.076251
550.574434	44757.932314
550.932864	44570.063634
551.291237	45320.726729
551.649555	44972.932484
552.007817	45245.300986
552.366022	44947.066324
552.724173	45152.077448
553.082267	45582.768427
553.440305	45892.577578
553.798288	45282.706347
554.156215	45601.980264
554.514086	45845.289034
554.871902	45628.237114
555.229661	45671.444844
555.587365	45531.789759
555.945014	45656.283573
556.302606	45606.739113
556.660143	45840.701584
557.017625	45965.674308
557.375050	45786.947761
557.732421	46154.888977
558.089735	46149.162226
558.446994	46097.089627
558.804197	46563.449290
559.161345	46532.330248
559.518437	45839.242170
559.875474	46137.527243
560.232455	46326.842735
560.589381	46496.812798
560.946251	46219.871971
561.303065	46916.176304
561.659825	46724.012561
562.016528	46426.486182
562.373177	46179.149530
562.729770	46650.363824
563.086307	46189.645212
563.442789	46649.229564
563.799216	46697.244034
564.155587	46514.466919
564.511904	46562.355360
564.868164	46668.653130
565.224370	46911.331756
565.580520	46671.826536
565.936615	46880.583238
566.292654	46620.288300
566.648638	46862.359467
567.004567	46821.092581
567.360441	46865.613531
567.716260	46743.594923
568.072023	47037.957978
568.427732	47051.294351
568.783385	46597.182171
569.138982	46982.885893
569.494525	46970.194788
569.850013	46739.549397
570.205445	46713.141313
570.560823	46667.838984
570.916145	46564.928869
571.271412	46585.153978
571.626625	46378.401136
571.981782	46423.748835
572.336884	46133.655637
572.691931	46440.361958
573.046923	46045.269087
573.401860	45913.077430
573.756743	45894.160500
574.111570	46024.522218
574.466342	45879.165588
574.821059	45998.361150
575.175722	45535.610953
575.530330	45570.452888
575.884882	45289.080886
576.239380	45252.048570
576.593823	45240.118679
576.948211	45139.351055
577.302544	44684.613773
577.656823	44745.921765
578.011047	44953.035050
578.365216	44673.891238
578.719330	44491.827447
579.073389	44356.832908
579.427394	44426.166418
579.781344	44418.829018
580.135239	44077.184981
580.489080	44148.963450
580.842866	43653.589426
581.196597	44110.854848
581.550273	44061.698556
581.903895	43926.096559
582.257463	44335.818858
582.610975	43746.018982
582.964434	44032.235533
583.317837	43686.803068
583.671186	43525.085373
584.024481	43751.017286
584.377721	43299.587000
584.730906	43588.959313
585.084037	43595.432155
585.437113	43319.141636
585.790135	43356.988098
586.143103	42970.644150
586.496016	43095.816000
586.848874	43112.345943
587.201679	43132.926454
587.554428	42625.458702
587.907124	42818.446674
588.259765	42580.907505
588.612352	42824.276769
588.964884	42246.245466
589.317362	42533.825649
589.669786	42471.794251
590.022155	42252.670416
590.374470	42659.925071
590.726731	42191.188504
591.078937	41729.338153
591.431090	41834.645337
591.783188	41492.489622
592.135232	41169.308811
592.487222	41409.391242
592.839157	41506.819102
593.191038	41190.315299
593.542866	40955.284104
593.894639	40358.456859
594.246358	40642.319191
594.598022	40603.015835
594.949633	40234.217622
595.301190	40189.507629
595.652692	40044.531606
596.004141	40352.568791
596.355535	39388.541379
596.706876	39332.811423
597.058162	39178.307620
597.409395	39630.042895
597.760573	39698.544614
598.111698	39283.745873
598.462768	39294.438160
598.813785	39344.925316
599.164748	38805.322729
599.515657	39207.110252
599.866511	38677.716002
600.217312	39279.851582
600.568060	38265.596634
600.918753	39007.092391
601.269392	38978.060386
601.619978	38612.140673
601.970510	38840.046197
602.320988	39010.880818
602.671412	39317.093106
603.021783	39055.941172
603.372100	38710.435611
603.722363	38833.959003
604.072572	38902.662369
604.422728	38910.322402
604.772830	38724.192920
605.122878	38821.885440
605.472872	38770.760578
605.822813	39031.191627
606.172701	38881.865088
606.522534	39096.837533
606.872314	39355.524342
607.222041	39128.770722
607.571714	39516.080051
607.921333	38972.585693
608.270899	39255.598591
608.620411	39585.642933
608.969870	39390.635979
609.319276	39396.264427
609.668627	39452.168302
610.017926	39920.733470
610.367171	40071.010266
610.716362	40170.280668
611.065500	40122.172937
611.414585	40317.545375
611.763616	40596.706831
612.112594	40527.700996
612.461518	40748.327094
612.810389	41035.912318
613.159207	40901.121947
613.507971	40981.488021
613.856682	41443.088835
614.205340	41332.213697
614.553945	42019.010415
614.902496	41477.363640
615.250994	41946.916874
615.599439	42017.913964
615.947830	42223.663617
616.296169	42271.032819
616.644454	42387.722928
616.992686	42577.784510
617.340864	43107.244296
617.688990	42816.586488
618.037063	43417.827264
618.385082	43393.586875
618.733048	43690.026886
619.080961	43699.965521
619.428821	43703.214545
619.776628	43805.547447
620.124382	43616.673057
620.472083	43759.458698
620.819731	43879.077717
621.167326	43550.500351
621.514868	43542.374011
621.862357	43120.021100
622.209793	43132.513079
622.557176	42791.683188
622.904506	42549.596898
623.251783	42205.041595
623.599007	41973.032571
623.946179	41764.210335
624.293297	41721.693243
624.640363	41131.701803
624.987376	41132.286577
625.334336	40879.500438
625.681243	40531.864989
626.028097	40511.382781
626.374899	40346.743738
626.721647	40331.942910
627.068343	40218.693389
627.414987	39991.465900
627.761577	39761.614490
628.108115	40082.683058
628.454600	39552.978777
628.801032	39729.572916
629.147412	39709.398219
629.493739	39711.064320
629.840014	39367.161846
630.186236	39708.405111
630.532405	39326.956123
630.878521	39542.074761
631.224585	39417.243189
631.570597	39140.814038
631.916556	39295.020414
632.262462	39253.607335
632.608316	39269.978482
632.954117	39149.447014
633.299866	39139.321857
633.645562	39066.734282
633.991206	38578.828728
634.336797	38153.181423
634.682336	38147.898294
635.027823	37896.377485
635.373257	37713.736481
635.718639	37481.845925
636.063968	37343.791406
636.409245	36767.196832
636.754470	36829.180339
637.099642	36582.826712
637.444762	36126.589686
637.789829	36269.564371
638.134845	35918.475732
638.479808	35876.394700
638.824719	35784.988499
639.169577	35376.017331
639.514383	35454.165298
639.859137	35163.449518
640.203839	35387.105349
640.548489	35027.298035
640.893086	35089.468064
641.237632	34871.465887
641.582125	34962.201615
641.926566	34892.457252
642.270955	34858.404257
642.615292	34885.263525
642.959576	34850.542578
643.303809	34864.821646
643.647990	35010.788256
643.992118	34977.786342
644.336195	34965.964836
644.680219	35074.616825
645.024192	35366.691197
645.368112	35863.517073
645.711981	35890.966156
646.055797	36767.789167
646.399562	36680.443615
646.743274	37614.392983
647.086935	38050.702328
647.430544	37954.464180
647.774101	38086.434026
648.117606	38316.265271
648.461059	38610.487174
648.804460	38214.592760
649.147810	37622.090825
649.491108	37355.829681
649.834354	37018.498351
650.177548	36182.407862
650.520690	35742.141212
650.863781	35759.586125
651.206820	35601.586281
651.549807	35167.452194
651.892742	34688.207342
652.235626	34495.388248
652.578458	34364.330851
652.921238	33782.511121
653.263967	34107.040441
653.606644	33795.028306
653.949269	33744.236161
654.291843	33347.270501
654.634365	33747.167592
654.976836	33351.835266
655.319255	33346.816797
655.661622	33344.545757
656.003938	33126.069711
656.346203	32989.913187
656.688416	33219.709144
657.030577	33017.682383
657.372687	32857.661037
657.714746	33119.695172
658.056753	33234.250352
658.398708	32698.279917
658.740612	32751.529625
659.082465	33017.674821
659.424266	32851.210880
659.766016	32977.769047
660.107715	32854.656509
660.449362	32990.548372
660.790958	32964.142809
661.132503	32991.952334
661.473996	33011.368338
661.815438	33140.058913
662.156829	33323.730833
662.498168	33093.176183
662.839456	33113.217290
663.180693	33263.448715
663.521879	33424.329579
663.863013	33382.419946
664.204097	33386.525966
664.545129	33854.279508
664.886110	33821.512008
665.227040	33876.924371
665.567918	33996.951723
665.908746	34056.049170
666.249522	34235.171448
666.590248	34209.539702
666.930922	34348.680589
667.271545	34286.276146
667.612118	34371.340576
667.952639	34168.547559
668.293109	34216.246957
668.633528	34123.434273
668.973896	34046.435690
669.314213	34066.696087
669.654480	33823.828418
669.994695	33834.797969
670.334859	33742.144082
670.674973	33638.949142
671.015035	33802.963082
671.355047	33754.467182
671.695008	33698.104562
672.034918	33591.451390
672.374777	33671.537681
672.714585	33520.487068
673.054342	33755.800567
673.394049	33514.656973
673.733705	33801.523833
674.073310	33460.439364
674.412864	33531.464180
674.752368	33132.461894
675.091820	33414.527055
675.431223	33005.238295
675.770574	32736.953128
676.109875	32594.656479
676.449125	32321.690601
676.788324	32241.460637
677.127473	31707.930120
677.466571	31643.625162
677.805619	31293.237243
678.144616	31281.110747
678.483562	31215.701776
678.822458	30887.787321
679.161303	30826.542343
679.500098	30739.267367
679.838842	30609.923963
680.177535	30775.203232
680.516179	31053.661448
680.854771	31304.647895
681.193314	32154.972081
681.531805	33264.235135
681.870247	34053.468099
682.208638	34791.482940
682.546978	35017.082136
682.885268	35106.812154
683.223508	34561.530707
683.561697	34238.203702
683.899836	34042.380081
684.237925	33553.020154
684.575963	33402.380395
684.913951	32943.930302
685.251889	33102.593058
685.589776	33085.702672
685.927614	33072.404108
686.265401	33234.699015
686.603137	33321.177489
686.940824	33841.376675
687.278460	34218.848192
687.616046	34374.675299
687.953582	34978.643338
688.291068	34844.442782
688.628504	35127.153210
688.965889	35049.194286
689.303224	34676.121175
689.640510	34321.675128
689.977745	33594.095476
690.314930	32786.641261
690.652065	32261.922681
690.989150	31519.935411
691.326185	30633.345163
691.663170	29917.894527
692.000105	29171.377780
692.336990	28475.993457
692.673825	28038.827116
693.010610	27512.593669
693.347345	26934.522037
693.684030	26291.530426
694.020665	26025.891865
694.357251	25342.631517
694.693786	25304.510311
695.030272	25068.077675
695.366707	24525.594069
695.703093	24243.249124
696.039429	24230.694130
696.375716	23975.788186
696.711952	23934.675056
697.048139	23798.493326
697.384276	23611.680767
697.720363	23740.668771
698.056400	23526.961656
698.392388	23315.056754
698.728326	23286.322177
699.064214	23071.241349
699.400053	23021.356611
699.735842	22668.380060
700.071581	22397.057598
700.407270	22109.157302
700.742910	21906.124831
701.078501	21629.269703
701.414042	21350.163699
701.749533	21064.960420
702.084974	20721.594829
702.420366	20919.583626
702.755709	20471.417487
703.091002	20186.904846
703.426246	20204.115346
703.761440	20107.098340
704.096584	19834.550878
704.431679	19790.665113
704.766725	19702.775116
705.101721	19640.957967
705.436668	19730.536750
705.771565	19405.949457
706.106413	19751.591129
706.441212	19742.212063
706.775961	19862.178921
707.110661	19940.024419
707.445311	20292.716145
707.779913	20136.211003
708.114465	20384.583612
708.448967	20672.884680
708.783421	21359.749453
709.117825	21637.476701
709.452180	21861.644210
709.786485	22266.025407
710.120742	23067.173138
710.454949	23079.405497
710.789107	23549.692219
711.123216	24265.679738
711.457275	24377.036306
711.791286	24920.233236
712.125247	24990.423741
712.459159	24684.460991
712.793023	25334.850496
713.126837	24225.660538
713.460602	24480.004394
713.794318	24107.609318
714.127985	23723.211255
714.461602	22821.656342
714.795171	22778.095732
715.128691	21760.221235
715.462162	21223.368598
715.795584	20806.238323
716.128957	20543.216121
716.462281	20137.609923
716.795556	19900.786598
717.128782	19409.064890
717.461960	18862.974338
717.795088	18789.696126
718.128167	18387.384323
718.461198	17925.140762
718.794180	17783.494421
719.127113	17423.475378
719.459997	17221.138586
719.792833	16882.032770
720.125619	16852.418511
720.458357	16528.466403
720.791046	16358.198912
721.123686	16206.818103
721.456278	15968.613501
721.788821	15927.863334
722.121315	15677.257494
722.453761	15748.196611
722.786158	15665.042778
723.118506	15678.815211
723.450805	15545.330498
723.783056	15705.245980
724.115259	15613.849861
724.447412	15544.531475
724.779518	15777.924295
725.111574	15796.435412
725.443582	16002.800086
725.775542	15986.005482
726.107453	16460.221783
726.439315	16341.666448
726.771129	16742.670072
727.102895	17114.361906
727.434612	17318.415211
727.766281	17441.694108
728.097901	17696.030402
728.429473	17731.023571
728.760996	17714.228967
729.092471	17802.045867
729.423897	17678.225046
729.755276	17530.806584
730.086606	17659.141758
730.417887	18185.357562
730.749120	18694.710705
731.080305	18869.653867
731.411442	19194.132775
731.742530	19265.543240
732.073570	19367.805567
732.404562	19657.772736
732.735506	19473.148038
733.066401	19191.050110
733.397249	18669.774637
733.728048	18031.057925
734.058798	17190.926951
734.389501	16515.903848
734.720156	16054.456790
735.050762	15528.480441
735.381320	15176.398695
735.711831	14936.394402
736.042293	14593.338841
736.372707	14600.956025
736.703073	14393.787287
737.033391	14574.192539
737.363661	14549.211101
737.693883	14658.417617
738.024056	14813.513756
738.354182	15014.068500
738.684260	15287.777948
739.014290	15518.700603
739.344272	15702.644745
739.674207	15982.348125
740.004093	16093.687049
740.333931	16088.235041
740.663722	16125.993283
740.993464	16119.666635
741.323159	15946.434945
741.652806	15669.698284
741.982405	15463.875534
742.311956	15117.956598
742.641460	14992.623432
742.970915	14687.704200
743.300323	14358.317728
743.629683	14142.715140
743.958996	13863.377244
744.288260	13592.589144
744.617477	13299.584680
744.946647	13226.011560
745.275768	12950.615846
745.604842	12765.156837
745.933869	12595.784150
746.262847	12545.642313
746.591778	12464.136938
746.920662	12367.896270
747.249498	12369.310314
747.578286	12490.918068
747.907027	12636.289821
748.235720	12855.307791
748.564365	12890.575704
748.892963	12787.199282
749.221514	12848.517357
749.550017	12698.152341
749.878473	12665.498267
750.206881	12438.210284
750.535242	12354.312881
750.863555	12261.240578
751.191821	12165.188953
751.520039	12188.257273
751.848210	12099.275867
752.176334	12132.426494
752.504411	12027.842717
752.832440	11877.785211
753.160421	11937.505240
753.488356	11820.651294
753.816243	11723.931716
754.144082	11585.471384
754.471875	11527.351922
754.799620	11475.791000
755.127318	11444.636669
755.454969	11407.758108
755.782572	11359.221879
756.110129	11371.217305
756.437638	11292.184615
756.765100	11285.537854
757.092515	11282.482915
757.419882	11300.263064
757.747203	11306.927470
758.074477	11382.438913
758.401703	11339.720176
758.728882	11500.550627
759.056014	11538.341637
759.383099	11655.994606
759.710138	11756.716860
760.037129	11843.144922
760.364073	11854.182528
760.690970	11844.543842
761.017820	11842.545025
761.344623	12032.437728
761.671379	12351.134433
761.998088	12978.264054
762.324751	14531.998081
762.651366	17399.267757
762.977935	21071.990309
763.304456	23287.448875
763.630931	23759.189970
763.957359	22568.240059
764.283740	20654.519757
764.610074	18777.488972
764.936362	16653.340825
765.262602	15127.529750
765.588796	13666.709229
765.914943	12633.547434
766.241044	11783.626539
766.567097	11151.286886
766.893104	10610.913002
767.219064	10246.835830
767.544978	9866.016987
767.870845	9557.493330
768.196665	9363.449236
768.522438	9163.572527
768.848165	9002.235440
769.173846	8838.198814
769.499479	8711.254998
769.825066	8560.839571
770.150607	8376.983649
770.476101	8311.264647
770.801548	8201.324643
771.126949	8063.965803
771.452303	7972.831824
771.777611	7809.642113
772.102872	7789.386756
772.428087	7669.440062
772.753256	7544.462297
773.078378	7456.645397
773.403453	7309.325237
773.728482	7213.419806
774.053465	7150.334807
774.378401	7065.958494
774.703291	6971.444421
775.028135	6877.081583
775.352932	6838.763773
775.677683	6756.935763
776.002388	6670.454769
776.327046	6664.680127
776.651658	6577.132929
776.976224	6502.017216
777.300743	6485.867880
777.625216	6422.298930
777.949643	6379.539863
778.274024	6383.565224
778.598359	6320.447458
778.922647	6320.392005
779.246889	6279.687208
779.571086	6282.250635
779.895236	6297.071627
780.219339	6290.608868
780.543397	6293.038704
780.867409	6340.939748
781.191374	6337.113512
781.515294	6307.264840
781.839167	6356.279979
782.162995	6326.020453
782.486776	6278.197547
782.810511	6239.252113
783.134201	6163.234034
783.457844	6151.833464
783.781441	6104.423933
784.104993	6058.057921
784.428498	6028.410895
784.751958	6009.004973
785.075372	5989.367158
785.398739	5947.586075
785.722061	5973.384180
786.045337	5971.851669
786.368568	6081.017856
786.691752	6106.717658
787.014891	6353.638415
787.337983	6629.084540
787.661030	7073.288332
787.984031	7497.788774
788.306987	7761.849453
788.629897	7849.908329
788.952760	7760.538753
789.275579	7584.105931
789.598351	7288.565766
789.921078	7019.743716
790.243759	6741.235090
790.566395	6533.403440
790.888984	6342.736919
791.211529	6202.285332
791.534027	6037.290887
791.856480	5902.808026
792.178888	5840.196895
792.501249	5772.095948
792.823566	5673.969888
793.145836	5670.035268
793.468062	5644.905116
793.790241	5608.339107
794.112375	5647.619777
794.434464	5743.943624
794.756507	5776.748933
795.078505	5897.267798
795.400457	6117.488083
795.722364	6353.598085
796.044226	6544.536828
796.366042	6707.575306
796.687812	6653.768550
797.009538	6678.634041
797.331218	6587.305978
797.652852	6516.611357
797.974442	6395.414457
798.295986	6321.395195
798.617484	6200.077307
798.938938	6090.643939
799.260346	6019.447723
799.581709	5878.429006
799.903026	5831.662222
800.224299	5756.833855
800.545526	5641.673736
800.866708	5576.136216
801.187845	5529.896232
801.508936	5450.626608
801.829983	5424.160551
802.150984	5315.886648
802.471940	5290.771620
802.792851	5272.925935
803.113717	5249.867698
803.434538	5225.891970
803.755314	5195.241755
804.076045	5182.656514
804.396731	5147.963293
804.717372	5161.387886
805.037967	5165.879554
805.358518	5194.248647
805.679024	5255.851547
805.999485	5259.826497
806.319901	5278.851812
806.640272	5298.159431
806.960598	5346.902347
807.280879	5340.149722
807.601115	5377.345876
807.921306	5337.311552
808.241453	5333.535728
808.561554	5345.248849
808.881611	5308.894568
809.201623	5301.189164
809.521590	5256.960601
809.841513	5242.941152
810.161390	5255.291979
810.481223	5171.492879
810.801011	5155.472092
811.120755	5129.628617
811.440453	5075.663065
811.760107	5045.718611
812.079716	5018.009909
812.399281	4966.733813
812.718801	4961.753153
813.038276	4932.159059
813.357707	4898.078338
813.677093	4915.515689
813.996434	4857.655846
814.315731	4871.309811
814.634983	4878.264083
814.954191	4877.540677
815.273354	4941.722128
815.592473	4980.307119
815.911547	5052.793870
816.230577	5102.587868
816.549562	5192.522052
816.868502	5245.744034
817.187399	5303.210667
817.506250	5378.981730
817.825058	5406.239249
818.143821	5558.333381
818.462539	5726.551644
818.781213	5958.112004
819.099843	6320.495349
819.418429	6948.928108
819.736970	7565.567087
820.055466	8278.880274
820.373919	9192.170993
820.692327	10636.234718
821.010691	13339.492974
821.329011	19553.768691
821.647286	29129.684918
821.965517	39475.518927
822.283704	44944.359224
822.601847	46441.962524
822.919945	41838.101047
823.237999	36717.160859
823.556010	31517.729906
823.873976	26809.677862
824.191897	22594.895160
824.509775	19518.145377
824.827609	16761.493740
825.145398	15202.350555
825.463144	14446.018682
825.780845	14735.673299
826.098502	16002.159860
826.416116	18457.416032
826.733685	20754.352247
827.051210	21276.333481
827.368692	19842.258802
827.686129	17272.122295
828.003522	14791.995591
828.320872	12571.579050
828.638177	10921.117884
828.955439	9678.685189
829.272656	8619.195967
829.589830	7773.093747
829.906960	7044.760442
830.224046	6507.106261
830.541088	6095.896821
830.858086	5838.182954
831.175041	5637.635772
831.491952	5579.775929
831.808819	5613.657524
832.125642	5860.795050
832.442421	6410.356437
832.759157	7514.427102
833.075849	9287.116085
833.392497	11138.288271
833.709101	12253.204979
834.025662	12001.956392
834.342179	10951.178284
834.658653	9640.745465
834.975083	8536.894090
835.291469	7629.433465
835.607811	6892.580611
835.924110	6373.956785
836.240366	5880.634511
836.556578	5430.628351
836.872746	5079.973251
837.188871	4807.876972
837.504952	4584.924382
837.820990	4418.498249
838.136984	4304.094304
838.452935	4255.104371
838.768842	4284.922796
839.084706	4565.135333
839.400526	5307.876255
839.716303	6213.456529
840.032037	6778.280009
840.347727	6634.960005
840.663373	6033.482296
840.978977	5455.236744
841.294537	5010.062530
841.610054	4681.560781
841.925527	4441.513637
842.240957	4235.287595
842.556344	4050.294893
842.871687	3892.975605
843.186987	3741.970362
843.502244	3620.609624
843.817458	3537.201213
844.132629	3467.073722
844.447756	3422.313317
844.762840	3375.869167
845.077881	3335.423990
845.392879	3301.479380
845.707833	3275.595576
846.022745	3249.991555
846.337613	3237.829772
846.652438	3215.399158
846.967221	3204.880790
847.281960	3185.898325
847.596656	3173.532375
847.911309	3164.607012
848.225919	3150.804333
848.540485	3145.569095
848.855009	3131.254738
849.169490	3121.406844
849.483928	3117.290742
849.798323	3110.018878
850.112675	3100.788525
850.426984	3100.377671
850.741251	3093.967844
851.055474	3090.602874
851.369654	3089.327462
851.683792	3087.338727
851.997887	3090.857452
852.311938	3089.443408
852.625947	3092.747885
852.939914	3084.772779
853.253837	3090.953234
853.567718	3086.431319
853.881555	3080.016451
854.195350	3086.756473
854.509103	3079.051070
854.822812	3080.770103
855.136479	3074.249371
855.450103	3080.034095
855.763685	3074.140986
856.077224	3077.919331
856.390720	3085.138263
856.704173	3095.205447
857.017584	3100.556632
857.330953	3105.159205
857.644278	3114.233282
857.957561	3116.030454
858.270802	3114.364352
858.584000	3115.821246
858.897155	3108.579628
859.210268	3099.089656
859.523339	3082.983170
859.836367	3081.748087
860.149352	3077.919331
860.462295	3076.958991
860.775195	3065.775191
861.088054	3061.107083
861.400869	3060.539953
861.713642	3055.647513
862.026373	3068.086560
862.339062	3069.735017
862.651708	3082.327820
862.964312	3093.998091
863.276873	3106.648866
863.589392	3136.477374
863.901869	3162.439316
864.214303	3182.850948
864.526696	3202.375337
864.839045	3218.764128
865.151353	3231.485480
865.463619	3229.847105
865.775842	3233.653176
866.088023	3237.877663
866.400162	3232.972620
866.712258	3230.832650
867.024313	3231.966910
867.336325	3227.634038
867.648296	3232.173597
867.960224	3227.548338
868.272110	3234.006057
868.583954	3233.728793
868.895755	3237.739031
869.207515	3235.604102
869.519233	3255.176382
869.830909	3260.940942
870.142542	3275.124228
870.454134	3278.930299
870.765684	3292.738019
871.077191	3311.881801
871.388657	3322.206084
871.700081	3340.757530
872.011463	3361.428782
872.322803	3379.153479
872.634101	3394.196282
872.945357	3416.979777
873.256571	3444.943057
873.567744	3460.870583
873.878874	3464.762353
874.189963	3481.511587
874.501010	3480.402533
874.812015	3481.952688
875.122979	3496.382991
875.433900	3492.750839
875.744780	3492.927280
876.055618	3504.388343
876.366415	3501.028414
876.677169	3506.840864
876.987882	3524.016076
877.298554	3545.438459
877.609183	3584.751897
877.919771	3627.672281
878.230317	3700.169114
878.540822	3800.357006
878.851285	3951.248823
879.161707	4173.992206
879.472087	4547.944998
879.782425	5174.499927
880.092722	6357.053796
880.402977	8293.837378
880.713191	10662.426033
881.023363	13052.454715
881.333494	14400.068564
881.643583	14865.636766
881.953631	14459.970075
882.263637	13601.978293
882.573602	12574.134915
882.883526	11610.609098
883.193408	10655.038222
883.503248	9742.357483
883.813048	8909.954598
884.122806	8139.580591
884.432522	7381.776700
884.742197	6716.813220
885.051831	6151.208361
885.361424	5656.608155
885.670975	5259.909676
885.980485	4930.601342
886.289954	4667.755581
886.599382	4450.270122
886.908768	4273.512144
887.218113	4108.648769
887.527417	3974.899396
887.836680	3850.914738
888.145901	3750.928492
888.455082	3676.309333
888.764221	3608.306688
889.073319	3546.557595
889.382376	3514.510980
889.691392	3490.187413
890.000366	3482.053511
890.309300	3476.304075
890.618193	3479.694251
890.927044	3473.629743
891.235855	3482.187102
891.544625	3494.686643
891.853353	3524.366436
892.162041	3582.556475
892.470687	3677.032739
892.779293	3795.104124
893.087858	3964.716265
893.396381	4247.429214
893.704864	4663.178213
894.013306	5234.212394
894.321707	5803.925793
894.630068	6161.673797
894.938387	6198.895156
895.246665	6019.719946
895.554903	5700.362849
895.863100	5364.173341
896.171256	5090.342905
896.479371	4852.594528
896.787446	4629.692349
897.095480	4432.671453
897.403473	4281.409112
897.711425	4137.728665
898.019336	4016.826673
898.327207	3895.208836
898.635038	3789.649595
898.942827	3686.081610
899.250576	3597.727827
899.558284	3513.928727
899.865952	3460.374029
900.173579	3398.413207
900.481165	3351.059128
900.788711	3305.910554
901.096216	3277.314609
901.403681	3251.345105
901.711105	3239.145513
902.018489	3232.385326
902.325832	3266.012342
902.633135	3325.939059
902.940397	3497.587827
903.247619	3898.619177
903.554800	4653.277387
903.861941	5616.614161
904.169041	6326.600186
904.476101	6537.249841
904.783121	6260.240957
905.090100	5857.425039
905.397039	5437.602787
905.703938	5079.915278
906.010796	4759.663377
906.317614	4505.460674
906.624391	4264.528808
906.931129	4066.983633
907.237826	3891.896798
907.544483	3720.605952
907.851099	3546.739077
908.157675	3386.853841
908.464211	3244.980648
908.770707	3145.979949
909.077163	3067.892476
909.383578	3005.727487
909.689954	2964.992443
909.996289	2935.093360
910.302584	2912.705596
910.608839	2898.464336
910.915054	2885.188457
911.221229	2882.186450
911.527363	2886.894888
911.833458	2893.239180
912.139513	2904.753175
912.445527	2919.720361
912.751502	2954.337965
913.057436	2997.114676
913.363331	3054.722461
913.669186	3143.088847
913.975000	3259.937752
914.280775	3443.060186
914.586510	3715.958008
914.892205	4088.259823
915.197859	4585.879681
915.503475	5172.503630
915.809050	5668.961502
916.114585	5959.359690
916.420081	6020.332446
916.725536	5957.050842
917.030952	5718.415221
917.336328	5513.318398
917.641665	5301.632786
917.946961	5074.435544
918.252218	4871.710583
918.557435	4649.436028
918.862612	4447.646201
919.167750	4275.485756
919.472848	4081.998710
919.777906	3918.970315
920.082925	3759.042230
920.387904	3607.424487
920.692843	3495.841067
920.997743	3397.215933
921.302603	3301.328146
921.607423	3235.493197
921.912204	3173.229906
922.216946	3122.581433
922.521647	3071.370872
922.826310	3032.957279
923.130932	2995.506547
923.435516	2953.942234
923.740059	2927.556835
924.044564	2897.277144
924.349028	2873.288814
924.653454	2842.129442
924.957840	2818.645227
925.262186	2796.184366
925.566493	2775.818104
925.870761	2749.699886
926.174989	2739.816704
926.479178	2724.098386
926.783328	2706.885366
927.087438	2698.040662
927.391509	2684.318641
927.695541	2671.325067
927.999533	2660.657986
928.303486	2652.032571
928.607400	2647.772796
928.911275	2642.237609
929.215110	2634.524644
929.518906	2631.832668
929.822663	2632.815693
930.126381	2634.340642
930.430060	2634.517082
930.733699	2634.701084
931.037299	2642.416570
931.340861	2637.430869
931.644383	2641.957825
931.947866	2642.895480
932.251309	2636.931795
932.554714	2639.570839
932.858080	2636.344501
933.161407	2634.852319
933.464694	2629.959879
933.767943	2629.188583
934.071153	2624.470063
934.374323	2619.242386
934.677455	2615.625358
934.980548	2614.808691
935.283602	2609.543206
935.586617	2608.005654
935.889593	2611.257198
936.192530	2611.680655
936.495428	2620.064094
936.798287	2630.320322
937.101108	2641.052938
937.403890	2662.334169
937.706632	2688.845597
938.009336	2724.889847
938.312002	2751.539907
938.614628	2774.399019
938.917216	2793.177317
939.219765	2803.514203
939.522275	2812.391675
939.824747	2813.334371
940.127179	2806.962352
940.429573	2800.146712
940.731929	2799.723256
941.034246	2791.599436
941.336524	2790.180351
941.638763	2782.875719
941.940964	2774.610748
942.243126	2759.641041
942.545250	2749.558734
942.847335	2735.788822
943.149381	2722.228118
943.451389	2708.483412
943.753359	2697.342462
944.055290	2689.158149
944.357182	2678.186077
944.659036	2672.343380
944.960851	2669.999244
945.262628	2662.848367
945.564367	2667.138389
945.866067	2667.133348
946.167729	2666.561177
946.469352	2660.516833
946.770937	2661.472132
947.072484	2656.486431
947.373992	2656.189003
947.675462	2650.212715
947.976893	2646.086530
948.278286	2639.568318
948.579641	2639.371713
948.880958	2634.678399
949.182236	2635.404325
949.483476	2632.833337
949.784678	2631.731845
950.085841	2631.295785
950.386967	2636.410036
950.688054	2642.124183
950.989103	2649.968219
951.290114	2659.737975
951.591087	2669.716939
951.892021	2684.159845
952.192917	2691.827440
952.493776	2702.071064
952.794596	2710.777137
953.095378	2708.105326
953.396122	2706.741693
953.696828	2704.339584
953.997496	2698.300281
954.298126	2690.930114
954.598718	2682.942406
954.899272	2671.408246
955.199788	2658.515495
955.500266	2647.916469
955.800706	2633.271917
956.101108	2615.985801
956.401472	2605.734614
956.701798	2589.645772
957.002087	2576.309399
957.302337	2568.258677
957.602550	2557.513457
957.902724	2544.797147
958.202861	2532.506814
958.502960	2527.586647
958.803022	2519.263702
959.103045	2513.993176
959.403031	2507.590911
959.702979	2502.821979
960.002889	2498.267297
960.302762	2490.541728
960.602596	2488.963847
960.902393	2484.812457
961.202153	2485.019144
961.501875	2479.867085
961.801559	2478.246354
962.101205	2473.255612
962.400814	2474.294090
962.700385	2469.109263
962.999918	2470.273769
963.299414	2467.246557
963.598873	2463.805969
963.898293	2461.590382
964.197677	2464.937708
964.497022	2463.460650
964.796331	2460.773715
965.095601	2458.976544
965.394835	2459.836060
965.694030	2458.900926
965.993189	2457.302881
966.292309	2459.888993
966.591393	2456.566872
966.890439	2460.451081
967.189447	2457.098714
967.488419	2454.648713
967.787353	2461.255145
968.086249	2456.133333
968.385108	2460.836729
968.683930	2459.223560
968.982714	2461.572738
969.281462	2462.923767
969.580172	2463.155660
969.878844	2464.761268
970.177480	2468.491722
970.476078	2470.248564
970.774639	2472.726291
971.073162	2478.596714
971.371649	2476.975983
971.670098	2475.148565
971.968510	2482.783393
972.266885	2476.907928
972.565223	2483.282467
972.863524	2486.218939
973.161788	2486.886892
973.460014	2486.914618
973.758204	2488.779845
974.056356	2486.188692
974.354471	2488.270689
974.652550	2489.359578
974.950591	2491.250011
975.248595	2486.816316
975.546563	2489.120123
975.844493	2487.653147
976.142386	2481.573516
976.440243	2479.095789
976.738062	2479.569657
977.035845	2480.716520
977.333590	2472.842237
977.631299	2471.155971
977.928971	2469.386526
978.226606	2470.803091
978.524204	2468.428707
978.821765	2466.356793
979.119290	2465.676237
979.416777	2465.716566
979.714228	2463.942080
980.011642	2472.738894
980.309020	2473.018678
980.606360	2474.094964
980.903664	2482.637199
981.200931	2495.845022
981.498162	2516.594412
981.795356	2543.567105
982.092513	2582.671336
982.389633	2628.263531
982.686717	2669.366579
982.983764	2699.338759
983.280775	2718.530432
983.577749	2718.800133
983.874686	2710.399051
984.171587	2694.627801
984.468451	2677.308917
984.765279	2660.254693
985.062070	2641.373052
985.358824	2622.680453
985.655543	2600.776640
985.952224	2575.737228
986.248869	2552.926007
986.545478	2524.907274
986.842050	2504.316681
987.138586	2486.614670
987.435086	2474.815849
987.731549	2462.739765
988.027975	2458.916050
988.324366	2451.853393
988.620719	2448.097734
988.917037	2445.052877
989.213318	2444.029522
989.509563	2439.530293
989.805772	2438.290169
990.101944	2433.687595
990.398080	2437.256732
990.694180	2435.353697
990.990244	2435.570466
991.286271	2432.754982
991.582262	2437.856630
991.878217	2434.950404
992.174136	2436.281269
992.470019	2437.050045
992.765865	2440.639347
993.061676	2441.793771
993.357450	2444.619337
993.653188	2446.083793
993.948890	2453.416151
994.244556	2458.825309
994.540186	2465.817389
994.835780	2481.124853
995.131337	2493.906699
995.426859	2509.365397
995.722345	2529.782070
996.017795	2547.554658
996.313208	2560.586041
996.608586	2571.908472
996.903928	2574.557598
997.199234	2570.622978
997.494504	2571.752196
997.789738	2561.863973
998.084936	2556.396842
998.380099	2539.929913
998.675225	2529.396422
998.970316	2516.423012
999.265371	2502.703512
999.560390	2486.178610
999.855373	2479.544451
1000.150320	2470.503142
1000.445232	2460.569548
1000.740108	2454.200050
1001.034948	2446.696293
1001.329752	2443.449790
1001.624521	2437.286979
1001.919254	2432.071906
1002.213951	2429.982347
1002.508613	2426.423293
1002.803239	2428.180135
1003.097829	2422.972623
1003.392384	2424.318611
1003.686903	2423.343148
1003.981386	2421.140163
1004.275834	2419.436253
1004.570246	2423.897675
1004.864623	2417.140008
1005.158964	2420.436923
1005.453270	2416.489699
1005.747540	2416.645975
1006.041775	2416.663619
1006.335974	2417.780234
1006.630138	2417.286201
1006.924266	2416.840059
1007.218359	2415.491551
1007.512416	2417.024061
1007.806438	2415.060532
1008.100425	2414.430388
1008.394376	2415.650347
1008.688292	2416.817374
1008.982172	2412.257650
1009.276017	2413.543145
1009.569827	2413.021385
1009.863602	2414.942065
1010.157341	2413.868299
1010.451045	2413.066756
1010.744714	2408.186919
1011.038347	2414.107754
1011.331945	2412.471899
1011.625508	2412.068607
1011.919036	2411.670356
1012.212528	2410.906621
1012.505986	2410.152969
1012.799408	2411.188926
1013.092795	2407.942423
1013.386147	2411.047773
1013.679464	2412.131622
1013.972745	2410.261353
1014.265992	2411.617424
1014.559204	2410.178174
1014.852380	2409.825294
1015.145521	2409.598442
1015.438628	2411.420819
1015.731699	2409.621127
1016.024736	2408.875036
1016.317737	2411.262023
1016.610703	2412.240006
1016.903635	2411.188926
1017.196531	2408.622978
1017.489393	2408.202042
1017.782219	2406.142731
1018.075011	2414.334606
1018.367768	2412.436611
1018.660490	2414.478279
1018.953177	2414.478279
1019.245829	2414.478279
