Dividing Wavelength (nm)	Counts (n)	Blue Motor Position (mm): 24.000000	Red Motor Position (mm): 0.000000	
326.493990	1975.492081
326.888308	1975.492081
327.282561	1975.492081
327.676750	1947.458225
328.070874	1950.871086
328.464933	1955.602209
328.858929	1966.481019
329.252859	1978.582308
329.646726	1991.122179
330.040528	2007.697492
330.434265	2025.384381
330.827938	2044.044212
331.221547	2066.469785
331.615091	2086.571386
332.008571	2105.543768
332.401986	2128.080246
332.795338	2147.529018
333.188625	2167.572646
333.581847	2186.635769
333.975006	2206.084540
334.368100	2222.990050
334.761129	2240.233317
335.154095	2254.734196
335.546996	2290.339865
335.939833	2357.800586
336.332606	2373.667618
336.725315	2384.629607
337.117960	2394.974054
337.510540	2399.984961
337.903056	2413.805285
338.295508	2416.945923
338.687896	2426.030083
339.080220	2432.628953
339.472480	2438.209510
339.864676	2439.714295
340.256807	2443.772424
340.648875	2443.802671
341.040879	2446.232507
341.432818	2449.713423
341.824694	2447.906170
342.216506	2448.546396
342.608253	2450.028496
342.999937	2446.925665
343.391557	2445.912393
343.783113	2446.479523
344.174605	2444.465582
344.566033	2442.386106
344.957397	2440.747731
345.348697	2436.263625
345.739934	2435.532658
346.131106	2431.754313
346.522215	2433.377564
346.913260	2431.552667
347.304241	2430.776329
347.695159	2427.718869
348.086012	2427.194589
348.476802	2425.004208
348.867528	2421.919022
349.258191	2420.653692
349.648789	2424.779877
350.039324	2420.023548
350.429796	2421.326686
350.820203	2417.182858
351.210548	2416.242683
351.600828	2418.748136
351.991045	2417.991963
352.381198	2415.221849
352.771288	2419.194278
353.161314	2414.911818
353.551276	2413.401992
353.941175	2412.726478
354.331010	2412.396282
354.720782	2419.411048
355.110490	2417.699576
355.500135	2415.602456
355.889717	2416.250244
356.279235	2417.477765
356.668689	2417.477765
357.058080	2418.140677
357.447408	2416.459452
357.836672	2417.104720
358.225873	2417.155131
358.615010	2412.645819
359.004084	2418.238979
359.393095	2420.081521
359.782043	2420.504978
360.170927	2421.641758
360.559748	2425.029414
360.948505	2420.406676
361.337199	2426.274579
361.725830	2422.324835
362.114398	2424.033786
362.502903	2422.319793
362.891344	2424.265679
363.279722	2421.881213
363.668037	2428.563263
364.056289	2423.897675
364.444478	2425.525967
364.832603	2428.958993
365.220665	2427.829775
365.608665	2428.243149
365.996601	2430.506627
366.384474	2431.177101
366.772284	2429.949580
367.160031	2430.589806
367.547715	2429.352203
367.935336	2428.432193
368.322893	2430.728438
368.710388	2428.222985
369.097820	2432.535692
369.485189	2430.655341
369.872495	2434.191711
370.259738	2435.625919
370.646918	2431.088881
371.034035	2431.734148
371.421090	2433.506114
371.808081	2431.156936
372.195010	2432.848243
372.581875	2431.797163
372.968678	2433.773295
373.355418	2434.809252
373.742096	2432.528130
374.128710	2436.707247
374.515262	2436.954263
374.901751	2436.203131
375.288177	2435.777154
375.674540	2433.276741
376.060841	2435.386464
376.447079	2437.685230
376.833254	2437.869232
377.219367	2435.199942
377.605417	2439.908379
377.991404	2433.997626
378.377329	2437.997782
378.763191	2434.786567
379.148991	2440.346960
379.534727	2441.216559
379.920402	2439.215221
380.306013	2442.537341
380.691563	2443.674121
381.077049	2439.742021
381.462474	2440.830910
381.847835	2444.778134
382.233134	2443.845520
382.618371	2442.267639
383.003545	2442.920469
383.388657	2444.117743
383.773706	2443.742177
384.158693	2444.337033
384.543618	2444.899122
384.928480	2441.287135
385.313280	2445.388113
385.698017	2445.367949
386.082692	2445.388113
386.467305	2443.311158
386.851856	2447.056735
387.236344	2445.655295
387.620770	2449.630244
388.005133	2449.902467
388.389435	2445.582198
388.773674	2447.618824
389.157851	2449.504216
389.541965	2451.016562
389.926018	2450.628393
390.310008	2450.706531
390.693936	2450.288115
391.077802	2449.204267
391.461606	2448.652261
391.845348	2448.634617
392.229027	2450.961109
392.612645	2451.558486
392.996200	2450.550255
393.379694	2452.738116
393.763125	2453.300204
394.146494	2454.376491
394.529801	2453.597632
394.913047	2454.709207
395.296230	2454.598302
395.679351	2453.675770
396.062410	2457.323045
396.445408	2453.063270
396.828343	2456.466049
397.211217	2454.033692
397.594028	2456.534105
397.976778	2452.899433
398.359466	2456.382870
398.742092	2448.990018
399.124656	2453.355657
399.507158	2454.933538
399.889598	2457.156687
400.271977	2456.322376
400.654294	2457.665844
401.036549	2459.929322
401.418742	2455.661985
401.800874	2460.206585
402.182944	2459.193313
402.564952	2462.381843
402.946898	2457.081070
403.328783	2460.403190
403.710606	2460.017542
404.092367	2459.636935
404.474067	2461.623149
404.855705	2462.641463
405.237282	2462.616257
405.618797	2462.656586
406.000250	2462.833026
406.381642	2465.126751
406.762972	2464.473922
407.144240	2463.987451
407.525447	2465.908130
407.906593	2464.189097
408.287677	2464.766309
408.668700	2464.899899
409.049661	2463.495938
409.430560	2466.460137
409.811399	2465.895527
410.192176	2466.445013
410.572891	2466.651700
410.953545	2469.424335
411.334138	2467.387709
411.714669	2468.587503
412.095139	2470.125055
412.475547	2469.520117
412.855894	2468.103553
413.236180	2467.884263
413.616405	2470.508183
413.996568	2470.104891
414.376670	2469.389047
414.756711	2469.263018
415.136691	2469.215127
415.516609	2470.699747
415.896466	2471.476085
416.276262	2472.975828
416.655997	2469.497432
417.035670	2470.654377
417.415283	2473.106898
417.794834	2467.639767
418.174324	2475.546816
418.553753	2474.339460
418.933121	2475.564460
419.312428	2473.321147
419.691674	2475.498925
420.070859	2474.964563
420.449983	2477.621251
420.829045	2474.173102
421.208047	2478.281642
421.586988	2476.963381
421.965867	2479.133597
422.344686	2477.822897
422.723444	2478.707620
423.102141	2477.636375
423.480777	2480.930769
423.859352	2478.135449
424.237866	2482.924545
424.616319	2479.914976
424.994712	2480.840028
425.373044	2480.035964
425.751314	2482.894298
426.129524	2482.125522
426.507673	2480.598053
426.885762	2485.125009
427.263789	2483.388331
427.641756	2483.164000
428.019662	2486.271871
428.397508	2485.046871
428.775292	2485.036788
429.153016	2484.305821
429.530679	2485.223311
429.908282	2488.134577
430.285824	2487.501913
430.663305	2486.972592
431.040726	2486.705410
431.418086	2488.575678
431.795385	2491.255052
432.172624	2489.732623
432.549802	2491.529795
432.926920	2489.052068
433.303977	2489.843529
433.680974	2491.807058
434.057910	2491.388642
434.434786	2492.366626
434.811601	2497.082626
435.188355	2492.243118
435.565050	2493.483242
435.941683	2491.988540
436.318257	2492.197747
436.694770	2489.649444
437.071222	2492.999291
437.447614	2493.067347
437.823946	2493.601709
438.200218	2497.334683
438.576429	2498.345435
438.952580	2497.327122
439.328670	2496.800321
439.704700	2498.819303
440.080670	2497.793428
440.456580	2501.528923
440.832429	2501.309633
441.208218	2500.966835
441.583947	2502.464057
441.959616	2501.435662
442.335224	2502.930364
442.710773	2505.324912
443.086261	2507.195180
443.461689	2505.173678
443.837057	2506.504542
444.212365	2509.120901
444.587612	2510.923113
444.962800	2511.575943
445.337927	2510.945799
445.712995	2510.870181
446.088002	2512.213649
446.462949	2513.690707
446.837837	2517.824453
447.212664	2517.189268
447.587431	2526.238139
447.962139	2529.620753
448.336786	2539.130890
448.711374	2537.817669
449.085901	2530.417255
449.460369	2529.285516
449.834776	2529.749302
450.209124	2539.939995
450.583412	2538.717515
450.957640	2540.224820
451.331808	2544.066179
451.705917	2537.202648
452.079965	2541.633823
452.453954	2540.887732
452.827883	2544.615665
453.201752	2546.463248
453.575562	2547.133722
453.949311	2554.032541
454.323001	2556.492624
454.696632	2556.527912
455.070202	2566.655590
455.443713	2568.840930
455.817164	2572.062227
456.190556	2575.459965
456.563888	2581.128742
456.937160	2582.356263
457.310373	2585.653178
457.683526	2591.752974
458.056619	2596.312698
458.429653	2600.927874
458.802628	2607.002465
459.175542	2617.598970
459.548398	2629.342338
459.921194	2647.233393
460.293930	2662.326608
460.666607	2684.865606
461.039224	2705.942671
461.411782	2720.730895
461.784280	2724.274827
462.156719	2730.349417
462.529099	2737.616240
462.901419	2737.197824
463.273680	2747.892632
463.645882	2760.795466
464.018024	2778.782302
464.390106	2807.476550
464.762130	2860.554859
465.134094	2947.441666
465.505999	3059.551887
465.877845	3161.259686
466.249631	3201.755275
466.621358	3202.700491
466.993026	3200.653783
467.364634	3203.872559
467.736184	3208.399516
468.107674	3228.065057
468.479105	3252.489447
468.850477	3284.861217
469.221790	3296.234060
469.593043	3301.948208
469.964238	3329.120027
470.335373	3374.157695
470.706449	3477.410608
471.077467	3623.669605
471.448425	3846.617154
471.819324	4009.330477
472.190164	4015.349615
472.560945	3955.387610
472.931667	3913.256167
473.302330	3942.688944
473.672934	3983.456755
474.043479	4078.490067
474.413965	4120.515646
474.784393	4182.756252
475.154761	4309.432886
475.525070	4395.326586
475.895321	4464.463490
476.265513	4582.406326
476.635645	4738.674533
477.005719	4828.172658
477.375734	4962.030416
477.745691	5112.723107
478.115588	5325.326209
478.485427	5606.602429
478.855207	6026.709505
479.224928	6414.343989
479.594591	6710.821809
479.964194	6752.179435
480.333739	6899.552526
480.703226	7069.212559
481.072653	7320.924932
481.442022	7568.211173
481.811333	7782.382073
482.180584	7809.558933
482.549777	7924.955986
482.918912	8047.710603
483.287988	8203.280611
483.657005	8275.848020
484.025964	8379.670584
484.394864	8564.355775
484.763706	8693.167338
485.132489	8765.961600
485.501213	8935.964431
485.869879	9166.597220
486.238487	9311.853027
486.607036	9550.027381
486.975527	9675.552112
487.343959	9924.209546
487.712333	10168.526547
488.080648	10374.117403
488.448905	10685.695999
488.817104	10893.822556
489.185244	11338.439722
489.553326	11987.672282
489.921350	12949.537039
490.289315	13995.079908
490.657222	14485.052336
491.025070	14877.143200
491.392861	14917.482513
491.760593	14847.995248
492.128267	14664.892979
492.495883	14518.369322
492.863440	14430.991002
493.230939	14335.743441
493.598380	14305.867043
493.965763	14493.397966
494.333088	14541.868660
494.700354	14675.066027
495.067563	14878.158992
495.434713	15112.272697
495.801805	15436.527275
496.168839	15596.939311
496.535815	15770.352482
496.902733	16073.230047
497.269593	16216.171964
497.636395	16481.989486
498.003139	16924.451559
498.369825	17014.047986
498.736453	17440.595136
499.103023	17548.372485
499.469535	17809.758833
499.835989	18154.672058
500.202385	18309.972364
500.568723	18614.773128
500.935003	19003.289814
501.301226	19228.742817
501.667390	19800.772626
502.033497	20235.320088
502.399546	20264.064747
502.765537	20239.133721
503.131470	20733.897765
503.497345	21208.817307
503.863163	20836.691933
504.228923	21427.089186
504.594625	21954.509825
504.960269	21885.287221
505.325856	22538.865256
505.691385	22500.491993
506.056856	22862.628320
506.422270	23411.529316
506.787625	23458.192756
507.152924	23861.205280
507.518164	24216.523447
507.883347	24045.514906
508.248472	24468.724812
508.613540	25054.204420
508.978550	25515.059143
509.343503	25646.572764
509.708398	26061.910909
510.073236	26690.028596
510.438016	26960.952807
510.802738	26894.185244
511.167403	27564.724241
511.532010	28014.135545
511.896561	28488.004006
512.261053	29345.118627
512.625488	29303.314859
512.989866	29471.674274
513.354186	29627.203952
513.718449	29870.096827
514.082655	30615.927977
514.446803	30646.530301
514.810894	31275.068924
515.174927	31459.078602
515.538904	31651.995998
515.902822	32392.057547
516.266684	32212.902501
516.630488	32765.728034
516.994235	32889.800913
517.357925	33538.178997
517.721558	33928.719706
518.085133	34394.318155
518.448651	34723.598762
518.812112	34751.945170
519.175516	35051.863577
519.538863	35525.333788
519.902152	35709.066201
520.265385	36288.635056
520.628560	36510.390373
520.991678	36548.652730
521.354739	36914.713596
521.717743	37367.452062
522.080690	37475.042888
522.443580	38120.625652
522.806413	38365.850060
523.169189	38491.178186
523.531908	38808.201228
523.894569	38859.436995
524.257174	39156.229887
524.619722	39598.243297
524.982213	39747.048076
525.344647	39830.673257
525.707025	40010.536585
526.069345	40528.835256
526.431608	40585.959091
526.793815	41000.394869
527.155964	40726.108209
527.518057	41013.249811
527.880093	40944.117948
528.242072	41550.178066
528.603995	41391.820300
528.965860	41523.351566
529.327669	41717.441030
529.689421	41729.935530
530.051117	41815.546925
530.412755	42057.965931
530.774337	42198.730070
531.135862	42144.041113
531.497331	42425.148454
531.858743	42433.799074
532.220098	42845.081611
532.581396	42665.606451
532.942638	42421.228957
533.303824	42778.225828
533.664953	42835.815970
534.026025	42656.242508
534.387040	43177.916232
534.747999	43196.747462
535.108902	43416.365329
535.469748	43037.114284
535.830537	43199.368862
536.191270	43464.836023
536.551947	43178.889174
536.912567	43530.746589
537.273131	43697.843195
537.633638	43273.763690
537.994089	43654.370805
538.354483	43322.930063
538.714821	43911.643571
539.075103	44296.898630
539.435328	44134.298733
539.795497	44062.149740
540.155609	44084.741671
540.515665	44589.857724
540.875665	44081.253192
541.235609	44440.241319
541.595496	44447.470334
541.955328	45135.638245
542.315102	44552.202826
542.674821	44387.757867
543.034483	44454.122136
543.394090	44442.950939
543.753640	44435.643787
544.113134	45444.091326
544.472571	44517.459193
544.831953	45727.376446
545.191278	44995.378222
545.550548	44754.421150
545.909761	45220.022120
546.268918	45427.841166
546.628019	45746.749600
546.987064	45357.658223
547.346053	44661.069063
547.704986	45527.328337
548.063863	45121.296163
548.422684	45338.247260
548.781449	45206.852105
549.140158	45602.043279
549.498811	45467.628473
549.857408	44933.445126
550.215949	45765.472445
550.574434	45703.433485
550.932864	45504.073495
551.291237	46212.337966
551.649555	45823.977556
552.007817	46072.771101
552.366022	45753.023316
552.724173	45931.901098
553.082267	46326.061356
553.440305	46634.617780
553.798288	45963.922507
554.156215	46289.843186
554.514086	46490.082858
554.871902	46240.424755
555.229661	46268.398117
555.587365	46108.742255
555.945014	46210.369396
556.302606	46140.229302
556.660143	46365.105092
557.017625	46457.335523
557.375050	46268.758560
557.732421	46620.081613
558.089735	46614.823689
558.446994	46521.658125
558.804197	46983.427817
559.161345	46927.987728
559.518437	46206.066771
559.875474	46504.210692
560.232455	46677.626384
560.589381	46866.102523
560.946251	46556.232879
561.303065	47226.545023
561.659825	47029.524128
562.016528	46732.809374
562.373177	46468.373129
562.729770	46945.921633
563.086307	46458.346274
563.442789	46907.470232
563.799216	46974.288205
564.155587	46773.017618
564.511904	46789.182077
564.868164	46896.604025
565.224370	47123.949981
565.580520	46882.211530
565.936615	47083.285513
566.292654	46811.443813
566.648638	47057.265598
567.004567	47022.600103
567.360441	47042.061478
567.716260	46897.723161
568.072023	47212.606233
568.427732	47207.333186
568.783385	46757.843744
569.138982	47133.369377
569.494525	47114.258362
569.850013	46887.187149
570.205445	46862.548510
570.560823	46820.870770
570.916145	46690.791357
571.271412	46735.944972
571.626625	46484.056158
571.981782	46541.658903
572.336884	46232.263127
572.691931	46554.108032
573.046923	46157.901066
573.401860	46006.487490
573.756743	45990.060890
574.111570	46112.084540
574.466342	45957.053935
574.821059	46090.059738
575.175722	45619.412574
575.530330	45634.087373
575.884882	45360.922370
576.239380	45333.949676
576.593823	45297.880220
576.948211	45206.073247
577.302544	44753.785965
577.656823	44798.150639
578.011047	45004.411970
578.365216	44745.954532
578.719330	44539.625147
579.073389	44391.548814
579.427394	44481.362011
579.781344	44451.442763
580.135239	44119.760046
580.489080	44187.518195
580.842866	43689.225343
581.196597	44140.138910
581.550273	44084.298049
581.903895	43946.553561
582.257463	44365.123086
582.610975	43757.419551
582.964434	44034.070513
583.317837	43706.970204
583.671186	43535.843196
584.024481	43770.723156
584.377721	43304.577743
584.730906	43581.490844
585.084037	43612.541831
585.437113	43334.086137
585.790135	43363.450858
586.143103	42959.183087
586.496016	43101.472175
586.848874	43128.472595
587.201679	43147.414730
587.554428	42623.356541
587.907124	42811.701610
588.259765	42579.732916
588.612352	42846.591436
588.964884	42234.804567
589.317362	42528.386244
589.669786	42463.037766
590.022155	42239.155083
590.374470	42657.427179
590.726731	42195.433156
591.078937	41724.521331
591.431090	41810.924187
591.783188	41478.076963
592.135232	41159.047542
592.487222	41399.901270
592.839157	41487.365289
593.191038	41173.863493
593.542866	40938.287853
593.894639	40342.025218
594.246358	40618.855140
594.598022	40590.624678
594.949633	40227.117157
595.301190	40185.333553
595.652692	40021.548985
596.004141	40349.448317
596.355535	39383.099454
596.706876	39331.699849
597.058162	39162.801031
597.409395	39635.938525
597.760573	39702.625428
598.111698	39263.089745
598.462768	39296.348758
598.813785	39333.272689
599.164748	38800.437851
599.515657	39209.620747
599.866511	38687.102630
600.217312	39275.753124
600.568060	38268.853219
600.918753	39008.977783
601.269392	38970.675096
601.619978	38628.118610
601.970510	38832.746606
602.320988	39019.291983
602.671412	39312.903907
603.021783	39057.778672
603.372100	38722.761232
603.722363	38829.500103
604.072572	38901.122296
604.422728	38925.816388
604.772830	38735.036442
605.122878	38838.717853
605.472872	38781.115108
605.822813	39052.477899
606.172701	38884.559585
606.522534	39104.616033
606.872314	39374.370696
607.222041	39147.649843
607.571714	39526.800065
607.921333	38970.559149
608.270899	39269.431517
608.620411	39600.741189
608.969870	39410.528372
609.319276	39390.383921
609.668627	39459.377152
610.017926	39941.031676
610.367171	40096.102610
610.716362	40187.851610
611.065500	40138.972582
611.414585	40319.403040
611.763616	40625.698506
612.112594	40540.911340
612.461518	40778.455550
612.810389	41046.738196
613.159207	40914.458319
613.507971	40997.864210
613.856682	41480.814310
614.205340	41352.015350
614.553945	42038.852397
614.902496	41513.788497
615.250994	41963.998824
615.599439	42042.734085
615.947830	42262.833382
616.296169	42316.229284
616.644454	42423.429421
616.992686	42611.895478
617.340864	43126.435968
617.688990	42854.155688
618.037063	43452.762460
618.385082	43413.421295
618.733048	43704.051376
619.080961	43729.284872
619.428821	43730.182197
619.776628	43837.886449
620.124382	43653.176052
620.472083	43802.432014
620.819731	43927.911374
621.167326	43587.174745
621.514868	43587.865383
621.862357	43138.983400
622.209793	43179.695759
622.557176	42847.836601
622.904506	42593.598610
623.251783	42250.999274
623.599007	42036.079762
623.946179	41821.850888
624.293297	41768.633947
624.640363	41186.073168
624.987376	41182.287261
625.334336	40942.567793
625.681243	40596.021234
626.028097	40567.740361
626.374899	40407.986195
626.721647	40397.735009
627.068343	40282.831989
627.414987	40047.538654
627.761577	39832.447743
628.108115	40165.161376
628.454600	39608.048341
628.801032	39813.286317
629.147412	39788.597266
629.493739	39792.355446
629.840014	39441.506262
630.186236	39767.038772
630.532405	39409.242878
630.878521	39623.438984
631.224585	39488.673818
631.570597	39218.404958
631.916556	39377.050069
632.262462	39329.355713
632.608316	39340.990696
632.954117	39221.354033
633.299866	39218.225997
633.645562	39135.183069
633.991206	38652.323710
634.336797	38226.542815
634.682336	38216.929334
635.027823	37964.344842
635.373257	37804.643608
635.718639	37563.512617
636.063968	37430.161495
636.409245	36865.222068
636.754470	36917.150994
637.099642	36664.269073
637.444762	36208.057253
637.789829	36349.736361
638.134845	35996.943812
638.479808	35959.727494
638.824719	35853.258325
639.169577	35471.862269
639.514383	35530.301845
639.859137	35252.443527
640.203839	35479.333259
640.548489	35128.232017
640.893086	35194.510587
641.237632	34956.437056
641.582125	35050.184873
641.926566	34984.874204
642.270955	34963.766893
642.615292	34981.562166
642.959576	34948.338442
643.303809	34944.252587
643.647990	35105.836691
643.992118	35067.720527
644.336195	35069.356381
644.680219	35164.916493
645.024192	35467.184078
645.368112	35968.978011
645.711981	35985.991906
646.055797	36856.473146
646.399562	36786.045706
646.743274	37708.662560
647.086935	38149.995414
647.430544	38047.992707
647.774101	38163.697270
648.117606	38404.571163
648.461059	38695.055050
648.804460	38320.893050
649.147810	37707.397230
649.491108	37474.057342
649.834354	37114.315562
650.177548	36289.055993
650.520690	35845.056368
650.863781	35863.277618
651.206820	35712.158949
651.549807	35267.824087
651.892742	34811.287113
652.235626	34603.006801
652.578458	34474.487624
652.921238	33881.335381
653.263967	34197.445974
653.606644	33889.733943
653.949269	33840.733928
654.291843	33453.255719
654.634365	33853.543499
654.976836	33454.528611
655.319255	33447.556695
655.661622	33459.410968
656.003938	33225.176275
656.346203	33093.987808
656.688416	33308.892197
657.030577	33124.862355
657.372687	32943.968111
657.714746	33207.161712
658.056753	33335.998481
658.398708	32792.085707
658.740612	32830.658096
659.082465	33118.475213
659.424266	32949.291569
659.766016	33066.039651
660.107715	32952.031437
660.449362	33075.075920
660.790958	33058.924063
661.132503	33086.020265
661.473996	33110.338791
661.815438	33224.843559
662.156829	33402.463574
662.498168	33193.938766
662.839456	33221.897005
663.180693	33364.024776
663.521879	33526.748181
663.863013	33483.391737
664.204097	33470.065447
664.545129	33941.493990
664.886110	33908.136675
665.227040	33969.784945
665.567918	34089.903039
665.908746	34137.693177
666.249522	34317.312009
666.590248	34308.225329
666.930922	34417.381434
667.271545	34378.965321
667.612118	34459.195284
667.952639	34270.220071
668.293109	34327.669060
668.633528	34208.387798
668.973896	34123.676249
669.314213	34177.147768
669.654480	33917.871143
669.994695	33931.540232
670.334859	33818.779702
670.674973	33730.264603
671.015035	33898.979419
671.355047	33844.552602
671.695008	33791.958243
672.034918	33690.666339
672.374777	33771.745737
672.714585	33602.143678
673.054342	33845.800287
673.394049	33601.732824
673.733705	33872.031931
674.073310	33537.248904
674.412864	33610.592652
674.752368	33212.608679
675.091820	33516.638147
675.431223	33090.774073
675.770574	32815.000272
676.109875	32692.255738
676.449125	32409.867943
676.788324	32321.430981
677.127473	31797.163584
677.466571	31720.001163
677.805619	31380.303011
678.144616	31376.267567
678.483562	31295.286472
678.822458	30967.941668
679.161303	30904.254250
679.500098	30810.118264
679.838842	30700.896625
680.177535	30851.937156
680.516179	31133.044497
680.854771	31376.323020
681.193314	32232.134503
681.531805	33354.499516
681.870247	34131.346364
682.208638	34870.366915
682.546978	35084.628557
682.885268	35169.473697
683.223508	34640.054240
683.561697	34309.062161
683.899836	34113.097387
684.237925	33608.399750
684.575963	33464.086638
684.913951	33005.507997
685.251889	33160.795700
685.589776	33151.882940
685.927614	33146.385561
686.265401	33282.332878
686.603137	33384.174268
686.940824	33888.992893
687.278460	34268.866521
687.616046	34408.733334
687.953582	35025.377355
688.291068	34881.515427
688.628504	35168.626783
688.965889	35093.306903
689.303224	34705.014549
689.640510	34365.298753
689.977745	33632.037720
690.314930	32826.055523
690.652065	32321.441064
690.989150	31562.482749
691.326185	30667.191470
691.663170	29961.581166
692.000105	29196.051708
692.336990	28530.518577
692.673825	28085.099867
693.010610	27560.618221
693.347345	26980.091547
693.684030	26334.685223
694.020665	26053.650978
694.357251	25397.938015
694.693786	25355.446130
695.030272	25100.071358
695.366707	24564.834410
695.703093	24291.694612
696.039429	24261.959367
696.375716	24014.831923
696.711952	23970.363905
697.048139	23828.203366
697.384276	23653.870184
697.720363	23769.897381
698.056400	23572.110230
698.392388	23346.763092
698.728326	23313.778822
699.064214	23100.094393
699.400053	23033.336913
699.735842	22685.051155
700.071581	22411.969331
700.407270	22125.243624
700.742910	21927.637955
701.078501	21662.120382
701.414042	21393.573075
701.749533	21081.008934
702.084974	20743.460834
702.420366	20934.873445
702.755709	20498.599389
703.091002	20213.078517
703.426246	20230.316743
703.761440	20125.538881
704.096584	19858.352686
704.431679	19813.136056
704.766725	19725.349403
705.101721	19662.319857
705.436668	19753.683208
705.771565	19431.203117
706.106413	19775.922258
706.441212	19748.848742
706.775961	19889.668333
707.110661	19965.595672
707.445311	20306.475974
707.779913	20151.528549
708.114465	20390.630476
708.448967	20687.657781
708.783421	21371.066844
709.117825	21646.626395
709.452180	21868.096887
709.786485	22262.214294
710.120742	23060.475965
710.454949	23082.770468
710.789107	23548.913361
711.123216	24245.379012
711.457275	24381.424630
711.791286	24913.185703
712.125247	24981.531146
712.459159	24678.114178
712.793023	25337.285373
713.126837	24233.925510
713.460602	24474.363343
713.794318	24090.056020
714.127985	23704.591753
714.461602	22822.644408
714.795171	22763.249534
715.128691	21758.071183
715.462162	21222.390614
715.795584	20809.076492
716.128957	20544.776358
716.462281	20134.633122
716.795556	19899.175949
717.128782	19403.040711
717.461960	18857.844964
717.795088	18786.900806
718.128167	18384.004229
718.461198	17919.280420
718.794180	17780.696581
719.127113	17411.288388
719.459997	17223.971714
719.792833	16878.632511
720.125619	16847.352152
720.458357	16536.166766
720.791046	16359.307966
721.123686	16192.980136
721.456278	15967.328007
721.788821	15919.263126
722.121315	15665.365412
722.453761	15735.795373
722.786158	15661.196378
723.118506	15667.961607
723.450805	15530.035637
723.783056	15695.771132
724.115259	15595.104331
724.447412	15521.868968
724.779518	15776.482525
725.111574	15792.180678
725.443582	15986.988507
725.775542	15973.967207
726.107453	16432.235818
726.439315	16314.928168
726.771129	16724.584932
727.102895	17088.689830
727.434612	17295.278836
727.766281	17411.807627
728.097901	17672.848656
728.429473	17707.309983
728.760996	17686.232919
729.092471	17779.612732
729.423897	17646.168349
729.755276	17518.148247
730.086606	17634.808109
730.417887	18150.331625
730.749120	18670.472837
731.080305	18835.613476
731.411442	19163.122118
731.742530	19239.629189
732.073570	19339.441514
732.404562	19630.043869
732.735506	19437.451628
733.066401	19155.666251
733.397249	18638.451428
733.728048	18004.710334
734.058798	17160.995100
734.389501	16495.910632
734.720156	16028.204981
735.050762	15503.204096
735.381320	15160.524102
735.711831	14913.691565
736.042293	14566.494697
736.372707	14570.298248
736.703073	14372.019584
737.033391	14550.894846
737.363661	14521.242779
737.693883	14631.830571
738.024056	14786.417554
738.354182	14986.248892
738.684260	15260.613691
739.014290	15482.316075
739.344272	15669.373130
739.674207	15949.550378
740.004093	16058.109106
740.333931	16050.444031
740.663722	16093.099754
740.993464	16078.326653
741.323159	15905.044551
741.652806	15636.797193
741.982405	15422.391879
742.311956	15077.579477
742.641460	14959.422392
742.970915	14662.286702
743.300323	14320.342716
743.629683	14110.585346
743.958996	13833.188294
744.288260	13564.693919
744.617477	13271.018982
744.946647	13194.524513
745.275768	12926.672886
745.604842	12732.714492
745.933869	12571.916807
746.262847	12517.479907
746.591778	12446.737396
746.920662	12347.890451
747.249498	12348.933970
747.578286	12460.214920
747.907027	12602.670366
748.235720	12824.304695
748.564365	12851.113551
748.892963	12758.487391
749.221514	12811.643837
749.550017	12676.818178
749.878473	12637.008186
750.206881	12404.106878
750.535242	12321.376502
750.863555	12231.611196
751.191821	12134.561423
751.520039	12152.669248
751.848210	12066.311762
752.176334	12091.509969
752.504411	11994.818118
752.832440	11848.778412
753.160421	11908.274109
753.488356	11786.386571
753.816243	11688.356293
754.144082	11550.934439
754.471875	11492.172230
754.799620	11440.150043
755.127318	11411.165928
755.454969	11372.197809
755.782572	11323.669142
756.110129	11327.361787
756.437638	11253.042576
756.765100	11249.014694
757.092515	11240.485062
757.419882	11266.066397
757.747203	11266.888105
758.074477	11336.604742
758.401703	11299.675770
758.728882	11457.262239
759.056014	11503.116575
759.383099	11621.951694
759.710138	11715.896117
760.037129	11797.598097
760.364073	11813.374388
760.690970	11801.709158
761.017820	11792.723301
761.344623	11980.723052
761.671379	12299.671814
761.998088	12919.937904
762.324751	14471.088340
762.651366	17307.072615
762.977935	20957.220880
763.304456	23170.363036
763.630931	23646.759636
763.957359	22467.404379
764.283740	20557.555683
764.610074	18703.136994
764.936362	16580.992706
765.262602	15078.282718
765.588796	13607.147997
765.914943	12586.379878
766.241044	11743.365364
766.567097	11102.319638
766.893104	10560.317462
767.219064	10205.793276
767.544978	9824.790430
767.870845	9514.499849
768.196665	9327.752826
768.522438	9131.225964
768.848165	8969.813259
769.173846	8801.403432
769.499479	8682.470010
769.825066	8523.368674
770.150607	8341.642640
770.476101	8283.621479
770.801548	8175.372783
771.126949	8033.189559
771.452303	7944.356867
771.777611	7784.469111
772.102872	7761.509176
772.428087	7646.313769
772.753256	7519.140581
773.078378	7430.849813
773.403453	7289.873945
773.728482	7184.758326
774.053465	7124.443441
774.378401	7038.000255
774.703291	6945.278312
775.028135	6848.523447
775.352932	6814.220915
775.677683	6730.936013
776.002388	6643.383773
776.327046	6640.190202
776.651658	6554.561163
776.976224	6479.173228
777.300743	6465.534386
777.625216	6396.904117
777.949643	6356.315267
778.274024	6360.917841
778.598359	6293.416791
778.922647	6298.042049
779.246889	6259.930926
779.571086	6264.238592
779.895236	6269.796464
780.219339	6268.992400
780.543397	6267.827894
780.867409	6314.592157
781.191374	6314.887065
781.515294	6282.590913
781.839167	6325.831410
782.162995	6300.885260
782.486776	6253.105204
782.810511	6215.271344
783.134201	6139.883409
783.457844	6124.134845
783.781441	6080.322177
784.104993	6037.850455
784.428498	6002.123798
784.751958	5984.469677
785.075372	5963.453107
785.398739	5924.553043
785.722061	5950.167146
786.045337	5950.237722
786.368568	6061.697634
786.691752	6079.228246
787.014891	6325.972562
787.337983	6603.581343
787.661030	7041.060235
787.984031	7455.659851
788.306987	7723.440902
788.629897	7810.670508
788.952760	7721.386632
789.275579	7545.823408
789.598351	7246.915753
789.921078	6987.107286
790.243759	6707.902981
790.566395	6506.453432
790.888984	6311.290202
791.211529	6177.107289
791.534027	6008.989850
791.856480	5878.111413
792.178888	5815.071785
792.501249	5752.735397
792.823566	5645.016021
793.145836	5642.601309
793.468062	5622.444255
793.790241	5584.254994
794.112375	5627.739987
794.434464	5723.206838
794.756507	5751.281024
795.078505	5872.419951
795.400457	6081.595068
795.722364	6325.193704
796.044226	6522.358272
796.366042	6669.625499
796.687812	6619.067768
797.009538	6649.246635
797.331218	6560.643315
797.652852	6487.846533
797.974442	6364.965887
798.295986	6299.211597
798.617484	6169.033881
798.938938	6058.975411
799.260346	5991.542416
799.581709	5855.847157
799.903026	5806.675743
800.224299	5733.533642
800.545526	5613.347493
800.866708	5545.264190
801.187845	5506.165000
801.508936	5427.880922
801.829983	5399.244648
802.150984	5294.378566
802.471940	5270.463332
802.792851	5252.965487
803.113717	5226.811981
803.434538	5205.974371
803.755314	5168.090100
804.076045	5164.150438
804.396731	5121.043532
804.717372	5139.340400
805.037967	5143.297705
805.358518	5171.450029
805.679024	5229.516560
805.999485	5238.260441
806.319901	5260.345736
806.640272	5275.819558
806.960598	5318.578625
807.280879	5313.595444
807.601115	5352.465261
807.921306	5311.503365
808.241453	5303.442560
808.561554	5318.066948
808.881611	5281.604282
809.201623	5279.436586
809.521590	5236.112909
809.841513	5216.051638
810.161390	5231.104523
810.481223	5145.074712
810.801011	5127.445797
811.120755	5110.222695
811.440453	5051.304209
811.760107	5020.374210
812.079716	4994.747504
812.399281	4943.592396
812.718801	4943.158857
813.038276	4909.521757
813.357707	4877.517992
813.677093	4893.412750
813.996434	4833.163400
814.315731	4854.832800
814.634983	4851.450186
814.954191	4856.856823
815.273354	4913.779012
815.592473	4950.924754
815.911547	5029.649933
816.230577	5086.136062
816.549562	5170.323331
816.868502	5218.826793
817.187399	5272.610863
817.506250	5350.862174
817.825058	5376.589702
818.143821	5528.063773
818.462539	5697.189443
818.781213	5922.551705
819.099843	6282.031345
819.418429	6903.746766
819.736970	7520.952876
820.055466	8216.874082
820.373919	9125.068194
820.692327	10560.506505
821.010691	13215.924211
821.329011	19362.517396
821.647286	28829.355657
821.965517	39078.838093
822.283704	44521.202250
822.601847	46012.403284
822.919945	41461.511732
823.237999	36385.208440
823.556010	31235.006875
823.873976	26574.414774
824.191897	22408.753075
824.509775	19363.591162
824.827609	16611.655524
825.145398	15067.739144
825.463144	14326.576103
825.780845	14607.544813
826.098502	15848.150089
826.416116	18273.227394
826.733685	20536.100532
827.051210	21068.199362
827.368692	19663.436472
827.686129	17122.485726
828.003522	14668.522610
828.320872	12469.122639
828.638177	10843.315236
828.955439	9608.827400
829.272656	8557.358654
829.589830	7719.637352
829.906960	6998.822928
830.224046	6469.055632
830.541088	6062.577315
830.858086	5805.508716
831.175041	5610.458912
831.491952	5550.146547
831.808819	5586.901600
832.125642	5824.065203
832.442421	6365.258274
832.759157	7455.548946
833.075849	9202.762457
833.392497	11046.738396
833.709101	12152.041624
834.025662	11900.525856
834.342179	10867.588392
834.658653	9571.283406
834.975083	8469.014953
835.291469	7574.749549
835.607811	6848.886410
835.924110	6329.365259
836.240366	5851.544533
836.556578	5401.024175
836.872746	5049.746493
837.188871	4777.688023
837.504952	4562.055187
837.820990	4395.631576
838.136984	4281.252836
838.452935	4235.161566
838.768842	4264.385135
839.084706	4541.406621
839.400526	5272.908291
839.716303	6168.731412
840.032037	6727.792853
840.347727	6583.557880
840.663373	5993.561398
840.978977	5419.502525
841.294537	4987.337008
841.610054	4656.130680
841.925527	4418.241151
842.240957	4215.919482
842.556344	4036.726627
842.871687	3876.402812
843.186987	3728.586099
843.502244	3612.816001
843.817458	3526.773587
844.132629	3454.717854
844.447756	3411.399219
844.762840	3361.592619
845.077881	3321.936383
845.392879	3291.460087
845.707833	3264.857918
846.022745	3239.137951
846.337613	3226.842577
846.652438	3204.293496
846.967221	3193.795293
847.281960	3175.130421
847.596656	3164.796055
847.911309	3156.024448
848.225919	3142.962818
848.540485	3129.208030
848.855009	3126.001856
849.169490	3111.838734
849.483928	3107.077364
849.798323	3100.894389
850.112675	3092.389963
850.426984	3092.490786
850.741251	3084.631627
851.055474	3079.713981
851.369654	3083.767069
851.683792	3079.184660
851.997887	3086.065835
852.311938	3085.821339
852.625947	3084.087182
852.939914	3075.484453
853.253837	3083.840166
853.567718	3078.718353
853.881555	3074.808939
854.195350	3079.751790
854.509103	3076.167530
854.822812	3074.430852
855.136479	3068.333577
855.450103	3074.929926
855.763685	3065.155129
856.077224	3070.718042
856.390720	3076.863209
856.704173	3088.551124
857.017584	3091.517843
857.330953	3095.946497
857.644278	3105.698609
857.957561	3107.490739
858.270802	3105.171808
858.584000	3103.437651
858.897155	3098.756940
859.210268	3089.861824
859.523339	3077.243816
859.836367	3074.362797
860.149352	3070.334915
860.462295	3065.863411
860.775195	3057.797565
861.088054	3050.951678
861.400869	3052.892522
861.713642	3046.984290
862.026373	3060.449212
862.339062	3065.220664
862.651708	3073.868763
862.964312	3086.506936
863.276873	3097.206785
863.589392	3127.834315
863.901869	3152.823315
864.214303	3174.144875
864.526696	3192.655992
864.839045	3208.676779
865.151353	3218.393603
865.463619	3223.028944
865.775842	3225.796537
866.088023	3226.983729
866.400162	3219.401834
866.712258	3222.794530
867.024313	3218.965774
867.336325	3221.360322
867.648296	3221.932493
867.960224	3218.020558
868.272110	3223.449880
868.583954	3224.100189
868.895755	3231.082187
869.207515	3225.988101
869.519233	3244.572315
869.830909	3248.529621
870.142542	3262.120572
870.454134	3267.156684
870.765684	3279.688993
871.077191	3296.763381
871.388657	3310.225782
871.700081	3328.409224
872.011463	3348.432687
872.322803	3368.171325
872.634101	3382.689848
872.945357	3405.642222
873.256571	3429.958227
873.567744	3449.054118
873.878874	3453.349181
874.189963	3467.363589
874.501010	3471.187304
874.812015	3468.669248
875.122979	3482.749190
875.433900	3481.965291
875.744780	3483.931341
876.055618	3487.432422
876.366415	3489.375787
876.677169	3497.839884
876.987882	3513.293541
877.298554	3528.353988
877.609183	3569.343610
877.919771	3612.853809
878.230317	3684.980118
878.540822	3786.665232
878.851285	3931.421965
879.161707	4152.027898
879.472087	4520.500956
879.782425	5134.397548
880.092722	6304.822401
880.402977	8210.181950
880.713191	10558.462317
881.023363	12912.250145
881.333494	14244.836314
881.643583	14704.440831
881.953631	14299.595848
882.263637	13467.427377
882.573602	12443.611880
882.883526	11500.016265
883.193408	10553.685824
883.503248	9645.209407
883.813048	8827.579623
884.122806	8072.571053
884.432522	7314.376473
884.742197	6659.573439
885.051831	6104.355878
885.361424	5618.101301
885.670975	5223.368873
885.980485	4900.808123
886.289954	4639.061333
886.599382	4423.007562
886.908768	4246.340325
887.218113	4086.838217
887.527417	3954.780151
887.836680	3835.236749
888.145901	3732.031727
888.455082	3656.996673
888.764221	3591.938062
889.073319	3532.802807
889.382376	3499.359792
889.691392	3475.426914
890.000366	3469.422900
890.309300	3465.437868
890.618193	3466.378043
890.927044	3460.197588
891.235855	3465.722693
891.544625	3480.314313
891.853353	3511.060310
892.162041	3568.700863
892.470687	3660.729647
892.779293	3776.098974
893.087858	3944.080302
893.396381	4223.576995
893.704864	4628.560610
894.013306	5189.152041
894.321707	5755.157671
894.630068	6106.765549
894.938387	6148.927239
895.246665	5969.716741
895.554903	5657.916334
895.863100	5326.475592
896.171256	5058.757555
896.479371	4818.970032
896.787446	4601.966003
897.095480	4405.318153
897.403473	4257.113271
897.711425	4115.885346
898.019336	3995.585771
898.327207	3874.870301
898.635038	3773.230557
898.942827	3665.188548
899.250576	3581.943974
899.558284	3500.108403
899.865952	3447.917338
900.173579	3381.104405
900.481165	3339.761903
900.788711	3299.573824
901.096216	3269.553753
901.403681	3239.200966
901.711105	3227.639079
902.018489	3224.697566
902.325832	3253.127153
902.633135	3310.603869
902.940397	3480.006803
903.247619	3880.324829
903.554800	4620.519969
903.861941	5574.054219
904.169041	6270.545076
904.476101	6482.386963
904.783121	6207.971754
905.090100	5811.772349
905.397039	5401.810595
905.703938	5047.692223
906.010796	4730.412082
906.317614	4480.529648
906.624391	4243.267742
906.931129	4050.940161
907.237826	3875.056824
907.544483	3702.130123
907.851099	3534.458826
908.157675	3374.936553
908.464211	3237.673496
908.770707	3139.186994
909.077163	3059.493913
909.383578	2997.770026
909.689954	2954.721092
909.996289	2925.671443
910.302584	2906.026067
910.608839	2894.391084
910.915054	2883.073693
911.221229	2875.088506
911.527363	2880.795092
911.833458	2888.109806
912.139513	2900.039697
912.445527	2913.265164
912.751502	2948.442335
913.057436	2991.622338
913.363331	3049.104095
913.669186	3132.295737
913.975000	3244.506780
914.280775	3433.746654
914.586510	3696.652910
914.892205	4060.742684
915.197859	4558.251637
915.503475	5130.089882
915.809050	5625.864678
916.114585	5906.467904
916.420081	5971.534077
916.725536	5909.043933
917.030952	5671.086348
917.336328	5469.750226
917.641665	5260.000417
917.946961	5037.499010
918.252218	4838.060881
918.557435	4611.612250
918.862612	4418.740225
919.167750	4250.978187
919.472848	4066.577820
919.777906	3898.420051
920.082925	3739.653952
920.387904	3587.867330
920.692843	3476.772902
920.997743	3379.526524
921.302603	3289.368008
921.607423	3228.367526
921.912204	3159.391938
922.216946	3113.497274
922.521647	3066.357444
922.826310	3023.240455
923.130932	2986.515650
923.435516	2946.950154
923.740059	2917.749270
924.044564	2887.676267
924.349028	2863.188862
924.653454	2832.982268
924.957840	2809.946716
925.262186	2791.125568
925.566493	2768.286620
925.870761	2744.419277
926.174989	2735.869480
926.479178	2718.338868
926.783328	2703.948894
927.087438	2691.081349
927.391509	2677.881088
927.695541	2667.861794
927.999533	2658.621359
928.303486	2649.138949
928.607400	2643.634009
928.911275	2640.647125
929.215110	2631.852832
929.518906	2628.750002
929.822663	2630.171608
930.126381	2625.127933
930.430060	2632.732514
930.733699	2634.146557
931.037299	2636.934316
931.340861	2636.457927
931.644383	2641.368010
931.947866	2637.854326
932.251309	2633.864253
932.554714	2635.553039
932.858080	2632.460292
933.161407	2630.191772
933.464694	2623.729013
933.767943	2620.444701
934.071153	2616.144597
934.374323	2615.060749
934.677455	2610.939606
934.980548	2607.433483
935.283602	2607.657815
935.586617	2607.302413
935.889593	2607.995572
936.192530	2609.097064
936.495428	2614.039915
936.798287	2623.018210
937.101108	2635.308543
937.403890	2658.132367
937.706632	2683.537262
938.009336	2719.551265
938.312002	2744.840214
938.614628	2768.674789
938.917216	2788.088272
939.219765	2797.369037
939.522275	2808.401602
939.824747	2807.703402
940.127179	2801.008750
940.429573	2794.868624
940.731929	2794.082204
941.034246	2787.135494
941.336524	2785.451749
941.638763	2776.833897
941.940964	2771.190325
942.243126	2754.272212
942.545250	2746.377766
942.847335	2729.439489
943.149381	2715.717468
943.451389	2703.565767
943.753359	2690.667974
944.055290	2682.934844
944.357182	2674.448062
944.659036	2669.537978
944.960851	2668.368430
945.262628	2659.463232
945.564367	2663.133192
945.866067	2659.687563
946.167729	2662.361896
946.469352	2658.588592
946.770937	2656.123468
947.072484	2648.624751
947.373992	2651.979639
947.675462	2643.913793
947.976893	2640.445479
948.278286	2637.478760
948.579641	2632.666979
948.880958	2633.937350
949.182236	2631.041207
949.483476	2626.935187
949.784678	2627.136833
950.085841	2625.294291
950.386967	2631.346197
950.688054	2637.445993
950.989103	2646.081489
951.290114	2653.297901
951.591087	2664.413645
951.892021	2674.571570
952.192917	2688.510361
952.493776	2701.453523
952.794596	2701.700540
953.095378	2705.564584
953.396122	2702.174408
953.696828	2698.973275
953.997496	2694.234591
954.298126	2688.855680
954.598718	2679.511901
954.899272	2670.437824
955.199788	2655.745381
955.500266	2643.823052
955.800706	2627.736730
956.101108	2611.645367
956.401472	2599.753285
956.701798	2587.780545
957.002087	2573.498956
957.302337	2563.058727
957.602550	2551.663198
957.902724	2543.950233
958.202861	2533.651156
958.502960	2525.716379
958.803022	2520.022396
959.103045	2511.308762
959.403031	2505.571929
959.702979	2500.452637
960.002889	2497.024652
960.302762	2490.093066
960.602596	2487.504433
960.902393	2482.914463
961.202153	2483.027889
961.501875	2479.226859
961.801559	2477.732157
962.101205	2471.347535
962.400814	2472.864922
962.700385	2468.527010
962.999918	2469.716722
963.299414	2464.882255
963.598873	2463.314457
963.898293	2460.995526
964.197677	2462.011318
964.497022	2460.801441
964.796331	2461.250104
965.095601	2459.543673
965.394835	2457.857408
965.694030	2456.720627
965.993189	2460.088118
966.292309	2460.415793
966.591393	2456.461008
966.890439	2455.271296
967.189447	2455.422530
967.488419	2455.838425
967.787353	2460.377984
968.086249	2454.986470
968.385108	2458.232973
968.683930	2455.112499
968.982714	2461.413942
969.281462	2458.621142
969.580172	2463.780763
969.878844	2465.721607
970.177480	2467.488532
970.476078	2466.974334
970.774639	2472.663276
971.073162	2475.108236
971.371649	2477.099492
971.670098	2474.553709
971.968510	2479.178968
972.266885	2474.805767
972.565223	2484.401603
972.863524	2483.269864
973.161788	2486.597026
973.460014	2485.866058
973.758204	2484.434371
974.056356	2487.000318
974.354471	2488.333703
974.652550	2488.396717
974.950591	2488.379073
975.248595	2489.914105
975.546563	2486.130719
975.844493	2486.009731
976.142386	2482.317086
976.440243	2481.132415
976.738062	2477.404482
977.035845	2476.918010
977.333590	2472.635550
977.631299	2472.118832
977.928971	2471.120683
978.226606	2470.220837
978.524204	2469.351238
978.821765	2465.401494
979.119290	2466.462657
979.416777	2463.937039
979.714228	2463.445527
980.011642	2462.777574
980.309020	2469.736887
980.606360	2473.457258
980.903664	2478.717702
981.200931	2494.201606
981.498162	2512.508556
981.795356	2541.631302
982.092513	2578.340984
982.389633	2622.493930
982.686717	2667.934891
982.983764	2697.080322
983.280775	2713.491798
983.577749	2715.503219
983.874686	2706.235057
984.171587	2689.110258
984.468451	2674.750531
984.765279	2657.635814
985.062070	2638.600417
985.358824	2620.792541
985.655543	2595.974941
985.952224	2575.918710
986.248869	2548.923331
986.545478	2521.968282
986.842050	2505.924809
987.138586	2488.651296
987.435086	2472.968266
987.731549	2460.476287
988.027975	2459.077367
988.324366	2452.334823
988.620719	2445.214194
988.917037	2444.478185
989.213318	2440.379727
989.509563	2439.575663
989.805772	2435.648604
990.101944	2435.643563
990.398080	2435.900662
990.694180	2432.913778
990.990244	2433.722883
991.286271	2435.237750
991.582262	2434.602565
991.878217	2435.691454
992.174136	2434.824376
992.470019	2435.522575
992.765865	2437.506269
993.061676	2438.247319
993.357450	2444.584049
993.653188	2445.423402
993.948890	2452.823815
994.244556	2457.262551
994.540186	2466.951649
994.835780	2476.975983
995.131337	2492.848056
995.426859	2505.549243
995.722345	2527.173273
996.017795	2545.412168
996.313208	2561.332131
996.608586	2566.191804
996.903928	2570.776733
997.199234	2567.285734
997.494504	2565.624674
997.789738	2559.240052
998.084936	2547.708413
998.380099	2538.157947
998.675225	2526.444826
998.970316	2514.585512
999.265371	2502.937926
999.560390	2489.326810
999.855373	2479.045377
1000.150320	2467.249077
1000.445232	2459.284054
1000.740108	2453.423713
1001.034948	2446.025819
1001.329752	2441.128338
1001.624521	2438.869902
1001.919254	2427.988571
1002.213951	2430.357913
1002.508613	2425.410021
1002.803239	2425.382294
1003.097829	2422.687798
1003.392384	2423.824578
1003.686903	2423.418765
1003.981386	2419.297622
1004.275834	2420.048754
1004.570246	2417.487848
1004.864623	2418.884247
1005.158964	2416.953485
1005.453270	2417.427354
1005.747540	2418.067580
1006.041775	2417.334092
1006.335974	2414.828639
1006.630138	2412.935686
1006.924266	2416.489699
1007.218359	2415.405851
1007.512416	2413.598597
1007.806438	2416.656057
1008.100425	2416.260327
1008.394376	2415.000038
1008.688292	2415.547003
1008.982172	2413.795202
1009.276017	2414.163207
1009.569827	2413.591036
1009.863602	2412.214801
1010.157341	2409.366549
1010.451045	2414.558937
1010.744714	2411.637588
1011.038347	2410.026940
1011.331945	2412.902918
1011.625508	2414.102713
1011.919036	2411.526683
1012.212528	2407.413102
1012.505986	2410.304203
1012.799408	2409.568195
1013.092795	2411.163720
1013.386147	2408.786816
1013.679464	2408.867474
1013.972745	2408.706157
1014.265992	2407.897052
1014.559204	2407.758421
1014.852380	2409.757238
1015.145521	2411.083062
1015.438628	2409.328740
1015.731699	2408.144069
1016.024736	2408.779254
1016.317737	2410.566343
1016.610703	2413.273443
1016.903635	2406.107443
1017.196531	2407.466034
1017.489393	2411.647671
1017.782219	2404.748852
1018.075011	2412.318144
1018.367768	2412.905439
1018.660490	2410.946950
1018.953177	2410.946950
1019.245829	2410.946950
