Dividing Wavelength (nm)	Counts (n)	Blue Motor Position (mm): 27.800000	Red Motor Position (mm): 0.000000	
326.493990	1972.512759
326.888308	1972.512759
327.282561	1972.512759
327.676750	1947.080138
328.070874	1948.254727
328.464933	1953.946190
328.858929	1966.254167
329.252859	1976.245734
329.646726	1992.463126
330.040528	2006.346463
330.434265	2025.215502
330.827938	2044.455066
331.221547	2063.593806
331.615091	2084.832188
332.008571	2106.229365
332.401986	2128.602006
332.795338	2146.770324
333.188625	2164.721873
333.581847	2184.473114
333.975006	2203.871474
334.368100	2221.954093
334.761129	2236.351628
335.154095	2252.115316
335.546996	2290.332303
335.939833	2364.270907
336.332606	2380.432846
336.725315	2389.637993
337.117960	2400.773902
337.510540	2409.694224
337.903056	2417.558424
338.295508	2421.571182
338.687896	2430.683068
339.080220	2441.869388
339.472480	2444.387444
339.864676	2448.997580
340.256807	2450.494802
340.648875	2452.385235
341.040879	2452.836418
341.432818	2453.461521
341.824694	2454.774742
342.216506	2455.062088
342.608253	2453.963116
342.999937	2456.251800
343.391557	2453.272478
343.783113	2449.668053
344.174605	2447.152517
344.566033	2451.230811
344.957397	2446.900460
345.348697	2445.640171
345.739934	2443.139759
346.131106	2443.676642
346.522215	2439.381579
346.913260	2438.726229
347.304241	2437.289500
347.695159	2435.958635
348.086012	2434.277410
348.476802	2430.678027
348.867528	2433.395208
349.258191	2429.274065
349.648789	2431.693819
350.039324	2426.330031
350.429796	2428.979158
350.820203	2427.096287
351.210548	2424.399269
351.600828	2426.135947
351.991045	2421.412386
352.381198	2423.070925
352.771288	2422.037489
353.161314	2422.511357
353.551276	2422.627304
353.941175	2423.423806
354.331010	2422.692839
354.720782	2426.451019
355.110490	2428.023859
355.500135	2423.194434
355.889717	2424.608477
356.279235	2423.549835
356.668689	2426.183838
357.058080	2426.002356
357.447408	2422.750812
357.836672	2420.840215
358.225873	2427.045875
358.615010	2422.927252
359.004084	2428.301122
359.393095	2432.024015
359.782043	2427.492017
360.170927	2431.938315
360.559748	2428.790114
360.948505	2426.284661
361.337199	2433.813624
361.725830	2434.252205
362.114398	2435.905703
362.502903	2431.282965
362.891344	2434.796649
363.279722	2432.485280
363.668037	2435.217586
364.056289	2435.852771
364.444478	2434.189190
364.832603	2436.508121
365.220665	2437.428132
365.608665	2438.751434
365.996601	2438.413677
366.384474	2436.702205
366.772284	2439.651280
367.160031	2438.829572
367.547715	2439.610951
367.935336	2440.127669
368.322893	2435.031063
368.710388	2441.035077
369.097820	2440.601538
369.485189	2442.189501
369.872495	2443.074224
370.259738	2444.513473
370.646918	2444.216045
371.034035	2439.873091
371.421090	2440.140272
371.808081	2444.316868
372.195010	2444.609255
372.581875	2446.454318
372.968678	2443.578339
373.355418	2440.205807
373.742096	2445.924996
374.128710	2446.895418
374.515262	2447.545727
374.901751	2446.461879
375.288177	2448.884154
375.674540	2447.013886
376.060841	2450.353650
376.447079	2449.630244
376.833254	2446.484564
377.219367	2442.209666
377.605417	2447.737291
377.991404	2445.625048
378.377329	2447.452466
378.763191	2443.164965
379.148991	2447.409616
379.534727	2452.279371
379.920402	2452.730554
380.306013	2451.931531
380.691563	2452.720472
381.077049	2450.895574
381.462474	2452.130657
381.847835	2450.739298
382.233134	2456.725668
382.618371	2453.806840
383.003545	2455.006635
383.388657	2453.360698
383.773706	2455.604012
384.158693	2454.409258
384.543618	2454.865483
384.928480	2456.110648
385.313280	2456.781121
385.698017	2456.919753
386.082692	2458.432099
386.467305	2460.181379
386.851856	2458.313632
387.236344	2459.755402
387.620770	2460.783797
388.005133	2459.773046
388.389435	2459.868828
388.773674	2457.305401
389.157851	2462.091977
389.541965	2459.911678
389.926018	2459.450412
390.310008	2460.511575
390.693936	2460.544343
391.077802	2461.376133
391.461606	2462.969138
391.845348	2464.395784
392.229027	2464.007615
392.612645	2464.915023
392.996200	2467.420476
393.379694	2465.928295
393.763125	2464.975517
394.146494	2467.828810
394.529801	2465.862760
394.913047	2466.714715
395.296230	2468.514407
395.679351	2467.435600
396.062410	2469.280662
396.445408	2471.150930
396.828343	2469.739407
397.211217	2467.014663
397.594028	2468.799232
397.976778	2468.337966
398.359466	2467.763275
398.742092	2465.504838
399.124656	2472.607824
399.507158	2467.080198
399.889598	2473.197639
400.271977	2471.360138
400.654294	2474.818370
401.036549	2472.948102
401.418742	2475.680407
401.800874	2476.829790
402.182944	2475.665283
402.564952	2473.427011
402.946898	2476.411374
403.328783	2478.473206
403.710606	2479.425984
404.092367	2478.064873
404.474067	2481.084524
404.855705	2477.853144
405.237282	2481.366828
405.618797	2480.512353
406.000250	2479.766262
406.381642	2481.346664
406.762972	2484.373877
407.144240	2480.386324
407.525447	2483.106027
407.906593	2480.240131
408.287677	2482.879175
408.668700	2483.254741
409.049661	2485.762715
409.430560	2483.693321
409.811399	2483.973105
410.192176	2487.154073
410.572891	2486.045019
410.953545	2487.819505
411.334138	2487.305308
411.714669	2487.456542
412.095139	2483.771459
412.475547	2489.311687
412.855894	2489.896461
413.236180	2489.679691
413.616405	2491.479383
413.996568	2491.512151
414.376670	2492.399394
414.756711	2488.772283
415.136691	2493.158087
415.516609	2489.654485
415.896466	2493.329487
416.276262	2495.240084
416.655997	2491.391163
417.035670	2492.429641
417.415283	2496.961638
417.794834	2493.236225
418.174324	2496.477687
418.553753	2499.399036
418.933121	2497.097749
419.312428	2497.841319
419.691674	2500.029180
420.070859	2498.315188
420.449983	2502.191835
420.829045	2502.196876
421.208047	2501.642349
421.586988	2504.793070
421.965867	2504.772906
422.344686	2507.628719
422.723444	2507.401868
423.102141	2506.466733
423.480777	2507.855571
423.859352	2508.974708
424.237866	2508.437825
424.616319	2511.230624
424.994712	2510.880264
425.373044	2512.816067
425.751314	2516.753208
426.129524	2512.874040
426.507673	2518.852848
426.885762	2518.794875
427.263789	2519.876203
427.641756	2520.589526
428.019662	2521.801923
428.397508	2525.000536
428.775292	2526.893489
429.153016	2528.375588
429.530679	2524.957686
429.908282	2530.492873
430.285824	2530.255938
430.663305	2532.869777
431.040726	2533.207534
431.418086	2536.310364
431.795385	2539.350180
432.172624	2538.639377
432.549802	2541.492670
432.926920	2544.247661
433.303977	2548.721685
433.680974	2552.046326
434.057910	2553.755277
434.434786	2559.880279
434.811601	2561.548901
435.188355	2564.273645
435.565050	2571.931157
435.941683	2575.921231
436.318257	2583.286356
436.694770	2584.985225
437.071222	2594.674323
437.447614	2594.787749
437.823946	2605.820314
438.200218	2615.653085
438.576429	2627.096504
438.952580	2638.436579
439.328670	2650.368991
439.704700	2666.543533
440.080670	2676.895542
440.456580	2695.925898
440.832429	2714.560523
441.208218	2725.043602
441.583947	2746.385327
441.959616	2770.454316
442.335224	2799.599747
442.710773	2825.503716
443.086261	2862.286495
443.461689	2882.176368
443.837057	2916.284815
444.212365	2962.746609
444.587612	3002.856550
444.962800	3034.031045
445.337927	3086.874940
445.712995	3094.403904
446.088002	3200.431972
446.462949	3266.095521
446.837837	3328.200016
447.212664	3392.373905
447.587431	3597.672374
447.962139	3822.943896
448.336786	4025.149618
448.711374	4031.370402
449.085901	3917.253802
449.460369	3996.651975
449.834776	4099.302470
450.209124	4382.418711
450.583412	4467.291577
450.957640	4612.068475
451.331808	4614.508393
451.705917	4613.464874
452.079965	4735.261672
452.453954	4884.651225
452.827883	5005.946428
453.201752	5113.323005
453.575562	5254.777782
453.949311	5522.594121
454.323001	5681.403070
454.696632	5805.370084
455.070202	6165.757131
455.443713	6356.158992
455.817164	6607.263906
456.190556	6865.008020
456.563888	6949.633869
456.937160	7192.196548
457.310373	7094.309943
457.683526	7338.584094
458.056619	7526.772888
458.429653	7713.643420
458.802628	8025.176645
459.175542	8256.260617
459.548398	8747.974763
459.921194	9334.835647
460.293930	9748.288400
460.666607	10503.952321
461.039224	11215.249046
461.411782	11579.832854
461.784280	11502.667912
462.156719	11610.961979
462.529099	11709.826567
462.901419	11587.084554
463.273680	11526.172292
463.645882	11804.691001
464.018024	12063.161041
464.390106	12608.220677
464.762130	13842.937885
465.134094	15645.500746
465.505999	18023.803704
465.877845	20248.152345
466.249631	21112.745518
466.621358	20753.540621
466.993026	20225.378932
467.364634	19703.024653
467.736184	19242.565661
468.107674	19052.272186
468.479105	19048.274551
468.850477	19073.187933
469.221790	18747.035361
469.593043	18238.241786
469.964238	18111.955841
470.335373	18380.729999
470.706449	19543.159582
471.077467	21182.447031
471.448425	23987.551719
471.819324	25916.183754
472.190164	25233.979528
472.560945	23575.520571
472.931667	22158.858038
473.302330	21838.807783
473.672934	21673.253770
474.043479	22255.065938
474.413965	22069.685067
474.784393	22124.164817
475.154761	22952.184418
475.525070	23239.807451
475.895321	23239.683943
476.265513	23885.057499
476.635645	24771.917448
477.005719	24938.754435
477.375734	25515.220460
477.745691	26241.943116
478.115588	27425.464887
478.485427	29061.243692
478.855207	31707.123535
479.224928	33922.287194
479.594591	35465.540662
479.964194	34998.203015
480.333739	35411.849853
480.703226	35755.399446
481.072653	36548.569551
481.442022	37234.920127
481.811333	37740.031139
482.180584	37013.863010
482.549777	36881.557927
482.918912	36730.018322
483.287988	36762.284228
483.657005	36363.072734
484.025964	36101.071366
484.394864	36365.444597
484.763706	36256.762361
485.132489	35794.617103
485.501213	35877.549125
485.869879	36231.675059
486.238487	36110.203416
486.607036	36507.910125
486.975527	36250.095435
487.343959	36635.834445
487.712333	36897.828252
488.080648	37003.407657
488.448905	37591.866587
488.817104	37621.760629
489.185244	38649.548555
489.553326	40277.500969
489.921350	42910.064604
490.289315	45841.082191
490.657222	46646.620767
491.025070	47119.254146
491.392861	46404.174035
491.760593	45354.920876
492.128267	43921.342751
492.495883	42653.323680
492.863440	41532.128215
493.230939	40441.101535
493.598380	39580.561450
493.965763	39417.313765
494.333088	38798.917943
494.700354	38491.362188
495.067563	38342.491874
495.434713	38343.590845
495.801805	38513.825570
496.168839	38277.408057
496.535815	38065.951818
496.902733	38194.491159
497.269593	37887.172338
497.636395	37902.585666
498.003139	38376.214673
498.369825	37952.614077
498.736453	38312.865013
499.103023	37943.280380
499.469535	37907.364680
499.835989	38048.627893
500.202385	37788.151473
500.568723	37900.145747
500.935003	38130.929770
501.301226	37987.549273
501.667390	38635.052717
502.033497	38940.488667
502.399546	38430.507899
502.765537	37835.107301
503.131470	38236.615040
503.497345	38607.026422
503.863163	37387.677171
504.228923	38006.874536
504.594625	38430.190307
504.960269	37784.811709
505.325856	38489.985953
505.691385	37899.427383
506.056856	38054.727689
506.422270	38512.638378
506.787625	38114.782955
507.152924	38324.878082
507.518164	38447.942730
507.883347	37712.438384
508.248472	37980.312696
508.613540	38451.214439
508.978550	38762.157849
509.343503	38537.297182
509.708398	38741.884849
510.073236	39266.101835
510.438016	39299.073501
510.802738	38776.676372
511.167403	39394.653778
511.532010	39632.777721
511.896561	39925.457031
512.261053	40747.162588
512.625488	40312.133696
512.989866	40199.564731
513.354186	40056.138862
513.718449	40057.663812
514.082655	40732.127346
514.446803	40407.240104
514.810894	40953.040790
515.174927	40866.547193
515.538904	40791.330657
515.902822	41429.830600
516.266684	40899.251679
516.630488	41334.905673
516.994235	41198.113964
517.357925	41745.016142
517.721558	41914.706421
518.085133	42233.546799
518.448651	42347.625590
518.812112	42146.801144
519.175516	42243.525763
519.538863	42595.738580
519.902152	42554.413721
520.265385	43005.138245
520.628560	43060.114548
520.991678	42844.635468
521.354739	43096.700723
521.717743	43387.731575
522.080690	43296.242195
522.443580	43842.335267
522.806413	43897.719904
523.169189	43854.532339
523.531908	44038.284917
523.894569	43911.769600
524.257174	44074.336729
524.619722	44364.631573
524.982213	44359.487076
525.344647	44288.260613
525.707025	44341.200290
526.069345	44743.960756
526.431608	44651.803423
526.793815	44974.795191
527.155964	44519.601684
527.518057	44688.192992
527.880093	44465.931039
528.242072	44997.218243
528.603995	44718.099637
528.965860	44720.264813
529.327669	44817.274257
529.689421	44724.327982
530.051117	44684.207960
530.412755	44835.414849
530.774337	44888.541048
531.135862	44712.854316
531.497331	44911.488381
531.858743	44833.476525
532.220098	45152.581563
532.581396	44890.277726
532.942638	44539.443665
533.303824	44845.648391
533.664953	44821.115616
534.026025	44552.633844
534.387040	45005.107649
534.747999	44954.668384
535.108902	45123.274816
535.469748	44658.183003
535.830537	44775.004182
536.191270	44977.792157
536.551947	44640.468388
536.912567	44929.996977
537.273131	45039.679882
537.633638	44540.174632
537.994089	44893.670423
538.354483	44509.559705
538.714821	45067.146609
539.075103	45391.197019
539.435328	45180.471747
539.795497	45055.841821
540.155609	45037.232402
540.515665	45498.059398
540.875665	44971.515920
541.235609	45284.924455
541.595496	45263.050888
541.955328	45928.946982
542.315102	45312.993599
542.674821	45116.076048
543.034483	45159.414848
543.394090	45105.444254
543.753640	45079.467189
544.113134	46051.837710
544.472571	45102.895951
544.831953	46308.253480
545.191278	45532.314039
545.550548	45261.117606
545.909761	45723.673718
546.268918	45918.103460
546.628019	46221.346508
546.987064	45796.231045
547.346053	45093.277430
547.704986	45933.635255
548.063863	45509.086922
548.422684	45730.953144
548.781449	45560.539459
549.140158	45950.505477
549.498811	45804.836295
549.857408	45237.504841
550.215949	46073.504589
550.574434	46003.976995
550.932864	45780.069106
551.291237	46473.474777
551.649555	46088.774244
552.007817	46326.880543
552.366022	45991.462331
552.724173	46154.757907
553.082267	46555.854792
553.440305	46854.616254
553.798288	46181.539037
554.156215	46485.316447
554.514086	46685.621654
554.871902	46416.252639
555.229661	46432.654033
555.587365	46275.359951
555.945014	46372.606329
556.302606	46313.125755
556.660143	46520.750717
557.017625	46601.162162
557.375050	46386.419091
557.732421	46751.068434
558.089735	46721.791933
558.446994	46636.919067
558.804197	47096.909232
559.161345	47037.368163
559.518437	46322.446848
559.875474	46615.748741
560.232455	46772.972247
560.589381	46944.590768
560.946251	46640.135323
561.303065	47322.851226
561.659825	47115.538816
562.016528	46811.279975
562.373177	46515.114707
562.729770	47009.644338
563.086307	46523.495626
563.442789	46994.475506
563.799216	47018.489042
564.155587	46831.096751
564.511904	46833.430805
564.868164	46945.593958
565.224370	47175.626849
565.580520	46929.268181
565.936615	47137.545973
566.292654	46865.031278
566.648638	47096.463089
567.004567	47064.862617
567.360441	47079.461798
567.716260	46963.618603
568.072023	47247.606964
568.427732	47229.224397
568.783385	46789.436656
569.138982	47195.494036
569.494525	47139.005387
569.850013	46904.591733
570.205445	46891.761996
570.560823	46834.930548
570.916145	46727.443066
571.271412	46753.241171
571.626625	46509.803852
571.981782	46582.061230
572.336884	46273.708973
572.691931	46592.854341
573.046923	46199.546038
573.401860	46053.813842
573.756743	46028.688732
574.111570	46135.530946
574.466342	46004.455905
574.821059	46124.173227
575.175722	45650.834086
575.530330	45665.912177
575.884882	45393.747843
576.239380	45355.382142
576.593823	45345.435945
576.948211	45254.722902
577.302544	44801.417307
577.656823	44824.760370
578.011047	45047.229010
578.365216	44770.625939
578.719330	44564.367130
579.073389	44426.751192
579.427394	44520.463721
579.781344	44480.752032
580.135239	44154.047454
580.489080	44216.799737
580.842866	43723.855549
581.196597	44174.481771
581.550273	44115.429695
581.903895	43986.827339
582.257463	44427.769505
582.610975	43805.529803
582.964434	44074.142645
583.317837	43723.424530
583.671186	43571.819390
584.024481	43793.814162
584.377721	43340.140562
584.730906	43632.814831
585.084037	43637.903876
585.437113	43356.267213
585.790135	43412.072787
586.143103	43011.658978
586.496016	43124.583344
586.848874	43147.949093
587.201679	43163.725383
587.554428	42660.827437
587.907124	42844.945499
588.259765	42613.700211
588.612352	42862.967624
588.964884	42258.487908
589.317362	42538.513922
589.669786	42489.092970
590.022155	42269.238168
590.374470	42672.550641
590.726731	42210.218860
591.078937	41726.366393
591.431090	41825.230982
591.783188	41484.340597
592.135232	41161.273212
592.487222	41408.206571
592.839157	41497.036743
593.191038	41176.396673
593.542866	40939.623759
593.894639	40345.818686
594.246358	40615.167536
594.598022	40602.171441
594.949633	40216.132483
595.301190	40166.754381
595.652692	40008.200010
596.004141	40318.019243
596.355535	39361.394766
596.706876	39315.726953
597.058162	39146.850820
597.409395	39595.891599
597.760573	39681.823107
598.111698	39259.762584
598.462768	39275.561560
598.813785	39295.763984
599.164748	38766.374774
599.515657	39154.462962
599.866511	38637.192687
600.217312	39230.975075
600.568060	38220.236331
600.918753	38960.910381
601.269392	38935.692009
601.619978	38574.218593
601.970510	38774.864077
602.320988	38960.474321
602.671412	39245.047456
603.021783	39012.357876
603.372100	38667.038838
603.722363	38775.703430
604.072572	38840.094088
604.422728	38862.925473
604.772830	38658.625152
605.122878	38770.599261
605.472872	38692.254689
605.822813	38979.804625
606.172701	38817.524842
606.522534	39036.736896
606.872314	39303.481990
607.222041	39065.892410
607.571714	39442.834606
607.921333	38909.316692
608.270899	39205.149243
608.620411	39535.899347
608.969870	39327.016617
609.319276	39331.921660
609.668627	39380.704906
610.017926	39859.364984
610.367171	40013.077326
610.716362	40100.911870
611.065500	40059.196322
611.414585	40254.916600
611.763616	40542.973172
612.112594	40465.722530
612.461518	40682.971055
612.810389	40974.284212
613.159207	40848.608247
613.507971	40921.755389
613.856682	41377.999977
614.205340	41259.600917
614.553945	41953.460292
614.902496	41410.522981
615.250994	41881.102090
615.599439	41958.967752
615.947830	42165.672704
616.296169	42225.617064
616.644454	42358.965666
616.992686	42520.451468
617.340864	43048.744226
617.688990	42767.331895
618.037063	43360.340466
618.385082	43328.245960
618.733048	43622.339313
619.080961	43641.072241
619.428821	43649.276719
619.776628	43742.442283
620.124382	43580.543107
620.472083	43695.688102
620.819731	43825.638966
621.167326	43502.022095
621.514868	43482.124660
621.862357	43042.271384
622.209793	43071.741970
622.557176	42748.548556
622.904506	42489.387878
623.251783	42152.467401
623.599007	41918.091556
623.946179	41711.542880
624.293297	41668.879595
624.640363	41076.140726
624.987376	41067.948851
625.334336	40841.701866
625.681243	40485.826652
626.028097	40439.511051
626.374899	40298.220111
626.721647	40292.637033
627.068343	40175.435248
627.414987	39947.910331
627.761577	39724.141073
628.108115	40052.962936
628.454600	39501.858956
628.801032	39691.887771
629.147412	39667.488586
629.493739	39681.697078
629.840014	39345.699133
630.186236	39669.477321
630.532405	39294.327255
630.878521	39507.346252
631.224585	39397.900281
631.570597	39089.394269
631.916556	39261.625290
632.262462	39223.113395
632.608316	39235.018080
632.954117	39124.521029
633.299866	39111.015778
633.645562	39032.698932
633.991206	38558.802744
634.336797	38111.483519
634.682336	38124.104048
635.027823	37868.089050
635.373257	37669.386930
635.718639	37454.152346
636.063968	37308.475603
636.409245	36744.577175
636.754470	36789.516541
637.099642	36562.581438
637.444762	36095.158092
637.789829	36244.144353
638.134845	35908.262354
638.479808	35845.066450
638.824719	35746.121203
639.169577	35372.289398
639.514383	35431.175116
639.859137	35136.312987
640.203839	35367.853183
640.548489	35018.445768
640.893086	35068.466617
641.237632	34847.396898
641.582125	34951.060665
641.926566	34881.480139
642.270955	34847.205334
642.615292	34875.029983
642.959576	34835.792162
643.303809	34846.746589
643.647990	34988.163557
643.992118	34950.455727
644.336195	34958.496367
644.680219	35037.884458
645.024192	35354.789032
645.368112	35853.175146
645.711981	35864.958843
646.055797	36755.818948
646.399562	36678.913625
646.743274	37600.683565
647.086935	38043.876605
647.430544	37937.898948
647.774101	38073.153106
648.117606	38306.094743
648.461059	38601.145916
648.804460	38202.960297
649.147810	37613.036912
649.491108	37337.280756
649.834354	36993.670668
650.177548	36172.411254
650.520690	35729.858440
650.863781	35748.031800
651.206820	35592.376093
651.549807	35159.283004
651.892742	34687.441086
652.235626	34500.522663
652.578458	34363.330182
652.921238	33765.683750
653.263967	34094.112402
653.606644	33796.573420
653.949269	33746.388733
654.291843	33350.045656
654.634365	33747.724639
654.976836	33343.106508
655.319255	33346.277394
655.661622	33343.177084
656.003938	33109.081023
656.346203	32979.034377
656.688416	33201.795404
657.030577	33012.694161
657.372687	32852.269522
657.714746	33108.806280
658.056753	33230.691298
658.398708	32694.529298
658.740612	32736.577562
659.082465	33005.545805
659.424266	32834.277644
659.766016	32956.815492
660.107715	32844.307020
660.449362	32969.304950
660.790958	32949.830973
661.132503	32980.725684
661.473996	33002.924405
661.815438	33126.291522
662.156829	33306.979079
662.498168	33078.478698
662.839456	33107.306537
663.180693	33251.163423
663.521879	33416.689710
663.863013	33376.985582
664.204097	33363.497975
664.545129	33837.303422
664.886110	33792.144766
665.227040	33873.957652
665.567918	33982.123169
665.908746	34035.619894
666.249522	34213.423911
666.590248	34201.604926
666.930922	34313.130372
667.271545	34287.574243
667.612118	34364.277919
667.952639	34157.709078
668.293109	34214.076740
668.633528	34113.886328
668.973896	34023.533728
669.314213	34063.605860
669.654480	33814.346008
669.994695	33832.179089
670.334859	33723.126329
670.674973	33622.610762
671.015035	33785.041780
671.355047	33727.212184
671.695008	33694.364026
672.034918	33575.748196
672.374777	33661.815816
672.714585	33510.271169
673.054342	33737.027311
673.394049	33493.116123
673.733705	33776.537354
674.073310	33440.297433
674.412864	33515.355173
674.752368	33120.552168
675.091820	33418.983435
675.431223	32982.265757
675.770574	32714.751887
676.109875	32579.759869
676.449125	32292.300674
676.788324	32226.889182
677.127473	31693.356144
677.466571	31612.019648
677.805619	31283.399431
678.144616	31272.621444
678.483562	31201.165609
678.822458	30876.454808
679.161303	30804.094085
679.500098	30699.311182
679.838842	30599.408116
680.177535	30747.030744
680.516179	31032.564219
680.854771	31273.566661
681.193314	32122.411269
681.531805	33257.225411
681.870247	34035.483783
682.208638	34773.632214
682.546978	35001.068911
682.885268	35089.291624
683.223508	34558.992486
683.561697	34215.105136
683.899836	34016.150958
684.237925	33518.551265
684.575963	33373.227402
684.913951	32917.209666
685.251889	33072.482246
685.589776	33056.121181
685.927614	33053.056160
686.265401	33198.072512
686.603137	33302.862977
686.940824	33801.458298
687.278460	34186.015157
687.616046	34342.298488
687.953582	34947.579748
688.291068	34824.830173
688.628504	35088.933702
688.965889	35026.073034
689.303224	34635.262623
689.640510	34279.117707
689.977745	33556.629620
690.314930	32759.000615
690.652065	32229.460171
690.989150	31472.515797
691.326185	30583.964541
691.663170	29876.249555
692.000105	29128.790113
692.336990	28452.363048
692.673825	28005.023659
693.010610	27488.391089
693.347345	26904.449034
693.684030	26261.855673
694.020665	25976.947302
694.357251	25317.972712
694.693786	25271.488233
695.030272	25038.715475
695.366707	24504.368290
695.703093	24211.930956
696.039429	24209.748136
696.375716	23946.168887
696.711952	23905.121292
697.048139	23757.541513
697.384276	23585.741510
697.720363	23712.902095
698.056400	23508.800900
698.392388	23287.025418
698.728326	23253.557198
699.064214	23035.421430
699.400053	22984.992247
699.735842	22626.054532
700.071581	22351.800639
700.407270	22069.518709
700.742910	21868.543029
701.078501	21602.435641
701.414042	21326.399700
701.749533	21030.645286
702.084974	20673.688744
702.420366	20882.417719
702.755709	20449.987542
703.091002	20146.434463
703.426246	20170.301806
703.761440	20077.466437
704.096584	19809.481220
704.431679	19761.015567
704.766725	19673.904428
705.101721	19610.320355
705.436668	19698.525423
705.771565	19379.906856
706.106413	19727.607840
706.441212	19697.370999
706.775961	19835.511217
707.110661	19905.605941
707.445311	20258.763974
707.779913	20099.327401
708.114465	20350.505412
708.448967	20635.587703
708.783421	21330.062098
709.117825	21591.748394
709.452180	21819.747180
709.786485	22230.452504
710.120742	23023.920038
710.454949	23043.245301
710.789107	23503.505168
711.123216	24208.558424
711.457275	24334.766231
711.791286	24875.805547
712.125247	24938.167141
712.459159	24636.461645
712.793023	25295.889938
713.126837	24177.562889
713.460602	24429.653349
713.794318	24046.676892
714.127985	23658.583663
714.461602	22768.875462
714.795171	22724.780489
715.128691	21721.190102
715.462162	21180.329747
715.795584	20746.820763
716.128957	20489.550518
716.462281	20081.547252
716.795556	19857.299084
717.128782	19361.998157
717.461960	18816.353747
717.795088	18731.052383
718.128167	18339.253906
718.461198	17877.839615
718.794180	17732.664467
719.127113	17367.710134
719.459997	17173.701328
719.792833	16841.393508
720.125619	16798.939431
720.458357	16489.926782
720.791046	16320.014692
721.123686	16157.593756
721.456278	15927.170176
721.788821	15886.409926
722.121315	15622.192971
722.453761	15695.337593
722.786158	15617.179543
723.118506	15629.116996
723.450805	15498.588920
723.783056	15657.241593
724.115259	15557.146963
724.447412	15493.600698
724.779518	15737.958028
725.111574	15755.302117
725.443582	15953.744618
725.775542	15933.385918
726.107453	16414.730411
726.439315	16292.200126
726.771129	16686.793922
727.102895	17061.467600
727.434612	17251.153616
727.766281	17377.338738
728.097901	17645.754974
728.429473	17677.269748
728.760996	17657.894073
729.092471	17751.752796
729.423897	17614.678782
729.755276	17482.126682
730.086606	17601.992718
730.417887	18122.874980
730.749120	18631.376169
731.080305	18813.087080
731.411442	19142.675197
731.742530	19202.710299
732.073570	19311.755498
732.404562	19584.607949
732.735506	19389.580831
733.066401	19112.256875
733.397249	18595.178163
733.728048	17955.367520
734.058798	17131.895039
734.389501	16452.644929
734.720156	15992.022099
735.050762	15466.822089
735.381320	15120.121774
735.711831	14878.862233
736.042293	14540.310944
736.372707	14549.216142
736.703073	14335.640098
737.033391	14519.669939
737.363661	14495.316125
737.693883	14601.971817
738.024056	14762.114151
738.354182	14957.045488
738.684260	15242.125259
739.014290	15469.622450
739.344272	15652.704554
739.674207	15931.876093
740.004093	16043.673762
740.333931	16035.542380
740.663722	16073.091415
740.993464	16067.619242
741.323159	15887.060235
741.652806	15605.781494
741.982405	15390.161262
742.311956	15047.390527
742.641460	14936.228043
742.970915	14633.116066
743.300323	14301.075426
743.629683	14081.848248
743.958996	13803.553871
744.288260	13542.578377
744.617477	13243.307759
744.946647	13161.129389
745.275768	12895.760530
745.604842	12711.203888
745.933869	12542.615101
746.262847	12493.080723
746.591778	12417.440730
746.920662	12318.160246
747.249498	12326.049652
747.578286	12441.045933
747.907027	12585.298550
748.235720	12804.445070
748.564365	12825.970797
748.892963	12723.448851
749.221514	12789.344293
749.550017	12651.032676
749.878473	12606.189092
750.206881	12382.152653
750.535242	12298.945888
750.863555	12209.745192
751.191821	12114.684153
751.520039	12141.709779
751.848210	12041.869727
752.176334	12073.346692
752.504411	11982.205151
752.832440	11834.451452
753.160421	11895.338508
753.488356	11761.705082
753.816243	11673.119406
754.144082	11532.509022
754.471875	11484.905406
754.799620	11424.472054
755.127318	11399.271326
755.454969	11360.220028
755.782572	11310.219343
756.110129	11317.236629
756.437638	11243.232491
756.765100	11230.299411
757.092515	11230.801006
757.419882	11252.382185
757.747203	11253.566856
758.074477	11329.758856
758.401703	11285.222782
758.728882	11451.185128
759.056014	11491.305151
759.383099	11612.121444
759.710138	11712.155581
760.037129	11791.324381
760.364073	11804.935497
760.690970	11790.714402
761.017820	11786.424380
761.344623	11978.696508
761.671379	12294.784416
761.998088	12913.039085
762.324751	14465.137258
762.651366	17322.768247
762.977935	20977.940023
763.304456	23178.131454
763.630931	23642.686384
763.957359	22453.034570
764.283740	20549.497398
764.610074	18678.226132
764.936362	16552.026236
765.262602	15049.724581
765.588796	13587.560593
765.914943	12563.987072
766.241044	11725.791902
766.567097	11101.956675
766.893104	10550.908148
767.219064	10198.430671
767.544978	9818.947733
767.870845	9509.297379
768.196665	9317.584818
768.522438	9125.474007
768.848165	8961.190365
769.173846	8797.975447
769.499479	8677.602776
769.825066	8522.032768
770.150607	8340.112649
770.476101	8273.455993
770.801548	8162.212851
771.126949	8021.703290
771.452303	7935.018129
771.777611	7771.606607
772.102872	7758.426510
772.428087	7631.157540
772.753256	7513.116402
773.078378	7421.992505
773.403453	7281.455218
773.728482	7180.909405
774.053465	7116.168387
774.378401	7031.419029
774.703291	6941.492406
775.028135	6848.042016
775.352932	6811.304608
775.677683	6725.259673
776.002388	6634.539069
776.327046	6637.644419
776.651658	6551.634773
776.976224	6475.152907
777.300743	6464.024560
777.625216	6394.469240
777.949643	6352.229412
778.274024	6357.318457
778.598359	6292.499301
778.922647	6293.857892
779.246889	6251.260142
779.571086	6258.063179
779.895236	6271.341578
780.219339	6269.156238
780.543397	6266.691114
780.867409	6314.055275
781.191374	6308.280633
781.515294	6281.433968
781.839167	6333.254509
782.162995	6294.457789
782.486776	6250.902220
782.810511	6210.991405
783.134201	6138.814685
783.457844	6120.905986
783.781441	6077.466363
784.104993	6030.686976
784.428498	6003.532801
784.751958	5985.324153
785.075372	5964.451255
785.398739	5926.435914
785.722061	5946.971054
786.045337	5944.886537
786.368568	6058.032715
786.691752	6076.551393
787.014891	6323.207489
787.337983	6606.336333
787.661030	7044.011831
787.984031	7463.513969
788.306987	7724.020635
788.629897	7811.562792
788.952760	7723.251859
789.275579	7544.298459
789.598351	7247.009014
789.921078	6988.506207
790.243759	6704.162444
790.566395	6501.228276
790.888984	6308.580582
791.211529	6174.954717
791.534027	6010.219891
791.856480	5875.409355
792.178888	5815.565818
792.501249	5746.554942
792.823566	5648.476773
793.145836	5640.229446
793.468062	5623.248319
793.790241	5577.958593
794.112375	5621.589779
794.434464	5725.568619
794.756507	5752.301858
795.078505	5869.659919
795.400457	6087.213434
795.722364	6326.799312
796.044226	6519.026069
796.366042	6677.517426
796.687812	6619.377798
797.009538	6653.418190
797.331218	6557.313633
797.652852	6490.664538
797.974442	6369.341609
798.295986	6296.418798
798.617484	6170.024468
798.938938	6061.206121
799.260346	5995.666080
799.581709	5855.821952
799.903026	5804.450073
800.224299	5729.508280
800.545526	5617.261949
800.866708	5553.519079
801.187845	5505.799517
801.508936	5428.455614
801.829983	5401.797992
802.150984	5297.199091
802.471940	5268.078866
802.792851	5251.806021
803.113717	5228.236107
803.434538	5202.934555
803.755314	5171.266027
804.076045	5158.194315
804.396731	5128.489316
804.717372	5140.557838
805.037967	5146.788704
805.358518	5174.497407
805.679024	5233.904884
805.999485	5239.518209
806.319901	5259.690386
806.640272	5281.463129
806.960598	5324.401157
807.280879	5316.632739
807.601115	5356.475499
807.921306	5315.979910
808.241453	5313.766843
808.561554	5324.683462
808.881611	5287.104181
809.201623	5286.065703
809.521590	5232.367332
809.841513	5217.863933
810.161390	5234.991253
810.481223	5150.070496
810.801011	5133.333865
811.120755	5106.860245
811.440453	5054.036515
811.760107	5025.700189
812.079716	4997.953678
812.399281	4948.368889
812.718801	4946.486018
813.038276	4907.096963
813.357707	4868.799317
813.677093	4897.501126
813.996434	4836.941745
814.315731	4857.310527
814.634983	4850.462120
814.954191	4854.351370
815.273354	4914.739352
815.592473	4953.616730
815.911547	5027.104150
816.230577	5086.786371
816.549562	5170.693856
816.868502	5223.441969
817.187399	5277.122696
817.506250	5357.713102
817.825058	5381.900558
818.143821	5534.566861
818.462539	5700.783786
818.781213	5926.239309
819.099843	6290.591224
819.418429	6912.777993
819.736970	7528.733897
820.055466	8235.062565
820.373919	9140.831882
820.692327	10573.401777
821.010691	13255.867794
821.329011	19431.077088
821.647286	28963.324320
821.965517	39263.679560
822.283704	44708.718050
822.601847	46166.511357
822.919945	41573.385018
823.237999	36464.462941
823.556010	31287.366819
823.873976	26610.990865
824.191897	22430.455242
824.509775	19378.838132
824.827609	16629.203781
825.145398	15086.426702
825.463144	14340.530017
825.780845	14641.073527
826.098502	15883.105450
826.416116	18336.445983
826.733685	20614.293869
827.051210	21134.636728
827.368692	19717.187775
827.686129	17153.607289
828.003522	14695.515468
828.320872	12494.656083
828.638177	10847.116266
828.955439	9618.627403
829.272656	8565.051455
829.589830	7725.550625
829.906960	6999.828638
830.224046	6475.596529
830.541088	6061.440535
830.858086	5809.569365
831.175041	5612.659375
831.491952	5551.663934
831.808819	5580.269962
832.125642	5831.052242
832.442421	6370.301949
832.759157	7475.567368
833.075849	9235.247653
833.392497	11075.057078
833.709101	12183.841222
834.025662	11936.670929
834.342179	10879.510720
834.658653	9580.637267
834.975083	8486.288467
835.291469	7579.440343
835.607811	6851.278437
835.924110	6335.059242
836.240366	5853.298854
836.556578	5405.954424
836.872746	5053.983583
837.188871	4787.762769
837.504952	4565.470569
837.820990	4398.177358
838.136984	4286.218373
838.452935	4235.436309
838.768842	4266.759519
839.084706	4546.777971
839.400526	5282.579745
839.716303	6186.630029
840.032037	6746.762715
840.347727	6597.511794
840.663373	6001.123129
840.978977	5425.743473
841.294537	4988.806505
841.610054	4657.660670
841.925527	4422.236265
842.240957	4217.515007
842.556344	4035.915002
842.871687	3884.347670
843.186987	3729.440574
843.502244	3613.216772
843.817458	3526.924821
844.132629	3460.139615
844.447756	3408.760175
844.762840	3362.265613
845.077881	3326.400324
845.392879	3293.577372
845.707833	3264.273144
846.022745	3239.185842
846.337613	3227.427351
846.652438	3205.253836
846.967221	3196.036086
847.281960	3179.609486
847.596656	3167.873680
847.911309	3155.459838
848.225919	3145.385092
848.540485	3133.646766
848.855009	3127.698204
849.169490	3114.399640
849.483928	3112.352932
849.798323	3102.419338
850.112675	3091.658995
850.426984	3092.236207
850.741251	3087.459714
851.055474	3083.635999
851.369654	3086.166658
851.683792	3082.206832
851.997887	3083.449476
852.311938	3084.336719
852.625947	3084.689600
852.939914	3077.425297
853.253837	3082.610124
853.567718	3081.589291
853.881555	3076.533013
854.195350	3082.184147
854.509103	3077.836152
854.822812	3078.244485
855.136479	3068.878021
855.450103	3078.050401
855.763685	3066.942218
856.077224	3067.857188
856.390720	3077.432859
856.704173	3087.830239
857.017584	3094.320725
857.330953	3095.175200
857.644278	3108.090636
857.957561	3113.197325
858.270802	3111.042232
858.584000	3108.244392
858.897155	3100.753237
859.210268	3091.200250
859.523339	3079.562747
859.836367	3078.511666
860.149352	3069.994637
860.462295	3068.530182
860.775195	3060.645817
861.088054	3055.894529
861.400869	3053.953685
861.713642	3052.587533
862.026373	3061.374264
862.339062	3066.506158
862.651708	3075.028229
862.964312	3089.720672
863.276873	3099.258535
863.589392	3129.152577
863.901869	3155.482524
864.214303	3180.320289
864.526696	3197.568597
864.839045	3211.696430
865.151353	3226.290571
865.463619	3227.122361
865.775842	3224.783266
866.088023	3230.336097
866.400162	3225.594891
866.712258	3223.833008
867.024313	3227.021538
867.336325	3222.751681
867.648296	3224.906774
867.960224	3219.795044
868.272110	3223.039026
868.583954	3225.927607
868.895755	3232.408011
869.207515	3228.934656
869.519233	3248.663211
869.830909	3255.067997
870.142542	3263.869852
870.454134	3270.723301
870.765684	3286.660908
871.077191	3306.084474
871.388657	3313.250474
871.700081	3331.890141
872.011463	3356.087679
872.322803	3372.645349
872.634101	3389.036661
872.945357	3410.454003
873.256571	3436.599947
873.567744	3451.615024
873.878874	3457.160293
874.189963	3473.158395
874.501010	3474.161585
874.812015	3471.209989
875.122979	3488.175992
875.433900	3483.550734
875.744780	3488.377638
876.055618	3495.674709
876.366415	3494.497599
876.677169	3495.969616
876.987882	3514.425280
877.298554	3532.034031
877.609183	3572.040628
877.919771	3622.215232
878.230317	3683.893749
878.540822	3789.621869
878.851285	3942.414201
879.161707	4159.188857
879.472087	4528.342471
879.782425	5148.245598
880.092722	6323.076419
880.402977	8251.489165
880.713191	10613.967942
881.023363	12994.032783
881.333494	14329.426876
881.643583	14789.560713
881.953631	14384.846800
882.263637	13539.200804
882.573602	12497.839572
882.883526	11546.271372
883.193408	10596.084448
883.503248	9688.512918
883.813048	8861.004994
884.122806	8094.263138
884.432522	7337.873292
884.742197	6684.746440
885.051831	6120.283403
885.361424	5622.918123
885.670975	5235.213063
885.980485	4911.823044
886.289954	4647.772447
886.599382	4436.253193
886.908768	4255.921038
887.218113	4095.718210
887.527417	3960.887509
887.836680	3841.765044
888.145901	3739.275865
888.455082	3667.620905
888.764221	3596.384360
889.073319	3537.307078
889.382376	3504.819362
889.691392	3480.485712
890.000366	3471.691419
890.309300	3471.608240
890.618193	3471.973724
890.927044	3465.266469
891.235855	3473.213848
891.544625	3487.568533
891.853353	3514.959643
892.162041	3575.821493
892.470687	3665.957324
892.779293	3782.997793
893.087858	3955.092703
893.396381	4231.108479
893.704864	4641.851612
894.013306	5211.466708
894.321707	5782.823523
894.630068	6134.938037
894.938387	6173.994377
895.246665	5999.852758
895.554903	5682.980951
895.863100	5341.747768
896.171256	5074.377571
896.479371	4840.352086
896.787446	4612.101242
897.095480	4420.648302
897.403473	4272.254376
897.711425	4129.584681
898.019336	4003.928881
898.327207	3880.839027
898.635038	3780.404119
898.942827	3675.933767
899.250576	3590.665171
899.558284	3505.663755
899.865952	3451.940178
900.173579	3388.600601
900.481165	3344.782892
900.788711	3300.783701
901.096216	3270.284720
901.403681	3242.860843
901.711105	3230.482290
902.018489	3225.357957
902.325832	3259.446239
902.633135	3319.536793
902.940397	3488.483503
903.247619	3888.977970
903.554800	4637.221312
903.861941	5600.210246
904.169041	6300.303007
904.476101	6506.397979
904.783121	6232.018057
905.090100	5835.639692
905.397039	5422.406229
905.703938	5066.604111
906.010796	4744.214761
906.317614	4491.403416
906.624391	4256.462962
906.931129	4061.874423
907.237826	3881.277607
907.544483	3711.078171
907.851099	3540.699774
908.157675	3380.002913
908.464211	3242.417222
908.770707	3141.092550
909.077163	3059.829150
909.383578	3003.421159
909.689954	2960.853656
909.996289	2928.111362
910.302584	2908.460944
910.608839	2893.861763
910.915054	2880.495143
911.221229	2877.467930
911.527363	2883.040926
911.833458	2891.978892
912.139513	2899.840571
912.445527	2914.200298
912.751502	2949.508539
913.057436	2993.227946
913.363331	3052.380845
913.669186	3140.477529
913.975000	3252.456680
914.280775	3438.140020
914.586510	3705.807645
914.892205	4078.149789
915.197859	4575.517589
915.503475	5157.780940
915.809050	5651.622453
916.114585	5934.723571
916.420081	6003.215208
916.725536	5938.285146
917.030952	5704.065577
917.336328	5492.881560
917.641665	5283.625784
917.946961	5059.599428
918.252218	4854.215259
918.557435	4634.322648
918.862612	4434.304787
919.167750	4265.703397
919.472848	4075.152823
919.777906	3912.212648
920.082925	3750.938575
920.387904	3599.222529
920.692843	3487.608863
920.997743	3385.684293
921.302603	3296.153401
921.607423	3233.338104
921.912204	3166.401663
922.216946	3119.042543
922.521647	3068.033628
922.826310	3025.871938
923.130932	2989.860455
923.435516	2952.419806
923.740059	2925.154725
924.044564	2891.169786
924.349028	2867.544419
924.653454	2837.534430
924.957840	2811.227169
925.262186	2794.903912
925.566493	2772.513628
925.870761	2746.004720
926.174989	2736.817217
926.479178	2721.003118
926.783328	2705.005016
927.087438	2698.242308
927.391509	2680.131963
927.695541	2669.525375
927.999533	2661.482214
928.303486	2653.174393
928.607400	2644.853968
928.911275	2639.875829
929.215110	2633.448358
929.518906	2630.254787
929.822663	2633.980199
930.126381	2629.622122
930.430060	2635.852988
930.733699	2633.781074
931.037299	2638.224851
931.340861	2637.445993
931.644383	2640.722743
931.947866	2638.739049
932.251309	2638.000520
932.554714	2638.711322
932.858080	2634.711167
933.161407	2627.499796
933.464694	2625.866462
933.767943	2625.009466
934.071153	2621.352109
934.374323	2615.441356
934.677455	2613.172837
934.980548	2609.303751
935.283602	2608.444235
935.586617	2607.264605
935.889593	2611.741149
936.192530	2610.077568
936.495428	2615.206942
936.798287	2625.569034
937.101108	2641.224337
937.403890	2661.701504
937.706632	2688.792665
938.009336	2720.967830
938.312002	2750.019999
938.614628	2774.383896
938.917216	2792.784107
939.219765	2801.827937
939.522275	2811.143990
939.824747	2810.831438
940.127179	2804.560243
940.429573	2796.542287
940.731929	2796.774181
941.034246	2788.357974
941.336524	2791.428037
941.638763	2780.897067
941.940964	2777.731222
942.243126	2757.188520
942.545250	2746.145872
942.847335	2732.481825
943.149381	2718.787531
943.451389	2707.220603
943.753359	2696.818182
944.055290	2687.555062
944.357182	2675.761282
944.659036	2670.205931
944.960851	2666.646876
945.262628	2663.652431
945.564367	2667.647545
945.866067	2663.649910
946.167729	2660.504230
946.469352	2660.277378
946.770937	2659.359888
947.072484	2651.160452
947.373992	2652.844197
947.675462	2650.583240
947.976893	2642.071251
948.278286	2640.629481
948.579641	2636.044552
948.880958	2632.223357
949.182236	2632.780405
949.483476	2628.886113
949.784678	2630.395939
950.085841	2630.380816
950.386967	2631.681433
950.688054	2636.490694
950.989103	2646.457055
951.290114	2654.011224
951.591087	2668.985972
951.892021	2677.865964
952.192917	2693.208716
952.493776	2699.706763
952.794596	2706.451827
953.095378	2704.730273
953.396122	2706.348483
953.696828	2699.978986
953.997496	2695.804910
954.298126	2686.551872
954.598718	2679.317817
954.899272	2670.672238
955.199788	2661.799807
955.500266	2644.213742
955.800706	2633.897020
956.101108	2615.411109
956.401472	2602.992227
956.701798	2587.770463
957.002087	2573.950139
957.302337	2565.085270
957.602550	2556.096893
957.902724	2542.115253
958.202861	2535.191228
958.502960	2526.860721
958.803022	2520.700431
959.103045	2510.429080
959.403031	2505.108143
959.702979	2500.278717
960.002889	2499.179746
960.302762	2489.992243
960.602596	2487.776656
960.902393	2483.867241
961.202153	2481.424802
961.501875	2478.117805
961.801559	2475.014975
962.101205	2474.281487
962.400814	2473.462299
962.700385	2467.987606
962.999918	2468.869808
963.299414	2466.540795
963.598873	2464.431072
963.898293	2461.713890
964.197677	2463.662296
964.497022	2461.353448
964.796331	2461.499641
965.095601	2457.978395
965.394835	2459.941925
965.694030	2457.386060
965.993189	2458.076698
966.292309	2457.466718
966.591393	2453.774073
966.890439	2455.241049
967.189447	2457.713735
967.488419	2456.168621
967.787353	2457.076029
968.086249	2456.594598
968.385108	2457.587706
968.683930	2459.594085
968.982714	2457.721296
969.281462	2461.141719
969.580172	2461.214816
969.878844	2464.897379
970.177480	2466.437451
970.476078	2469.628502
970.774639	2474.742752
971.073162	2477.351549
971.371649	2474.841055
971.670098	2476.751652
971.968510	2479.688124
972.266885	2478.296766
972.565223	2483.259782
972.863524	2483.484113
973.161788	2485.044350
973.460014	2486.365133
973.758204	2488.414362
974.056356	2488.061481
974.354471	2486.332365
974.652550	2489.200782
974.950591	2487.030565
975.248595	2487.605256
975.546563	2485.296408
975.844493	2485.934114
976.142386	2481.550831
976.440243	2479.428505
976.738062	2481.565954
977.035845	2476.058493
977.333590	2473.074130
977.631299	2472.867443
977.928971	2467.095322
978.226606	2468.716053
978.524204	2464.975517
978.821765	2465.852678
979.119290	2467.105404
979.416777	2462.059209
979.714228	2463.967286
980.011642	2463.279168
980.309020	2473.048925
980.606360	2471.947432
980.903664	2481.959164
981.200931	2495.330825
981.498162	2515.558454
981.795356	2543.138607
982.092513	2581.269895
982.389633	2624.064250
982.686717	2669.069151
982.983764	2700.248687
983.280775	2719.095041
983.577749	2719.805844
983.874686	2709.889894
984.171587	2691.454394
984.468451	2677.044256
984.765279	2659.165804
985.062070	2639.948926
985.358824	2621.553755
985.655543	2602.341918
985.952224	2578.724112
986.248869	2549.235883
986.545478	2522.744619
986.842050	2506.426404
987.138586	2487.285143
987.435086	2472.940540
987.731549	2460.199023
988.027975	2457.658282
988.324366	2451.659309
988.620719	2447.659153
988.917037	2444.253854
989.213318	2440.838472
989.509563	2437.697833
989.805772	2433.712801
990.101944	2431.708943
990.398080	2433.095260
990.694180	2433.526278
990.990244	2434.143820
991.286271	2432.573500
991.582262	2433.370003
991.878217	2435.721701
992.174136	2438.446445
992.470019	2435.759510
992.765865	2439.714295
993.061676	2442.713781
993.357450	2443.177567
993.653188	2445.105809
993.948890	2453.098558
994.244556	2456.634928
994.540186	2467.473408
994.835780	2476.635706
995.131337	2490.287150
995.426859	2508.488236
995.722345	2528.388191
996.017795	2545.172713
996.313208	2561.067471
996.608586	2569.244222
996.903928	2573.907290
997.199234	2573.095664
997.494504	2567.454613
997.789738	2561.765671
998.084936	2550.879299
998.380099	2539.692978
998.675225	2531.269210
998.970316	2514.225069
999.265371	2501.803666
999.560390	2489.011738
999.855373	2476.665953
1000.150320	2469.013481
1000.445232	2460.945114
1000.740108	2453.138888
1001.034948	2446.718978
1001.329752	2441.617330
1001.624521	2437.672627
1001.919254	2431.066195
1002.213951	2431.776998
1002.508613	2425.921698
1002.803239	2428.273396
1003.097829	2421.631676
1003.392384	2422.097983
1003.686903	2421.301480
1003.981386	2418.695204
1004.275834	2420.331058
1004.570246	2417.434915
1004.864623	2415.922569
1005.158964	2416.272929
1005.453270	2417.520615
1005.747540	2413.724626
1006.041775	2415.168917
1006.335974	2414.080028
1006.630138	2415.683114
1006.924266	2416.398958
1007.218359	2412.751683
1007.512416	2413.338978
1007.806438	2411.249420
1008.100425	2414.062383
1008.394376	2413.094482
1008.688292	2414.233783
1008.982172	2415.065573
1009.276017	2412.993659
1009.569827	2412.764286
1009.863602	2408.963256
1010.157341	2411.420819
1010.451045	2411.009965
1010.744714	2409.260684
1011.038347	2413.603638
1011.331945	2410.009296
1011.625508	2409.822773
1011.919036	2408.330592
1012.212528	2411.037691
1012.505986	2409.570715
1012.799408	2407.803791
1013.092795	2408.691034
1013.386147	2410.483164
1013.679464	2409.900911
1013.972745	2407.392937
1014.265992	2406.755231
1014.559204	2405.689027
1014.852380	2409.275808
1015.145521	2408.199522
1015.438628	2409.227917
1015.731699	2408.869995
1016.024736	2408.822104
1016.317737	2409.492578
1016.610703	2408.617937
1016.903635	2406.908986
1017.196531	2405.522669
1017.489393	2406.530900
1017.782219	2406.639284
1018.075011	2412.572722
1018.367768	2409.853020
1018.660490	2412.126580
1018.953177	2412.126580
1019.245829	2412.126580
