Dividing Wavelength (nm)	Counts (n)	Blue Motor Position (mm): 39.200000	Red Motor Position (mm): 0.000000	
326.493990	1970.153499
326.888308	1970.153499
327.282561	1970.153499
327.676750	1944.176433
328.070874	1948.784048
328.464933	1953.495006
328.858929	1964.295678
329.252859	1972.790023
329.646726	1990.232415
330.040528	2005.136586
330.434265	2024.887827
330.827938	2043.484644
331.221547	2064.027346
331.615091	2083.788669
332.008571	2103.875146
332.401986	2124.745523
332.795338	2144.728657
333.188625	2167.885197
333.581847	2184.321879
333.975006	2203.150589
334.368100	2220.996273
334.761129	2237.269118
335.154095	2252.223701
335.546996	2293.752726
335.939833	2373.539068
336.332606	2389.058260
336.725315	2403.634757
337.117960	2408.552402
337.510540	2418.760739
337.903056	2427.900351
338.295508	2432.883531
338.687896	2440.455344
339.080220	2448.163269
339.472480	2455.518312
339.864676	2459.271451
340.256807	2459.886472
340.648875	2460.877059
341.040879	2463.836216
341.432818	2465.550208
341.824694	2466.744962
342.216506	2463.879066
342.608253	2465.572893
342.999937	2462.394446
343.391557	2462.018880
343.783113	2462.046606
344.174605	2463.251442
344.566033	2458.517799
344.957397	2455.609053
345.348697	2453.569906
345.739934	2453.295163
346.131106	2453.806840
346.522215	2453.643003
346.913260	2446.479523
347.304241	2448.697631
347.695159	2444.291663
348.086012	2442.948195
348.476802	2443.137238
348.867528	2440.873760
349.258191	2439.298400
349.648789	2439.169850
350.039324	2437.798656
350.429796	2440.407453
350.820203	2437.299582
351.210548	2437.153389
351.600828	2433.092739
351.991045	2433.657348
352.381198	2434.310178
352.771288	2433.264138
353.161314	2431.608119
353.551276	2434.927719
353.941175	2434.960487
354.331010	2433.344797
354.720782	2435.797318
355.110490	2440.092381
355.500135	2434.040476
355.889717	2436.750096
356.279235	2433.894283
356.668689	2434.395878
357.058080	2434.095929
357.447408	2433.738007
357.836672	2436.051897
358.225873	2433.924530
358.615010	2433.748089
359.004084	2439.565581
359.393095	2439.913420
359.782043	2438.310333
360.170927	2440.886363
360.559748	2443.011209
360.948505	2441.203956
361.337199	2444.480706
361.725830	2443.505242
362.114398	2447.114709
362.502903	2445.057918
362.891344	2447.770059
363.279722	2445.587239
363.668037	2450.726695
364.056289	2442.958277
364.444478	2449.446242
364.832603	2448.959771
365.220665	2449.766356
365.608665	2449.105964
365.996601	2450.751901
366.384474	2449.710903
366.772284	2451.563527
367.160031	2452.914556
367.547715	2454.240380
367.935336	2450.948506
368.322893	2453.801799
368.710388	2454.139557
369.097820	2455.972016
369.485189	2458.858077
369.872495	2456.977726
370.259738	2453.630400
370.646918	2459.445371
371.034035	2457.015535
371.421090	2457.254990
371.808081	2458.792542
372.195010	2458.512757
372.581875	2459.833540
372.968678	2457.882613
373.355418	2461.764302
373.742096	2462.661627
374.128710	2463.498459
374.515262	2462.591051
374.901751	2463.954683
375.288177	2464.345372
375.674540	2464.650362
376.060841	2467.682616
376.447079	2466.823100
376.833254	2465.260342
377.219367	2463.334621
377.605417	2470.440127
377.991404	2463.395115
378.377329	2469.933492
378.763191	2465.736731
379.148991	2474.261322
379.534727	2472.103708
379.920402	2474.858699
380.306013	2476.076137
380.691563	2478.145531
381.077049	2473.716878
381.462474	2476.504636
381.847835	2478.931951
382.233134	2478.513535
382.618371	2483.191726
383.003545	2480.998824
383.388657	2480.618217
383.773706	2482.959833
384.158693	2482.735502
384.543618	2488.361429
384.928480	2483.557210
385.313280	2485.752632
385.698017	2489.767911
386.082692	2490.050216
386.467305	2490.723210
386.851856	2494.967862
387.236344	2493.576503
387.620770	2494.088180
388.005133	2495.000629
388.389435	2495.424086
388.773674	2499.706546
389.157851	2501.896928
389.541965	2502.683347
389.926018	2503.189983
390.310008	2504.672083
390.693936	2505.163595
391.077802	2511.490243
391.461606	2509.688031
391.845348	2510.920593
392.229027	2517.486696
392.612645	2520.745802
392.996200	2522.724455
393.379694	2530.389529
393.763125	2537.764737
394.146494	2545.318906
394.529801	2548.777138
394.913047	2562.237018
395.296230	2571.394274
395.679351	2578.517425
396.062410	2594.543253
396.445408	2606.531117
396.828343	2624.482666
397.211217	2643.074441
397.594028	2660.968017
397.976778	2685.372242
398.359466	2720.322562
398.742092	2742.566653
399.124656	2784.148611
399.507158	2827.056392
399.889598	2865.674151
400.271977	2922.503078
400.654294	2972.801191
401.036549	3032.881662
401.418742	3091.278388
401.800874	3172.496418
402.182944	3242.525607
402.564952	3344.871112
402.946898	3397.094945
403.328783	3474.844661
403.710606	3574.286462
404.092367	3694.220553
404.474067	3834.525947
404.855705	3888.186509
405.237282	3970.614415
405.618797	4150.165192
406.000250	4297.500475
406.381642	4483.508969
406.762972	4585.405812
407.144240	4645.138444
407.525447	4826.214170
407.906593	4921.580197
408.287677	5107.891161
408.668700	5277.195793
409.049661	5401.056943
409.430560	5580.146454
409.811399	5701.623138
410.192176	5887.876128
410.572891	6049.185490
410.953545	6373.296394
411.334138	6312.094266
411.714669	6687.128386
412.095139	6543.042126
412.475547	6895.617906
412.855894	6966.788916
413.236180	7260.811693
413.616405	7250.094200
413.996568	7533.875874
414.376670	7658.321798
414.756711	7737.397337
415.136691	8030.535392
415.516609	8264.034076
415.896466	8449.369577
416.276262	8759.579499
416.655997	9165.745265
417.035670	9334.669289
417.415283	9873.309016
417.794834	10080.649153
418.174324	10072.288399
418.553753	10136.787442
418.933121	10613.226892
419.312428	10627.977308
419.691674	10703.125788
420.070859	11158.462968
420.449983	11047.401308
420.829045	11575.593243
421.208047	11526.459638
421.586988	11981.562404
421.965867	12306.784883
422.344686	12431.281218
422.723444	13020.271989
423.102141	12072.101527
423.480777	13155.954645
423.859352	12853.835774
424.237866	13884.073701
424.616319	13749.225356
424.994712	14393.240322
425.373044	14322.822964
425.751314	15000.575852
426.129524	14347.774155
426.507673	15369.941194
426.885762	15202.776533
427.263789	15461.304546
427.641756	15681.136662
428.019662	15823.647561
428.397508	15928.901812
428.775292	16252.982469
429.153016	16292.495033
429.530679	16416.822490
429.908282	16512.294382
430.285824	16309.844164
430.663305	16997.651633
431.040726	16687.479519
431.418086	16582.021101
431.795385	17203.176955
432.172624	17642.397566
432.549802	17261.893794
432.926920	17481.252042
433.303977	17397.251296
433.680974	17668.984611
434.057910	17976.542887
434.434786	18031.521711
434.811601	17972.464593
435.188355	18995.425614
435.565050	18684.396504
435.941683	18651.225712
436.318257	19504.398151
436.694770	19340.195167
437.071222	19926.766184
437.447614	19045.776659
437.823946	19077.714889
438.200218	19235.061903
438.576429	19028.422487
438.952580	19310.737184
439.328670	19283.638462
439.704700	19686.199802
440.080670	19282.330283
440.456580	19850.584267
440.832429	20023.082470
441.208218	19067.322550
441.583947	19487.759822
441.959616	19599.686041
442.335224	19828.211627
442.710773	19944.329564
443.086261	20472.571911
443.461689	19867.388954
443.837057	20001.881897
444.212365	20616.106164
444.587612	20614.429981
444.962800	20220.219312
445.337927	20615.065166
445.712995	19399.542151
446.088002	21179.064417
446.462949	21373.486597
446.837837	21545.652084
447.212664	21503.545846
447.587431	24249.180042
447.962139	27092.116068
448.336786	29426.732387
448.711374	27907.134534
449.085901	24329.846065
449.460369	24271.393886
449.834776	24178.918960
450.209124	26607.729239
450.583412	26166.020818
450.957640	26682.597935
451.331808	25369.657142
451.705917	24046.911305
452.079965	24070.161107
452.453954	24406.416151
452.827883	24308.143897
453.201752	24120.902841
453.575562	24269.412713
453.949311	25355.546953
454.323001	25417.031386
454.696632	25192.631984
455.070202	26693.721241
455.443713	26838.157861
455.817164	27403.230878
456.190556	27923.944261
456.563888	27378.476292
456.937160	27801.179562
457.310373	26192.131475
457.683526	26600.326304
458.056619	26585.729643
458.429653	26530.965069
458.802628	27090.359226
459.175542	27198.673457
459.548398	28479.655855
459.921194	30030.803770
460.293930	30711.006659
460.666607	32703.570607
461.039224	34422.994758
461.411782	34787.225686
461.784280	33579.826490
462.156719	33072.623398
462.529099	32495.391118
462.901419	31227.515720
463.273680	30204.284998
463.645882	30300.167744
464.018024	30273.729413
464.390106	31107.634561
464.762130	33752.755711
465.134094	37801.349214
465.505999	43056.303436
465.877845	47599.792054
466.249631	48694.312254
466.621358	46893.128149
466.993026	44712.072937
467.364634	42621.629946
467.736184	40698.079393
468.107674	39473.378957
468.479105	38709.422339
468.850477	38035.336891
469.221790	36639.827039
469.593043	34933.227583
469.964238	34081.050772
470.335373	33983.993438
470.706449	35630.749356
471.077467	38142.174064
471.448425	42654.415090
471.819324	45523.890271
472.190164	43725.829161
472.560945	40209.478160
472.931667	37156.290730
473.302330	36064.724646
473.672934	35257.199856
474.043479	35750.491883
474.413965	34989.905276
474.784393	34626.009586
475.154761	35506.989029
475.525070	35531.138676
475.895321	35083.829534
476.265513	35669.316703
476.635645	36607.674560
477.005719	36431.274504
477.375734	36898.589466
477.745691	37564.266269
478.115588	38855.525060
478.485427	40817.161529
478.855207	44134.034073
479.224928	46748.101715
479.594591	48348.053040
479.964194	47309.850091
480.333739	47408.787776
480.703226	47435.490768
481.072653	48064.533507
481.442022	48583.432075
481.811333	48839.142083
482.180584	47545.619815
482.549777	47040.251703
482.918912	46524.524021
483.287988	46228.383959
483.657005	45387.998407
484.025964	44755.331079
484.394864	44768.538902
484.763706	44333.971276
485.132489	43457.871669
485.501213	43305.641426
485.869879	43453.115341
486.238487	43057.861153
486.607036	43246.917025
486.975527	42737.642019
487.343959	42931.519755
487.712333	43011.969009
488.080648	42922.526337
488.448905	43363.584448
488.817104	43160.592306
489.185244	44111.726967
489.553326	45768.197189
489.921350	48471.326896
490.289315	51413.808066
490.657222	52052.698699
491.025070	52343.341383
491.392861	51397.338617
491.760593	50106.094950
492.128267	48385.251714
492.495883	46859.871657
492.863440	45481.433673
493.230939	44143.884487
493.598380	43080.979884
493.965763	42756.727828
494.333088	41958.400622
494.700354	41511.255317
495.067563	41220.438714
495.434713	41093.600762
495.801805	41147.883907
496.168839	40788.908383
496.535815	40461.089710
496.902733	40505.721565
497.269593	40093.196384
497.636395	40043.762830
498.003139	40430.598291
498.369825	39882.453468
498.736453	40191.282115
499.103023	39734.661961
499.469535	39605.074060
499.835989	39703.288340
500.202385	39368.223009
500.568723	39395.351978
500.935003	39578.595400
501.301226	39390.449456
501.667390	39994.172999
502.033497	40246.618861
502.399546	39670.097383
502.765537	39002.172225
503.131470	39366.745951
503.497345	39707.409483
503.863163	38415.855786
504.228923	39009.282773
504.594625	39398.923636
504.960269	38696.436327
505.325856	39370.017659
505.691385	38753.950851
506.056856	38883.064883
506.422270	39313.627313
506.787625	38883.937003
507.152924	39067.666896
507.518164	39174.791415
507.883347	38403.429342
508.248472	38654.093155
508.613540	39103.524623
508.978550	39388.954754
509.343503	39139.266404
509.708398	39339.730407
510.073236	39866.881344
510.438016	39861.235252
510.802738	39325.559724
511.167403	39932.628073
511.532010	40164.538794
511.896561	40462.312190
512.261053	41266.855138
512.625488	40818.346201
512.989866	40693.328106
513.354186	40547.220344
513.718449	40529.079752
514.082655	41187.623323
514.446803	40871.941228
514.810894	41389.743345
515.174927	41306.644965
515.538904	41214.545605
515.902822	41863.631971
516.266684	41318.393374
516.630488	41731.044584
516.994235	41585.839188
517.357925	42145.959272
517.721558	42309.998418
518.085133	42623.762354
518.448651	42747.865479
518.812112	42523.680327
519.175516	42615.540232
519.538863	42958.805000
519.902152	42917.734720
520.265385	43361.711660
520.628560	43405.121035
520.991678	43203.248030
521.354739	43437.495325
521.717743	43763.063123
522.080690	43652.414837
522.443580	44198.467581
522.806413	44227.733999
523.169189	44185.511815
523.531908	44363.129309
523.894569	44211.241865
524.257174	44397.520061
524.619722	44698.129106
524.982213	44687.681315
525.344647	44626.718641
525.707025	44664.625598
526.069345	45042.694492
526.431608	44971.939377
526.793815	45293.191947
527.155964	44840.211507
527.518057	44994.755639
527.880093	44794.762984
528.242072	45320.144476
528.603995	45023.016348
528.965860	45029.973140
529.327669	45122.037212
529.689421	45026.638417
530.051117	45002.733265
530.412755	45137.987423
530.774337	45213.597169
531.135862	45034.618563
531.497331	45229.406228
531.858743	45142.844575
532.220098	45477.410832
532.581396	45203.230036
532.942638	44863.990629
533.303824	45167.994891
533.664953	45142.781560
534.026025	44882.199277
534.387040	45335.648545
534.747999	45292.544159
535.108902	45454.324868
535.469748	44999.804355
535.830537	45104.352845
536.191270	45306.094780
536.551947	44969.547350
536.912567	45271.744358
537.273131	45378.153033
537.633638	44892.949537
537.994089	45256.139466
538.354483	44857.941245
538.714821	45421.902687
539.075103	45757.237720
539.435328	45540.410132
539.795497	45412.972283
540.155609	45420.017296
540.515665	45875.319187
540.875665	45339.373958
541.235609	45668.377302
541.595496	45629.686446
541.955328	46309.183573
542.315102	45684.750969
542.674821	45479.873436
543.034483	45525.566454
543.394090	45471.699205
543.753640	45455.822091
544.113134	46442.259952
544.472571	45491.987328
544.831953	46715.934112
545.191278	45942.641277
545.550548	45650.105639
545.909761	46108.981709
546.268918	46314.265056
546.628019	46620.489946
546.987064	46175.625763
547.346053	45480.793446
547.704986	46339.962338
548.063863	45899.607467
548.422684	46116.571167
548.781449	45969.014073
549.140158	46352.882815
549.498811	46209.164560
549.857408	45638.379916
550.215949	46450.915613
550.574434	46409.053872
550.932864	46178.128696
551.291237	46883.348311
551.649555	46500.742378
552.007817	46737.222905
552.366022	46394.492499
552.724173	46570.945486
553.082267	46965.410733
553.440305	47264.706558
553.798288	46577.385560
554.156215	46883.587765
554.514086	47090.121318
554.871902	46840.284254
555.229661	46859.065073
555.587365	46692.480144
555.945014	46777.542053
556.302606	46704.281485
556.660143	46917.000533
557.017625	46996.620517
557.375050	46805.522978
557.732421	47140.414389
558.089735	47123.670197
558.446994	47053.013384
558.804197	47518.695012
559.161345	47438.283567
559.518437	46704.697380
559.875474	47001.596136
560.232455	47161.919952
560.589381	47329.654263
560.946251	47028.228552
561.303065	47703.536480
561.659825	47513.976492
562.016528	47193.810291
562.373177	46911.717404
562.729770	47392.111639
563.086307	46905.171466
563.442789	47361.605097
563.799216	47387.995537
564.155587	47201.992083
564.511904	47212.903661
564.868164	47316.814445
565.224370	47547.749702
565.580520	47288.926782
565.936615	47476.157756
566.292654	47206.161118
566.648638	47442.810523
567.004567	47393.571053
567.360441	47431.906508
567.716260	47287.064075
568.072023	47583.327646
568.427732	47568.448680
568.783385	47111.331973
569.138982	47510.878703
569.494525	47483.699322
569.850013	47234.890653
570.205445	47192.802060
570.560823	47161.123449
570.916145	47030.983542
571.271412	47050.933908
571.626625	46815.081005
571.981782	46873.845736
572.336884	46552.608289
572.691931	46878.017290
573.046923	46473.928480
573.401860	46333.635689
573.756743	46309.554097
574.111570	46427.277643
574.466342	46283.934954
574.821059	46395.878816
575.175722	45923.250478
575.530330	45933.809175
575.884882	45655.605538
576.239380	45624.118491
576.593823	45595.217556
576.948211	45506.084915
577.302544	45038.648966
577.656823	45074.292444
578.011047	45288.939734
578.365216	45011.426735
578.719330	44815.416591
579.073389	44677.281414
579.427394	44746.176343
579.781344	44708.249222
580.135239	44355.638155
580.489080	44455.059791
580.842866	43949.084221
581.196597	44400.401080
581.550273	44330.230739
581.903895	44203.226430
582.257463	44618.441067
582.610975	44009.484805
582.964434	44298.673116
583.317837	43925.491621
583.671186	43770.897076
584.024481	43995.717414
584.377721	43527.815158
584.730906	43813.741843
585.084037	43830.629708
585.437113	43549.996235
585.790135	43578.660236
586.143103	43194.012636
586.496016	43302.505828
586.848874	43332.331815
587.201679	43356.242008
587.554428	42853.742313
587.907124	43027.919219
588.259765	42776.201805
588.612352	43033.530024
588.964884	42433.935185
589.317362	42713.822567
589.669786	42664.235258
590.022155	42428.573918
590.374470	42830.215248
590.726731	42369.811708
591.078937	41904.109916
591.431090	41981.221926
591.783188	41642.373208
592.135232	41327.449807
592.487222	41564.298338
592.839157	41659.218224
593.191038	41321.965032
593.542866	41113.208330
593.894639	40496.133291
594.246358	40785.177929
594.598022	40770.450198
594.949633	40368.829033
595.301190	40328.721613
595.652692	40153.065128
596.004141	40476.316515
596.355535	39507.820120
596.706876	39468.347886
597.058162	39293.147625
597.409395	39758.471331
597.760573	39837.917395
598.111698	39413.442159
598.462768	39426.481103
598.813785	39470.744954
599.164748	38925.730689
599.515657	39311.633536
599.866511	38788.102147
600.217312	39398.396835
600.568060	38399.892972
600.918753	39116.061973
601.269392	39070.195034
601.619978	38711.237154
601.970510	38935.245867
602.320988	39118.365780
602.671412	39429.127709
603.021783	39150.568671
603.372100	38813.350767
603.722363	38907.030528
604.072572	38992.352057
604.422728	39008.158595
604.772830	38831.347686
605.122878	38914.380531
605.472872	38850.899801
605.822813	39130.719128
606.172701	38964.938263
606.522534	39203.808297
606.872314	39463.256320
607.222041	39224.557686
607.571714	39589.955640
607.921333	39057.335051
608.270899	39356.789672
608.620411	39695.978667
608.969870	39486.332202
609.319276	39471.586827
609.668627	39521.552223
610.017926	40016.096978
610.367171	40165.700780
610.716362	40242.074260
611.065500	40203.524557
611.414585	40408.911247
611.763616	40673.415548
612.112594	40616.740376
612.461518	40841.124654
612.810389	41114.420728
613.159207	40981.677065
613.507971	41054.680534
613.856682	41520.369723
614.205340	41421.157295
614.553945	42107.656585
614.902496	41577.158322
615.250994	42020.240457
615.599439	42108.609363
615.947830	42313.461691
616.296169	42355.136909
616.644454	42491.225378
616.992686	42661.707119
617.340864	43178.710213
617.688990	42898.162440
618.037063	43479.344464
618.385082	43473.136283
618.733048	43764.477167
619.080961	43785.087924
619.428821	43805.998630
619.776628	43898.032456
620.124382	43727.457453
620.472083	43857.317577
620.819731	43975.449455
621.167326	43639.688444
621.514868	43621.194972
621.862357	43185.646841
622.209793	43201.972618
622.557176	42883.225501
622.904506	42622.786891
623.251783	42308.468428
623.599007	42067.070255
623.946179	41848.465660
624.293297	41814.079949
624.640363	41242.095511
624.987376	41221.489794
625.334336	40971.478810
625.681243	40638.311473
626.028097	40604.636566
626.374899	40443.712852
626.721647	40422.852558
627.068343	40321.099388
627.414987	40082.148696
627.761577	39861.830108
628.108115	40211.781967
628.454600	39667.236528
628.801032	39845.025422
629.147412	39808.469495
629.493739	39823.018265
629.840014	39477.026232
630.186236	39812.784722
630.532405	39439.688926
630.878521	39649.910083
631.224585	39533.925736
631.570597	39251.376624
631.916556	39407.407898
632.262462	39353.061738
632.608316	39365.238646
632.954117	39268.750961
633.299866	39257.612532
633.645562	39180.818114
633.991206	38674.373717
634.336797	38232.171263
634.682336	38266.922457
635.027823	37994.755602
635.373257	37825.342586
635.718639	37580.022396
636.063968	37450.041285
636.409245	36886.231077
636.754470	36932.203880
637.099642	36697.220575
637.444762	36222.041414
637.789829	36374.712758
638.134845	36009.118199
638.479808	35980.980999
638.824719	35878.338065
639.169577	35498.081310
639.514383	35551.242798
639.859137	35261.648674
640.203839	35499.601218
640.548489	35126.442407
640.893086	35199.892019
641.237632	34961.248837
641.582125	35070.828398
641.926566	35010.929408
642.270955	34987.795553
642.615292	35016.630953
642.959576	34985.796736
643.303809	34966.322758
643.647990	35111.099656
643.992118	35090.277170
644.336195	35087.302889
644.680219	35177.932753
645.024192	35474.708000
645.368112	35998.466241
645.711981	36017.118510
646.055797	36880.776549
646.399562	36819.471077
646.743274	37759.805065
647.086935	38198.138433
647.430544	38088.205992
647.774101	38197.798156
648.117606	38430.538146
648.461059	38745.625385
648.804460	38352.007052
649.147810	37733.470078
649.491108	37484.532860
649.834354	37117.698177
650.177548	36301.172406
650.520690	35858.944746
650.863781	35879.668930
651.206820	35715.670113
651.549807	35292.394671
651.892742	34823.804298
652.235626	34629.770286
652.578458	34481.696474
652.921238	33885.708582
653.263967	34221.404057
653.606644	33894.525560
653.949269	33853.931668
654.291843	33454.458035
654.634365	33868.233422
654.976836	33470.214161
655.319255	33456.749239
655.661622	33471.156857
656.003938	33239.213368
656.346203	33110.187556
656.688416	33311.216169
657.030577	33116.410861
657.372687	32969.168839
657.714746	33235.460229
658.056753	33353.642519
658.398708	32809.076916
658.740612	32854.558206
659.082465	33130.442912
659.424266	32967.719507
659.766016	33085.117898
660.107715	32960.803044
660.449362	33089.546552
660.790958	33073.777822
661.132503	33092.268775
661.473996	33132.955927
661.815438	33237.456526
662.156829	33428.473407
662.498168	33204.658779
662.839456	33239.258739
663.180693	33386.251223
663.521879	33547.396747
663.863013	33496.695342
664.204097	33492.654857
664.545129	33949.771565
664.886110	33916.447017
665.227040	33996.424923
665.567918	34118.030157
665.908746	34168.950852
666.249522	34343.326884
666.590248	34341.703632
666.930922	34453.576918
667.271545	34404.934825
667.612118	34501.112478
667.952639	34283.397647
668.293109	34353.615879
668.633528	34235.637755
668.973896	34140.770802
669.314213	34184.893501
669.654480	33917.422480
669.994695	33955.773058
670.334859	33843.481356
670.674973	33751.031636
671.015035	33896.688215
671.355047	33852.638612
671.695008	33816.932120
672.034918	33703.874162
672.374777	33789.750218
672.714585	33629.665857
673.054342	33849.049311
673.394049	33614.708754
673.733705	33889.711258
674.073310	33555.828077
674.412864	33622.668736
674.752368	33229.310022
675.091820	33524.714075
675.431223	33109.038173
675.770574	32829.692715
676.109875	32688.890768
676.449125	32415.902204
676.788324	32337.222396
677.127473	31807.127425
677.466571	31721.079970
677.805619	31383.002549
678.144616	31389.084701
678.483562	31299.437862
678.822458	30981.179737
679.161303	30920.670768
679.500098	30818.030355
679.838842	30712.786186
680.177535	30870.092871
680.516179	31139.081279
680.854771	31382.853835
681.193314	32256.495879
681.531805	33382.271232
681.870247	34169.555790
682.208638	34895.870113
682.546978	35130.429960
682.885268	35211.519440
683.223508	34676.080846
683.561697	34337.118703
683.899836	34150.422091
684.237925	33642.719925
684.575963	33489.882223
684.913951	33036.657286
685.251889	33195.367933
685.589776	33186.288815
685.927614	33180.733463
686.265401	33312.385716
686.603137	33422.567695
686.940824	33943.291161
687.278460	34334.509906
687.616046	34471.974609
687.953582	35078.380047
688.291068	34951.179132
688.628504	35223.010750
688.965889	35147.642980
689.303224	34749.633801
689.640510	34393.345212
689.977745	33669.964841
690.314930	32866.697305
690.652065	32332.745851
690.989150	31578.150655
691.326185	30690.403463
691.663170	29989.370527
692.000105	29232.804240
692.336990	28539.688436
692.673825	28095.686290
693.010610	27584.619155
693.347345	27000.031831
693.684030	26353.924787
694.020665	26074.087816
694.357251	25411.728092
694.693786	25370.589756
695.030272	25112.407062
695.366707	24592.172588
695.703093	24293.854747
696.039429	24294.948677
696.375716	24030.320868
696.711952	23992.398788
697.048139	23834.935827
697.384276	23675.819368
697.720363	23786.891110
698.056400	23587.566408
698.392388	23379.265931
698.728326	23340.640610
699.064214	23126.318475
699.400053	23066.888312
699.735842	22720.936609
700.071581	22435.740892
700.407270	22140.717445
700.742910	21957.131225
701.078501	21675.129079
701.414042	21409.175446
701.749533	21094.695666
702.084974	20758.440622
702.420366	20952.129315
702.755709	20522.169303
703.091002	20228.496886
703.426246	20240.575491
703.761440	20145.186778
704.096584	19875.031343
704.431679	19828.372944
704.766725	19740.853472
705.101721	19669.770682
705.436668	19773.542834
705.771565	19447.382701
706.106413	19797.344642
706.441212	19779.861920
706.775961	19907.216590
707.110661	19982.977570
707.445311	20342.084165
707.779913	20173.336581
708.114465	20423.176165
708.448967	20707.887932
708.783421	21407.476577
709.117825	21677.027073
709.452180	21893.826936
709.786485	22315.645484
710.120742	23111.293316
710.454949	23124.521304
710.789107	23606.926959
711.123216	24297.454131
711.457275	24431.044708
711.791286	24962.137827
712.125247	25031.524269
712.459159	24722.398194
712.793023	25375.401537
713.126837	24253.374282
713.460602	24521.299006
713.794318	24137.571416
714.127985	23746.224122
714.461602	22845.301874
714.795171	22804.700421
715.128691	21793.142491
715.462162	21241.577245
715.795584	20820.431691
716.128957	20562.024666
716.462281	20147.319186
716.795556	19917.687066
717.128782	19410.736033
717.461960	18868.890132
717.795088	18805.643816
718.128167	18404.748577
718.461198	17938.207432
718.794180	17802.287842
719.127113	17432.549455
719.459997	17239.967296
719.792833	16901.224442
720.125619	16864.378649
720.458357	16544.630863
720.791046	16384.554064
721.123686	16218.067438
721.456278	15985.277035
721.788821	15943.742969
722.121315	15679.697413
722.453761	15759.138436
722.786158	15680.486353
723.118506	15687.778382
723.450805	15554.502877
723.783056	15712.611106
724.115259	15613.002947
724.447412	15556.461366
724.779518	15788.810667
725.111574	15815.969883
725.443582	16007.558935
725.775542	16000.405538
726.107453	16466.172865
726.439315	16352.179774
726.771129	16754.415960
727.102895	17124.726519
727.434612	17326.120615
727.766281	17456.018547
728.097901	17713.235860
728.429473	17759.667407
728.760996	17731.822594
729.092471	17807.933935
729.423897	17688.395574
729.755276	17541.030044
730.086606	17660.848189
730.417887	18186.612809
730.749120	18699.172126
731.080305	18883.126351
731.411442	19205.616524
731.742530	19276.633779
732.073570	19375.924345
732.404562	19669.972328
732.735506	19476.306321
733.066401	19177.575106
733.397249	18660.445982
733.728048	18020.015277
734.058798	17180.590065
734.389501	16510.119124
734.720156	16046.315326
735.050762	15520.013823
735.381320	15168.191697
735.711831	14932.369040
736.042293	14585.351133
736.372707	14595.713225
736.703073	14383.793199
737.033391	14578.664042
737.363661	14549.490885
737.693883	14646.568385
738.024056	14824.185879
738.354182	15012.878788
738.684260	15289.441529
739.014290	15521.382497
739.344272	15712.359048
739.674207	15987.565719
740.004093	16108.535767
740.333931	16091.912563
740.663722	16123.323992
740.993464	16113.103053
741.323159	15934.953717
741.652806	15664.551266
741.982405	15449.147803
742.311956	15114.170692
742.641460	14981.384179
742.970915	14675.184494
743.300323	14345.341798
743.629683	14130.429848
743.958996	13855.508002
744.288260	13589.788783
744.617477	13286.404583
744.946647	13209.950444
745.275768	12934.595059
745.604842	12759.402360
745.933869	12581.666399
746.262847	12544.427395
746.591778	12470.377887
746.920662	12362.890404
747.249498	12364.891742
747.578286	12477.627066
747.907027	12629.365797
748.235720	12847.914939
748.564365	12871.222714
748.892963	12778.404989
749.221514	12830.028925
749.550017	12689.998274
749.878473	12651.325063
750.206881	12429.322730
750.535242	12333.664315
750.863555	12256.005340
751.191821	12151.676140
751.520039	12170.842607
751.848210	12082.471180
752.176334	12119.944598
752.504411	12023.106553
752.832440	11869.900846
753.160421	11923.755493
753.488356	11803.707976
753.816243	11711.477545
754.144082	11567.875237
754.471875	11515.603513
754.799620	11466.391769
755.127318	11436.840525
755.454969	11389.186498
755.782572	11351.168636
756.110129	11361.019051
756.437638	11283.433172
756.765100	11273.113930
757.092515	11275.763057
757.419882	11295.799123
757.747203	11290.566405
758.074477	11366.271933
758.401703	11325.451190
758.728882	11484.794501
759.056014	11530.910976
759.383099	11638.675722
759.710138	11733.920762
760.037129	11826.960298
760.364073	11846.401508
760.690970	11828.394506
761.017820	11828.734784
761.344623	12013.856035
761.671379	12333.104747
761.998088	12966.170326
762.324751	14517.716492
762.651366	17398.372952
762.977935	21046.885363
763.304456	23254.356221
763.630931	23714.923598
763.957359	22521.236341
764.283740	20604.844227
764.610074	18731.511128
764.936362	16606.987416
765.262602	15095.846098
765.588796	13628.240184
765.914943	12600.961415
766.241044	11756.122004
766.567097	11126.958277
766.893104	10583.007695
767.219064	10223.901101
767.544978	9841.940436
767.870845	9534.442654
768.196665	9344.539868
768.522438	9148.355804
768.848165	8982.862285
769.173846	8820.516967
769.499479	8695.577010
769.825066	8541.728556
770.150607	8357.716359
770.476101	8292.423334
770.801548	8187.040533
771.126949	8044.930407
771.452303	7965.267573
771.777611	7797.500493
772.102872	7773.108871
772.428087	7656.897672
772.753256	7532.406377
773.078378	7446.442101
773.403453	7297.901983
773.728482	7201.038732
774.053465	7132.048021
774.378401	7050.066257
774.703291	6951.829292
775.028135	6858.101639
775.352932	6822.332132
775.677683	6740.494040
776.002388	6656.760475
776.327046	6652.967007
776.651658	6566.554068
776.976224	6495.131000
777.300743	6475.707434
777.625216	6409.123874
777.949643	6371.264809
778.274024	6371.738677
778.598359	6303.121012
778.922647	6304.477082
779.246889	6269.262102
779.571086	6279.288957
779.895236	6287.695081
780.219339	6277.390963
780.543397	6280.264420
780.867409	6325.218910
781.191374	6321.216234
781.515294	6292.637932
781.839167	6346.545511
782.162995	6309.467825
782.486776	6266.305465
782.810511	6224.146296
783.134201	6147.235932
783.457844	6133.987780
783.781441	6092.758703
784.104993	6046.163318
784.428498	6013.630232
784.751958	5997.632130
785.075372	5973.127081
785.398739	5937.435712
785.722061	5961.514783
786.045337	5967.912008
786.368568	6068.273819
786.691752	6090.729639
787.014891	6340.425550
787.337983	6621.890814
787.661030	7061.232412
787.984031	7483.277813
788.306987	7749.123061
788.629897	7831.621543
788.952760	7741.924293
789.275579	7556.994605
789.598351	7265.469719
789.921078	7001.981211
790.243759	6723.762451
790.566395	6520.508169
790.888984	6326.804353
791.211529	6188.956521
791.534027	6022.157343
791.856480	5884.952259
792.178888	5824.478578
792.501249	5758.547847
792.823566	5658.753166
793.145836	5654.871477
793.468062	5636.675432
793.790241	5598.110605
794.112375	5634.969002
794.434464	5730.806378
794.756507	5768.652840
795.078505	5886.320933
795.400457	6102.614159
795.722364	6343.107444
796.044226	6537.302773
796.366042	6691.183994
796.687812	6640.762373
797.009538	6666.389079
797.331218	6570.997845
797.652852	6504.061404
797.974442	6381.919288
798.295986	6307.305170
798.617484	6182.256828
798.938938	6075.281023
799.260346	6006.940621
799.581709	5868.742429
799.903026	5818.265356
800.224299	5743.590744
800.545526	5630.028671
800.866708	5566.167334
801.187845	5512.632801
801.508936	5438.691677
801.829983	5409.591616
802.150984	5306.671419
802.471940	5275.948107
802.792851	5264.562661
803.113717	5236.279268
803.434538	5214.468715
803.755314	5184.418397
804.076045	5171.863404
804.396731	5136.149349
804.717372	5157.135673
805.037967	5158.222041
805.358518	5184.398233
805.679024	5246.114559
805.999485	5254.041773
806.319901	5273.180514
806.640272	5291.391682
806.960598	5334.349874
807.280879	5326.750335
807.601115	5362.441704
807.921306	5327.370397
808.241453	5324.701106
808.561554	5329.926262
808.881611	5299.152538
809.201623	5296.216066
809.521590	5244.821503
809.841513	5229.632506
810.161390	5244.284620
810.481223	5155.711547
810.801011	5147.663345
811.120755	5118.258294
811.440453	5063.294594
811.760107	5036.889030
812.079716	5006.899206
812.399281	4957.783244
812.718801	4951.670845
813.038276	4918.288324
813.357707	4883.852202
813.677093	4907.449843
813.996434	4845.730997
814.315731	4858.338922
814.634983	4859.838666
814.954191	4865.068863
815.273354	4924.277215
815.592473	4964.392197
815.911547	5043.520668
816.230577	5093.342391
816.549562	5179.241132
816.868502	5230.638216
817.187399	5283.167039
817.506250	5365.327765
817.825058	5392.708792
818.143821	5544.318973
818.462539	5712.527154
818.781213	5943.147339
819.099843	6305.359284
819.418429	6933.557630
819.736970	7549.095117
820.055466	8258.168694
820.373919	9158.468359
820.692327	10611.563311
821.010691	13301.245740
821.329011	19506.739767
821.647286	29063.378621
821.965517	39395.422554
822.283704	44831.732286
822.601847	46298.163610
822.919945	41680.139012
823.237999	36561.356438
823.556010	31377.427033
823.873976	26685.327720
824.191897	22479.629177
824.509775	19431.951729
824.827609	16668.678536
825.145398	15123.658143
825.463144	14378.424370
825.780845	14671.975800
826.098502	15929.105979
826.416116	18391.180311
826.733685	20675.322078
827.051210	21188.899708
827.368692	19757.837119
827.686129	17199.627982
828.003522	14739.867539
828.320872	12522.591638
828.638177	10884.609848
828.955439	9633.957552
829.272656	8582.458559
829.589830	7741.531083
829.906960	7019.761360
830.224046	6486.558518
830.541088	6080.881745
830.858086	5820.838865
831.175041	5619.510303
831.491952	5561.811777
831.808819	5596.212611
832.125642	5841.240414
832.442421	6386.040431
832.759157	7493.224009
833.075849	9263.309236
833.392497	11106.218971
833.709101	12220.016542
834.025662	11966.081020
834.342179	10906.012066
834.658653	9610.576680
834.975083	8506.614399
835.291469	7603.204342
835.607811	6873.603187
835.924110	6352.068095
836.240366	5868.989446
836.556578	5416.129993
836.872746	5064.312907
837.188871	4788.410557
837.504952	4574.678237
837.820990	4409.956014
838.136984	4293.878406
838.452935	4246.287393
838.768842	4274.336373
839.084706	4556.583015
839.400526	5301.962982
839.716303	6196.722419
840.032037	6763.718636
840.347727	6614.205575
840.663373	6016.002095
840.978977	5442.270896
841.294537	4998.130119
841.610054	4664.365405
841.925527	4434.229170
842.240957	4225.555648
842.556344	4045.994789
842.871687	3886.495202
843.186987	3740.891555
843.502244	3619.644243
843.817458	3532.258362
844.132629	3461.530974
844.447756	3415.379210
844.762840	3367.586551
845.077881	3331.496931
845.392879	3296.491158
845.707833	3272.870832
846.022745	3248.111205
846.337613	3234.714339
846.652438	3209.841286
846.967221	3201.997250
847.281960	3180.378262
847.596656	3170.432065
847.911309	3160.410252
848.225919	3148.702172
848.540485	3138.085502
848.855009	3131.451343
849.169490	3116.816874
849.483928	3111.947119
849.798323	3106.306068
850.112675	3094.635797
850.426984	3096.064964
850.741251	3091.043975
851.055474	3085.145825
851.369654	3086.907708
851.683792	3082.824373
851.997887	3086.141453
852.311938	3088.571289
852.625947	3087.331165
852.939914	3082.660536
853.253837	3086.615321
853.567718	3086.083479
853.881555	3075.665935
854.195350	3082.748756
854.509103	3083.126843
854.822812	3077.354721
855.136479	3072.822724
855.450103	3078.912438
855.763685	3073.750296
856.077224	3076.127200
856.390720	3082.201791
856.704173	3094.512288
857.017584	3098.283072
857.330953	3102.832713
857.644278	3110.782612
857.957561	3110.681789
858.270802	3109.744135
858.584000	3112.052983
858.897155	3107.914196
859.210268	3097.703339
859.523339	3083.003334
859.836367	3080.011409
860.149352	3075.819690
860.462295	3069.616550
860.775195	3062.271589
861.088054	3060.000549
861.400869	3059.342679
861.713642	3058.836043
862.026373	3064.562793
862.339062	3070.702919
862.651708	3076.071748
862.964312	3092.533636
863.276873	3104.793722
863.589392	3134.042496
863.901869	3159.477638
864.214303	3179.312058
864.526696	3197.480376
864.839045	3216.601473
865.151353	3229.600088
865.463619	3228.208730
865.775842	3227.896178
866.088023	3238.686768
866.400162	3228.438102
866.712258	3231.041858
867.024313	3226.489696
867.336325	3229.602609
867.648296	3227.271075
867.960224	3224.185889
868.272110	3231.137640
868.583954	3227.087073
868.895755	3237.469329
869.207515	3233.660738
869.519233	3251.156062
869.830909	3256.552617
870.142542	3268.948814
870.454134	3277.816204
870.765684	3289.662916
871.077191	3306.996923
871.388657	3318.359684
871.700081	3336.495235
872.011463	3360.339893
872.322803	3377.479816
872.634101	3392.688977
872.945357	3417.723347
873.256571	3441.220165
873.567744	3457.797999
873.878874	3461.893937
874.189963	3482.560147
874.501010	3475.421873
874.812015	3477.690392
875.122979	3493.658247
875.433900	3492.952486
875.744780	3492.289574
876.055618	3500.912468
876.366415	3498.840553
876.677169	3502.344155
876.987882	3522.430633
877.298554	3540.329249
877.609183	3579.551947
877.919771	3628.166314
878.230317	3692.940100
878.540822	3797.657468
878.851285	3953.900470
879.161707	4169.555990
879.472087	4545.724370
879.782425	5169.607487
880.092722	6349.681109
880.402977	8284.498640
880.713191	10664.631538
881.023363	13044.230073
881.333494	14391.410383
881.643583	14841.320761
881.953631	14432.735241
882.263637	13598.283128
882.573602	12553.592213
882.883526	11596.902201
883.193408	10643.241922
883.503248	9722.023989
883.813048	8891.488851
884.122806	8130.665310
884.432522	7363.409256
884.742197	6701.137752
885.051831	6141.264685
885.361424	5644.927801
885.670975	5250.291155
885.980485	4927.869037
886.289954	4662.331299
886.599382	4443.416673
886.908768	4266.562914
887.218113	4103.859673
887.527417	3970.004436
887.836680	3846.236547
888.145901	3748.100405
888.455082	3669.095442
888.764221	3600.659258
889.073319	3542.320505
889.382376	3512.194570
889.691392	3484.387565
890.000366	3480.223572
890.309300	3473.402891
890.618193	3476.104949
890.927044	3472.765185
891.235855	3479.132162
891.544625	3494.084225
891.853353	3525.016745
892.162041	3583.814242
892.470687	3672.407480
892.779293	3795.086480
893.087858	3965.623673
893.396381	4241.468050
893.704864	4657.332995
894.013306	5224.361980
894.321707	5802.607532
894.630068	6157.315719
894.938387	6196.006575
895.246665	6013.161404
895.554903	5703.311924
895.863100	5361.257033
896.171256	5092.780303
896.479371	4852.944888
896.787446	4626.710506
897.095480	4428.003345
897.403473	4279.203607
897.711425	4135.946618
898.019336	4011.132689
898.327207	3894.097262
898.635038	3789.863844
898.942827	3681.451310
899.250576	3598.105914
899.558284	3513.230527
899.865952	3459.539718
900.173579	3395.489338
900.481165	3349.128366
900.788711	3308.063127
901.096216	3274.118518
901.403681	3248.007861
901.711105	3237.718866
902.018489	3233.275089
902.325832	3266.639966
902.633135	3323.708348
902.940397	3495.795696
903.247619	3896.418713
903.554800	4653.620185
903.861941	5621.602382
904.169041	6329.614796
904.476101	6533.721033
904.783121	6254.778867
905.090100	5853.235840
905.397039	5442.457419
905.703938	5079.748920
906.010796	4761.334520
906.317614	4501.528574
906.624391	4264.296915
906.931129	4069.307605
907.237826	3885.693658
907.544483	3718.244172
907.851099	3548.548851
908.157675	3389.167731
908.464211	3245.792274
908.770707	3144.006337
909.077163	3069.271231
909.383578	3004.207579
909.689954	2959.255610
909.996289	2930.450457
910.302584	2912.360277
910.608839	2897.995509
910.915054	2887.157028
911.221229	2885.337171
911.527363	2885.407748
911.833458	2892.805641
912.139513	2906.411715
912.445527	2920.988211
912.751502	2954.315279
913.057436	2999.146261
913.363331	3055.130795
913.669186	3141.866367
913.975000	3258.508585
914.280775	3442.240998
914.586510	3714.738049
914.892205	4094.336934
915.197859	4589.597532
915.503475	5177.990926
915.809050	5671.832439
916.114585	5960.899763
916.420081	6027.241347
916.725536	5964.151307
917.030952	5727.388475
917.336328	5519.201424
917.641665	5302.910718
917.946961	5075.965534
918.252218	4873.772415
918.557435	4648.803363
918.862612	4450.509576
919.167750	4274.817803
919.472848	4084.426025
919.777906	3920.522990
920.082925	3760.436109
920.387904	3602.116152
920.692843	3495.591530
920.997743	3391.900036
921.302603	3301.774288
921.607423	3235.271386
921.912204	3172.453568
922.216946	3124.121506
922.521647	3072.363979
922.826310	3032.150695
923.130932	2997.704491
923.435516	2954.506843
923.740059	2926.566248
924.044564	2894.224726
924.349028	2868.192207
924.653454	2839.722291
924.957840	2817.057263
925.262186	2797.681588
925.566493	2774.056221
925.870761	2750.388003
926.174989	2737.669172
926.479178	2725.575444
926.783328	2706.855119
927.087438	2695.018490
927.391509	2684.406861
927.695541	2669.288441
927.999533	2659.183448
928.303486	2653.471821
928.607400	2645.965543
928.911275	2642.247692
929.215110	2637.438431
929.518906	2633.667648
929.822663	2632.092287
930.126381	2634.093625
930.430060	2636.137813
930.733699	2637.163688
931.037299	2642.532517
931.340861	2641.907414
931.644383	2643.008906
931.947866	2644.891777
932.251309	2637.874491
932.554714	2639.522948
932.858080	2634.449027
933.161407	2633.332411
933.464694	2626.030300
933.767943	2625.430402
934.071153	2622.587192
934.374323	2616.706686
934.677455	2616.573095
934.980548	2612.777106
935.283602	2610.538834
935.586617	2607.307454
935.889593	2609.712085
936.192530	2610.377517
936.495428	2617.984618
936.798287	2626.181534
937.101108	2640.647125
937.403890	2664.915240
937.706632	2690.529343
938.009336	2725.714076
938.312002	2754.433529
938.614628	2777.554782
938.917216	2793.938532
939.219765	2807.032929
939.522275	2814.156079
939.824747	2817.818477
940.127179	2808.610810
940.429573	2801.681744
940.731929	2801.573359
941.034246	2792.741257
941.336524	2792.043058
941.638763	2784.536780
941.940964	2777.733742
942.243126	2760.097266
942.545250	2749.082345
942.847335	2736.539954
943.149381	2724.562172
943.451389	2707.341591
943.753359	2698.416228
944.055290	2687.789476
944.357182	2675.640295
944.659036	2670.962104
944.960851	2671.163750
945.262628	2665.379026
945.564367	2667.766012
945.866067	2663.216371
946.167729	2660.728562
946.469352	2660.766370
946.770937	2660.453819
947.072484	2655.727737
947.373992	2653.857469
947.675462	2651.737664
947.976893	2644.024698
948.278286	2642.524955
948.579641	2638.766775
948.880958	2635.762247
949.182236	2634.340642
949.483476	2635.946249
949.784678	2631.018522
950.085841	2629.980044
950.386967	2637.473719
950.688054	2642.973618
950.989103	2648.841521
951.290114	2660.358037
951.591087	2667.713080
951.892021	2680.903259
952.192917	2692.797862
952.493776	2702.781867
952.794596	2706.971066
953.095378	2711.976932
953.396122	2709.746221
953.696828	2704.014429
953.997496	2699.661393
954.298126	2687.187058
954.598718	2685.157993
954.899272	2671.085612
955.199788	2663.710404
955.500266	2648.234062
955.800706	2631.152112
956.101108	2614.148300
956.401472	2605.212855
956.701798	2590.069229
957.002087	2573.015005
957.302337	2564.311453
957.602550	2557.107644
957.902724	2544.494677
958.202861	2536.393543
958.502960	2526.288550
958.803022	2521.136491
959.103045	2511.359173
959.403031	2504.515807
959.702979	2502.350631
960.002889	2496.618839
960.302762	2491.844867
960.602596	2487.002838
960.902393	2484.487303
961.202153	2480.744246
961.501875	2476.227372
961.801559	2476.981025
962.101205	2474.321816
962.400814	2470.858543
962.700385	2470.944243
962.999918	2466.258490
963.299414	2466.407204
963.598873	2463.301854
963.898293	2461.703808
964.197677	2463.448047
964.497022	2461.658437
964.796331	2458.530402
965.095601	2457.726338
965.394835	2459.026955
965.694030	2458.343879
965.993189	2459.392439
966.292309	2453.597632
966.591393	2458.328755
966.890439	2455.029320
967.189447	2455.911522
967.488419	2457.650720
967.787353	2455.520833
968.086249	2457.620473
968.385108	2459.306739
968.683930	2459.941925
968.982714	2457.653241
969.281462	2461.315639
969.580172	2464.294961
969.878844	2464.917543
970.177480	2468.632874
970.476078	2468.776547
970.774639	2473.502628
971.073162	2477.591004
971.371649	2475.214100
971.670098	2475.282156
971.968510	2478.720223
972.266885	2476.527321
972.565223	2484.283136
972.863524	2485.182982
973.161788	2483.882364
973.460014	2485.351861
973.758204	2487.703559
974.056356	2487.186841
974.354471	2488.598364
974.652550	2484.935965
974.950591	2490.645072
975.248595	2486.690287
975.546563	2486.012252
975.844493	2482.407827
976.142386	2483.184164
976.440243	2478.553865
976.738062	2480.396406
977.035845	2477.268370
977.333590	2472.600262
977.631299	2471.697895
977.928971	2467.675055
978.226606	2468.869808
978.524204	2466.702112
978.821765	2465.091463
979.119290	2463.599282
979.416777	2465.759416
979.714228	2467.135651
980.011642	2465.663634
980.309020	2468.768985
980.606360	2472.587659
980.903664	2481.255923
981.200931	2493.954590
981.498162	2514.497292
981.795356	2542.846220
982.092513	2582.620924
982.389633	2628.739920
982.686717	2671.133503
982.983764	2702.010571
983.280775	2723.816082
983.577749	2718.671584
983.874686	2710.315872
984.171587	2695.946062
984.468451	2679.791685
984.765279	2662.107317
985.062070	2642.507311
985.358824	2622.516616
985.655543	2602.089860
985.952224	2579.276118
986.248869	2553.745195
986.545478	2523.654548
986.842050	2508.216014
987.138586	2483.043012
987.435086	2472.524645
987.731549	2461.580300
988.027975	2456.103086
988.324366	2447.623865
988.620719	2446.388782
988.917037	2444.258895
989.213318	2442.781837
989.509563	2440.175560
989.805772	2436.273707
990.101944	2432.563418
990.398080	2433.856474
990.694180	2429.763057
990.990244	2430.307502
991.286271	2433.727925
991.582262	2433.604416
991.878217	2433.347317
992.174136	2435.298244
992.470019	2436.369489
992.765865	2434.100970
993.061676	2440.745211
993.357450	2440.568770
993.653188	2443.477516
993.948890	2450.996397
994.244556	2458.812706
994.540186	2466.313943
994.835780	2479.110912
995.131337	2494.572131
995.426859	2506.318019
995.722345	2527.415248
996.017795	2547.746222
996.313208	2559.030845
996.608586	2572.873853
996.903928	2576.561457
997.199234	2572.039542
997.494504	2572.059707
997.789738	2564.356824
998.084936	2553.949362
998.380099	2539.970242
998.675225	2531.014632
998.970316	2519.011645
999.265371	2503.000940
999.560390	2489.223467
999.855373	2476.340798
1000.150320	2467.523820
1000.445232	2456.773559
1000.740108	2450.782148
1001.034948	2446.900460
1001.329752	2442.827207
1001.624521	2437.314706
1001.919254	2430.841864
1002.213951	2427.764240
1002.508613	2425.873807
1002.803239	2426.138467
1003.097829	2419.877354
1003.392384	2423.499423
1003.686903	2419.524474
1003.981386	2420.648651
1004.275834	2420.706624
1004.570246	2420.628486
1004.864623	2415.768814
1005.158964	2415.801582
1005.453270	2417.891140
1005.747540	2416.489699
1006.041775	2414.853845
1006.335974	2413.545665
1006.630138	2417.129926
1006.924266	2415.327713
1007.218359	2414.697569
1007.512416	2412.529873
1007.806438	2412.078689
1008.100425	2410.576426
1008.394376	2415.683114
1008.688292	2415.514236
1008.982172	2413.621282
1009.276017	2412.691190
1009.569827	2413.338978
1009.863602	2413.437280
1010.157341	2412.953330
1010.451045	2410.583987
1010.744714	2410.568864
1011.038347	2410.044584
1011.331945	2410.609193
1011.625508	2409.434604
1011.919036	2409.802608
1012.212528	2407.725653
1012.505986	2409.026271
1012.799408	2410.831004
1013.092795	2410.306724
1013.386147	2408.426373
1013.679464	2406.946795
1013.972745	2408.418812
1014.265992	2407.708009
1014.559204	2408.766651
1014.852380	2408.156672
1015.145521	2407.768503
1015.438628	2406.667011
1015.731699	2409.285890
1016.024736	2406.926630
1016.317737	2405.157185
1016.610703	2408.108781
1016.903635	2407.340005
1017.196531	2406.974521
1017.489393	2408.764131
1017.782219	2408.401168
1018.075011	2410.437794
1018.367768	2408.769172
1018.660490	2408.920407
1018.953177	2408.920407
1019.245829	2408.920407
