Dividing Wavelength (nm)	Counts (n)	Blue Motor Position (mm): 44.800000	Red Motor Position (mm): 0.000000	
326.493990	1973.266412
326.888308	1973.266412
327.282561	1973.266412
327.676750	1946.291197
328.070874	1950.530808
328.464933	1954.798145
328.858929	1963.282407
329.252859	1978.650364
329.646726	1993.347848
330.040528	2008.677997
330.434265	2025.729700
330.827938	2046.920190
331.221547	2067.175546
331.615091	2087.491396
332.008571	2108.351691
332.401986	2129.022942
332.795338	2149.583288
333.188625	2166.466112
333.581847	2187.306242
333.975006	2207.380117
334.368100	2224.560369
334.761129	2240.026629
335.154095	2257.945411
335.546996	2295.519651
335.939833	2381.710779
336.332606	2396.987995
336.725315	2408.567526
337.117960	2419.869793
337.510540	2424.540422
337.903056	2436.581218
338.295508	2441.904676
338.687896	2448.473300
339.080220	2456.241718
339.472480	2462.447378
339.864676	2463.914354
340.256807	2467.118007
340.648875	2469.686475
341.040879	2467.692699
341.432818	2472.726291
341.824694	2473.028760
342.216506	2472.905252
342.608253	2472.746455
342.999937	2470.004068
343.391557	2471.239150
343.783113	2470.314099
344.174605	2468.955508
344.566033	2464.093315
344.957397	2464.698253
345.348697	2460.829168
345.739934	2460.272120
346.131106	2460.186421
346.522215	2457.905298
346.913260	2456.337500
347.304241	2456.556790
347.695159	2454.502520
348.086012	2452.057560
348.476802	2451.261058
348.867528	2448.904318
349.258191	2446.487085
349.648789	2448.828701
350.039324	2447.306272
350.429796	2446.683690
350.820203	2442.580191
351.210548	2443.215376
351.600828	2444.969698
351.991045	2445.224276
352.381198	2439.265632
352.771288	2444.339553
353.161314	2441.297217
353.551276	2439.837803
353.941175	2441.148503
354.331010	2444.531117
354.720782	2442.706220
355.110490	2447.011365
355.500135	2445.309976
355.889717	2444.158072
356.279235	2443.492640
356.668689	2445.463731
357.058080	2444.654626
357.447408	2443.580860
357.836672	2440.316713
358.225873	2442.975921
358.615010	2441.410643
359.004084	2448.105295
359.393095	2449.206787
359.782043	2448.183433
360.170927	2450.182251
360.559748	2451.440019
360.948505	2452.125616
361.337199	2455.339351
361.725830	2454.280709
362.114398	2454.121913
362.502903	2456.332458
362.891344	2459.561317
363.279722	2457.471759
363.668037	2457.789352
364.056289	2458.240535
364.444478	2458.096862
364.832603	2460.219188
365.220665	2459.863787
365.608665	2462.374281
365.996601	2463.261524
366.384474	2465.124231
366.772284	2465.860239
367.160031	2464.279837
367.547715	2462.759930
367.935336	2464.705815
368.322893	2467.309571
368.710388	2469.802422
369.097820	2467.236474
369.485189	2470.523307
369.872495	2471.022381
370.259738	2471.801239
370.646918	2472.983390
371.034035	2472.025570
371.421090	2472.154120
371.808081	2474.372228
372.195010	2474.586477
372.581875	2476.053452
372.968678	2479.103350
373.355418	2478.579070
373.742096	2479.718371
374.128710	2481.581077
374.515262	2480.935810
374.901751	2484.152066
375.288177	2481.596201
375.674540	2484.381438
376.060841	2485.359422
376.447079	2485.520739
376.833254	2488.177427
377.219367	2485.495533
377.605417	2489.372181
377.991404	2485.971922
378.377329	2490.692963
378.763191	2491.905361
379.148991	2498.108500
379.534727	2500.654283
379.920402	2504.888852
380.306013	2510.517301
380.691563	2511.371776
381.077049	2520.665143
381.462474	2525.953314
381.847835	2537.469830
382.233134	2549.180430
382.618371	2558.635114
383.003545	2572.972156
383.388657	2590.727099
383.773706	2613.429936
384.158693	2633.506331
384.543618	2657.456853
384.928480	2683.161696
385.313280	2719.944475
385.698017	2751.703745
386.082692	2796.736372
386.467305	2832.838595
386.851856	2885.037223
387.236344	2943.093671
387.620770	2992.602843
388.005133	3049.358673
388.389435	3122.397431
388.773674	3179.735515
389.157851	3259.111003
389.541965	3339.817355
389.926018	3389.878533
390.310008	3493.317969
390.693936	3581.540682
391.077802	3675.444775
391.461606	3777.213069
391.845348	3872.858881
392.229027	3978.178667
392.612645	4130.111482
392.996200	4243.567690
393.379694	4383.618506
393.763125	4553.535637
394.146494	4669.557793
394.529801	4806.157939
394.913047	4999.466024
395.296230	5075.937808
395.679351	5181.179456
396.062410	5398.475872
396.445408	5420.505714
396.828343	5585.270787
397.211217	5744.712400
397.594028	5758.686479
397.976778	5965.509898
398.359466	6151.994781
398.742092	6211.588782
399.124656	6393.518983
399.507158	6599.162772
399.889598	6693.591145
400.271977	6932.171312
400.654294	7031.373658
401.036549	7260.186590
401.418742	7355.227464
401.800874	7674.773603
402.182944	7815.338616
402.564952	8188.510030
402.946898	8125.452757
403.328783	8243.783761
403.710606	8480.443249
404.092367	8776.134648
404.474067	9144.418663
404.855705	9036.202734
405.237282	9069.174401
405.618797	9502.842181
406.000250	9781.360890
406.381642	10172.362865
406.762972	10190.427839
407.144240	10068.293285
407.525447	10353.809115
407.906593	10350.237458
408.287677	10639.957610
408.668700	10825.474592
409.049661	10841.003867
409.430560	11033.709534
409.811399	11049.253932
410.192176	11244.865825
410.572891	11344.279899
410.953545	11836.336844
411.334138	11370.004907
411.714669	11967.565640
412.095139	11333.204484
412.475547	11834.965650
412.855894	11703.857841
413.236180	12040.934593
413.616405	11754.808783
413.996568	12035.827904
414.376670	12024.331553
414.756711	11924.055441
415.136691	12193.585773
415.516609	12378.210471
415.896466	12454.437758
416.276262	12740.130029
416.655997	13189.874049
417.035670	13241.422367
417.415283	13886.876582
417.794834	13979.853103
418.174324	13731.233478
418.553753	13639.310558
418.933121	14127.188386
419.312428	13945.220376
419.691674	13851.742261
420.070859	14315.578826
420.449983	13969.259118
420.829045	14510.028733
421.208047	14264.181742
421.586988	14719.713006
421.965867	14962.333659
422.344686	14963.868690
422.723444	15523.454411
423.102141	14235.205190
423.480777	15406.345887
423.859352	14908.778961
424.237866	16009.043555
424.616319	15719.746859
424.994712	16363.764346
425.373044	16162.458470
425.751314	16830.668453
426.129524	15969.190713
426.507673	17033.335441
426.885762	16747.706184
427.263789	16933.046726
427.641756	17105.512161
428.019662	17156.914286
428.397508	17205.455556
428.775292	17499.420361
429.153016	17455.022919
429.530679	17536.734981
429.908282	17567.521308
430.285824	17286.572763
430.663305	17981.654617
431.040726	17595.774455
431.418086	17419.875994
431.795385	18059.384168
432.172624	18479.455956
432.549802	18038.712917
432.926920	18228.194766
433.303977	18101.576105
433.680974	18361.094705
434.057910	18643.772366
434.434786	18676.459208
434.811601	18592.408049
435.188355	19618.250090
435.565050	19266.944681
435.941683	19215.287978
436.318257	20079.003989
436.694770	19890.275792
437.071222	20485.487348
437.447614	19566.245547
437.823946	19595.564897
438.200218	19738.058152
438.576429	19518.707466
438.952580	19794.128386
439.328670	19756.516337
439.704700	20163.823923
440.080670	19748.105172
440.456580	20333.269707
440.832429	20497.946559
441.208218	19510.608852
441.583947	19941.060376
441.959616	20053.664630
442.335224	20281.474372
442.710773	20409.040770
443.086261	20942.747728
443.461689	20321.337296
443.837057	20442.201480
444.212365	21082.246537
444.587612	21075.675393
444.962800	20659.119809
445.337927	21074.200855
445.712995	19821.451439
446.088002	21649.270480
446.462949	21834.343841
446.837837	22002.100838
447.212664	21953.511677
447.587431	24724.528082
447.962139	27627.116082
448.336786	30008.907519
448.711374	28498.141767
449.085901	24862.088567
449.460369	24794.126252
449.834776	24679.440002
450.209124	27136.263973
450.583412	26696.077981
450.957640	27227.125730
451.331808	25909.932723
451.705917	24545.330186
452.079965	24569.671397
452.453954	24923.020994
452.827883	24811.586288
453.201752	24618.976403
453.575562	24764.335553
453.949311	25872.517280
454.323001	25930.135148
454.696632	25681.949061
455.070202	27217.655922
455.443713	27376.986631
455.817164	27942.707436
456.190556	28482.831782
456.563888	27950.788405
456.937160	28374.711635
457.310373	26731.192138
457.683526	27156.317683
458.056619	27136.150547
458.429653	27064.397283
458.802628	27638.796435
459.175542	27741.860305
459.548398	29043.856753
459.921194	30588.960324
460.293930	31256.499834
460.666607	33266.049951
461.039224	35009.822875
461.411782	35406.793576
461.784280	34227.473607
462.156719	33740.306581
462.529099	33180.380582
462.901419	31900.439183
463.273680	30845.623111
463.645882	30926.899113
464.018024	30912.962844
464.390106	31735.280900
464.762130	34378.241915
465.134094	38392.542970
465.505999	43663.893545
465.877845	48230.447962
466.249631	49431.069327
466.621358	47705.406748
466.993026	45596.026662
467.364634	43509.125080
467.736184	41561.581156
468.107674	40313.915744
468.479105	39527.715034
468.850477	38840.900672
469.221790	37429.727956
469.593043	35712.252211
469.964238	34835.991287
470.335373	34742.903861
470.706449	36403.691831
471.077467	38910.652597
471.448425	43457.586844
471.819324	46340.368150
472.190164	44549.291559
472.560945	41021.703826
472.931667	37912.332737
473.302330	36820.078536
473.672934	35990.680179
474.043479	36509.087234
474.413965	35709.726592
474.784393	35335.836815
475.154761	36228.156333
475.525070	36256.296054
475.895321	35802.864430
476.265513	36396.067086
476.635645	37351.338013
477.005719	37164.505290
477.375734	37633.551888
477.745691	38326.904626
478.115588	39625.253799
478.485427	41578.171593
478.855207	44902.726855
479.224928	47517.278448
479.594591	49162.824489
479.964194	48179.544911
480.333739	48305.442687
480.703226	48315.656065
481.072653	48944.262744
481.442022	49450.755032
481.811333	49732.563094
482.180584	48432.784754
482.549777	47913.593799
482.918912	47394.239006
483.287988	47087.363807
483.657005	46264.269412
484.025964	45640.751778
484.394864	45654.710733
484.763706	45214.192025
485.132489	44342.508470
485.501213	44179.228017
485.869879	44309.123428
486.238487	43912.543417
486.607036	44122.988905
486.975527	43586.108541
487.343959	43807.518538
487.712333	43865.922826
488.080648	43784.908963
488.448905	44230.483949
488.817104	44018.329510
489.185244	44976.912475
489.553326	46615.889893
489.921350	49339.678248
490.289315	52241.217688
490.657222	52884.529413
491.025070	53168.197660
491.392861	52272.427472
491.760593	51025.561082
492.128267	49336.872846
492.495883	47795.257753
492.863440	46411.150992
493.230939	45066.009828
493.598380	43993.547197
493.965763	43647.605577
494.333088	42838.903677
494.700354	42360.291489
495.067563	42086.735796
495.434713	41953.180507
495.801805	42019.159129
496.168839	41639.595533
496.535815	41316.482777
496.902733	41346.215502
497.269593	40935.996649
497.636395	40878.789635
498.003139	41267.306321
498.369825	40720.270552
498.736453	41025.398992
499.103023	40563.402448
499.469535	40446.044386
499.835989	40532.956399
500.202385	40196.847549
500.568723	40221.778575
500.935003	40412.450137
501.301226	40205.417510
501.667390	40803.184930
502.033497	41083.578948
502.399546	40501.320638
502.765537	39819.986011
503.131470	40210.670392
503.497345	40551.775026
503.863163	39232.212678
504.228923	39838.605512
504.594625	40245.799673
504.960269	39536.448833
505.325856	40231.286191
505.691385	39599.765725
506.056856	39725.648378
506.422270	40146.010033
506.787625	39733.308411
507.152924	39922.911249
507.518164	40024.525787
507.883347	39246.887477
508.248472	39518.207418
508.613540	39975.130041
508.978550	40245.015774
509.343503	40004.514927
509.708398	40216.656763
510.073236	40736.561041
510.438016	40739.149674
510.802738	40182.868429
511.167403	40804.362040
511.532010	41047.527137
511.896561	41334.507422
512.261053	42186.132227
512.625488	41727.135169
512.989866	41595.344284
513.354186	41448.276182
513.718449	41442.055398
514.082655	42103.641306
514.446803	41782.177007
514.810894	42311.813233
515.174927	42235.858168
515.538904	42131.879329
515.902822	42800.903459
516.266684	42240.221287
516.630488	42674.962833
516.994235	42539.217163
517.357925	43108.406282
517.721558	43261.498562
518.085133	43583.000669
518.448651	43739.578908
518.812112	43479.278929
519.175516	43589.982667
519.538863	43931.604020
519.902152	43901.173094
520.265385	44367.522675
520.628560	44398.480401
520.991678	44201.842633
521.354739	44441.897338
521.717743	44753.637251
522.080690	44647.742773
522.443580	45205.443103
522.806413	45259.078459
523.169189	45198.095621
523.531908	45390.067801
523.894569	45241.348721
524.257174	45416.261636
524.619722	45718.214148
524.982213	45710.647377
525.344647	45612.982583
525.707025	45679.757706
526.069345	46079.269149
526.431608	45997.186561
526.793815	46313.244222
527.155964	45853.725405
527.518057	46020.176743
527.880093	45806.399053
528.242072	46339.125506
528.603995	46042.062913
528.965860	46036.013528
529.327669	46131.021634
529.689421	46033.818106
530.051117	46008.821544
530.412755	46138.074208
530.774337	46198.096707
531.135862	46024.171858
531.497331	46215.365179
531.858743	46127.873433
532.220098	46473.948645
532.581396	46174.360434
532.942638	45845.651997
533.303824	46139.619322
533.664953	46109.969776
534.026025	45828.950654
534.387040	46301.523539
534.747999	46257.415964
535.108902	46424.996521
535.469748	45946.913654
535.830537	46064.795996
536.191270	46246.665703
536.551947	45911.731442
536.912567	46227.184164
537.273131	46336.849425
537.633638	45839.204361
537.994089	46164.109247
538.354483	45770.536284
538.714821	46334.064188
539.075103	46680.278031
539.435328	46451.944008
539.795497	46350.107660
540.155609	46323.792837
540.515665	46787.044628
540.875665	46241.644714
541.235609	46568.475321
541.595496	46531.195988
541.955328	47213.092704
542.315102	46585.547188
542.674821	46377.755868
543.034483	46406.503048
543.394090	46381.882052
543.753640	46341.343614
544.113134	47324.971032
544.472571	46366.395628
544.831953	47593.031867
545.191278	46807.731003
545.550548	46547.327680
545.909761	46990.263622
546.268918	47187.710495
546.628019	47497.091147
546.987064	47061.243068
547.346053	46342.223295
547.704986	47214.562201
548.063863	46776.276723
548.422684	46969.710838
548.781449	46817.657035
549.140158	47224.989827
549.498811	47058.404898
549.857408	46500.215577
550.215949	47336.548041
550.574434	47271.562527
550.932864	47041.330510
551.291237	47752.034900
551.649555	47363.465282
552.007817	47621.088408
552.366022	47246.681912
552.724173	47441.935883
553.082267	47832.905090
553.440305	48135.457500
553.798288	47433.958257
554.156215	47753.259901
554.514086	47957.701374
554.871902	47700.809215
555.229661	47726.251919
555.587365	47538.032878
555.945014	47634.694483
556.302606	47560.750838
556.660143	47771.012324
557.017625	47878.217502
557.375050	47654.365065
557.732421	48022.041621
558.089735	47976.008324
558.446994	47915.978264
558.804197	48391.343949
559.161345	48312.013831
559.518437	47568.204184
559.875474	47880.163387
560.232455	48035.362870
560.589381	48211.160507
560.946251	47898.182991
561.303065	48589.302498
561.659825	48392.367303
562.016528	48083.105117
562.373177	47772.383518
562.729770	48261.115821
563.086307	47758.391795
563.442789	48241.974560
563.799216	48278.107030
564.155587	48068.395030
564.511904	48095.609699
564.868164	48186.020273
565.224370	48423.892158
565.580520	48165.099485
565.936615	48361.913692
566.292654	48100.383672
566.648638	48341.406279
567.004567	48295.501532
567.360441	48329.194083
567.716260	48165.001182
568.072023	48459.313826
568.427732	48463.185432
568.783385	48003.114609
569.138982	48389.272034
569.494525	48357.694247
569.850013	48125.145820
570.205445	48094.336808
570.560823	48053.644614
570.916145	47927.875387
571.271412	47951.735169
571.626625	47702.707210
571.981782	47760.519162
572.336884	47449.910988
572.691931	47767.826315
573.046923	47361.615179
573.401860	47214.446254
573.756743	47188.247377
574.111570	47307.773135
574.466342	47170.729368
574.821059	47288.715053
575.175722	46796.554765
575.530330	46815.743917
575.884882	46536.716052
576.239380	46519.311468
576.593823	46491.007910
576.948211	46380.843575
577.302544	45926.312979
577.656823	45932.871520
578.011047	46164.993970
578.365216	45885.179684
578.719330	45687.805908
579.073389	45549.993365
579.427394	45623.805940
579.781344	45577.848261
580.135239	45249.086892
580.489080	45315.715822
580.842866	44808.308564
581.196597	45267.527433
581.550273	45197.299119
581.903895	45079.512559
582.257463	45485.806874
582.610975	44870.536568
582.964434	45171.622002
583.317837	44792.358354
583.671186	44623.053722
584.024481	44863.012645
584.377721	44385.680911
584.730906	44672.784705
585.084037	44703.780239
585.437113	44409.848203
585.790135	44450.210201
586.143103	44049.186413
586.496016	44159.292774
586.848874	44204.491760
587.201679	44221.465325
587.554428	43690.778018
587.907124	43881.691555
588.259765	43635.779030
588.612352	43893.107248
588.964884	43268.576342
589.317362	43557.701639
589.669786	43505.031663
590.022155	43275.550779
590.374470	43686.624107
590.726731	43226.313829
591.078937	42727.234557
591.431090	42827.467819
591.783188	42504.665094
592.135232	42155.154336
592.487222	42419.222578
592.839157	42496.047242
593.191038	42171.338961
593.542866	41935.894391
593.894639	41350.855884
594.246358	41610.888682
594.598022	41603.435336
594.949633	41196.437780
595.301190	41160.380927
595.652692	40988.674186
596.004141	41317.110400
596.355535	40351.439573
596.706876	40300.672633
597.058162	40119.024736
597.409395	40582.692423
597.760573	40659.741418
598.111698	40251.521383
598.462768	40262.730388
598.813785	40302.759670
599.164748	39760.187844
599.515657	40138.309670
599.866511	39610.347107
600.217312	40229.337785
600.568060	39190.718941
600.918753	39946.448396
601.269392	39899.590871
601.619978	39550.818642
601.970510	39765.337382
602.320988	39948.311102
602.671412	40264.333475
603.021783	40003.642807
603.372100	39651.727419
603.722363	39755.509653
604.072572	39825.324593
604.422728	39840.576603
604.772830	39652.102985
605.122878	39753.062173
605.472872	39688.608500
605.822813	39946.939908
606.172701	39791.737905
606.522534	40030.549966
606.872314	40279.875352
607.222041	40050.621320
607.571714	40442.727307
607.921333	39867.284637
608.270899	40174.361482
608.620411	40507.705259
608.969870	40310.200413
609.319276	40312.166463
609.668627	40353.466116
610.017926	40824.395585
610.367171	40988.301141
610.716362	41077.196848
611.065500	41027.191122
611.414585	41226.011709
611.763616	41510.970492
612.112594	41440.490120
612.461518	41657.642863
612.810389	41942.735237
613.159207	41814.543736
613.507971	41872.403579
613.856682	42354.262269
614.205340	42239.530649
614.553945	42947.482569
614.902496	42410.158583
615.250994	42858.596944
615.599439	42929.899024
615.947830	43151.913960
616.296169	43165.567925
616.644454	43303.375427
616.992686	43482.961492
617.340864	43993.388401
617.688990	43710.844331
618.037063	44297.072550
618.385082	44268.829486
618.733048	44588.390748
619.080961	44588.350419
619.428821	44602.700064
619.776628	44715.079986
620.124382	44543.007761
620.472083	44678.632443
620.819731	44799.887317
621.167326	44486.173793
621.514868	44458.427282
621.862357	44017.548131
622.209793	44044.644333
622.557176	43721.156011
622.904506	43477.937982
623.251783	43146.313238
623.599007	42919.894854
623.946179	42685.829040
624.293297	42652.161694
624.640363	42058.810325
624.987376	42051.291444
625.334336	41802.298773
625.681243	41448.618981
626.028097	41401.985787
626.374899	41249.440472
626.721647	41228.315517
627.068343	41101.217946
627.414987	40874.164377
627.761577	40644.567545
628.108115	40976.315797
628.454600	40427.124936
628.801032	40614.464295
629.147412	40573.184807
629.493739	40586.836251
629.840014	40232.344833
630.186236	40564.428322
630.532405	40166.366212
630.878521	40396.255430
631.224585	40274.337645
631.570597	39978.621040
631.916556	40140.326132
632.262462	40074.380278
632.608316	40101.549576
632.954117	40008.129434
633.299866	39984.178912
633.645562	39908.612016
633.991206	39416.645812
634.336797	38983.822425
634.682336	39006.374027
635.027823	38738.219930
635.373257	38566.740041
635.718639	38332.351593
636.063968	38185.853142
636.409245	37598.072247
636.754470	37643.616552
637.099642	37402.495642
637.444762	36934.910979
637.789829	37079.249296
638.134845	36718.380819
638.479808	36668.342326
638.824719	36598.683662
639.169577	36181.870979
639.514383	36255.494511
639.859137	35943.235359
640.203839	36195.575356
640.548489	35820.107697
640.893086	35888.569087
641.237632	35631.986959
641.582125	35732.343729
641.926566	35670.917270
642.270955	35642.356612
642.615292	35665.308986
642.959576	35626.098891
643.303809	35613.513651
643.647990	35773.809740
643.992118	35734.415643
644.336195	35732.996559
644.680219	35820.889076
645.024192	36116.300691
645.368112	36621.941025
645.711981	36616.214274
646.055797	37512.029833
646.399562	37416.625997
646.743274	38382.392607
647.086935	38818.555758
647.430544	38706.561484
647.774101	38832.197120
648.117606	39074.016229
648.461059	39386.671111
648.804460	39005.290179
649.147810	38401.359948
649.491108	38153.952720
649.834354	37794.936867
650.177548	36965.563715
650.520690	36516.946393
650.863781	36533.330143
651.206820	36381.306587
651.549807	35933.296724
651.892742	35451.629598
652.235626	35263.939878
652.578458	35113.121158
652.921238	34493.719626
653.263967	34839.971278
653.606644	34511.250239
653.949269	34453.012309
654.291843	34059.472113
654.634365	34464.680060
654.976836	34065.753391
655.319255	34040.988723
655.661622	34053.518511
656.003938	33831.422916
656.346203	33688.488561
656.688416	33904.471756
657.030577	33706.979513
657.372687	33539.832496
657.714746	33806.386026
658.056753	33936.883855
658.398708	33400.384098
658.740612	33442.931436
659.082465	33709.928588
659.424266	33527.726165
659.766016	33648.078672
660.107715	33535.701270
660.449362	33651.410874
660.790958	33633.456805
661.132503	33655.133766
661.473996	33696.241855
661.815438	33809.987930
662.156829	34011.681975
662.498168	33766.941517
662.839456	33794.556958
663.180693	33943.782674
663.521879	34101.714462
663.863013	34047.002819
664.204097	34050.604724
664.545129	34509.674878
664.886110	34482.810569
665.227040	34535.760329
665.567918	34653.236858
665.908746	34710.532092
666.249522	34888.779730
666.590248	34888.235285
666.930922	34991.941902
667.271545	34956.502591
667.612118	35056.224175
667.952639	34824.184905
668.293109	34878.707504
668.633528	34784.705109
668.973896	34716.072320
669.314213	34740.234570
669.654480	34490.558823
669.994695	34506.196482
670.334859	34382.211824
670.674973	34287.685148
671.015035	34445.190959
671.355047	34408.214095
671.695008	34343.641956
672.034918	34245.601596
672.374777	34309.810772
672.714585	34142.636028
673.054342	34382.000095
673.394049	34127.575581
673.733705	34432.031027
674.073310	34086.775003
674.412864	34160.050694
674.752368	33756.564302
675.091820	34064.016714
675.431223	33639.128103
675.770574	33381.789802
676.109875	33234.852770
676.449125	32942.901907
676.788324	32865.316029
677.127473	32332.161077
677.466571	32251.147214
677.805619	31901.258370
678.144616	31901.618813
678.483562	31809.622796
678.822458	31480.579123
679.161303	31415.921283
679.500098	31314.553762
679.838842	31208.926465
680.177535	31350.754288
680.516179	31621.761677
680.854771	31852.391945
681.193314	32714.726681
681.531805	33825.804550
681.870247	34613.056341
682.208638	35341.429975
682.546978	35575.878917
682.885268	35676.517992
683.223508	35161.861554
683.561697	34823.050645
683.899836	34636.626256
684.237925	34105.460039
684.575963	33961.177175
684.913951	33506.737321
685.251889	33653.253416
685.589776	33641.280676
685.927614	33628.256855
686.265401	33750.595576
686.603137	33834.205633
686.940824	34351.009602
687.278460	34721.209255
687.616046	34852.455696
687.953582	35462.158048
688.291068	35337.840673
688.628504	35629.647864
688.965889	35572.377835
689.303224	35199.188778
689.640510	34863.319382
689.977745	34143.445134
690.314930	33344.449975
690.652065	32809.177739
690.989150	32085.510023
691.326185	31178.127536
691.663170	30464.632868
692.000105	29716.278620
692.336990	29027.407468
692.673825	28562.310614
693.010610	28049.559733
693.347345	27451.071427
693.684030	26794.859390
694.020665	26504.350297
694.357251	25831.565466
694.693786	25771.890808
695.030272	25524.957448
695.366707	24980.094417
695.703093	24692.360479
696.039429	24675.896071
696.375716	24406.529577
696.711952	24359.036866
697.048139	24187.599827
697.384276	24022.154199
697.720363	24145.516274
698.056400	23932.507360
698.392388	23722.560946
698.728326	23682.435882
699.064214	23478.049861
699.400053	23427.678652
699.735842	23071.473242
700.071581	22781.848871
700.407270	22487.793326
700.742910	22301.406745
701.078501	22032.385570
701.414042	21742.224316
701.749533	21438.777102
702.084974	21092.563258
702.420366	21295.777211
702.755709	20850.353460
703.091002	20551.057636
703.426246	20567.050696
703.761440	20449.916966
704.096584	20185.694969
704.431679	20140.654780
704.766725	20042.178361
705.101721	19965.078954
705.436668	20073.945192
705.771565	19737.964891
706.106413	20088.569579
706.441212	20066.950591
706.775961	20191.716628
707.110661	20262.670868
707.445311	20605.124011
707.779913	20443.262643
708.114465	20686.823470
708.448967	20961.752878
708.783421	21657.772386
709.117825	21941.387702
709.452180	22165.746774
709.786485	22560.774110
710.120742	23357.132745
710.454949	23362.128528
710.789107	23825.065248
711.123216	24529.188411
711.457275	24666.900132
711.791286	25226.170780
712.125247	25291.100842
712.459159	24995.613609
712.793023	25668.668142
713.126837	24572.938065
713.460602	24840.172151
713.794318	24482.134281
714.127985	24087.885804
714.461602	23192.382796
714.795171	23161.162930
715.128691	22132.281074
715.462162	21592.209660
715.795584	21159.187148
716.128957	20899.630739
716.462281	20477.602983
716.795556	20246.135883
717.128782	19740.165354
717.461960	19193.505152
717.795088	19104.959805
718.128167	18705.347540
718.461198	18244.674298
718.794180	18091.924816
719.127113	17722.299854
719.459997	17517.911313
719.792833	17156.221127
720.125619	17119.375334
720.458357	16800.829863
720.791046	16629.992721
721.123686	16471.473639
721.456278	16226.231586
721.788821	16183.190215
722.121315	15912.076961
722.453761	15990.287942
722.786158	15918.698517
723.118506	15923.011224
723.450805	15782.821776
723.783056	15941.683658
724.115259	15837.457802
724.447412	15766.793428
724.779518	16000.672719
725.111574	16026.412851
725.443582	16218.339660
725.775542	16201.124120
726.107453	16677.397212
726.439315	16548.946091
726.771129	16955.613451
727.102895	17322.831262
727.434612	17533.246503
727.766281	17665.818767
728.097901	17930.539838
728.429473	17966.705075
728.760996	17953.945915
729.092471	18041.225932
729.423897	17924.145134
729.755276	17776.174666
730.086606	17898.997338
730.417887	18425.124921
730.749120	18937.545606
731.080305	19112.629921
731.411442	19450.228432
731.742530	19512.766466
732.073570	19627.876173
732.404562	19924.452295
732.735506	19741.627289
733.066401	19469.042018
733.397249	18941.807902
733.728048	18303.922979
734.058798	17472.659395
734.389501	16780.433355
734.720156	16312.866336
735.050762	15770.748213
735.381320	15409.695733
735.711831	15161.875131
736.042293	14806.690554
736.372707	14805.241223
736.703073	14593.628707
737.033391	14782.840855
737.363661	14745.070010
737.693883	14832.062682
738.024056	15000.865718
738.354182	15185.316496
738.684260	15461.843949
739.014290	15693.248034
739.344272	15865.206833
739.674207	16153.694424
740.004093	16278.271418
740.333931	16257.194353
740.663722	16315.228116
740.993464	16312.652087
741.323159	16142.061961
741.652806	15877.063627
741.982405	15661.254351
742.311956	15335.898282
742.641460	15210.192070
742.970915	14901.292847
743.300323	14567.480243
743.629683	14349.704917
743.958996	14075.690479
744.288260	13803.768120
744.617477	13500.633457
744.946647	13421.313422
745.275768	13148.251762
745.604842	12960.753606
745.933869	12782.233746
746.262847	12735.648443
746.591778	12664.190087
746.920662	12546.002756
747.249498	12547.207592
747.578286	12674.476562
747.907027	12815.560814
748.235720	13023.624357
748.564365	13056.066702
748.892963	12954.099283
749.221514	13017.897606
749.550017	12870.794216
749.878473	12833.081344
750.206881	12604.505346
750.535242	12513.847756
750.863555	12424.894076
751.191821	12320.834578
751.520039	12341.054646
751.848210	12242.270716
752.176334	12282.242025
752.504411	12175.495592
752.832440	12024.838189
753.160421	12078.289543
753.488356	11951.149123
753.816243	11869.626103
754.144082	11722.510111
754.471875	11664.123467
754.799620	11613.485076
755.127318	11583.495252
755.454969	11547.491331
755.782572	11488.169553
756.110129	11511.351299
756.437638	11425.008937
756.765100	11414.593913
757.092515	11414.679613
757.419882	11429.528331
757.747203	11428.484812
758.074477	11497.072231
758.401703	11455.356683
758.728882	11617.276024
759.056014	11661.844865
759.383099	11770.506936
759.710138	11868.945548
760.037129	11955.708846
760.364073	11982.008546
760.690970	11959.431738
761.017820	11961.080196
761.344623	12155.431800
761.671379	12468.736991
761.998088	13104.323147
762.324751	14651.503674
762.651366	17505.079056
762.977935	21172.707522
763.304456	23427.189660
763.630931	23954.955618
763.957359	22803.170431
764.283740	20897.500851
764.610074	19020.608698
764.936362	16877.659569
765.262602	15343.694427
765.588796	13856.622098
765.914943	12827.256291
766.241044	11949.467898
766.567097	11317.090436
766.893104	10751.147820
767.219064	10385.235668
767.544978	9995.342747
767.870845	9678.649901
768.196665	9486.965067
768.522438	9289.704717
768.848165	9117.766083
769.173846	8949.933468
769.499479	8828.834871
769.825066	8665.428389
770.150607	8482.883167
770.476101	8420.319928
770.801548	8310.586611
771.126949	8164.544384
771.452303	8078.501971
771.777611	7904.700630
772.102872	7889.443578
772.428087	7771.122656
772.753256	7638.573077
773.078378	7558.436375
773.403453	7410.811226
773.728482	7302.524721
774.053465	7238.814618
774.378401	7151.181721
774.703291	7053.161525
775.028135	6962.874460
775.352932	6923.114879
775.677683	6835.544996
776.002388	6743.375060
776.327046	6744.642910
776.651658	6659.734756
776.976224	6582.552170
777.300743	6566.715385
777.625216	6500.119222
777.949643	6455.384023
778.274024	6457.692871
778.598359	6386.398353
778.922647	6388.379526
779.246889	6347.079873
779.571086	6354.263518
779.895236	6366.936978
780.219339	6359.879363
780.543397	6356.184197
780.867409	6408.385345
781.191374	6399.727164
781.515294	6368.293049
781.839167	6424.312871
782.162995	6394.801956
782.486776	6341.912691
782.810511	6305.515560
783.134201	6227.430607
783.457844	6220.254525
783.781441	6171.002452
784.104993	6123.751717
784.428498	6095.027222
784.751958	6076.533749
785.075372	6058.221758
785.398739	6020.022415
785.722061	6037.636206
786.045337	6033.961205
786.368568	6146.381457
786.691752	6167.849210
787.014891	6417.532519
787.337983	6689.525454
787.661030	7127.924357
787.984031	7557.662558
788.306987	7823.263310
788.629897	7909.570385
788.952760	7831.999630
789.275579	7656.237280
789.598351	7360.760130
789.921078	7099.454441
790.243759	6815.070350
790.566395	6608.715758
790.888984	6419.465802
791.211529	6276.178565
791.534027	6107.509119
791.856480	5971.818902
792.178888	5911.725827
792.501249	5839.014745
792.823566	5730.501388
793.145836	5728.003496
793.468062	5707.102872
793.790241	5665.031923
794.112375	5703.874013
794.434464	5805.170958
794.756507	5830.424619
795.078505	5949.980623
795.400457	6161.104146
795.722364	6402.880405
796.044226	6600.324757
796.366042	6756.408963
796.687812	6710.894905
797.009538	6733.459110
797.331218	6648.455174
797.652852	6581.438075
797.974442	6462.318130
798.295986	6389.523868
798.617484	6261.218941
798.938938	6153.708774
799.260346	6083.732517
799.581709	5945.055416
799.903026	5894.648919
800.224299	5826.396737
800.545526	5700.577098
800.866708	5636.287263
801.187845	5588.252629
801.508936	5511.254045
801.829983	5483.996526
802.150984	5372.092993
802.471940	5343.887737
802.792851	5328.880222
803.113717	5304.992715
803.434538	5275.602788
803.755314	5241.736317
804.076045	5231.409513
804.396731	5191.705385
804.717372	5209.921595
805.037967	5207.862283
805.358518	5240.236573
805.679024	5296.563906
805.999485	5305.229649
806.319901	5320.867308
806.640272	5339.123847
806.960598	5385.489860
807.280879	5378.250763
807.601115	5413.954735
807.921306	5378.379312
808.241453	5378.548191
808.561554	5388.466661
808.881611	5353.208831
809.201623	5351.199931
809.521590	5302.149504
809.841513	5289.425632
810.161390	5305.469104
810.481223	5218.675558
810.801011	5198.425243
811.120755	5181.986041
811.440453	5126.740036
811.760107	5098.491930
812.079716	5069.752312
812.399281	5016.598386
812.718801	5009.157643
813.038276	4975.863342
813.357707	4945.001398
813.677093	4966.194409
813.996434	4901.478597
814.315731	4927.869037
814.634983	4917.852264
814.954191	4930.956744
815.273354	4987.919262
815.592473	5028.682032
815.911547	5104.006952
816.230577	5156.954191
816.549562	5244.990381
816.868502	5298.134225
817.187399	5356.041959
817.506250	5439.820895
817.825058	5468.439526
818.143821	5624.616992
818.462539	5797.397499
818.781213	6021.323033
819.099843	6383.781994
819.418429	7013.845566
819.736970	7639.677090
820.055466	8353.431378
820.373919	9278.815825
820.692327	10746.179763
821.010691	13466.406543
821.329011	19715.395645
821.647286	29317.573762
821.965517	39711.253363
822.283704	45263.083656
822.601847	46845.446395
822.919945	42317.308091
823.237999	37211.761066
823.556010	32022.863604
823.873976	27271.898737
824.191897	23012.617771
824.509775	19889.408714
824.827609	17069.064618
825.145398	15469.619929
825.463144	14688.402400
825.780845	14963.682167
826.098502	16210.906479
826.416116	18654.681423
826.733685	20926.779873
827.051210	21437.511772
827.368692	20026.518016
827.686129	17465.221173
828.003522	14979.561802
828.320872	12757.219540
828.638177	11088.310272
828.955439	9823.424278
829.272656	8740.007219
829.589830	7898.593272
829.906960	7146.359857
830.224046	6613.590554
830.541088	6194.411050
830.858086	5926.990441
831.175041	5716.771805
831.491952	5652.547505
831.808819	5688.536303
832.125642	5931.739208
832.442421	6486.278734
832.759157	7599.302489
833.075849	9362.456129
833.392497	11214.525640
833.709101	12343.933145
834.025662	12106.288112
834.342179	11057.279449
834.658653	9756.266026
834.975083	8646.208990
835.291469	7728.240081
835.607811	6981.476317
835.924110	6454.038035
836.240366	5959.387416
836.556578	5506.701883
836.872746	5144.779805
837.188871	4865.910736
837.504952	4641.309688
837.820990	4473.222495
838.136984	4353.976521
838.452935	4303.380981
838.768842	4333.232173
839.084706	4615.199031
839.400526	5350.564746
839.716303	6257.359938
840.032037	6835.860068
840.347727	6693.389499
840.663373	6102.147852
840.978977	5514.258573
841.294537	5069.280964
841.610054	4733.640941
841.925527	4493.006503
842.240957	4278.540695
842.556344	4092.950616
842.871687	3933.400618
843.186987	3778.790950
843.502244	3662.554545
843.817458	3571.889393
844.132629	3495.939369
844.447756	3449.538069
844.762840	3402.678023
845.077881	3360.745705
845.392879	3330.574400
845.707833	3302.371664
846.022745	3274.607510
846.337613	3262.891868
846.652438	3237.504617
846.967221	3226.991291
847.281960	3207.114021
847.596656	3195.416024
847.911309	3188.098789
848.225919	3172.524144
848.540485	3162.467042
848.855009	3157.597288
849.169490	3142.594814
849.483928	3135.154071
849.798323	3130.700211
850.112675	3121.921042
850.426984	3122.009262
850.741251	3110.386882
851.055474	3107.904114
851.369654	3107.697426
851.683792	3104.806325
851.997887	3110.543158
852.311938	3107.939402
852.625947	3113.444342
852.939914	3103.732559
853.253837	3108.874536
853.567718	3104.909668
853.881555	3098.008329
854.195350	3105.449072
854.509103	3100.793566
854.822812	3100.964965
855.136479	3096.223760
855.450103	3097.547063
855.763685	3090.653285
856.077224	3096.064964
856.390720	3101.625357
856.704173	3114.371914
857.017584	3118.588839
857.330953	3123.572020
857.644278	3132.525109
857.957561	3133.896303
858.270802	3133.072074
858.584000	3131.746251
858.897155	3126.395066
859.210268	3117.126905
859.523339	3104.839092
859.836367	3101.423710
860.149352	3096.455653
860.462295	3092.037082
860.775195	3085.768407
861.088054	3079.255236
861.400869	3078.433528
861.713642	3074.319947
862.026373	3084.586257
862.339062	3090.363419
862.651708	3096.430447
862.964312	3114.482819
863.276873	3123.690487
863.589392	3155.490085
863.901869	3177.227541
864.214303	3200.802497
864.526696	3220.067266
864.839045	3234.139647
865.151353	3252.292842
865.463619	3251.219076
865.775842	3253.011207
866.088023	3261.601333
866.400162	3251.234200
866.712258	3254.999942
867.024313	3251.713109
867.336325	3248.769076
867.648296	3255.413316
867.960224	3249.991555
868.272110	3256.497164
868.583954	3252.018099
868.895755	3257.959099
869.207515	3256.597988
869.519233	3278.534568
869.830909	3280.029271
870.142542	3294.187351
870.454134	3297.204482
870.765684	3314.576298
871.077191	3332.895851
871.388657	3343.983869
871.700081	3363.016745
872.011463	3379.886967
872.322803	3403.260276
872.634101	3417.209149
872.945357	3440.423663
873.256571	3468.727221
873.567744	3482.809684
873.878874	3491.273781
874.189963	3509.817666
874.501010	3509.253057
874.812015	3505.620905
875.122979	3523.549769
875.433900	3520.809902
875.744780	3524.716796
876.055618	3536.722304
876.366415	3531.071170
876.677169	3535.930843
876.987882	3552.443142
877.298554	3577.946339
877.609183	3613.932616
877.919771	3664.361799
878.230317	3732.603898
878.540822	3839.806555
878.851285	3990.847086
879.161707	4219.972570
879.472087	4599.266465
879.782425	5239.041820
880.092722	6439.653102
880.402977	8392.573417
880.713191	10791.799685
881.023363	13202.681100
881.333494	14570.580552
881.643583	15046.372214
881.953631	14655.506350
882.263637	13831.007995
882.573602	12792.794963
882.883526	11813.797845
883.193408	10847.128869
883.503248	9914.470037
883.813048	9075.642201
884.122806	8291.394939
884.432522	7509.711103
884.742197	6835.728998
885.051831	6254.862046
885.361424	5747.122072
885.670975	5339.020503
885.980485	5008.063712
886.289954	4732.564655
886.599382	4509.649873
886.908768	4326.046008
887.218113	4154.374555
887.527417	4022.586191
887.836680	3894.435019
888.145901	3792.094555
888.455082	3711.110939
888.764221	3640.433962
889.073319	3581.301227
889.382376	3547.041546
889.691392	3521.593801
890.000366	3513.618696
890.309300	3507.012264
890.618193	3512.083664
890.927044	3506.248529
891.235855	3513.444776
891.544625	3530.902292
891.853353	3558.517732
892.162041	3617.476547
892.470687	3711.166392
892.779293	3833.671471
893.087858	4009.728728
893.396381	4291.130977
893.704864	4709.350141
894.013306	5288.961846
894.321707	5860.283373
894.630068	6221.482046
894.938387	6264.493171
895.246665	6082.391570
895.554903	5772.768942
895.863100	5431.271098
896.171256	5158.930323
896.479371	4914.131893
896.787446	4685.858364
897.095480	4484.023167
897.403473	4335.389787
897.711425	4182.080737
898.019336	4055.089030
898.327207	3933.239301
898.635038	3828.698373
898.942827	3721.709965
899.250576	3637.966317
899.558284	3549.761248
899.865952	3495.001715
900.173579	3430.147270
900.481165	3379.549209
900.788711	3337.647138
901.096216	3305.235040
901.403681	3280.467851
901.711105	3265.258690
902.018489	3259.363060
902.325832	3295.004018
902.633135	3355.754963
902.940397	3527.897764
903.247619	3933.070422
903.554800	4694.476217
903.861941	5678.136402
904.169041	6397.937554
904.476101	6619.579445
904.783121	6349.900399
905.090100	5943.220436
905.397039	5527.042939
905.703938	5160.924100
906.010796	4831.908153
906.317614	4568.878389
906.624391	4322.187005
906.931129	4125.093013
907.237826	3939.165177
907.544483	3762.550873
907.851099	3590.150973
908.157675	3424.992691
908.464211	3275.346039
908.770707	3173.015657
909.077163	3093.436002
909.383578	3033.083308
909.689954	2986.059425
909.996289	2955.494909
910.302584	2933.636466
910.608839	2920.441246
910.915054	2908.307189
911.221229	2901.599934
911.527363	2906.300810
911.833458	2913.469330
912.139513	2923.660023
912.445527	2937.742486
912.751502	2975.112560
913.057436	3021.110568
913.363331	3080.805391
913.669186	3168.612209
913.975000	3287.031433
914.280775	3479.230465
914.586510	3752.846652
914.892205	4135.374447
915.197859	4640.677023
915.503475	5232.833639
915.809050	5728.540379
916.114585	6023.780595
916.420081	6093.736687
916.725536	6029.724115
917.030952	5791.070851
917.336328	5589.054172
917.641665	5368.619638
917.946961	5140.323425
918.252218	4938.097538
918.557435	4708.619174
918.862612	4505.853884
919.167750	4326.192202
919.472848	4137.920229
919.777906	3966.132830
920.082925	3801.438333
920.387904	3644.729025
920.692843	3532.028990
920.997743	3429.902774
921.302603	3334.612364
921.607423	3269.200872
921.912204	3197.588761
922.216946	3148.477840
922.521647	3099.583689
922.826310	3055.708007
923.130932	3015.900535
923.435516	2976.660194
923.740059	2947.557613
924.044564	2918.069383
924.349028	2887.383880
924.653454	2860.496886
924.957840	2833.297340
925.262186	2814.594659
925.566493	2792.053140
925.870761	2765.098090
926.174989	2755.766915
926.479178	2738.667321
926.783328	2719.848693
927.087438	2709.252188
927.391509	2692.465146
927.695541	2680.721778
927.999533	2673.943947
928.303486	2666.964469
928.607400	2657.224960
928.911275	2655.211019
929.215110	2645.418577
929.518906	2643.639050
929.822663	2643.828093
930.126381	2641.725932
930.430060	2645.670635
930.733699	2648.861686
931.037299	2649.350677
931.340861	2651.677170
931.644383	2655.090031
931.947866	2652.090545
932.251309	2649.968219
932.554714	2647.152734
932.858080	2645.025367
933.161407	2643.142497
933.464694	2639.018833
933.767943	2638.822228
934.071153	2631.189921
934.374323	2626.927625
934.677455	2627.887965
934.980548	2622.491410
935.283602	2620.255658
935.586617	2617.961933
935.889593	2620.956378
936.192530	2619.398662
936.495428	2627.585496
936.798287	2638.905407
937.101108	2654.212870
937.403890	2671.844306
937.706632	2697.982689
938.009336	2731.597102
938.312002	2759.474683
938.614628	2786.041564
938.917216	2804.978658
939.219765	2814.508960
939.522275	2827.106803
939.824747	2826.302739
940.127179	2819.116574
940.429573	2814.403096
940.731929	2811.537200
941.034246	2804.063689
941.336524	2805.230716
941.638763	2795.115641
941.940964	2791.264199
942.243126	2773.794081
942.545250	2764.425096
942.847335	2749.258785
943.149381	2736.837382
943.451389	2722.094527
943.753359	2708.546427
944.055290	2700.049562
944.357182	2689.949610
944.659036	2682.985256
944.960851	2681.707323
945.262628	2675.274811
945.564367	2677.923937
945.866067	2675.315140
946.167729	2676.091478
946.469352	2672.850016
946.770937	2670.586538
947.072484	2663.186124
947.373992	2665.086639
947.675462	2660.000115
947.976893	2656.741009
948.278286	2653.398724
948.579641	2648.113074
948.880958	2645.683238
949.182236	2646.141983
949.483476	2643.951602
949.784678	2642.769451
950.085841	2639.225520
950.386967	2645.405975
950.688054	2649.254896
950.989103	2660.980619
951.290114	2669.127124
951.591087	2679.269926
951.892021	2691.673685
952.192917	2703.717001
952.493776	2714.711758
952.794596	2718.104454
953.095378	2719.266440
953.396122	2716.864330
953.696828	2715.790565
953.997496	2712.100440
954.298126	2701.337577
954.598718	2694.373222
954.899272	2682.864268
955.199788	2670.344563
955.500266	2658.399549
955.800706	2646.331026
956.101108	2626.226905
956.401472	2616.011007
956.701798	2602.409973
957.002087	2585.207036
957.302337	2578.678742
957.602550	2564.694581
957.902724	2554.637479
958.202861	2542.979811
958.502960	2536.207021
958.803022	2529.734179
959.103045	2518.366377
959.403031	2513.675583
959.702979	2508.505880
960.002889	2506.502022
960.302762	2500.649242
960.602596	2492.626246
960.902393	2492.356544
961.202153	2489.878817
961.501875	2485.392190
961.801559	2482.264154
962.101205	2479.935141
962.400814	2476.098823
962.700385	2474.735191
962.999918	2474.911631
963.299414	2470.364510
963.598873	2471.279480
963.898293	2465.449385
964.197677	2469.129428
964.497022	2466.177832
964.796331	2465.298151
965.095601	2463.516103
965.394835	2465.033490
965.694030	2462.843109
965.993189	2462.933849
966.292309	2459.412603
966.591393	2461.981071
966.890439	2463.097687
967.189447	2463.203551
967.488419	2459.952007
967.787353	2461.809672
968.086249	2464.433593
968.385108	2462.286061
968.683930	2465.338480
968.982714	2466.513069
969.281462	2467.238995
969.580172	2468.272431
969.878844	2468.917699
970.177480	2473.762248
970.476078	2474.420118
970.774639	2477.016313
971.073162	2480.464462
971.371649	2480.963536
971.670098	2482.019658
971.968510	2485.828250
972.266885	2480.948413
972.565223	2489.893940
972.863524	2488.555514
973.161788	2492.180103
973.460014	2492.863180
973.758204	2494.015083
974.056356	2495.101452
974.354471	2493.533653
974.652550	2496.651607
974.950591	2493.697491
975.248595	2493.808396
975.546563	2491.043323
975.844493	2489.591471
976.142386	2487.557365
976.440243	2486.755822
976.738062	2483.484113
977.035845	2480.008238
977.333590	2478.949595
977.631299	2475.229224
977.928971	2475.171250
978.226606	2472.229737
978.524204	2473.517752
978.821765	2469.449541
979.119290	2469.762092
979.416777	2469.656228
979.714228	2471.914665
980.011642	2472.640591
980.309020	2477.943885
980.606360	2479.342805
980.903664	2492.608602
981.200931	2501.339880
981.498162	2524.027593
981.795356	2553.190668
982.092513	2589.537387
982.389633	2637.574542
982.686717	2683.018023
982.983764	2712.228989
983.280775	2733.094325
983.577749	2731.425703
983.874686	2724.605022
984.171587	2706.713967
984.468451	2691.162007
984.765279	2673.641477
985.062070	2657.169507
985.358824	2635.737042
985.655543	2610.957250
985.952224	2588.390525
986.248869	2562.126113
986.545478	2533.104190
986.842050	2515.097189
987.138586	2493.447954
987.435086	2479.567137
987.731549	2464.433593
988.027975	2464.040383
988.324366	2453.698456
988.620719	2450.588064
988.917037	2450.237703
989.213318	2444.397527
989.509563	2442.131528
989.805772	2441.813935
990.101944	2440.294027
990.398080	2437.891918
990.694180	2440.624223
990.990244	2438.597679
991.286271	2437.425611
991.582262	2437.755807
991.878217	2438.963163
992.174136	2439.336208
992.470019	2440.278904
992.765865	2444.697475
993.061676	2444.079934
993.357450	2446.814760
993.653188	2450.159566
993.948890	2456.161059
994.244556	2462.376802
994.540186	2471.337453
994.835780	2483.607621
995.131337	2498.433655
995.426859	2514.245234
995.722345	2537.132072
996.017795	2552.742005
996.313208	2568.553584
996.608586	2575.429718
996.903928	2583.455235
997.199234	2580.949782
997.494504	2580.347364
997.789738	2571.590879
998.084936	2561.702656
998.380099	2547.534493
998.675225	2538.009233
998.970316	2521.517098
999.265371	2510.915552
999.560390	2495.845022
999.855373	2484.716675
1000.150320	2472.658235
1000.445232	2466.039200
1000.740108	2459.694908
1001.034948	2451.845832
1001.329752	2447.553289
1001.624521	2445.204111
1001.919254	2435.691454
1002.213951	2435.782195
1002.508613	2431.056113
1002.803239	2433.511155
1003.097829	2424.895823
1003.392384	2428.976637
1003.686903	2426.352717
1003.981386	2424.807603
1004.275834	2424.787438
1004.570246	2423.403642
1004.864623	2421.533373
1005.158964	2423.380956
1005.453270	2417.255954
1005.747540	2418.271747
1006.041775	2418.821233
1006.335974	2421.074628
1006.630138	2421.185534
1006.924266	2422.539084
1007.218359	2417.689494
1007.512416	2418.279309
1007.806438	2416.764442
1008.100425	2418.652354
1008.394376	2415.980542
1008.688292	2417.903743
1008.982172	2417.210584
1009.276017	2417.820564
1009.569827	2415.294946
1009.863602	2416.046078
1010.157341	2415.151273
1010.451045	2418.375091
1010.744714	2413.240675
1011.038347	2414.223700
1011.331945	2414.049781
1011.625508	2413.820408
1011.919036	2412.683628
1012.212528	2413.613721
1012.505986	2413.873340
1012.799408	2414.306879
1013.092795	2412.413926
1013.386147	2411.872002
1013.679464	2412.487023
1013.972745	2411.171282
1014.265992	2413.061714
1014.559204	2412.524832
1014.852380	2413.356622
1015.145521	2411.093144
1015.438628	2412.343350
1015.731699	2410.710016
1016.024736	2411.942578
1016.317737	2413.608680
1016.610703	2413.893505
1016.903635	2409.520304
1017.196531	2408.988462
1017.489393	2410.740263
1017.782219	2408.537279
1018.075011	2415.731005
1018.367768	2414.246386
1018.660490	2413.560789
1018.953177	2413.560789
1019.245829	2413.560789
