Dividing Wavelength (nm)	Counts (n)	Blue Motor Position (mm): 27.400000	Red Motor Position (mm): 0.000000	
326.493990	1972.227934
326.888308	1972.227934
327.282561	1972.227934
327.676750	1949.701538
328.070874	1950.056939
328.464933	1954.498196
328.858929	1965.329115
329.252859	1977.193471
329.646726	1991.283496
330.040528	2006.532986
330.434265	2027.627694
330.827938	2045.470858
331.221547	2064.118086
331.615091	2084.751529
332.008571	2105.049735
332.401986	2125.143774
332.795338	2147.889460
333.188625	2166.577018
333.581847	2185.229287
333.975006	2205.217462
334.368100	2221.112220
334.761129	2240.208111
335.154095	2256.077663
335.546996	2294.478653
335.939833	2365.463140
336.332606	2378.706251
336.725315	2390.263096
337.117960	2399.178377
337.510540	2406.268760
337.903056	2418.135636
338.295508	2420.721748
338.687896	2430.095773
339.080220	2438.574994
339.472480	2442.711261
339.864676	2445.655295
340.256807	2447.512960
340.648875	2452.670060
341.040879	2452.110492
341.432818	2453.380863
341.824694	2456.478652
342.216506	2455.672067
342.608253	2455.092335
342.999937	2454.265585
343.391557	2452.833898
343.783113	2452.944803
344.174605	2447.850717
344.566033	2447.160079
344.957397	2448.490944
345.348697	2443.606066
345.739934	2442.640685
346.131106	2443.389296
346.522215	2441.834100
346.913260	2437.365117
347.304241	2438.494336
347.695159	2435.963676
348.086012	2433.566608
348.476802	2432.460074
348.867528	2428.268355
349.258191	2429.178283
349.648789	2427.968406
350.039324	2425.531008
350.429796	2426.219126
350.820203	2425.478076
351.210548	2425.609146
351.600828	2424.860535
351.991045	2426.251893
352.381198	2421.528332
352.771288	2422.987746
353.161314	2422.619742
353.551276	2422.977664
353.941175	2423.136460
354.331010	2422.972623
354.720782	2425.863725
355.110490	2425.972109
355.500135	2425.110072
355.889717	2423.847263
356.279235	2424.419434
356.668689	2424.943714
357.058080	2426.130906
357.447408	2422.660071
357.836672	2422.050092
358.225873	2424.477407
358.615010	2423.464135
359.004084	2427.073602
359.393095	2428.651483
359.782043	2427.091246
360.170927	2431.608119
360.559748	2428.815320
360.948505	2431.093922
361.337199	2432.858326
361.725830	2430.892276
362.114398	2433.569128
362.502903	2433.070054
362.891344	2432.139961
363.279722	2431.441761
363.668037	2432.944025
364.056289	2433.909406
364.444478	2434.907555
364.832603	2436.364448
365.220665	2436.475353
365.608665	2435.673810
365.996601	2436.233378
366.384474	2435.678851
366.772284	2438.164140
367.160031	2435.625919
367.547715	2436.412339
367.935336	2438.940478
368.322893	2438.524582
368.710388	2439.094233
369.097820	2441.962649
369.485189	2438.275045
369.872495	2440.992227
370.259738	2441.168668
370.646918	2440.503235
371.034035	2440.825869
371.421090	2442.018102
371.808081	2441.516507
372.195010	2443.689245
372.581875	2443.598504
372.968678	2444.251333
373.355418	2441.332505
373.742096	2444.742846
374.128710	2442.378545
374.515262	2441.723195
374.901751	2445.730912
375.288177	2446.920624
375.674540	2446.509770
376.060841	2445.703186
376.447079	2444.662187
376.833254	2446.855089
377.219367	2440.730087
377.605417	2445.985490
377.991404	2445.047836
378.377329	2447.018927
378.763191	2444.689914
379.148991	2450.343568
379.534727	2450.525049
379.920402	2450.945986
380.306013	2448.216201
380.691563	2451.482868
381.077049	2450.522529
381.462474	2450.310800
381.847835	2449.428598
382.233134	2455.384722
382.618371	2452.448249
383.003545	2453.395986
383.388657	2454.033692
383.773706	2455.818261
384.158693	2455.649382
384.543618	2455.604012
384.928480	2455.258693
385.313280	2454.898250
385.698017	2456.471090
386.082692	2454.323559
386.467305	2456.087962
386.851856	2459.324383
387.236344	2457.144084
387.620770	2461.300516
388.005133	2456.284567
388.389435	2462.911164
388.773674	2459.034517
389.157851	2461.978551
389.541965	2460.320011
389.926018	2461.562656
390.310008	2458.175000
390.693936	2459.843622
391.077802	2462.079374
391.461606	2459.997377
391.845348	2459.977213
392.229027	2460.771194
392.612645	2461.948304
392.996200	2461.325721
393.379694	2468.935343
393.763125	2464.292440
394.146494	2469.071454
394.529801	2463.901751
394.913047	2467.543985
395.296230	2466.984417
395.679351	2465.782101
396.062410	2466.833182
396.445408	2465.698922
396.828343	2467.796042
397.211217	2465.167081
397.594028	2466.634056
397.976778	2465.709005
398.359466	2468.242184
398.742092	2465.640949
399.124656	2471.730663
399.507158	2470.067082
399.889598	2470.989613
400.271977	2471.705457
400.654294	2470.924078
401.036549	2472.297793
401.418742	2473.338791
401.800874	2471.236630
402.182944	2473.401805
402.564952	2475.052783
402.946898	2476.605459
403.328783	2473.789974
403.710606	2477.238123
404.092367	2473.547999
404.474067	2479.436067
404.855705	2476.043370
405.237282	2478.132928
405.618797	2479.665439
406.000250	2478.657208
406.381642	2479.945223
406.762972	2480.393886
407.144240	2479.098309
407.525447	2481.142497
407.906593	2482.969915
408.287677	2481.608804
408.668700	2484.235245
409.049661	2481.084524
409.430560	2481.984370
409.811399	2482.395224
410.192176	2486.347488
410.572891	2481.679380
410.953545	2485.344299
411.334138	2486.775987
411.714669	2485.520739
412.095139	2486.914618
412.475547	2486.849083
412.855894	2487.305308
413.236180	2486.710452
413.616405	2487.499392
413.996568	2486.067704
414.376670	2490.372850
414.756711	2489.838488
415.136691	2489.838487
415.516609	2486.143322
415.896466	2491.290340
416.276262	2493.677326
416.655997	2489.382263
417.035670	2489.399907
417.415283	2495.870228
417.794834	2490.665237
418.174324	2494.468787
418.553753	2494.327635
418.933121	2495.807214
419.312428	2497.382574
419.691674	2495.930722
420.070859	2497.438027
420.449983	2500.631598
420.829045	2497.803511
421.208047	2501.667555
421.586988	2501.352483
421.965867	2500.896258
422.344686	2501.917092
422.723444	2504.432628
423.102141	2502.917761
423.480777	2504.984634
423.859352	2502.499345
424.237866	2506.305417
424.616319	2508.163082
424.994712	2506.776764
425.373044	2509.924965
425.751314	2509.622496
426.129524	2508.984790
426.507673	2513.466376
426.885762	2512.788340
427.263789	2515.137518
427.641756	2515.384535
428.019662	2512.969822
428.397508	2517.892509
428.775292	2519.651871
429.153016	2521.728827
429.530679	2523.430216
429.908282	2522.759743
430.285824	2521.648168
430.663305	2525.378622
431.040726	2525.643283
431.418086	2526.535567
431.795385	2531.317101
432.172624	2528.166380
432.549802	2532.141330
432.926920	2531.412883
433.303977	2534.896321
433.680974	2539.758513
434.057910	2538.137783
434.434786	2541.185160
434.811601	2546.077600
435.188355	2549.034237
435.565050	2555.338199
435.941683	2550.760832
436.318257	2557.538663
436.694770	2558.927501
437.071222	2567.169787
437.447614	2564.946639
437.823946	2569.554253
438.200218	2575.623803
438.576429	2584.992787
438.952580	2588.766091
439.328670	2598.311515
439.704700	2605.860643
440.080670	2610.067486
440.456580	2622.713221
440.832429	2637.975314
441.208218	2641.902373
441.583947	2655.740340
441.959616	2667.662669
442.335224	2684.439629
442.710773	2702.807073
443.086261	2727.317163
443.461689	2739.012640
443.837057	2758.889909
444.212365	2790.823098
444.587612	2813.704896
444.962800	2836.284224
445.337927	2870.110366
445.712995	2879.156717
446.088002	2947.098868
446.462949	2992.736433
446.837837	3035.185469
447.212664	3077.200966
447.587431	3212.724826
447.962139	3368.768702
448.336786	3505.913292
448.711374	3518.647247
449.085901	3445.172429
449.460369	3503.188548
449.834776	3580.119077
450.209124	3782.327319
450.583412	3849.772917
450.957640	3959.390286
451.331808	3975.264880
451.705917	3984.843072
452.079965	4075.389757
452.453954	4198.351061
452.827883	4298.680105
453.201752	4382.333012
453.575562	4503.368595
453.949311	4712.639494
454.323001	4845.587324
454.696632	4951.663283
455.070202	5235.792796
455.443713	5393.414553
455.817164	5593.581129
456.190556	5804.767666
456.563888	5894.588425
456.937160	6088.715698
457.310373	6031.422984
457.683526	6234.336988
458.056619	6393.408077
458.429653	6555.609723
458.802628	6812.741337
459.175542	7013.958992
459.548398	7419.310611
459.921194	7917.613546
460.293930	8269.768389
460.666607	8897.051765
461.039224	9484.734357
461.411782	9799.541811
461.784280	9761.541594
462.156719	9865.386842
462.529099	9961.872006
462.901419	9892.548579
463.273680	9860.217139
463.645882	10112.922620
464.018024	10351.013795
464.390106	10815.089815
464.762130	11855.087416
465.134094	13388.843350
465.505999	15370.901534
465.877845	17239.995022
466.249631	18009.995984
466.621358	17718.403043
466.993026	17305.734189
467.364634	16929.520439
467.736184	16574.250163
468.107674	16452.982686
468.479105	16481.268601
468.850477	16538.394956
469.221790	16302.821837
469.593043	15908.948925
469.964238	15850.912641
470.335373	16091.549600
470.706449	17135.824619
471.077467	18610.178117
471.448425	21065.734237
471.819324	22778.259569
472.190164	22227.024520
472.560945	20827.791776
472.931667	19651.720831
473.302330	19406.919879
473.672934	19295.515420
474.043479	19851.905050
474.413965	19728.386698
474.784393	19813.068001
475.154761	20571.917930
475.525070	20883.730940
475.895321	20913.758573
476.265513	21520.156448
476.635645	22344.569104
477.005719	22546.779867
477.375734	23105.896761
477.745691	23800.550117
478.115588	24891.599482
478.485427	26432.516375
478.855207	28871.923160
479.224928	30913.434192
479.594591	32360.298277
479.964194	32004.745697
480.333739	32409.517583
480.703226	32785.209573
481.072653	33575.501180
481.442022	34259.396713
481.811333	34788.808608
482.180584	34152.546937
482.549777	34094.792958
482.918912	34011.865977
483.287988	34098.777990
483.657005	33768.952938
484.025964	33571.286775
484.394864	33871.439596
484.763706	33806.196983
485.132489	33418.585184
485.501213	33552.135432
485.869879	33932.576189
486.238487	33874.827251
486.607036	34280.115856
486.975527	34087.437914
487.343959	34488.791898
487.712333	34793.181809
488.080648	34952.953618
488.448905	35528.378645
488.817104	35603.262464
489.185244	36603.341688
489.553326	38212.246103
489.921350	40781.787753
490.289315	43637.493022
490.657222	44462.553466
491.025070	44982.770296
491.392861	44330.933980
491.760593	43351.921739
492.128267	42028.233206
492.495883	40866.484179
492.863440	39824.117236
493.230939	38810.628543
493.598380	38050.929179
493.965763	37928.192207
494.333088	37379.780203
494.700354	37129.008005
495.067563	37019.252004
495.434713	37044.871147
495.801805	37243.245593
496.168839	37048.089924
496.535815	36902.052738
496.902733	37058.220123
497.269593	36812.577299
497.636395	36851.885696
498.003139	37329.204827
498.369825	36966.471123
498.736453	37341.835438
499.103023	37036.412091
499.469535	37022.687550
499.835989	37196.602317
500.202385	36992.997674
500.568723	37107.194933
500.935003	37365.249077
501.301226	37278.584081
501.667390	37924.796990
502.033497	38244.580063
502.399546	37779.836090
502.765537	37222.090390
503.131470	37641.917683
503.497345	38036.282107
503.863163	36866.568057
504.228923	37500.520879
504.594625	37931.852084
504.960269	37323.684764
505.325856	38022.439098
505.691385	37471.095664
506.056856	37648.393045
506.422270	38112.138869
506.787625	37758.050744
507.152924	37970.285841
507.518164	38102.238043
507.883347	37386.641214
508.248472	37668.676127
508.613540	38160.775922
508.978550	38485.766507
509.343503	38266.335163
509.708398	38476.271494
510.073236	39025.031337
510.438016	39038.140858
510.802738	38540.155516
511.167403	39164.872945
511.532010	39410.457796
511.896561	39726.323893
512.261053	40544.702287
512.625488	40133.455039
512.989866	40014.687975
513.354186	39879.779136
513.718449	39892.999562
514.082655	40566.888406
514.446803	40255.163616
514.810894	40773.167380
515.174927	40710.100025
515.538904	40639.906998
515.902822	41277.882662
516.266684	40774.699891
516.630488	41180.928670
516.994235	41067.122102
517.357925	41599.041970
517.721558	41777.387911
518.085133	42093.284255
518.448651	42237.100813
518.812112	42018.045034
519.175516	42130.772796
519.538863	42448.065539
519.902152	42437.204373
520.265385	42895.480546
520.628560	42931.020681
520.991678	42728.497366
521.354739	42977.636230
521.717743	43274.895429
522.080690	43177.575954
522.443580	43724.604160
522.806413	43796.841374
523.169189	43751.067697
523.531908	43925.592444
523.894569	43792.639573
524.257174	43950.531032
524.619722	44252.579326
524.982213	44258.840439
525.344647	44164.507848
525.707025	44226.768618
526.069345	44627.731913
526.431608	44535.529209
526.793815	44855.065266
527.155964	44407.572122
527.518057	44571.954066
527.880093	44376.316968
528.242072	44894.252676
528.603995	44591.453249
528.965860	44618.138597
529.327669	44706.918358
529.689421	44613.649450
530.051117	44562.264969
530.412755	44725.802520
530.774337	44781.592970
531.135862	44595.675216
531.497331	44797.878417
531.858743	44705.554726
532.220098	45035.168049
532.581396	44756.687149
532.942638	44436.435248
533.303824	44738.208800
533.664953	44700.379981
534.026025	44432.109938
534.387040	44895.787707
534.747999	44839.069685
535.108902	45005.357186
535.469748	44533.606009
535.830537	44645.038194
536.191270	44857.832860
536.551947	44512.465930
536.912567	44800.867821
537.273131	44928.245176
537.633638	44434.595227
537.994089	44766.477070
538.354483	44378.769489
538.714821	44947.610769
539.075103	45277.191325
539.435328	45065.568728
539.795497	44944.787723
540.155609	44930.231391
540.515665	45387.615279
540.875665	44843.324419
541.235609	45167.770560
541.595496	45150.098795
541.955328	45801.226829
542.315102	45198.977823
542.674821	44992.159445
543.034483	45027.003901
543.394090	45005.147978
543.753640	44943.461899
544.113134	45934.686336
544.472571	44982.671994
544.831953	46201.905298
545.191278	45434.087156
545.550548	45151.190205
545.909761	45602.912878
546.268918	45808.168498
546.628019	46095.325224
546.987064	45682.613520
547.346053	44976.325181
547.704986	45833.747312
548.063863	45420.450835
548.422684	45601.398011
548.781449	45447.015195
549.140158	45846.193921
549.498811	45687.339602
549.857408	45138.151261
550.215949	45974.236708
550.574434	45884.194139
550.932864	45691.251537
551.291237	46384.344656
551.649555	45986.564850
552.007817	46230.755822
552.366022	45884.998203
552.724173	46065.297591
553.082267	46454.895604
553.440305	46748.139523
553.798288	46082.475323
554.156215	46393.322951
554.514086	46590.230420
554.871902	46335.110227
555.229661	46350.649584
555.587365	46180.969386
555.945014	46289.243289
556.302606	46213.391567
556.660143	46433.362315
557.017625	46505.831423
557.375050	46312.772874
557.732421	46663.695155
558.089735	46638.474262
558.446994	46566.143787
558.804197	47016.956532
559.161345	46966.161865
559.518437	46235.723879
559.875474	46525.307920
560.232455	46716.342445
560.589381	46871.095786
560.946251	46563.293015
561.303065	47232.486023
561.659825	47046.772436
562.016528	46739.219202
562.373177	46451.510469
562.729770	46928.698531
563.086307	46457.842158
563.442789	46908.334790
563.799216	46966.219839
564.155587	46759.920700
564.511904	46799.302194
564.868164	46869.255765
565.224370	47116.408415
565.580520	46865.734519
565.936615	47062.992348
566.292654	46804.812175
566.648638	47032.944551
567.004567	46983.843713
567.360441	47020.734876
567.716260	46883.421407
568.072023	47193.875826
568.427732	47167.823143
568.783385	46728.743684
569.138982	47121.842778
569.494525	47094.754138
569.850013	46846.963783
570.205445	46835.999273
570.560823	46786.525389
570.916145	46650.504976
571.271412	46694.398303
571.626625	46450.880325
571.981782	46505.176073
572.336884	46206.442337
572.691931	46528.995524
573.046923	46153.636250
573.401860	45985.032339
573.756743	45960.224821
574.111570	46091.887157
574.466342	45963.234390
574.821059	46071.848570
575.175722	45592.507936
575.530330	45624.063039
575.884882	45350.156986
576.239380	45316.754300
576.593823	45283.097037
576.948211	45205.594337
577.302544	44761.294764
577.656823	44787.551613
578.011047	45019.555596
578.365216	44734.208644
578.719330	44542.344849
579.073389	44390.807765
579.427394	44485.969626
579.781344	44454.540552
580.135239	44119.853307
580.489080	44192.118247
580.842866	43706.445924
581.196597	44148.431608
581.550273	44090.856590
581.903895	43939.639619
582.257463	44386.270726
582.610975	43775.774392
582.964434	44061.854832
583.317837	43718.002769
583.671186	43538.071386
584.024481	43785.826453
584.377721	43322.735979
584.730906	43608.292138
585.084037	43618.674395
585.437113	43347.566182
585.790135	43382.768559
586.143103	42999.519879
586.496016	43114.942138
586.848874	43134.416115
587.201679	43164.872246
587.554428	42655.574555
587.907124	42837.676156
588.259765	42604.986576
588.612352	42847.506406
588.964884	42253.923143
589.317362	42527.420863
589.669786	42479.635765
590.022155	42257.918258
590.374470	42669.974611
590.726731	42213.596433
591.078937	41745.747109
591.431090	41820.129334
591.783188	41476.385656
592.135232	41181.699967
592.487222	41412.920050
592.839157	41486.485608
593.191038	41174.176045
593.542866	40948.932250
593.894639	40357.945182
594.246358	40626.326130
594.598022	40599.401327
594.949633	40203.562366
595.301190	40176.839209
595.652692	40025.433194
596.004141	40330.738074
596.355535	39359.327893
596.706876	39314.983383
597.058162	39158.193416
597.409395	39604.390984
597.760573	39689.309221
598.111698	39270.482597
598.462768	39294.012183
598.813785	39325.138787
599.164748	38779.759038
599.515657	39161.767594
599.866511	38651.794389
600.217312	39256.604301
600.568060	38243.178623
600.918753	38963.408273
601.269392	38935.442472
601.619978	38590.972868
601.970510	38796.152870
602.320988	38966.357347
602.671412	39265.459087
603.021783	39023.065287
603.372100	38667.532871
603.722363	38783.055953
604.072572	38857.095379
604.422728	38861.831543
604.772830	38685.832259
605.122878	38779.174264
605.472872	38714.624810
605.822813	38990.786779
606.172701	38820.418464
606.522534	39059.548118
606.872314	39298.750867
607.222041	39063.936442
607.571714	39459.553593
607.921333	38909.326774
608.270899	39194.971154
608.620411	39527.677225
608.969870	39327.291360
609.319276	39315.268208
609.668627	39390.401565
610.017926	39862.246003
610.367171	40025.647443
610.716362	40106.840267
611.065500	40064.771838
611.414585	40245.497204
611.763616	40525.603876
612.112594	40454.032094
612.461518	40690.817611
612.810389	40956.723353
613.159207	40828.007572
613.507971	40905.061608
613.856682	41374.294729
614.205340	41265.168872
614.553945	41945.994343
614.902496	41404.055181
615.250994	41870.099772
615.599439	41943.050309
615.947830	42153.659634
616.296169	42195.715460
616.644454	42338.954806
616.992686	42498.560257
617.340864	43007.777289
617.688990	42743.078904
618.037063	43348.347561
618.385082	43308.184688
618.733048	43596.884007
619.080961	43617.570382
619.428821	43617.172131
619.776628	43737.128907
620.124382	43550.442377
620.472083	43679.238817
620.819731	43790.010611
621.167326	43460.341835
621.514868	43444.137046
621.862357	43021.849670
622.209793	43045.520408
622.557176	42720.494534
622.904506	42456.751447
623.251783	42102.718775
623.599007	41905.972622
623.946179	41670.709534
624.293297	41626.629685
624.640363	41043.214430
624.987376	41027.927131
625.334336	40790.662704
625.681243	40442.545825
626.028097	40411.078943
626.374899	40269.493096
626.721647	40233.952962
627.068343	40115.163212
627.414987	39895.701621
627.761577	39681.997027
628.108115	40013.760403
628.454600	39460.876896
628.801032	39637.992795
629.147412	39625.180703
629.493739	39631.792176
629.840014	39281.789905
630.186236	39624.976536
630.532405	39243.830017
630.878521	39458.885640
631.224585	39327.314045
631.570597	39044.911127
631.916556	39232.842822
632.262462	39163.887399
632.608316	39179.333495
632.954117	39080.720964
633.299866	39059.616173
633.645562	38978.400664
633.991206	38487.183072
634.336797	38064.401663
634.682336	38061.689522
635.027823	37814.683066
635.373257	37633.483832
635.718639	37399.478512
636.063968	37260.846781
636.409245	36687.551642
636.754470	36738.394199
637.099642	36508.056318
637.444762	36037.671294
637.789829	36177.969126
638.134845	35839.937076
638.479808	35802.904760
638.824719	35701.575047
639.169577	35310.494934
639.514383	35379.662086
639.859137	35073.850570
640.203839	35318.545657
640.548489	34942.969613
640.893086	35016.177249
641.237632	34783.223009
641.582125	34893.941871
641.926566	34827.728836
642.270955	34779.487514
642.615292	34798.540555
642.959576	34777.367709
643.303809	34779.192607
643.647990	34933.240186
643.992118	34894.388013
644.336195	34899.688787
644.680219	34980.737938
645.024192	35286.947705
645.368112	35796.966280
645.711981	35799.184388
646.055797	36671.188057
646.399562	36594.960770
646.743274	37528.184211
647.086935	37979.158272
647.430544	37874.445945
647.774101	37999.940429
648.117606	38226.638597
648.461059	38516.641054
648.804460	38135.978486
649.147810	37522.369240
649.491108	37260.781246
649.834354	36919.389267
650.177548	36095.551302
650.520690	35658.173233
650.863781	35664.663718
651.206820	35517.620822
651.549807	35090.272128
651.892742	34624.618227
652.235626	34411.868932
652.578458	34292.600273
652.921238	33702.238308
653.263967	34017.277656
653.606644	33721.664394
653.949269	33655.221987
654.291843	33284.258598
654.634365	33672.747558
654.976836	33265.863428
655.319255	33275.870118
655.661622	33276.757362
656.003938	33048.078020
656.346203	32901.577048
656.688416	33133.603716
657.030577	32946.912145
657.372687	32775.160033
657.714746	33038.890517
658.056753	33152.014010
658.398708	32614.937041
658.740612	32665.162056
659.082465	32926.119906
659.424266	32761.531274
659.766016	32897.400452
660.107715	32765.105452
660.449362	32899.018663
660.790958	32878.465878
661.132503	32901.609816
661.473996	32931.481173
661.815438	33041.133831
662.156829	33236.894437
662.498168	33012.696682
662.839456	33043.049469
663.180693	33182.923844
663.521879	33340.434696
663.863013	33298.361226
664.204097	33308.420849
664.545129	33745.166253
664.886110	33727.945672
665.227040	33793.021927
665.567918	33886.588263
665.908746	33976.131758
666.249522	34135.565810
666.590248	34134.303001
666.930922	34233.162549
667.271545	34200.097621
667.612118	34295.040192
667.952639	34081.179322
668.293109	34129.100530
668.633528	34026.795354
668.973896	33955.400013
669.314213	33981.218282
669.654480	33714.911769
669.994695	33750.346039
670.334859	33639.604492
670.674973	33548.878846
671.015035	33689.806823
671.355047	33663.401259
671.695008	33599.494551
672.034918	33500.128368
672.374777	33586.105247
672.714585	33420.808333
673.054342	33651.665452
673.394049	33423.026440
673.733705	33680.067313
674.073310	33370.434603
674.412864	33430.872996
674.752368	33036.748027
675.091820	33321.250585
675.431223	32910.278080
675.770574	32634.395894
676.109875	32494.708042
676.449125	32219.014900
676.788324	32142.512870
677.127473	31625.514816
677.466571	31540.589018
677.805619	31200.961442
678.144616	31196.583200
678.483562	31122.339607
678.822458	30805.011575
679.161303	30719.805993
679.500098	30634.406326
679.838842	30525.542609
680.177535	30693.914627
680.516179	30960.800873
680.854771	31215.053988
681.193314	32065.773905
681.531805	33187.402910
681.870247	33963.486024
682.208638	34688.938309
682.546978	34917.756282
682.885268	35004.890106
683.223508	34459.918690
683.561697	34138.078825
683.899836	33950.008499
684.237925	33435.566311
684.575963	33290.804537
684.913951	32835.079188
685.251889	32987.546365
685.589776	32975.059427
685.927614	32970.144302
686.265401	33124.028044
686.603137	33235.808069
686.940824	33749.163888
687.278460	34117.604179
687.616046	34262.731437
687.953582	34869.252820
688.291068	34728.728136
688.628504	35011.882186
688.965889	34944.038338
689.303224	34564.373918
689.640510	34209.022983
689.977745	33484.445338
690.314930	32676.323171
690.652065	32156.658347
690.989150	31404.969377
691.326185	30509.955361
691.663170	29806.245572
692.000105	29052.172136
692.336990	28385.287976
692.673825	27935.914481
693.010610	27418.228310
693.347345	26854.017331
693.684030	26196.902927
694.020665	25931.488697
694.357251	25263.797953
694.693786	25215.150818
695.030272	24991.489945
695.366707	24446.163128
695.703093	24156.846268
696.039429	24154.366020
696.375716	23890.058324
696.711952	23859.955074
697.048139	23702.844993
697.384276	23525.600545
697.720363	23651.599144
698.056400	23454.119504
698.392388	23239.043716
698.728326	23195.611655
699.064214	22989.274708
699.400053	22934.431995
699.735842	22578.710536
700.071581	22294.807874
700.407270	22020.768231
700.742910	21823.674239
701.078501	21561.725803
701.414042	21270.783170
701.749533	20994.936273
702.084974	20640.896038
702.420366	20841.153354
702.755709	20420.201885
703.091002	20121.720207
703.426246	20134.328132
703.761440	20036.328102
704.096584	19762.137223
704.431679	19721.820595
704.766725	19632.317429
705.101721	19579.776003
705.436668	19665.571401
705.771565	19337.651905
706.106413	19683.664102
706.441212	19667.461833
706.775961	19793.057140
707.110661	19867.217555
707.445311	20222.313911
707.779913	20075.654143
708.114465	20312.520318
708.448967	20594.966086
708.783421	21287.792023
709.117825	21559.827808
709.452180	21783.902056
709.786485	22181.059279
710.120742	22993.723526
710.454949	23003.896574
710.789107	23468.552327
711.123216	24168.077958
711.457275	24293.212000
711.791286	24836.645864
712.125247	24905.419805
712.459159	24604.185657
712.793023	25244.621403
713.126837	24143.134329
713.460602	24388.961155
713.794318	24008.525439
714.127985	23621.372386
714.461602	22728.586560
714.795171	22682.013860
715.128691	21683.449503
715.462162	21136.809466
715.795584	20714.338088
716.128957	20452.598860
716.462281	20054.803930
716.795556	19817.869700
717.128782	19326.881480
717.461960	18785.269993
717.795088	18704.102375
718.128167	18308.293660
718.461198	17850.330039
718.794180	17702.127677
719.127113	17352.725304
719.459997	17159.500398
719.792833	16819.315775
720.125619	16776.813807
720.458357	16470.551108
720.791046	16295.537369
721.123686	16139.158257
721.456278	15903.940539
721.788821	15859.832963
722.121315	15602.958448
722.453761	15686.903742
722.786158	15603.926350
723.118506	15616.458658
723.450805	15479.248533
723.783056	15637.535722
724.115259	15539.770105
724.447412	15485.560058
724.779518	15723.011007
725.111574	15749.381282
725.443582	15942.560818
725.775542	15920.026861
726.107453	16379.278497
726.439315	16275.579441
726.771129	16672.537539
727.102895	17036.710493
727.434612	17251.362824
727.766281	17379.957617
728.097901	17636.736350
728.429473	17668.341864
728.760996	17639.430847
729.092471	17724.316316
729.423897	17596.608766
729.755276	17469.493551
730.086606	17580.870283
730.417887	18101.356815
730.749120	18621.881155
731.080305	18799.158372
731.411442	19122.782804
731.742530	19194.465492
732.073570	19297.302509
732.404562	19571.044725
732.735506	19392.960924
733.066401	19102.139279
733.397249	18582.892872
733.728048	17947.717569
734.058798	17119.907176
734.389501	16437.992815
734.720156	15973.231198
735.050762	15468.704960
735.381320	15111.728253
735.711831	14880.543458
736.042293	14532.673596
736.372707	14538.042425
736.703073	14343.784082
737.033391	14519.138098
737.363661	14491.890661
737.693883	14597.283544
738.024056	14761.068112
738.354182	14948.031905
738.684260	15228.330141
739.014290	15461.778414
739.344272	15647.431508
739.674207	15923.601039
740.004093	16041.672423
740.333931	16022.395051
740.663722	16060.511215
740.993464	16057.143725
741.323159	15878.454985
741.652806	15599.568272
741.982405	15383.713626
742.311956	15046.707451
742.641460	14930.639924
742.970915	14624.299087
743.300323	14302.192042
743.629683	14081.291201
743.958996	13806.976814
744.288260	13537.902707
744.617477	13236.421543
744.946647	13161.096622
745.275768	12893.844892
745.604842	12709.230276
745.933869	12537.505891
746.262847	12495.306392
746.591778	12422.068509
746.920662	12323.327429
747.249498	12318.976913
747.578286	12436.100561
747.907027	12584.426431
748.235720	12803.174699
748.564365	12830.119666
748.892963	12720.630846
749.221514	12796.568267
749.550017	12649.976554
749.878473	12610.862241
750.206881	12389.038869
750.535242	12295.648974
750.863555	12209.155377
751.191821	12111.851025
751.520039	12133.391875
751.848210	12043.364429
752.176334	12078.108062
752.504411	11984.239257
752.832440	11826.529279
753.160421	11885.467929
753.488356	11769.980136
753.816243	11680.971003
754.144082	11540.315249
754.471875	11478.818213
754.799620	11431.191912
755.127318	11400.198898
755.454969	11361.545851
755.782572	11316.702267
756.110129	11329.194246
756.437638	11244.548232
756.765100	11230.170861
757.092515	11238.594629
757.419882	11255.190108
757.747203	11258.479461
758.074477	11337.275216
758.401703	11293.293669
758.728882	11452.667228
759.056014	11491.968063
759.383099	11609.774787
759.710138	11716.150695
760.037129	11788.576952
760.364073	11812.030921
760.690970	11796.925103
761.017820	11799.450721
761.344623	11973.688122
761.671379	12302.028554
761.998088	12926.975355
762.324751	14478.256861
762.651366	17333.266450
762.977935	20994.202785
763.304456	23196.274567
763.630931	23657.194825
763.957359	22452.512811
764.283740	20554.024355
764.610074	18683.272327
764.936362	16571.238073
765.262602	15051.065528
765.588796	13598.636008
765.914943	12576.819329
766.241044	11730.180226
766.567097	11104.847777
766.893104	10560.675384
767.219064	10197.924035
767.544978	9823.182302
767.870845	9508.110187
768.196665	9326.825253
768.522438	9128.498699
768.848165	8966.433165
769.173846	8799.636508
769.499479	8676.080347
769.825066	8523.986215
770.150607	8345.857044
770.476101	8279.074359
770.801548	8173.421856
771.126949	8028.400463
771.452303	7937.170702
771.777611	7780.418544
772.102872	7757.521623
772.428087	7636.435628
772.753256	7520.506734
773.078378	7433.206552
773.403453	7291.761857
773.728482	7184.773449
774.053465	7119.671988
774.378401	7036.555964
774.703291	6938.818074
775.028135	6846.534711
775.352932	6804.678011
775.677683	6727.286217
776.002388	6641.447970
776.327046	6640.429657
776.651658	6554.946811
776.976224	6481.557693
777.300743	6464.518593
777.625216	6392.006637
777.949643	6357.507500
778.274024	6364.860023
778.598359	6294.755217
778.922647	6296.265043
779.246889	6254.879690
779.571086	6263.195073
779.895236	6275.329131
780.219339	6274.827536
780.543397	6272.032216
780.867409	6318.675492
781.191374	6318.441078
781.515294	6286.674247
781.839167	6336.632082
782.162995	6301.233100
782.486776	6258.728611
782.810511	6211.891251
783.134201	6141.226877
783.457844	6127.308251
783.781441	6087.866263
784.104993	6040.809613
784.428498	6012.120406
784.751958	5992.994268
785.075372	5966.465196
785.398739	5927.282828
785.722061	5960.970339
786.045337	5950.570438
786.368568	6057.579011
786.691752	6086.389205
787.014891	6330.192008
787.337983	6612.148784
787.661030	7046.484517
787.984031	7471.945299
788.306987	7735.587563
788.629897	7817.849111
788.952760	7732.444403
789.275579	7551.948410
789.598351	7254.434634
789.921078	6995.520972
790.243759	6715.709207
790.566395	6509.765470
790.888984	6317.586603
791.211529	6176.419172
791.534027	6018.963773
791.856480	5880.165684
792.178888	5815.341486
792.501249	5752.647177
792.823566	5648.943080
793.145836	5643.838912
793.468062	5626.938444
793.790241	5587.045273
794.112375	5630.114371
794.434464	5725.372014
794.756507	5758.482312
795.078505	5877.866918
795.400457	6090.517910
795.722364	6334.756773
796.044226	6524.727614
796.366042	6681.257962
796.687812	6625.462471
797.009538	6662.346073
797.331218	6566.609521
797.652852	6497.482698
797.974442	6373.303956
798.295986	6302.886598
798.617484	6179.476632
798.938938	6070.839766
799.260346	5996.523076
799.581709	5862.773703
799.903026	5811.931146
800.224299	5736.114713
800.545526	5619.517865
800.866708	5557.511673
801.187845	5509.222460
801.508936	5434.494916
801.829983	5406.937449
802.150984	5298.363598
802.471940	5273.041882
802.792851	5257.182412
803.113717	5235.757508
803.434538	5213.185742
803.755314	5179.253735
804.076045	5167.091952
804.396731	5129.492506
804.717372	5146.004805
805.037967	5149.601668
805.358518	5182.205331
805.679024	5238.625925
805.999485	5243.803190
806.319901	5268.724134
806.640272	5287.290703
806.960598	5330.657229
807.280879	5319.165919
807.601115	5360.163103
807.921306	5323.339994
808.241453	5316.647863
808.561554	5326.687321
808.881611	5293.645078
809.201623	5286.237102
809.521590	5235.994442
809.841513	5226.464141
810.161390	5240.818827
810.481223	5155.676259
810.801011	5143.839629
811.120755	5115.097491
811.440453	5062.104882
811.760107	5031.704203
812.079716	5004.683619
812.399281	4953.838541
812.718801	4950.312254
813.038276	4917.779167
813.357707	4879.920102
813.677093	4900.230911
813.996434	4841.786294
814.315731	4856.950085
814.634983	4856.932441
814.954191	4864.181620
815.273354	4922.003654
815.592473	4967.121981
815.911547	5038.736613
816.230577	5091.154531
816.549562	5178.058982
816.868502	5230.285336
817.187399	5282.073109
817.506250	5364.702662
817.825058	5391.055293
818.143821	5543.116658
818.462539	5711.841557
818.781213	5938.272543
819.099843	6300.779396
819.418429	6921.254694
819.736970	7543.181844
820.055466	8253.498065
820.373919	9159.433740
820.692327	10605.561817
821.010691	13287.858956
821.329011	19488.347117
821.647286	29044.476815
821.965517	39375.678875
822.283704	44831.795300
822.601847	46292.804864
822.919945	41695.156610
823.237999	36574.715496
823.556010	31366.422194
823.873976	26682.640785
824.191897	22483.546154
824.509775	19423.107024
824.827609	16667.579564
825.145398	15126.493792
825.463144	14375.142579
825.780845	14667.917671
826.098502	15931.868531
826.416116	18387.442296
826.733685	20665.179276
827.051210	21189.489523
827.368692	19769.320868
827.686129	17202.584619
828.003522	14720.943048
828.320872	12517.182479
828.638177	10869.819102
828.955439	9633.876893
829.272656	8582.665246
829.589830	7738.387923
829.906960	7016.809765
830.224046	6485.819989
830.541088	6077.055509
830.858086	5824.362631
831.175041	5616.974603
831.491952	5563.109874
831.808819	5591.680614
832.125642	5834.951575
832.442421	6386.572273
832.759157	7488.465160
833.075849	9251.616279
833.392497	11096.814698
833.709101	12205.810571
834.025662	11963.288221
834.342179	10904.996274
834.658653	9602.951935
834.975083	8500.862443
835.291469	7596.418949
835.607811	6864.208997
835.924110	6349.552559
836.240366	5863.096337
836.556578	5419.676444
836.872746	5063.957506
837.188871	4789.673366
837.504952	4572.195468
837.820990	4405.542484
838.136984	4292.272798
838.452935	4245.710181
838.768842	4274.427114
839.084706	4552.683683
839.400526	5295.021313
839.716303	6193.985072
840.032037	6756.333346
840.347727	6612.189113
840.663373	6008.813409
840.978977	5436.713024
841.294537	4999.748329
841.610054	4670.906302
841.925527	4429.339251
842.240957	4220.612796
842.556344	4042.052607
842.871687	3885.597876
843.186987	3734.383426
843.502244	3619.573667
843.817458	3531.948331
844.132629	3461.891416
844.447756	3413.690424
844.762840	3366.321222
845.077881	3327.801765
845.392879	3296.657517
845.707833	3270.347735
846.022745	3245.681369
846.337613	3233.310377
846.652438	3206.181408
846.967221	3198.949873
847.281960	3179.682583
847.596656	3172.680420
847.911309	3161.955365
848.225919	3144.986841
848.540485	3137.810759
848.855009	3128.156949
849.169490	3116.824435
849.483928	3110.916203
849.798323	3105.801952
850.112675	3093.720827
850.426984	3096.397680
850.741251	3088.692276
851.055474	3086.534663
851.369654	3086.524580
851.683792	3082.635330
851.997887	3088.694797
852.311938	3088.092379
852.625947	3089.677822
852.939914	3080.069383
853.253837	3086.839652
853.567718	3080.001327
853.881555	3079.353539
854.195350	3083.230186
854.509103	3079.552664
854.822812	3078.171388
855.136479	3074.521593
855.450103	3076.248188
855.763685	3072.081674
856.077224	3073.422621
856.390720	3079.156934
856.704173	3090.300404
857.017584	3099.341714
857.330953	3102.527723
857.644278	3113.598097
857.957561	3117.300824
858.270802	3108.751027
858.584000	3109.950822
858.897155	3104.798763
859.210268	3093.352823
859.523339	3081.702717
859.836367	3080.245823
860.149352	3071.204514
860.462295	3067.630336
860.775195	3060.045920
861.088054	3058.982236
861.400869	3058.402503
861.713642	3053.903274
862.026373	3065.523133
862.339062	3067.579924
862.651708	3075.784402
862.964312	3093.100765
863.276873	3101.075871
863.589392	3132.789770
863.901869	3158.285405
864.214303	3178.855833
864.526696	3199.844677
864.839045	3216.092316
865.151353	3225.529356
865.463619	3225.957854
865.775842	3226.691342
866.088023	3235.410018
866.400162	3226.603122
866.712258	3229.950448
867.024313	3228.286867
867.336325	3226.416599
867.648296	3223.908625
867.960224	3223.356619
868.272110	3226.507340
868.583954	3224.894171
868.895755	3236.191397
869.207515	3234.971437
869.519233	3250.931731
869.830909	3258.347268
870.142542	3269.704988
870.454134	3275.958539
870.765684	3289.209212
871.077191	3304.274700
871.388657	3318.578974
871.700081	3337.168229
872.011463	3353.650281
872.322803	3376.015360
872.634101	3391.761404
872.945357	3412.815783
873.256571	3442.815690
873.567744	3457.951754
873.878874	3461.251190
874.189963	3481.042760
874.501010	3480.641988
874.812015	3478.824652
875.122979	3491.765294
875.433900	3488.153307
875.744780	3489.854697
876.055618	3499.342148
876.366415	3497.532374
876.677169	3503.062520
876.987882	3520.686393
877.298554	3541.987789
877.609183	3578.740321
877.919771	3625.776807
878.230317	3694.402034
878.540822	3796.797951
878.851285	3946.984007
879.161707	4166.702697
879.472087	4538.210530
879.782425	5166.025748
880.092722	6349.983578
880.402977	8284.571737
880.713191	10656.167440
881.023363	13050.357595
881.333494	14399.965221
881.643583	14854.697462
881.953631	14443.006592
882.263637	13595.079474
882.573602	12549.352603
882.883526	11598.081831
883.193408	10641.308639
883.503248	9721.517353
883.813048	8891.723265
884.122806	8131.161864
884.432522	7362.857250
884.742197	6702.619851
885.051831	6138.950796
885.361424	5641.290609
885.670975	5251.541361
885.980485	4925.605559
886.289954	4655.283766
886.599382	4441.972382
886.908768	4265.756329
887.218113	4099.983026
887.527417	3970.828664
887.836680	3845.855940
888.145901	3745.743666
888.455082	3668.694670
888.764221	3598.819237
889.073319	3542.696071
889.382376	3510.790608
889.691392	3483.956547
890.000366	3477.803818
890.309300	3472.281234
890.618193	3476.515803
890.927044	3470.158908
891.235855	3476.203252
891.544625	3493.764111
891.853353	3521.374511
892.162041	3582.866506
892.470687	3672.316739
892.779293	3790.020120
893.087858	3961.124443
893.396381	4243.849995
893.704864	4658.074045
894.013306	5224.982042
894.321707	5799.950844
894.630068	6156.052910
894.938387	6199.704261
895.246665	6016.654924
895.554903	5697.088620
895.863100	5358.665880
896.171256	5092.654274
896.479371	4848.869115
896.787446	4623.784116
897.095480	4429.717337
897.403473	4278.790232
897.711425	4135.109786
898.019336	4013.060931
898.327207	3893.401582
898.635038	3786.634985
898.942827	3680.488450
899.250576	3596.122220
899.558284	3510.026874
899.865952	3459.093576
900.173579	3393.566138
900.481165	3345.655011
900.788711	3308.882315
901.096216	3276.374434
901.403681	3246.412336
901.711105	3235.210892
902.018489	3232.493710
902.325832	3264.411776
902.633135	3323.231959
902.940397	3493.935511
903.247619	3895.586923
903.554800	4651.969207
903.861941	5616.399912
904.169041	6321.279248
904.476101	6532.639705
904.783121	6257.236430
905.090100	5854.743145
905.397039	5438.623621
905.703938	5077.387139
906.010796	4752.923354
906.317614	4503.086290
906.624391	4265.237090
906.931129	4068.611926
907.237826	3887.510994
907.544483	3715.521948
907.851099	3543.628685
908.157675	3386.906773
908.464211	3247.556678
908.770707	3146.267294
909.077163	3066.566652
909.383578	3005.477950
909.689954	2962.577731
909.996289	2933.737289
910.302584	2910.278280
910.608839	2897.637587
910.915054	2888.545866
911.221229	2882.584701
911.527363	2884.921276
911.833458	2891.830178
912.139513	2906.699061
912.445527	2915.992428
912.751502	2950.884774
913.057436	2995.332628
913.363331	3054.218346
913.669186	3142.685555
913.975000	3259.473966
914.280775	3446.936833
914.586510	3715.796691
914.892205	4084.894852
915.197859	4585.136110
915.503475	5176.042520
915.809050	5672.502913
916.114585	5960.965298
916.420081	6027.349732
916.725536	5960.872036
917.030952	5723.027877
917.336328	5516.574983
917.641665	5301.970543
917.946961	5073.485286
918.252218	4869.424420
918.557435	4644.412518
918.862612	4446.421201
919.167750	4269.960651
919.472848	4081.280345
919.777906	3918.241868
920.082925	3758.137343
920.387904	3604.682099
920.692843	3489.501816
920.997743	3393.989594
921.302603	3300.425779
921.607423	3234.956314
921.912204	3170.474915
922.216946	3116.910135
922.521647	3070.508834
922.826310	3031.601209
923.130932	2990.349447
923.435516	2952.961730
923.740059	2927.534150
924.044564	2894.847308
924.349028	2870.657331
924.653454	2839.490398
924.957840	2814.403096
925.262186	2792.310239
925.566493	2774.555295
925.870761	2751.360946
926.174989	2739.998185
926.479178	2726.208109
926.783328	2705.703216
927.087438	2697.206351
927.391509	2684.737057
927.695541	2670.445386
927.999533	2661.620846
928.303486	2654.598519
928.607400	2650.038795
928.911275	2641.501601
929.215110	2634.627988
929.518906	2630.610188
929.822663	2633.531537
930.126381	2632.518265
930.430060	2633.586989
930.733699	2635.522792
931.037299	2641.955305
931.340861	2638.665952
931.644383	2645.126191
931.947866	2637.735859
932.251309	2636.674696
932.554714	2638.597896
932.858080	2636.992289
933.161407	2630.753861
933.464694	2628.976854
933.767943	2628.823099
934.071153	2625.052316
934.374323	2616.540328
934.677455	2615.910183
934.980548	2611.602517
935.283602	2608.293000
935.586617	2606.382403
935.889593	2610.543875
936.192530	2612.880450
936.495428	2617.750205
936.798287	2625.798407
937.101108	2642.277939
937.403890	2661.608243
937.706632	2690.912470
938.009336	2724.973026
938.312002	2750.524115
938.614628	2775.976900
938.917216	2791.090280
939.219765	2803.491518
939.522275	2813.480564
939.824747	2813.752787
940.127179	2806.422949
940.429573	2799.748461
940.731929	2801.117135
941.034246	2792.164045
941.336524	2790.810496
941.638763	2781.144083
941.940964	2777.403547
942.243126	2759.784714
942.545250	2749.379773
942.847335	2734.145406
943.149381	2721.829867
943.451389	2708.324616
943.753359	2695.966227
944.055290	2688.769980
944.357182	2678.785975
944.659036	2668.756599
944.960851	2675.012671
945.262628	2665.847853
945.564367	2664.700991
945.866067	2665.615960
946.167729	2659.004487
946.469352	2664.201917
946.770937	2659.720331
947.072484	2653.522232
947.373992	2652.738333
947.675462	2651.452839
947.976893	2646.288177
948.278286	2641.216776
948.579641	2635.081692
948.880958	2634.030611
949.182236	2634.098667
949.483476	2631.396608
949.784678	2631.547843
950.085841	2630.116155
950.386967	2635.563122
950.688054	2638.862557
950.989103	2653.297901
951.290114	2656.524239
951.591087	2670.752896
951.892021	2679.713547
952.192917	2695.341124
952.493776	2703.722042
952.794596	2707.152547
953.095378	2708.889225
953.396122	2707.444934
953.696828	2703.144830
953.997496	2698.943028
954.298126	2689.707635
954.598718	2682.791172
954.899272	2671.012516
955.199788	2658.540701
955.500266	2646.129380
955.800706	2632.616567
956.101108	2612.588063
956.401472	2605.694285
956.701798	2589.852459
957.002087	2574.701271
957.302337	2567.106773
957.602550	2556.351471
957.902724	2544.305634
958.202861	2537.207690
958.502960	2527.937008
958.803022	2521.010462
959.103045	2512.480830
959.403031	2508.276508
959.702979	2501.508759
960.002889	2499.693943
960.302762	2491.161790
960.602596	2487.451501
960.902393	2484.993939
961.202153	2482.498568
961.501875	2478.647126
961.801559	2474.911631
962.101205	2476.197125
962.400814	2471.841568
962.700385	2473.157309
962.999918	2470.482977
963.299414	2467.251598
963.598873	2465.509879
963.898293	2463.503500
964.197677	2463.790846
964.497022	2459.520988
964.796331	2462.638942
965.095601	2456.889506
965.394835	2459.704990
965.694030	2460.229270
965.993189	2460.935032
966.292309	2455.785493
966.591393	2457.872531
966.890439	2455.873713
967.189447	2455.775411
967.488419	2455.757767
967.787353	2458.905968
968.086249	2456.455967
968.385108	2456.503858
968.683930	2458.374126
968.982714	2458.842953
969.281462	2460.824127
969.580172	2461.693726
969.878844	2464.431072
970.177480	2467.231433
970.476078	2470.672021
970.774639	2473.409367
971.073162	2472.222175
971.371649	2476.363483
971.670098	2474.339460
971.968510	2479.186529
972.266885	2478.140490
972.565223	2482.201139
972.863524	2486.092910
973.161788	2487.126347
973.460014	2484.638537
973.758204	2486.957468
974.056356	2490.377891
974.354471	2491.799496
974.652550	2486.740698
974.950591	2489.573827
975.248595	2486.264309
975.546563	2488.507623
975.844493	2483.040492
976.142386	2481.636530
976.440243	2480.285501
976.738062	2476.199646
977.035845	2476.587815
977.333590	2473.795015
977.631299	2471.612196
977.928971	2471.370220
978.226606	2468.413584
978.524204	2462.959055
978.821765	2466.679427
979.119290	2463.377471
979.416777	2464.912502
979.714228	2462.238170
980.011642	2466.961731
980.309020	2471.221506
980.606360	2474.974645
980.903664	2483.935296
981.200931	2496.732265
981.498162	2515.180368
981.795356	2544.320758
982.092513	2582.903229
982.389633	2627.766977
982.686717	2669.084274
982.983764	2701.090560
983.280775	2722.041595
983.577749	2719.221070
983.874686	2712.733105
984.171587	2695.711649
984.468451	2676.101560
984.765279	2659.987512
985.062070	2641.678041
985.358824	2624.104579
985.655543	2601.910899
985.952224	2579.293763
986.248869	2551.771583
986.545478	2526.001205
986.842050	2504.498163
987.138586	2487.685915
987.435086	2473.154789
987.731549	2460.972841
988.027975	2458.104424
988.324366	2450.220059
988.620719	2447.225614
988.917037	2443.500201
989.213318	2438.854778
989.509563	2438.690941
989.805772	2433.309509
990.101944	2436.104829
990.398080	2434.098449
990.694180	2432.916299
990.990244	2436.372010
991.286271	2434.121135
991.582262	2433.700198
991.878217	2434.910075
992.174136	2434.763882
992.470019	2433.813624
992.765865	2439.391661
993.061676	2442.277722
993.357450	2441.632454
993.653188	2447.628906
993.948890	2450.162086
994.244556	2458.348920
994.540186	2464.972996
994.835780	2474.946919
995.131337	2494.241935
995.426859	2506.507063
995.722345	2528.478932
996.017795	2546.770758
996.313208	2563.358675
996.608586	2572.654563
996.903928	2575.369224
997.199234	2575.827969
997.494504	2571.003585
997.789738	2563.721638
998.084936	2551.113713
998.380099	2542.788247
998.675225	2527.879034
998.970316	2516.843949
999.265371	2507.540499
999.560390	2487.504433
999.855373	2480.625779
1000.150320	2466.177832
1000.445232	2458.666513
1000.740108	2452.385235
1001.034948	2447.003803
1001.329752	2440.167999
1001.624521	2437.231527
1001.919254	2428.464960
1002.213951	2432.628953
1002.508613	2424.679053
1002.803239	2426.088056
1003.097829	2420.000863
1003.392384	2423.817016
1003.686903	2423.345668
1003.981386	2420.633528
1004.275834	2418.828794
1004.570246	2420.462128
1004.864623	2419.098496
1005.158964	2415.458783
1005.453270	2417.076993
1005.747540	2414.803433
1006.041775	2414.954668
1006.335974	2414.790830
1006.630138	2413.089441
1006.924266	2416.716551
1007.218359	2418.034813
1007.512416	2415.753691
1007.806438	2415.794020
1008.100425	2413.079358
1008.394376	2414.690007
1008.688292	2412.083731
1008.982172	2411.491395
1009.276017	2412.159348
1009.569827	2410.891498
1009.863602	2415.090779
1010.157341	2411.078020
1010.451045	2411.872002
1010.744714	2410.052146
1011.038347	2410.609193
1011.331945	2411.302352
1011.625508	2411.403175
1011.919036	2410.102557
1012.212528	2409.510222
1012.505986	2408.678431
1012.799408	2407.496281
1013.092795	2409.747156
1013.386147	2410.848648
1013.679464	2408.655746
1013.972745	2409.361508
1014.265992	2407.881929
1014.559204	2406.248595
1014.852380	2407.881929
1015.145521	2410.281518
1015.438628	2410.568864
1015.731699	2407.987793
1016.024736	2407.682803
1016.317737	2411.405695
1016.610703	2409.079203
1016.903635	2408.620458
1017.196531	2405.222720
1017.489393	2408.068452
1017.782219	2405.507545
1018.075011	2410.997362
1018.367768	2411.932496
1018.660490	2414.100192
1018.953177	2414.100192
1019.245829	2414.100192
