Dividing Wavelength (nm)	Counts (n)	Blue Motor Position (mm): 36.400000	Red Motor Position (mm): 0.000000	
326.493990	1975.056021
326.888308	1975.056021
327.282561	1975.056021
327.676750	1947.755653
328.070874	1947.554007
328.464933	1954.664554
328.858929	1963.456326
329.252859	1974.720785
329.646726	1989.307363
330.040528	2005.497029
330.434265	2021.253155
330.827938	2042.640250
331.221547	2066.822665
331.615091	2083.135839
332.008571	2105.243819
332.401986	2125.640328
332.795338	2146.593884
333.188625	2166.022491
333.581847	2182.819615
333.975006	2202.621268
334.368100	2219.158773
334.761129	2238.073182
335.154095	2253.645306
335.546996	2294.413118
335.939833	2373.148379
336.332606	2387.624052
336.725315	2398.311298
337.117960	2409.114491
337.510540	2413.036509
337.903056	2425.798190
338.295508	2432.896134
338.687896	2439.457196
339.080220	2445.677980
339.472480	2453.738785
339.864676	2455.616615
340.256807	2459.324383
340.648875	2459.299177
341.040879	2460.433437
341.432818	2463.838737
341.824694	2462.394446
342.216506	2461.512244
342.608253	2464.433593
342.999937	2463.458129
343.391557	2462.772533
343.783113	2459.273972
344.174605	2458.091821
344.566033	2455.664506
344.957397	2456.861780
345.348697	2452.970009
345.739934	2451.142591
346.131106	2450.308280
346.522215	2451.147632
346.913260	2449.000100
347.304241	2447.933896
347.695159	2443.535489
348.086012	2443.212856
348.476802	2443.031374
348.867528	2439.575663
349.258191	2439.006013
349.648789	2438.413677
350.039324	2437.395364
350.429796	2440.049532
350.820203	2433.934612
351.210548	2435.194900
351.600828	2433.329673
351.991045	2433.879159
352.381198	2431.688778
352.771288	2432.812955
353.161314	2431.449323
353.551276	2431.834971
353.941175	2432.341607
354.331010	2432.235743
354.720782	2435.497370
355.110490	2437.657504
355.500135	2432.644077
355.889717	2434.816814
356.279235	2437.297062
356.668689	2436.344283
357.058080	2430.821699
357.447408	2434.330342
357.836672	2430.216761
358.225873	2435.331012
358.615010	2429.994950
359.004084	2437.765889
359.393095	2439.517690
359.782043	2438.660694
360.170927	2437.886877
360.559748	2439.837803
360.948505	2441.009871
361.337199	2441.004830
361.725830	2442.116405
362.114398	2444.374842
362.502903	2440.631785
362.891344	2446.628237
363.279722	2440.944336
363.668037	2442.401230
364.056289	2445.816612
364.444478	2448.049843
364.832603	2446.832404
365.220665	2446.724019
365.608665	2447.961622
365.996601	2448.198557
366.384474	2448.773248
366.772284	2449.776438
367.160031	2450.963630
367.547715	2449.615121
367.935336	2449.413475
368.322893	2449.955399
368.710388	2453.912705
369.097820	2452.780966
369.485189	2452.596963
369.872495	2453.511933
370.259738	2452.375153
370.646918	2454.273147
371.034035	2454.729372
371.421090	2453.519495
371.808081	2454.051336
372.195010	2456.166100
372.581875	2455.208281
372.968678	2454.626028
373.355418	2458.207768
373.742096	2456.423199
374.128710	2456.965123
374.515262	2458.071657
374.901751	2459.238684
375.288177	2460.688015
375.674540	2459.188272
376.060841	2461.111472
376.447079	2462.744806
376.833254	2460.113324
377.219367	2459.127778
377.605417	2462.195320
377.991404	2459.377315
378.377329	2461.789508
378.763191	2460.352779
379.148991	2468.247226
379.534727	2466.694550
379.920402	2469.056331
380.306013	2469.636063
380.691563	2470.412401
381.077049	2468.859726
381.462474	2471.314768
381.847835	2471.294603
382.233134	2471.889459
382.618371	2470.346866
383.003545	2475.135962
383.388657	2474.513380
383.773706	2473.888277
384.158693	2475.153606
384.543618	2476.857516
384.928480	2477.011272
385.313280	2477.205356
385.698017	2477.497743
386.082692	2478.886581
386.467305	2478.009420
386.851856	2481.059318
387.236344	2481.117291
387.620770	2483.622745
388.005133	2483.055615
388.389435	2482.281798
388.773674	2480.673670
389.157851	2486.551655
389.541965	2487.345637
389.926018	2488.933600
390.310008	2488.827736
390.693936	2490.183807
391.077802	2489.160452
391.461606	2492.790083
391.845348	2491.905361
392.229027	2492.585916
392.612645	2495.061123
392.996200	2495.098932
393.379694	2500.122441
393.763125	2499.106649
394.146494	2500.266114
394.529801	2503.845333
394.913047	2502.713594
395.296230	2503.706702
395.679351	2506.963287
396.062410	2506.585201
396.445408	2506.804491
396.828343	2509.506549
397.211217	2505.327433
397.594028	2510.411436
397.976778	2508.485716
398.359466	2511.848165
398.742092	2507.749707
399.124656	2518.913342
399.507158	2519.619104
399.889598	2524.503982
400.271977	2528.650331
400.654294	2528.458767
401.036549	2534.402287
401.418742	2534.487987
401.800874	2541.633823
402.182944	2546.117929
402.564952	2556.590926
402.946898	2559.759291
403.328783	2571.051476
403.710606	2582.010944
404.092367	2593.368664
404.474067	2609.775099
404.855705	2623.005607
405.237282	2632.573717
405.618797	2659.700166
406.000250	2685.919207
406.381642	2718.238045
406.762972	2743.085892
407.144240	2764.352000
407.525447	2801.613688
407.906593	2836.206086
408.287677	2882.161244
408.668700	2929.452309
409.049661	2979.097592
409.430560	3040.055224
409.811399	3094.058585
410.192176	3163.099707
410.572891	3230.920870
410.953545	3337.432889
411.334138	3364.191334
411.714669	3493.297805
412.095139	3507.269363
412.475547	3637.807521
412.855894	3707.287224
413.236180	3836.580217
413.616405	3890.303793
413.996568	4023.221376
414.376670	4121.531438
414.756711	4198.943397
415.136691	4362.004559
415.516609	4499.191999
415.896466	4631.302997
416.276262	4812.477025
416.655997	5032.072208
417.035670	5170.570348
417.415283	5459.302434
417.794834	5621.909893
418.174324	5701.083734
418.553753	5818.630839
418.933121	6112.149501
419.312428	6212.080294
419.691674	6331.553120
420.070859	6636.648792
420.449983	6679.362488
420.829045	7025.561208
421.208047	7103.038701
421.586988	7437.569671
421.965867	7711.518573
422.344686	7886.557517
422.723444	8301.807442
423.102141	7909.005775
423.480777	8600.079912
423.859352	8552.940082
424.237866	9240.702181
424.616319	9293.815778
424.994712	9798.031986
425.373044	9871.985713
425.751314	10411.984030
426.129524	10140.147371
426.507673	10905.792776
426.885762	10928.404872
427.263789	11226.445449
427.641756	11503.303097
428.019662	11716.150695
428.397508	11924.549474
428.775292	12286.030452
429.153016	12443.536263
429.530679	12675.111747
429.908282	12876.208415
430.285824	12852.772091
430.663305	13500.817459
431.040726	13392.422569
431.418086	13434.357407
431.795385	14029.155588
432.172624	14499.308719
432.549802	14334.405015
432.926920	14616.157624
433.303977	14672.356407
433.680974	15004.742365
434.057910	15370.347007
434.434786	15523.862744
434.811601	15600.805876
435.188355	16566.108699
435.565050	16409.480049
435.941683	16494.022720
436.318257	17352.150613
436.694770	17315.486301
437.071222	17935.822967
437.447614	17262.682735
437.823946	17380.880148
438.200218	17624.917365
438.576429	17522.012292
438.952580	17876.289460
439.328670	17927.038756
439.704700	18385.423314
440.080670	18082.129854
440.456580	18702.494247
440.832429	18939.257078
441.208218	18093.573273
441.583947	18566.947702
441.959616	18739.067818
442.335224	19002.440380
442.710773	19182.749850
443.086261	19739.567978
443.461689	19193.361479
443.837057	19371.750269
444.212365	20004.442803
444.587612	20055.197140
444.962800	19703.420384
445.337927	20141.814246
445.712995	18975.026585
446.088002	20749.732029
446.462949	20968.157664
446.837837	21168.891369
447.212664	21144.212400
447.587431	23866.616958
447.962139	26702.515534
448.336786	29010.771660
448.711374	27536.934880
449.085901	24039.198340
449.460369	23993.447348
449.834776	23929.470065
450.209124	26341.732756
450.583412	25931.128255
450.957640	26455.930014
451.331808	25155.793752
451.705917	23859.299724
452.079965	23890.711153
452.453954	24247.029989
452.827883	24156.518593
453.201752	23972.554286
453.575562	24123.695640
453.949311	25198.789753
454.323001	25275.528718
454.696632	25061.579628
455.070202	26554.545066
455.443713	26697.260131
455.817164	27274.434438
456.190556	27810.019225
456.563888	27261.380370
456.937160	27685.482561
457.310373	26075.695944
457.683526	26503.024473
458.056619	26474.431049
458.429653	26422.585302
458.802628	26997.806162
459.175542	27105.598634
459.548398	28397.739626
459.921194	29938.656519
460.293930	30614.904623
460.666607	32606.651904
461.039224	34324.407433
461.411782	34692.162127
461.784280	33488.972294
462.156719	32967.540546
462.529099	32412.454055
462.901419	31144.790386
463.273680	30117.867018
463.645882	30216.282944
464.018024	30200.821725
464.390106	31034.038756
464.762130	33687.450083
465.134094	37720.592450
465.505999	42969.953512
465.877845	47504.587343
466.249631	48577.591898
466.621358	46785.055893
466.993026	44614.466117
467.364634	42535.068293
467.736184	40609.544129
468.107674	39396.826516
468.479105	38624.859504
468.850477	37950.020403
469.221790	36555.410397
469.593043	34880.421497
469.964238	34014.275649
470.335373	33919.070938
470.706449	35561.889715
471.077467	38072.215452
471.448425	42589.790018
471.819324	45423.536021
472.190164	43626.339469
472.560945	40118.467689
472.931667	37065.759168
473.302330	35973.741902
473.672934	35178.401580
474.043479	35666.904511
474.413965	34907.709262
474.784393	34540.289806
475.154761	35417.218682
475.525070	35459.072862
475.895321	34999.402810
476.265513	35585.328560
476.635645	36532.301748
477.005719	36356.002516
477.375734	36835.383479
477.745691	37489.483273
478.115588	38784.449832
478.485427	40734.461401
478.855207	44052.611877
479.224928	46642.728996
479.594591	48255.452085
479.964194	47205.228504
480.333739	47315.768405
480.703226	47331.335488
481.072653	47971.869537
481.442022	48468.869333
481.811333	48747.627497
482.180584	47441.835060
482.549777	46927.067717
482.918912	46422.359997
483.287988	46122.809594
483.657005	45308.028063
484.025964	44656.007745
484.394864	44651.921890
484.763706	44217.933996
485.132489	43370.140469
485.501213	43203.676528
485.869879	43325.932070
486.238487	42946.902836
486.607036	43158.979137
486.975527	42629.327788
487.343959	42826.878004
487.712333	42916.998711
488.080648	42840.279912
488.448905	43261.554015
488.817104	43084.556583
489.185244	44010.979507
489.553326	45660.873544
489.921350	48391.119617
490.289315	51323.551248
490.657222	51959.817960
491.025070	52235.664857
491.392861	51309.002478
491.760593	50009.670280
492.128267	48303.118715
492.495883	46761.969929
492.863440	45386.748201
493.230939	44059.795521
493.598380	42984.489679
493.965763	42666.148375
494.333088	41886.213820
494.700354	41419.312233
495.067563	41136.523667
495.434713	41025.696420
495.801805	41088.665473
496.168839	40725.213404
496.535815	40409.085167
496.902733	40433.088621
497.269593	40039.558508
497.636395	39971.528136
498.003139	40359.752435
498.369825	39838.691212
498.736453	40124.572526
499.103023	39674.006798
499.469535	39547.342767
499.835989	39636.997167
500.202385	39305.178339
500.568723	39334.023821
500.935003	39516.518631
501.301226	39319.374228
501.667390	39931.561869
502.033497	40186.288852
502.399546	39617.785330
502.765537	38950.691962
503.131470	39321.420936
503.497345	39656.345116
503.863163	38359.689770
504.228923	38970.239036
504.594625	39347.085451
504.960269	38657.039709
505.325856	39334.517854
505.691385	38712.351249
506.056856	38827.871810
506.422270	39259.621431
506.787625	38857.591933
507.152924	39046.128566
507.518164	39129.844487
507.883347	38362.903506
508.248472	38596.457643
508.613540	39068.571783
508.978550	39359.983243
509.343503	39116.203125
509.708398	39315.132097
510.073236	39829.604532
510.438016	39829.057567
510.802738	39283.264443
511.167403	39905.529350
511.532010	40125.588318
511.896561	40406.131051
512.261053	41234.712741
512.625488	40784.527620
512.989866	40652.840079
513.354186	40513.610971
513.718449	40498.903405
514.082655	41148.909782
514.446803	40834.601401
514.810894	41337.764008
515.174927	41260.523448
515.538904	41165.777483
515.902822	41818.538850
516.266684	41275.722527
516.630488	41692.699047
516.994235	41551.604713
517.357925	42097.856582
517.721558	42266.029474
518.085133	42566.699013
518.448651	42701.381000
518.812112	42477.248779
519.175516	42572.534148
519.538863	42906.460179
519.902152	42876.369532
520.265385	43320.457377
520.628560	43361.262997
520.991678	43143.162517
521.354739	43381.861152
521.717743	43694.884038
522.080690	43601.504225
522.443580	44136.804187
522.806413	44188.034913
523.169189	44117.554541
523.531908	44282.864058
523.894569	44150.798430
524.257174	44314.852700
524.619722	44620.427281
524.982213	44608.262977
525.344647	44529.094176
525.707025	44585.209780
526.069345	44951.124453
526.431608	44886.597684
526.793815	45200.563266
527.155964	44734.501031
527.518057	44899.777780
527.880093	44702.409046
528.242072	45217.584722
528.603995	44929.646617
528.965860	44916.549699
529.327669	45026.640937
529.689421	44921.351398
530.051117	44883.978804
530.412755	45026.950968
530.774337	45106.490294
531.135862	44908.259522
531.497331	45108.337877
531.858743	45020.319331
532.220098	45363.390014
532.581396	45072.192804
532.942638	44737.387092
533.303824	45024.664805
533.664953	44991.430998
534.026025	44714.185181
534.387040	45186.221183
534.747999	45148.876315
535.108902	45312.144165
535.469748	44834.593141
535.830537	44960.969826
536.191270	45135.134130
536.551947	44777.181960
536.912567	45106.457526
537.273131	45231.168111
537.633638	44717.421602
537.994089	45077.604482
538.354483	44675.726218
538.714821	45254.072593
539.075103	45585.044508
539.435328	45365.643410
539.795497	45241.323515
540.155609	45229.181896
540.515665	45683.057142
540.875665	45167.178224
541.235609	45480.301934
541.595496	45447.073168
541.955328	46102.967613
542.315102	45505.822775
542.674821	45299.616898
543.034483	45336.918916
543.394090	45302.618905
543.753640	45274.327949
544.113134	46256.463186
544.472571	45303.455736
544.831953	46515.936415
545.191278	45739.991933
545.550548	45482.971225
545.909761	45926.754080
546.268918	46126.832435
546.628019	46443.691640
546.987064	46004.367685
547.346053	45316.398899
547.704986	46155.241858
548.063863	45730.587661
548.422684	45932.889164
548.781449	45786.859540
549.140158	46178.234560
549.498811	46035.582509
549.857408	45484.944837
550.215949	46323.906262
550.574434	46249.186280
550.932864	46025.285953
551.291237	46733.905825
551.649555	46352.136724
552.007817	46597.363653
552.366022	46240.422234
552.724173	46424.310924
553.082267	46813.808114
553.440305	47115.012015
553.798288	46444.530992
554.156215	46748.991478
554.514086	46954.594938
554.871902	46698.153962
555.229661	46717.867394
555.587365	46545.412042
555.945014	46649.279976
556.302606	46578.323215
556.660143	46796.970660
557.017625	46891.278046
557.375050	46678.735438
557.732421	47019.351080
558.089735	47017.972324
558.446994	46942.216385
558.804197	47400.376611
559.161345	47336.245572
559.518437	46606.041999
559.875474	46911.336797
560.232455	47048.589772
560.589381	47240.572034
560.946251	46924.126204
561.303065	47601.226262
561.659825	47418.943180
562.016528	47109.383567
562.373177	46811.935325
562.729770	47298.920869
563.086307	46811.413566
563.442789	47259.917462
563.799216	47316.123807
564.155587	47108.418186
564.511904	47144.291037
564.868164	47229.529386
565.224370	47477.206316
565.580520	47205.646920
565.936615	47417.592151
566.292654	47148.056778
566.648638	47376.784011
567.004567	47331.101075
567.360441	47354.108901
567.716260	47214.784011
568.072023	47531.292856
568.427732	47501.860079
568.783385	47051.559012
569.138982	47460.552864
569.494525	47417.889579
569.850013	47167.480344
570.205445	47136.328534
570.560823	47109.580172
570.916145	46973.514388
571.271412	47006.455808
571.626625	46768.183151
571.981782	46811.423648
572.336884	46522.628547
572.691931	46835.971547
573.046923	46427.401151
573.401860	46292.013403
573.756743	46257.852024
574.111570	46383.714512
574.466342	46228.731798
574.821059	46348.217227
575.175722	45878.306071
575.530330	45885.915693
575.884882	45619.304189
576.239380	45590.829232
576.593823	45547.160237
576.948211	45474.416387
577.302544	45005.878945
577.656823	45030.852822
578.011047	45248.376089
578.365216	44968.198841
578.719330	44784.962981
579.073389	44644.899563
579.427394	44710.280807
579.781344	44686.363053
580.135239	44339.501421
580.489080	44430.537098
580.842866	43912.913942
581.196597	44374.441659
581.550273	44324.451057
581.903895	44184.765725
582.257463	44605.122338
582.610975	43994.323535
582.964434	44282.480930
583.317837	43929.711066
583.671186	43756.507103
584.024481	43997.436448
584.377721	43538.081468
584.730906	43794.202330
585.084037	43814.049353
585.437113	43535.875963
585.790135	43580.865741
586.143103	43181.306408
586.496016	43300.262515
586.848874	43332.236033
587.201679	43349.348230
587.554428	42830.459744
587.907124	43026.918550
588.259765	42780.879996
588.612352	43033.517421
588.964884	42433.584825
589.317362	42690.603013
589.669786	42642.961588
590.022155	42426.650718
590.374470	42838.371835
590.726731	42363.631254
591.078937	41889.586352
591.431090	41982.225115
591.783188	41640.528146
592.135232	41330.870230
592.487222	41567.073493
592.839157	41650.880155
593.191038	41337.151507
593.542866	41093.726791
593.894639	40513.139623
594.246358	40782.405294
594.598022	40772.751485
594.949633	40370.502696
595.301190	40335.680926
595.652692	40164.072487
596.004141	40488.725315
596.355535	39515.835555
596.706876	39468.549532
597.058162	39300.502668
597.409395	39770.728896
597.760573	39844.143220
598.111698	39417.056666
598.462768	39430.352709
598.813785	39452.901790
599.164748	38944.140983
599.515657	39319.825411
599.866511	38800.379878
600.217312	39392.228983
600.568060	38390.939883
600.918753	39121.793765
601.269392	39079.158206
601.619978	38730.980833
601.970510	38958.523394
602.320988	39122.050863
602.671412	39425.046895
603.021783	39166.259262
603.372100	38827.859207
603.722363	38930.837378
604.072572	39000.632153
604.422728	39017.512456
604.772830	38826.913991
605.122878	38928.679764
605.472872	38872.354952
605.822813	39141.441662
606.172701	38979.474430
606.522534	39230.493644
606.872314	39473.515068
607.222041	39226.276719
607.571714	39618.765834
607.921333	39058.053415
608.270899	39370.400787
608.620411	39684.149600
608.969870	39501.014563
609.319276	39481.228034
609.668627	39538.966889
610.017926	40023.608297
610.367171	40178.938850
610.716362	40260.983628
611.065500	40209.851205
611.414585	40409.339745
611.763616	40690.217714
612.112594	40614.403801
612.461518	40836.295229
612.810389	41128.344395
613.159207	40991.711481
613.507971	41070.411455
613.856682	41529.227031
614.205340	41427.768768
614.553945	42114.573048
614.902496	41573.269071
615.250994	42018.196269
615.599439	42112.312090
615.947830	42309.398521
616.296169	42370.973694
616.644454	42489.949966
616.992686	42649.308401
617.340864	43176.129142
617.688990	42915.320007
618.037063	43492.731248
618.385082	43468.218637
618.733048	43774.856902
619.080961	43775.983600
619.428821	43804.647601
619.776628	43902.839196
620.124382	43707.560019
620.472083	43841.332078
620.819731	43968.492663
621.167326	43633.041683
621.514868	43620.766473
621.862357	43164.766382
622.209793	43196.989437
622.557176	42864.127090
622.904506	42615.351189
623.251783	42267.098199
623.599007	42048.823799
623.946179	41818.969869
624.293297	41777.277006
624.640363	41190.542151
624.987376	41195.338809
625.334336	40938.854983
625.681243	40603.562800
626.028097	40568.065515
626.374899	40414.602710
626.721647	40392.840048
627.068343	40283.504983
627.414987	40046.162419
627.761577	39821.354684
628.108115	40160.851190
628.454600	39617.230803
628.801032	39811.625257
629.147412	39772.203434
629.493739	39776.790884
629.840014	39440.351838
630.186236	39773.173856
630.532405	39387.084486
630.878521	39606.747723
631.224585	39484.507304
631.570597	39192.037202
631.916556	39367.638235
632.262462	39314.728805
632.608316	39313.261829
632.954117	39224.736647
633.299866	39214.669462
633.645562	39129.816761
633.991206	38621.436560
634.336797	38198.241777
634.682336	38201.211017
635.027823	37947.782131
635.373257	37771.404760
635.718639	37531.639922
636.063968	37389.149188
636.409245	36830.448189
636.754470	36873.308079
637.099642	36634.753117
637.444762	36168.012847
637.789829	36294.838196
638.134845	35965.880222
638.479808	35912.128919
638.824719	35816.404970
639.169577	35434.451866
639.514383	35504.763359
639.859137	35208.963575
640.203839	35433.060508
640.548489	35072.799489
640.893086	35146.296992
641.237632	34898.685597
641.582125	35018.995254
641.926566	34945.717042
642.270955	34918.091519
642.615292	34934.858397
642.959576	34907.880662
643.303809	34898.496554
643.647990	35051.760234
643.992118	35024.338877
644.336195	35024.427098
644.680219	35098.955516
645.024192	35409.752733
645.368112	35918.788284
645.711981	35933.573988
646.055797	36794.635832
646.399562	36742.623727
646.743274	37675.874895
647.086935	38108.224413
647.430544	38006.466202
647.774101	38120.040878
648.117606	38358.832774
648.461059	38654.917383
648.804460	38264.245604
649.147810	37641.584967
649.491108	37392.025166
649.834354	37043.404172
650.177548	36225.222382
650.520690	35767.609121
650.863781	35783.445906
651.206820	35625.690558
651.549807	35200.433943
651.892742	34721.857044
652.235626	34539.697470
652.578458	34395.487702
652.921238	33803.527692
653.263967	34131.469873
653.606644	33821.632996
653.949269	33773.421921
654.291843	33375.122876
654.634365	33779.783857
654.976836	33382.298958
655.319255	33377.469533
655.661622	33370.585837
656.003938	33142.322391
656.346203	33030.076060
656.688416	33232.044848
657.030577	33028.130174
657.372687	32876.625857
657.714746	33139.753923
658.056753	33254.435132
658.398708	32719.470407
658.740612	32770.038221
659.082465	33028.954403
659.424266	32870.261401
659.766016	32977.189315
660.107715	32864.789228
660.449362	32988.980574
660.790958	32975.538337
661.132503	33000.950793
661.473996	33026.035575
661.815438	33125.454691
662.156829	33334.884386
662.498168	33108.836527
662.839456	33135.436175
663.180693	33280.545789
663.521879	33438.001188
663.863013	33392.323293
664.204097	33400.830240
664.545129	33838.770398
664.886110	33817.136286
665.227040	33888.100609
665.567918	34009.738610
665.908746	34060.482865
666.249522	34228.010489
666.590248	34223.032350
666.930922	34332.989998
667.271545	34295.262002
667.612118	34372.386615
667.952639	34173.180380
668.293109	34222.172833
668.633528	34109.132520
668.973896	34034.006725
669.314213	34067.399328
669.654480	33816.435566
669.994695	33832.534491
670.334859	33719.965525
670.674973	33622.590598
671.015035	33784.807367
671.355047	33734.554625
671.695008	33675.661345
672.034918	33579.879422
672.374777	33668.999460
672.714585	33509.015922
673.054342	33723.995928
673.394049	33489.519260
673.733705	33765.441774
674.073310	33434.916002
674.412864	33509.273021
674.752368	33099.800259
675.091820	33399.312853
675.431223	32989.824967
675.770574	32701.816286
676.109875	32580.599221
676.449125	32300.132106
676.788324	32218.775445
677.127473	31675.013906
677.466571	31619.117592
677.805619	31267.532399
678.144616	31252.923136
678.483562	31185.860666
678.822458	30865.109691
679.161303	30801.795319
679.500098	30698.781861
679.838842	30589.656003
680.177535	30741.908932
680.516179	31011.817350
680.854771	31268.512904
681.193314	32120.848511
681.531805	33250.951695
681.870247	34039.657858
682.208638	34764.721975
682.546978	34982.535109
682.885268	35070.336886
683.223508	34545.313315
683.561697	34184.815363
683.899836	34017.633057
684.237925	33494.310876
684.575963	33359.535628
684.913951	32891.361150
685.251889	33052.408371
685.589776	33048.171282
685.927614	33044.082906
686.265401	33192.386090
686.603137	33290.812098
686.940824	33807.462312
687.278460	34186.604972
687.616046	34344.682954
687.953582	34947.057989
688.291068	34816.068647
688.628504	35086.922282
688.965889	35009.028893
689.303224	34622.949605
689.640510	34264.415182
689.977745	33538.521796
690.314930	32722.658937
690.652065	32191.248224
690.989150	31464.913737
691.326185	30561.632229
691.663170	29867.674553
692.000105	29107.639952
692.336990	28422.970601
692.673825	27977.128434
693.010610	27464.193551
693.347345	26886.530252
693.684030	26243.178198
694.020665	25964.125127
694.357251	25302.556864
694.693786	25249.715489
695.030272	25022.087229
695.366707	24477.667819
695.703093	24200.311096
696.039429	24186.165618
696.375716	23922.387243
696.711952	23890.938005
697.048139	23739.758842
697.384276	23558.151275
697.720363	23687.109032
698.056400	23487.680986
698.392388	23277.341362
698.728326	23241.423141
699.064214	23034.403117
699.400053	22978.229540
699.735842	22614.860650
700.071581	22335.394204
700.407270	22053.500443
700.742910	21856.681194
701.078501	21594.926842
701.414042	21306.570321
701.749533	21013.215497
702.084974	20664.821354
702.420366	20868.730986
702.755709	20434.317115
703.091002	20137.340222
703.426246	20161.008439
703.761440	20061.818696
704.096584	19799.219951
704.431679	19752.997611
704.766725	19654.317025
705.101721	19584.066025
705.436668	19684.269040
705.771565	19363.306337
706.106413	19705.545230
706.441212	19689.998312
706.775961	19825.451595
707.110661	19890.268231
707.445311	20251.159393
707.779913	20084.556820
708.114465	20339.624082
708.448967	20617.983994
708.783421	21311.868574
709.117825	21600.119230
709.452180	21805.155560
709.786485	22204.397301
710.120742	23021.102033
710.454949	23031.333054
710.789107	23492.583508
711.123216	24208.278640
711.457275	24330.766075
711.791286	24863.913465
712.125247	24927.043835
712.459159	24631.942250
712.793023	25271.720126
713.126837	24168.677856
713.460602	24415.454939
713.794318	24040.514081
714.127985	23650.747189
714.461602	22748.615064
714.795171	22708.290875
715.128691	21698.618335
715.462162	21163.351141
715.795584	20748.612893
716.128957	20479.357304
716.462281	20069.846733
716.795556	19831.374951
717.128782	19347.784624
717.461960	18804.907808
717.795088	18718.331031
718.128167	18328.370055
718.461198	17860.520731
718.794180	17722.075523
719.127113	17373.600722
719.459997	17167.979619
719.792833	16826.007906
720.125619	16803.146274
720.458357	16486.241699
720.791046	16315.366748
721.123686	16155.446225
721.456278	15924.957109
721.788821	15876.456168
722.121315	15620.037877
722.453761	15688.481623
722.786158	15618.081910
723.118506	15627.899557
723.450805	15501.868190
723.783056	15651.439225
724.115259	15553.910542
724.447412	15495.135729
724.779518	15732.490896
725.111574	15752.408495
725.443582	15948.499297
725.775542	15930.588078
726.107453	16404.814461
726.439315	16285.719722
726.771129	16678.685226
727.102895	17058.294193
727.434612	17264.437056
727.766281	17383.700674
728.097901	17640.512174
728.429473	17679.465170
728.760996	17658.372982
729.092471	17742.111589
729.423897	17617.892517
729.755276	17476.899006
730.086606	17600.311493
730.417887	18130.487123
730.749120	18641.708013
731.080305	18806.266398
731.411442	19137.203025
731.742530	19205.518221
732.073570	19299.598755
732.404562	19594.155895
732.735506	19402.345032
733.066401	19111.044478
733.397249	18583.487728
733.728048	17957.691492
734.058798	17123.065458
734.389501	16447.414732
734.720156	15995.069477
735.050762	15474.043542
735.381320	15116.172030
735.711831	14876.959198
736.042293	14539.685841
736.372707	14541.334298
736.703073	14340.777033
737.033391	14526.001629
737.363661	14492.467873
737.693883	14596.262710
738.024056	14781.348674
738.354182	14963.546056
738.684260	15244.234982
739.014290	15474.716536
739.344272	15659.245452
739.674207	15938.598471
740.004093	16054.154320
740.333931	16036.575817
740.663722	16076.710963
740.993464	16067.100003
741.323159	15889.333795
741.652806	15606.797287
741.982405	15398.874897
742.311956	15062.393001
742.641460	14937.750472
742.970915	14633.433658
743.300323	14302.086178
743.629683	14084.817488
743.958996	13807.619562
744.288260	13549.081466
744.617477	13247.872524
744.946647	13171.738498
745.275768	12898.490315
745.604842	12718.828633
745.933869	12552.737737
746.262847	12501.544820
746.591778	12424.861308
746.920662	12332.532576
747.249498	12331.582318
747.578286	12447.415431
747.907027	12586.092532
748.235720	12811.054022
748.564365	12839.082838
748.892963	12734.395716
749.221514	12797.175726
749.550017	12653.432265
749.878473	12616.662089
750.206881	12395.851989
750.535242	12300.743060
750.863555	12217.190976
751.191821	12121.920730
751.520039	12145.533494
751.848210	12048.965151
752.176334	12082.869432
752.504411	11989.073723
752.832440	11836.644354
753.160421	11893.758107
753.488356	11770.822008
753.816243	11687.711026
754.144082	11544.012935
754.471875	11489.117290
754.799620	11430.982704
755.127318	11403.090000
755.454969	11361.916376
755.782572	11319.502628
756.110129	11328.170892
756.437638	11257.456107
756.765100	11247.383881
757.092515	11242.304919
757.419882	11264.415419
757.747203	11256.654563
758.074477	11346.724859
758.401703	11300.754577
758.728882	11460.450769
759.056014	11503.391317
759.383099	11615.516661
759.710138	11714.126672
760.037129	11792.481326
760.364073	11815.963021
760.690970	11802.183027
761.017820	11803.229066
761.344623	11986.381747
761.671379	12305.678349
761.998088	12940.795678
762.324751	14484.840608
762.651366	17362.235441
762.977935	21002.142602
763.304456	23200.259599
763.630931	23667.902236
763.957359	22471.583496
764.283740	20573.397509
764.610074	18695.313123
764.936362	16574.613126
765.262602	15060.121961
765.588796	13606.540537
765.914943	12578.311511
766.241044	11734.971843
766.567097	11108.406831
766.893104	10560.919880
767.219064	10204.031393
767.544978	9830.234877
767.870845	9512.417853
768.196665	9332.350358
768.522438	9130.066498
768.848165	8966.181107
769.173846	8806.784864
769.499479	8685.532511
769.825066	8529.700363
770.150607	8349.267385
770.476101	8280.508567
770.801548	8176.978390
771.126949	8033.623098
771.452303	7944.568595
771.777611	7786.299050
772.102872	7762.252746
772.428087	7644.443501
772.753256	7521.845160
773.078378	7435.084382
773.403453	7292.664224
773.728482	7196.342897
774.053465	7126.515355
774.378401	7044.268930
774.703291	6952.121679
775.028135	6852.815989
775.352932	6819.194013
775.677683	6737.302990
776.002388	6651.870556
776.327046	6646.680688
776.651658	6565.013995
776.976224	6488.461554
777.300743	6471.266178
777.625216	6405.705972
777.949643	6360.204517
778.274024	6362.498242
778.598359	6297.290917
778.922647	6301.613707
779.246889	6258.642912
779.571086	6269.128512
779.895236	6277.466580
780.219339	6273.955416
780.543397	6273.874758
780.867409	6322.761347
781.191374	6318.088198
781.515294	6285.761799
781.839167	6338.996383
782.162995	6305.510519
782.486776	6263.883191
782.810511	6222.165122
783.134201	6145.277444
783.457844	6139.565817
783.781441	6088.819041
784.104993	6045.689450
784.428498	6013.625191
784.751958	5992.633826
785.075372	5969.653726
785.398739	5932.969250
785.722061	5958.265760
786.045337	5959.337005
786.368568	6066.360701
786.691752	6086.908444
787.014891	6340.112999
787.337983	6617.525174
787.661030	7058.842906
787.984031	7480.003583
788.306987	7742.821618
788.629897	7824.642066
788.952760	7736.590752
789.275579	7557.400418
789.598351	7263.269256
789.921078	6993.832186
790.243759	6715.986471
790.566395	6511.136664
790.888984	6318.977961
791.211529	6183.771695
791.534027	6020.960069
791.856480	5884.801025
792.178888	5825.330533
792.501249	5764.985401
792.823566	5657.427342
793.145836	5649.905941
793.468062	5629.131346
793.790241	5593.873516
794.112375	5630.406757
794.434464	5731.897787
794.756507	5764.322489
795.078505	5885.779008
795.400457	6103.929900
795.722364	6341.879923
796.044226	6533.317741
796.366042	6688.590320
796.687812	6631.869778
797.009538	6663.220713
797.331218	6571.592701
797.652852	6503.882443
797.974442	6379.363423
798.295986	6307.789120
798.617484	6179.915212
798.938938	6076.115334
799.260346	6003.071535
799.581709	5866.567171
799.903026	5815.931301
800.224299	5743.913378
800.545526	5626.451972
800.866708	5564.491150
801.187845	5514.336711
801.508936	5438.202685
801.829983	5409.987347
802.150984	5304.496161
802.471940	5278.970279
802.792851	5267.912508
803.113717	5236.168362
803.434538	5215.726483
803.755314	5178.910937
804.076045	5178.139640
804.396731	5135.995594
804.717372	5154.254653
805.037967	5156.238347
805.358518	5188.290003
805.679024	5248.211679
805.999485	5254.135034
806.319901	5273.959372
806.640272	5291.729439
806.960598	5337.538404
807.280879	5332.272919
807.601115	5366.076376
807.921306	5328.164379
808.241453	5323.037525
808.561554	5332.393907
808.881611	5298.381242
809.201623	5293.022495
809.521590	5246.749744
809.841513	5229.299790
810.161390	5248.405763
810.481223	5157.531403
810.801011	5143.650586
811.120755	5119.866422
811.440453	5063.304676
811.760107	5038.240059
812.079716	5011.030431
812.399281	4956.409529
812.718801	4955.000527
813.038276	4920.763531
813.357707	4886.728180
813.677093	4906.098814
813.996434	4846.537581
814.315731	4866.712279
814.634983	4861.381259
814.954191	4870.039441
815.273354	4924.657822
815.592473	4965.690294
815.911547	5044.783477
816.230577	5097.493782
816.549562	5180.682902
816.868502	5236.380091
817.187399	5290.073420
817.506250	5372.196337
817.825058	5396.620727
818.143821	5549.700405
818.462539	5718.405139
818.781213	5947.155057
819.099843	6309.117464
819.418429	6937.356139
819.736970	7553.473359
820.055466	8260.404445
820.373919	9173.375051
820.692327	10623.765424
821.010691	13318.138647
821.329011	19549.395490
821.647286	29161.348405
821.965517	39491.078448
822.283704	44964.458305
822.601847	46433.314424
822.919945	41800.917497
823.237999	36644.590929
823.556010	31437.449531
823.873976	26729.369761
824.191897	22521.367411
824.509775	19461.208065
824.827609	16705.675564
825.145398	15144.470547
825.463144	14409.046859
825.780845	14709.517273
826.098502	15967.030579
826.416116	18429.263708
826.733685	20714.761545
827.051210	21229.838919
827.368692	19800.921340
827.686129	17230.661326
828.003522	14752.432615
828.320872	12540.253320
828.638177	10894.629141
828.955439	9651.036981
829.272656	8597.708049
829.589830	7754.650686
829.906960	7024.905858
830.224046	6499.068141
830.541088	6087.888948
830.858086	5833.240103
831.175041	5625.289986
831.491952	5571.798303
831.808819	5603.887768
832.125642	5848.529923
832.442421	6399.172637
832.759157	7509.542224
833.075849	9282.044684
833.392497	11131.081941
833.709101	12243.712486
834.025662	11980.045017
834.342179	10922.824314
834.658653	9622.325089
834.975083	8514.783589
835.291469	7614.693132
835.607811	6875.813733
835.924110	6359.707964
836.240366	5873.912132
836.556578	5421.629892
836.872746	5069.855656
837.188871	4798.722237
837.504952	4576.984565
837.820990	4413.119338
838.136984	4299.438798
838.452935	4251.535234
838.768842	4282.813073
839.084706	4562.372780
839.400526	5307.160411
839.716303	6209.847063
840.032037	6771.187105
840.347727	6620.169260
840.663373	6018.585686
840.978977	5442.066729
841.294537	5004.179503
841.610054	4677.815203
841.925527	4436.404428
842.240957	4230.017069
842.556344	4045.984707
842.871687	3886.797671
843.186987	3740.032038
843.502244	3623.125160
843.817458	3536.805483
844.132629	3465.059781
844.447756	3416.122780
844.762840	3368.342724
845.077881	3332.240501
845.392879	3300.698001
845.707833	3273.506017
846.022745	3250.296545
846.337613	3233.721231
846.652438	3215.562995
846.967221	3201.906509
847.281960	3183.423119
847.596656	3176.163857
847.911309	3162.451919
848.225919	3149.791061
848.540485	3138.662714
848.855009	3133.588793
849.169490	3118.903911
849.483928	3115.047429
849.798323	3110.412088
850.112675	3096.493462
850.426984	3098.467074
850.741251	3090.625559
851.055474	3088.737647
851.369654	3088.767894
851.683792	3085.879312
851.997887	3089.259406
852.311938	3089.957606
852.625947	3088.248655
852.939914	3082.393355
853.253837	3088.689756
853.567718	3086.572471
853.881555	3079.348498
854.195350	3086.544745
854.509103	3081.538879
854.822812	3080.974270
855.136479	3076.154927
855.450103	3082.529466
855.763685	3075.484453
856.077224	3077.568970
856.390720	3087.411823
856.704173	3097.438678
857.017584	3098.199892
857.330953	3106.051490
857.644278	3114.944085
857.957561	3116.403499
858.270802	3114.757562
858.584000	3113.898046
858.897155	3109.386213
859.210268	3098.651076
859.523339	3083.996442
859.836367	3082.025350
860.149352	3076.472519
860.462295	3075.232396
860.775195	3065.409707
861.088054	3061.520457
861.400869	3062.009449
861.713642	3061.379305
862.026373	3068.832651
862.339062	3071.239802
862.651708	3081.622058
862.964312	3100.599482
863.276873	3104.692899
863.589392	3134.896972
863.901869	3162.615756
864.214303	3184.978315
864.526696	3201.750234
864.839045	3220.682287
865.151353	3233.209554
865.463619	3236.186356
865.775842	3233.038155
866.088023	3237.408835
866.400162	3229.184193
866.712258	3231.911457
867.024313	3232.496231
867.336325	3230.278123
867.648296	3232.619739
867.960224	3227.684450
868.272110	3234.984040
868.583954	3232.783577
868.895755	3243.017119
869.207515	3238.911099
869.519233	3257.273502
869.830909	3260.842639
870.142542	3272.510390
870.454134	3282.320475
870.765684	3294.419244
871.077191	3311.619661
871.388657	3326.231446
871.700081	3342.337932
872.011463	3361.065819
872.322803	3380.441493
872.634101	3396.648803
872.945357	3420.750560
873.256571	3449.026392
873.567744	3463.058443
873.878874	3465.377374
874.189963	3484.117863
874.501010	3486.136846
874.812015	3482.451762
875.122979	3498.870800
875.433900	3492.246724
875.744780	3498.230574
876.055618	3506.863550
876.366415	3506.556039
876.677169	3510.241123
876.987882	3529.039585
877.298554	3545.844272
877.609183	3583.415991
877.919771	3634.787870
878.230317	3701.192469
878.540822	3806.527378
878.851285	3960.121254
879.161707	4184.412271
879.472087	4559.191812
879.782425	5183.271535
880.092722	6379.711262
880.402977	8332.601330
880.713191	10718.297141
881.023363	13132.180563
881.333494	14478.334998
881.643583	14937.881542
881.953631	14525.552966
882.263637	13663.034228
882.573602	12624.319602
882.883526	11655.392188
883.193408	10689.870074
883.503248	9768.553839
883.813048	8939.538609
884.122806	8164.751072
884.432522	7396.101139
884.742197	6728.972483
885.051831	6162.014075
885.361424	5664.905894
885.670975	5268.335965
885.980485	4944.671203
886.289954	4675.604657
886.599382	4456.284218
886.908768	4278.449954
887.218113	4113.561374
887.527417	3979.512052
887.836680	3855.620655
888.145901	3754.295983
888.455082	3680.634643
888.764221	3608.505814
889.073319	3548.735373
889.382376	3516.658512
889.691392	3492.929800
890.000366	3486.676249
890.309300	3478.933037
890.618193	3486.036023
890.927044	3477.614775
891.235855	3488.498626
891.544625	3500.546984
891.853353	3530.740975
892.162041	3589.858586
892.470687	3683.341743
892.779293	3804.110145
893.087858	3979.900221
893.396381	4259.419599
893.704864	4676.701108
894.013306	5246.727059
894.321707	5821.922713
894.630068	6186.022570
894.938387	6223.755606
895.246665	6043.211723
895.554903	5717.966559
895.863100	5381.444334
896.171256	5107.664309
896.479371	4868.048185
896.787446	4643.358917
897.095480	4443.905665
897.403473	4293.422181
897.711425	4151.206190
898.019336	4026.215822
898.327207	3901.149836
898.635038	3799.197541
898.942827	3691.815922
899.250576	3606.025566
899.558284	3521.303935
899.865952	3466.148671
900.173579	3401.513517
900.481165	3354.940817
900.788711	3313.535300
901.096216	3280.714867
901.403681	3253.974067
901.711105	3242.618868
902.018489	3239.720204
902.325832	3271.124072
902.633135	3330.584482
902.940397	3504.998323
903.247619	3910.720467
903.554800	4671.692722
903.861941	5650.044572
904.169041	6361.492532
904.476101	6572.006076
904.783121	6291.153313
905.090100	5883.570983
905.397039	5464.025995
905.703938	5104.153146
906.010796	4774.053351
906.317614	4519.948950
906.624391	4280.045480
906.931129	4080.806477
907.237826	3899.735792
907.544483	3730.249679
907.851099	3557.564954
908.157675	3396.575706
908.464211	3255.488934
908.770707	3150.569919
909.077163	3071.680903
909.383578	3007.867457
909.689954	2966.000674
909.996289	2936.935902
910.302584	2914.961512
910.608839	2902.015829
910.915054	2890.728685
911.221229	2887.426730
911.527363	2892.417472
911.833458	2898.124058
912.139513	2910.691655
912.445527	2923.874272
912.751502	2959.091773
913.057436	3001.588700
913.363331	3059.067936
913.669186	3144.971718
913.975000	3265.735079
914.280775	3456.227680
914.586510	3728.316397
914.892205	4107.438893
915.197859	4612.439000
915.503475	5205.684505
915.809050	5707.365012
916.114585	5996.961657
916.420081	6061.934568
916.725536	5990.095605
917.030952	5753.249594
917.336328	5545.443151
917.641665	5328.333257
917.946961	5099.429585
918.252218	4895.766969
918.557435	4667.105272
918.862612	4466.749653
919.167750	4296.116678
919.472848	4104.109210
919.777906	3931.797531
920.082925	3767.748302
920.387904	3616.531331
920.692843	3504.141327
920.997743	3407.439393
921.302603	3309.862819
921.607423	3245.053745
921.912204	3175.778209
922.216946	3127.635190
922.521647	3080.946543
922.826310	3035.586241
923.130932	3000.378823
923.435516	2957.768470
923.740059	2927.788728
924.044564	2898.154305
924.349028	2874.778475
924.653454	2844.720595
924.957840	2818.123467
925.262186	2799.493883
925.566493	2778.265584
925.870761	2752.681728
926.174989	2744.817528
926.479178	2723.679970
926.783328	2710.391489
927.087438	2699.923533
927.391509	2686.854342
927.695541	2673.649039
927.999533	2662.979437
928.303486	2654.648930
928.607400	2649.958137
928.911275	2642.320788
929.215110	2635.563122
929.518906	2634.791825
929.822663	2634.045734
930.126381	2632.195631
930.430060	2638.028246
930.733699	2639.396919
931.037299	2643.029071
931.340861	2638.791981
931.644383	2647.339257
931.947866	2644.130563
932.251309	2640.337094
932.554714	2642.686272
932.858080	2635.248050
933.161407	2632.888790
933.464694	2630.942904
933.767943	2628.989457
934.071153	2622.554424
934.374323	2621.009311
934.677455	2617.193157
934.980548	2613.624020
935.283602	2611.622682
935.586617	2608.953391
935.889593	2613.132508
936.192530	2614.667539
936.495428	2620.681636
936.798287	2627.827471
937.101108	2642.971097
937.403890	2666.465395
937.706632	2692.147553
938.009336	2724.872203
938.312002	2754.357912
938.614628	2779.936727
938.917216	2804.572846
939.219765	2808.053762
939.522275	2815.948209
939.824747	2817.624393
940.127179	2812.200111
940.429573	2804.230047
940.731929	2806.354893
941.034246	2796.920374
941.336524	2790.329065
941.638763	2787.004424
941.940964	2781.189453
942.243126	2766.280241
942.545250	2752.391862
942.847335	2738.722773
943.149381	2726.646689
943.451389	2711.954247
943.753359	2700.175591
944.055290	2689.329548
944.357182	2683.950637
944.659036	2675.368072
944.960851	2673.228103
945.262628	2670.221054
945.564367	2671.060407
945.866067	2666.152843
946.167729	2666.606547
946.469352	2664.622853
946.770937	2665.270641
947.072484	2654.885864
947.373992	2657.285454
947.675462	2653.562562
947.976893	2648.428146
948.278286	2647.455204
948.579641	2640.609317
948.880958	2641.219296
949.182236	2636.951960
949.483476	2633.624798
949.784678	2632.500621
950.085841	2634.847278
950.386967	2634.943060
950.688054	2641.587301
950.989103	2649.489309
951.290114	2659.430465
951.591087	2672.839934
951.892021	2684.386697
952.192917	2697.413038
952.493776	2708.543906
952.794596	2711.843341
953.095378	2710.840152
953.396122	2709.383258
953.696828	2708.168340
953.997496	2702.595344
954.298126	2690.622604
954.598718	2686.229238
954.899272	2674.599297
955.199788	2661.661175
955.500266	2651.702376
955.800706	2636.087402
956.101108	2617.273816
956.401472	2607.826693
956.701798	2590.333889
957.002087	2576.712692
957.302337	2570.512072
957.602550	2556.099414
957.902724	2546.375028
958.202861	2537.104346
958.502960	2528.206709
958.803022	2519.939217
959.103045	2512.987466
959.403031	2507.003616
959.702979	2503.989006
960.002889	2498.781494
960.302762	2491.428972
960.602596	2487.403610
960.902393	2484.560399
961.202153	2480.948413
961.501875	2478.263998
961.801559	2478.558906
962.101205	2475.186374
962.400814	2473.711836
962.700385	2471.667648
962.999918	2468.620271
963.299414	2464.262193
963.598873	2469.126907
963.898293	2462.255814
964.197677	2460.108283
964.497022	2461.086267
964.796331	2458.071657
965.095601	2460.113324
965.394835	2460.446040
965.694030	2457.073508
965.993189	2460.355299
966.292309	2456.161059
966.591393	2455.898919
966.890439	2457.373457
967.189447	2456.922273
967.488419	2455.389763
967.787353	2458.288426
968.086249	2459.044599
968.385108	2454.999073
968.683930	2459.659620
968.982714	2461.429065
969.281462	2459.745320
969.580172	2461.371092
969.878844	2466.261011
970.177480	2468.123717
970.476078	2470.445169
970.774639	2473.114460
971.073162	2473.185036
971.371649	2478.891622
971.670098	2476.134111
971.968510	2480.398927
972.266885	2477.717033
972.565223	2482.642240
972.863524	2484.008393
973.161788	2487.869917
973.460014	2485.906388
973.758204	2487.491830
974.056356	2486.816316
974.354471	2487.806903
974.652550	2486.851604
974.950591	2486.697849
975.248595	2486.927221
975.546563	2486.997797
975.844493	2485.553507
976.142386	2485.800523
976.440243	2482.216263
976.738062	2477.943885
977.035845	2477.293576
977.333590	2473.847947
977.631299	2473.502628
977.928971	2472.592700
978.226606	2467.942236
978.524204	2467.523820
978.821765	2467.780919
979.119290	2463.551391
979.416777	2464.786473
979.714228	2464.141206
980.011642	2465.525003
980.309020	2469.666310
980.606360	2474.606641
980.903664	2483.277426
981.200931	2497.680002
981.498162	2518.109278
981.795356	2548.018444
982.092513	2586.409351
982.389633	2631.008439
982.686717	2673.719615
982.983764	2707.737321
983.280775	2726.278685
983.577749	2724.403376
983.874686	2717.454145
984.171587	2701.574511
984.468451	2684.563137
984.765279	2664.408604
985.062070	2645.532003
985.358824	2632.669499
985.655543	2605.953905
985.952224	2579.553382
986.248869	2551.070863
986.545478	2527.163191
986.842050	2509.456138
987.138586	2486.297077
987.435086	2473.479943
987.731549	2459.881431
988.027975	2455.069649
988.324366	2451.727364
988.620719	2448.211160
988.917037	2442.370983
989.213318	2439.560540
989.509563	2437.692792
989.805772	2434.290013
990.101944	2433.869077
990.398080	2432.767585
990.694180	2433.639704
990.990244	2434.821855
991.286271	2431.507296
991.582262	2432.477718
991.878217	2434.468974
992.174136	2436.543409
992.470019	2434.826896
992.765865	2434.915116
993.061676	2442.088678
993.357450	2442.817125
993.653188	2443.159923
993.948890	2452.087807
994.244556	2457.154167
994.540186	2466.669344
994.835780	2480.600573
995.131337	2493.480721
995.426859	2509.708195
995.722345	2529.950949
996.017795	2548.799823
996.313208	2566.592575
996.608586	2575.591035
996.903928	2576.155644
997.199234	2575.021385
997.494504	2574.315623
997.789738	2561.990002
998.084936	2556.800134
998.380099	2544.250182
998.675225	2534.298944
998.970316	2518.459638
999.265371	2507.679131
999.560390	2492.381750
999.855373	2479.441108
1000.150320	2470.339304
1000.445232	2462.253294
1000.740108	2455.535956
1001.034948	2444.105140
1001.329752	2442.554985
1001.624521	2439.061465
1001.919254	2430.085691
1002.213951	2430.962852
1002.508613	2424.404311
1002.803239	2426.191400
1003.097829	2421.016655
1003.392384	2423.033117
1003.686903	2421.341810
1003.981386	2420.469690
1004.275834	2419.249731
1004.570246	2418.465831
1004.864623	2416.703948
1005.158964	2416.880388
1005.453270	2418.823753
1005.747540	2416.454411
1006.041775	2414.354770
1006.335974	2417.087076
1006.630138	2414.258988
1006.924266	2414.886612
1007.218359	2414.919380
1007.512416	2414.506005
1007.806438	2414.614390
1008.100425	2412.640778
1008.394376	2414.642116
1008.688292	2411.791344
1008.982172	2412.139183
1009.276017	2413.056673
1009.569827	2408.834707
1009.863602	2413.462486
1010.157341	2410.962074
1010.451045	2412.124060
1010.744714	2410.082392
1011.038347	2410.369738
1011.331945	2409.394275
1011.625508	2409.389234
1011.919036	2409.016188
1012.212528	2409.084244
1012.505986	2408.839748
1012.799408	2410.147927
1013.092795	2408.993503
1013.386147	2406.871178
1013.679464	2410.352094
1013.972745	2409.711868
1014.265992	2408.401168
1014.559204	2409.207752
1014.852380	2407.529048
1015.145521	2407.937382
1015.438628	2408.156672
1015.731699	2409.391754
1016.024736	2407.758421
1016.317737	2410.117681
1016.610703	2410.858730
1016.903635	2405.772206
1017.196531	2406.331774
1017.489393	2407.924779
1017.782219	2404.799263
1018.075011	2412.693710
1018.367768	2407.183729
1018.660490	2410.152969
1018.953177	2410.152969
1019.245829	2410.152969
