Dividing Wavelength (nm)	Counts (n)	Blue Motor Position (mm): 15.400000	Red Motor Position (mm): 0.000000	
326.493990	1978.143728
326.888308	1978.143728
327.282561	1978.143728
327.676750	1953.366457
328.070874	1954.306632
328.464933	1959.204113
328.858929	1969.165433
329.252859	1979.802268
329.646726	1997.043014
330.040528	2011.102792
330.434265	2031.224557
330.827938	2048.707279
331.221547	2068.904662
331.615091	2089.326376
332.008571	2109.715323
332.401986	2130.018570
332.795338	2152.232414
333.188625	2171.514828
333.581847	2187.679288
333.975006	2208.784078
334.368100	2225.934084
334.761129	2242.005282
335.154095	2255.409710
335.546996	2290.181069
335.939833	2344.567557
336.332606	2358.604650
336.725315	2368.732328
337.117960	2380.339585
337.510540	2388.130688
337.903056	2395.432799
338.295508	2402.588717
338.687896	2408.436456
339.080220	2417.029103
339.472480	2422.816347
339.864676	2423.403642
340.256807	2431.356062
340.648875	2431.288006
341.040879	2429.957142
341.432818	2435.086516
341.824694	2432.225661
342.216506	2434.988213
342.608253	2433.687595
342.999937	2429.644590
343.391557	2432.097111
343.783113	2428.691812
344.174605	2428.003694
344.566033	2425.899013
344.957397	2429.430341
345.348697	2423.902716
345.739934	2420.988929
346.131106	2418.997673
346.522215	2418.516243
346.913260	2417.235790
347.304241	2414.687487
347.695159	2410.639440
348.086012	2412.119019
348.476802	2409.152300
348.867528	2404.393450
349.258191	2407.042577
349.648789	2406.233472
350.039324	2403.133162
350.429796	2404.348080
350.820203	2405.658780
351.210548	2402.576114
351.600828	2401.116700
351.991045	2401.890517
352.381198	2400.300033
352.771288	2403.201218
353.161314	2399.163253
353.551276	2400.060579
353.941175	2397.978582
354.331010	2397.648387
354.720782	2401.527554
355.110490	2405.731877
355.500135	2401.714077
355.889717	2399.836247
356.279235	2403.851526
356.668689	2404.121228
357.058080	2400.829355
357.447408	2399.039745
357.836672	2398.515465
358.225873	2400.209293
358.615010	2401.555281
359.004084	2404.980745
359.393095	2405.457134
359.782043	2405.101733
360.170927	2406.278842
360.559748	2404.471588
360.948505	2406.150292
361.337199	2406.603996
361.725830	2407.176167
362.114398	2412.335788
362.502903	2408.844789
362.891344	2408.176836
363.279722	2407.322361
363.668037	2412.121539
364.056289	2410.909142
364.444478	2411.912331
364.832603	2410.911662
365.220665	2411.256981
365.608665	2411.415778
365.996601	2414.180851
366.384474	2409.333781
366.772284	2411.319996
367.160031	2413.689338
367.547715	2413.026426
367.935336	2414.818557
368.322893	2412.043401
368.710388	2416.005748
369.097820	2419.121181
369.485189	2412.464338
369.872495	2416.197312
370.259738	2415.874678
370.646918	2418.417940
371.034035	2416.020872
371.421090	2415.647826
371.808081	2416.343506
372.195010	2415.978022
372.581875	2417.863413
372.968678	2416.005748
373.355418	2415.867117
373.742096	2420.131933
374.128710	2420.053795
374.515262	2419.494227
374.901751	2419.272416
375.288177	2420.489855
375.674540	2417.326531
376.060841	2420.930956
376.447079	2419.461459
376.833254	2417.195461
377.219367	2415.423495
377.605417	2420.815009
377.991404	2415.718402
378.377329	2417.571027
378.763191	2416.416602
379.148991	2423.353230
379.534727	2421.356933
379.920402	2424.754671
380.306013	2423.017993
380.691563	2422.544125
381.077049	2423.350709
381.462474	2420.888106
381.847835	2421.432550
382.233134	2421.674526
382.618371	2423.927922
383.003545	2422.034968
383.388657	2423.234763
383.773706	2425.110072
384.158693	2423.186872
384.543618	2425.964548
384.928480	2427.733993
385.313280	2424.270720
385.698017	2426.118303
386.082692	2424.656368
386.467305	2426.352717
386.851856	2424.542942
387.236344	2424.011101
387.620770	2428.356575
388.005133	2429.952100
388.389435	2426.347675
388.773674	2427.181986
389.157851	2430.751123
389.541965	2428.815320
389.926018	2428.931267
390.310008	2427.106369
390.693936	2429.571493
391.077802	2427.492017
391.461606	2431.235074
391.845348	2429.279106
392.229027	2431.507296
392.612645	2426.965217
392.996200	2429.813469
393.379694	2430.846905
393.763125	2433.082657
394.146494	2431.784560
394.529801	2432.938984
394.913047	2432.603747
395.296230	2433.291865
395.679351	2432.714653
396.062410	2433.866556
396.445408	2431.560228
396.828343	2431.658531
397.211217	2430.294899
397.594028	2431.038469
397.976778	2430.206679
398.359466	2432.633994
398.742092	2430.451175
399.124656	2435.451999
399.507158	2432.989396
399.889598	2433.738007
400.271977	2437.987700
400.654294	2435.126845
401.036549	2436.046855
401.418742	2434.907555
401.800874	2437.533996
402.182944	2433.241453
402.564952	2435.325970
402.946898	2437.090374
403.328783	2435.956115
403.710606	2437.090374
404.092367	2435.111721
404.474067	2438.882504
404.855705	2436.820672
405.237282	2439.245467
405.618797	2437.602051
406.000250	2436.251022
406.381642	2437.861671
406.762972	2438.910231
407.144240	2437.168512
407.525447	2439.699171
407.906593	2440.188163
408.287677	2440.130190
408.668700	2439.177412
409.049661	2438.028029
409.430560	2442.439038
409.811399	2440.447783
410.192176	2440.026846
410.572891	2439.482402
410.953545	2440.478030
411.334138	2440.997268
411.714669	2442.512135
412.095139	2440.851075
412.475547	2438.998451
412.855894	2442.088678
413.236180	2440.566250
413.616405	2441.445931
413.996568	2439.253029
414.376670	2444.989862
414.756711	2441.246806
415.136691	2441.095571
415.516609	2443.744697
415.896466	2439.744542
416.276262	2446.262754
416.655997	2440.409974
417.035670	2438.181784
417.415283	2441.766044
417.794834	2438.920313
418.174324	2445.080603
418.553753	2442.033226
418.933121	2441.836621
419.312428	2443.170006
419.691674	2442.713781
420.070859	2446.058587
420.449983	2446.371138
420.829045	2445.012548
421.208047	2443.774944
421.586988	2445.965326
421.965867	2446.419029
422.344686	2444.437856
422.723444	2444.952054
423.102141	2446.908021
423.480777	2445.783844
423.859352	2446.850048
424.237866	2445.735953
424.616319	2444.636982
424.994712	2447.326437
425.373044	2447.414657
425.751314	2447.318875
426.129524	2446.424071
426.507673	2446.000614
426.885762	2445.589760
427.263789	2445.400716
427.641756	2445.433484
428.019662	2446.945830
428.397508	2444.992383
428.775292	2447.853238
429.153016	2448.720316
429.530679	2451.099741
429.908282	2447.638989
430.285824	2449.668053
430.663305	2451.369443
431.040726	2449.476489
431.418086	2448.800975
431.795385	2450.066304
432.172624	2451.697117
432.549802	2449.826849
432.926920	2449.347940
433.303977	2448.949689
433.680974	2447.157558
434.057910	2448.064966
434.434786	2450.847683
434.811601	2449.620162
435.188355	2453.978240
435.565050	2450.363732
435.941683	2453.416151
436.318257	2447.384410
436.694770	2446.729060
437.071222	2450.787189
437.447614	2448.528752
437.823946	2448.163269
438.200218	2454.152159
438.576429	2452.556634
438.952580	2452.090327
439.328670	2455.296501
439.704700	2449.713423
440.080670	2454.812551
440.456580	2452.176027
440.832429	2457.494444
441.208218	2455.236007
441.583947	2453.141408
441.959616	2452.927159
442.335224	2456.677777
442.710773	2456.476131
443.086261	2455.266254
443.461689	2452.652416
443.837057	2456.156018
444.212365	2456.554269
444.587612	2456.796245
444.962800	2456.236677
445.337927	2458.663992
445.712995	2456.302212
446.088002	2458.084259
446.462949	2456.798765
446.837837	2456.206430
447.212664	2459.427727
447.587431	2462.139868
447.962139	2464.776391
448.336786	2463.662296
448.711374	2463.153140
449.085901	2460.801441
449.460369	2462.114662
449.834776	2465.772019
450.209124	2464.665486
450.583412	2464.100877
450.957640	2464.693212
451.331808	2465.104066
451.705917	2461.920577
452.079965	2465.141875
452.453954	2464.209261
452.827883	2468.774026
453.201752	2464.206741
453.575562	2465.257821
453.949311	2466.954170
454.323001	2468.484160
454.696632	2465.104066
455.070202	2466.939046
455.443713	2467.954839
455.817164	2464.965434
456.190556	2464.690692
456.563888	2469.787298
456.937160	2466.732359
457.310373	2471.095478
457.683526	2471.007257
458.056619	2468.882411
458.429653	2468.010291
458.802628	2469.494911
459.175542	2473.028760
459.548398	2472.857361
459.921194	2475.390541
460.293930	2475.579584
460.666607	2477.265850
461.039224	2477.648977
461.411782	2482.009576
461.784280	2479.602425
462.156719	2478.377424
462.529099	2479.090748
462.901419	2476.262660
463.273680	2478.372383
463.645882	2477.142342
464.018024	2477.165027
464.390106	2479.224338
464.762130	2482.922024
465.134094	2487.383446
465.505999	2491.018117
465.877845	2499.439365
466.249631	2500.107318
466.621358	2496.898623
466.993026	2498.784015
467.364634	2497.546412
467.736184	2492.117089
468.107674	2490.025010
468.479105	2492.124651
468.850477	2487.701038
469.221790	2489.841008
469.593043	2486.294556
469.964238	2484.308342
470.335373	2486.768425
470.706449	2490.980309
471.077467	2493.770588
471.448425	2498.103459
471.819324	2501.796104
472.190164	2501.990189
472.560945	2496.268479
472.931667	2494.516678
473.302330	2490.385453
473.672934	2491.602891
474.043479	2492.409476
474.413965	2492.553149
474.784393	2488.230359
475.154761	2493.636997
475.525070	2492.532984
475.895321	2494.189003
476.265513	2494.950218
476.635645	2500.167812
477.005719	2498.950373
477.375734	2499.487256
477.745691	2498.836947
478.115588	2505.070334
478.485427	2508.258864
478.855207	2513.032836
479.224928	2521.630524
479.594591	2523.538601
479.964194	2523.548683
480.333739	2527.425331
480.703226	2525.159332
481.072653	2527.170752
481.442022	2533.457071
481.811333	2533.681403
482.180584	2532.942873
482.549777	2531.057482
482.918912	2533.144520
483.287988	2538.717515
483.657005	2537.933616
484.025964	2535.755837
484.394864	2536.963194
484.763706	2539.972763
485.132489	2537.744573
485.501213	2538.669624
485.869879	2544.093906
486.238487	2545.933927
486.607036	2544.290511
486.975527	2545.455017
487.343959	2548.454504
487.712333	2552.038764
488.080648	2553.233518
488.448905	2559.199723
488.817104	2556.996739
489.185244	2564.135013
489.553326	2573.425859
489.921350	2582.066397
490.289315	2592.539394
490.657222	2598.326639
491.025070	2603.627412
491.392861	2602.069696
491.760593	2602.233533
492.128267	2600.403594
492.495883	2598.029211
492.863440	2594.603747
493.230939	2596.826896
493.598380	2595.047368
493.965763	2591.815989
494.333088	2596.181628
494.700354	2595.135588
495.067563	2599.707915
495.434713	2599.844026
495.801805	2604.991044
496.168839	2608.177053
496.535815	2607.413319
496.902733	2613.266098
497.269593	2616.623507
497.636395	2614.816253
498.003139	2621.127778
498.369825	2623.550052
498.736453	2628.061885
499.103023	2626.879734
499.469535	2630.879890
499.835989	2633.523975
500.202385	2634.620426
500.568723	2640.936992
500.935003	2644.032260
501.301226	2646.215080
501.667390	2649.990904
502.033497	2656.733447
502.399546	2654.565751
502.765537	2652.834115
503.131470	2659.196051
503.497345	2668.466733
503.863163	2662.813079
504.228923	2668.312978
504.594625	2673.331446
504.960269	2672.398833
505.325856	2679.199349
505.691385	2679.103567
506.056856	2684.855524
506.422270	2688.170083
506.787625	2690.375587
507.152924	2694.118644
507.518164	2696.966896
507.883347	2697.579396
508.248472	2697.639890
508.613540	2705.839327
508.978550	2709.486602
509.343503	2715.165462
509.708398	2716.864330
510.073236	2726.485372
510.438016	2727.115517
510.802738	2725.565362
511.167403	2734.016856
511.532010	2737.898545
511.896561	2745.919021
512.261053	2753.662233
512.625488	2748.784917
512.989866	2750.425812
513.354186	2755.683736
513.718449	2755.721544
514.082655	2767.906013
514.446803	2770.817279
514.810894	2778.124432
515.174927	2783.263888
515.538904	2783.452932
515.902822	2792.829478
516.266684	2794.515744
516.630488	2799.685447
516.994235	2803.234419
517.357925	2811.448979
517.721558	2819.527428
518.085133	2826.459015
518.448651	2831.709377
518.812112	2835.795232
519.175516	2839.767661
519.538863	2847.883919
519.902152	2857.298274
520.265385	2865.573328
520.628560	2872.361241
520.991678	2876.099257
521.354739	2885.722820
521.717743	2898.905437
522.080690	2903.465161
522.443580	2917.845052
522.806413	2923.798655
523.169189	2931.307453
523.531908	2943.229782
523.894569	2951.056173
524.257174	2963.185190
524.619722	2974.769761
524.982213	2985.562872
525.344647	2992.862462
525.707025	3004.210100
526.069345	3021.859179
526.431608	3034.578010
526.793815	3049.519990
527.155964	3057.353943
527.518057	3072.227868
527.880093	3082.012747
528.242072	3101.670727
528.603995	3114.054321
528.965860	3127.952782
529.327669	3146.577325
529.689421	3163.079542
530.051117	3181.338602
530.412755	3198.622198
530.774337	3217.642471
531.135862	3233.007908
531.497331	3255.100765
531.858743	3273.286727
532.220098	3299.503248
532.581396	3314.077224
532.942638	3332.560614
533.303824	3364.274513
533.664953	3390.296949
534.026025	3405.712798
534.387040	3442.417439
534.747999	3467.391315
535.108902	3498.157477
535.469748	3516.776979
535.830537	3545.935013
536.191270	3576.441555
536.551947	3604.581276
536.912567	3644.582832
537.273131	3680.536341
537.633638	3699.475956
537.994089	3743.782657
538.354483	3770.536060
538.714821	3822.885923
539.075103	3870.227398
539.435328	3902.536153
539.795497	3938.804735
540.155609	3976.762102
540.515665	4036.532543
540.875665	4059.303435
541.235609	4114.627578
541.595496	4160.507119
541.955328	4232.013366
542.315102	4258.328189
542.674821	4292.164413
543.034483	4341.713915
543.394090	4390.464393
543.753640	4443.819965
544.113134	4542.467784
544.472571	4550.364752
544.831953	4660.836597
545.191278	4683.201676
545.550548	4726.177513
545.909761	4806.846057
546.268918	4874.881469
546.628019	4955.033294
546.987064	4995.191126
547.346053	5014.705433
547.704986	5126.286332
548.063863	5168.493392
548.422684	5246.815279
548.781449	5302.260410
549.140158	5399.640378
549.498811	5461.412157
549.857408	5492.654708
550.215949	5624.342249
550.574434	5693.854720
550.932864	5750.630715
551.291237	5882.121651
551.649555	5934.766421
552.007817	6030.752511
552.366022	6089.764258
552.724173	6185.334452
553.082267	6299.516587
553.440305	6418.253404
553.798288	6451.283044
554.156215	6560.991155
554.514086	6677.232601
554.871902	6744.305152
555.229661	6838.428536
555.587365	6914.103817
555.945014	7026.826537
556.302606	7114.066225
556.660143	7237.788744
557.017625	7344.754467
557.375050	7435.464989
557.732421	7576.783655
558.089735	7683.240221
558.446994	7780.128677
558.804197	7953.720810
559.161345	8053.213022
559.518437	8067.494611
559.875474	8221.895071
560.232455	8352.155966
560.589381	8496.060744
560.946251	8575.204338
561.303065	8784.258468
561.659825	8883.186071
562.016528	8960.736661
562.373177	9035.743989
562.729770	9237.299402
563.086307	9286.392679
563.442789	9492.127209
563.799216	9634.713725
564.155587	9735.680474
564.511904	9873.561073
564.868164	10017.632209
565.224370	10204.681702
565.580520	10304.030241
565.936615	10479.023815
566.292654	10571.879348
566.648638	10772.905440
567.004567	10913.052037
567.360441	11075.001625
567.716260	11192.415140
568.072023	11407.816082
568.427732	11559.978269
568.783385	11631.665998
569.138982	11865.575536
569.494525	12022.723425
569.850013	12131.647636
570.205445	12289.186214
570.560823	12444.720934
570.916145	12593.687030
571.271412	12773.999021
571.626625	12890.936146
571.981782	13078.472110
572.336884	13171.415864
572.691931	13435.509311
573.046923	13496.592972
573.401860	13639.285352
573.756743	13796.907110
574.111570	14002.490405
574.466342	14146.180933
574.821059	14352.270864
575.175722	14401.049069
575.530330	14580.221759
575.884882	14683.515001
576.239380	14847.390310
576.593823	15027.241035
576.948211	15183.146279
577.302544	15226.021293
577.656823	15415.868626
578.011047	15667.399518
578.365216	15767.300064
578.719330	15898.198664
579.073389	16038.173863
579.427394	16251.139928
579.781344	16433.443174
580.135239	16495.802247
580.489080	16726.515694
580.842866	16738.528764
581.196597	17086.265035
581.550273	17266.902181
581.903895	17420.395233
582.257463	17779.642979
582.610975	17757.323271
582.964434	18058.179332
583.317837	18125.471174
583.671186	18256.538654
584.024481	18551.236946
584.377721	18552.202327
584.730906	18864.363176
585.084037	19078.765970
585.437113	19160.483073
585.790135	19367.437562
586.143103	19387.536643
586.496016	19633.426483
586.848874	19837.159675
587.201679	20051.350740
587.554428	20013.516880
587.907124	20290.127513
588.259765	20371.877384
588.612352	20688.865138
588.964884	20599.629153
589.317362	20933.351017
589.669786	21104.301585
590.022155	21187.231086
590.374470	21564.102707
590.726731	21541.740148
591.078937	21487.787199
591.431090	21724.555072
591.783188	21741.052248
592.135232	21757.017582
592.487222	22072.608936
592.839157	22304.219709
593.191038	22321.014313
593.542866	22374.775698
593.894639	22244.882807
594.246358	22566.334503
594.598022	22736.231470
594.949633	22702.977498
595.301190	22850.958049
595.652692	22953.532927
596.004141	23305.864210
596.355535	22929.481582
596.706876	23087.163833
597.058162	23150.601713
597.409395	23584.196397
597.760573	23796.277739
598.111698	23718.994330
598.462768	23909.101282
598.813785	24097.791671
599.164748	23943.834832
599.515657	24342.632952
599.866511	24198.271949
600.217312	24728.394647
600.568060	24264.711837
600.918753	24881.197061
601.269392	25016.594892
601.619978	24966.286697
601.970510	25246.952937
602.320988	25516.773135
602.671412	25866.064603
603.021783	25870.394954
603.372100	25813.225749
603.722363	26027.734407
604.072572	26238.149648
604.422728	26397.664358
604.772830	26415.086586
605.122878	26619.127288
605.472872	26737.312098
605.822813	27076.115446
606.172701	27103.947656
606.522534	27409.376044
606.872314	27751.587211
607.222041	27733.900323
607.571714	28155.020671
607.921333	27904.651765
608.270899	28267.650130
608.620411	28633.930287
608.969870	28639.352048
609.319276	28774.606205
609.668627	28957.814339
610.017926	29433.220352
610.367171	29696.744149
610.716362	29896.570446
611.065500	30001.623051
611.414585	30260.710633
611.763616	30624.749996
612.112594	30696.470492
612.461518	30990.457981
612.810389	31333.616885
613.159207	31359.868694
613.507971	31558.749775
613.856682	32038.375234
614.205340	32070.683989
614.553945	32735.647469
614.902496	32433.281582
615.250994	32919.009358
615.599439	33104.521299
615.947830	33386.334402
616.296169	33541.216292
616.644454	33767.450674
616.992686	34003.190151
617.340864	34536.108168
617.688990	34428.083803
618.037063	35029.737953
618.385082	35103.169921
618.733048	35453.111697
619.080961	35565.065642
619.428821	35680.949166
619.776628	35871.469493
620.124382	35829.073389
620.472083	36051.116052
620.819731	36257.342094
621.167326	36109.550586
621.514868	36213.698304
621.862357	35936.018948
622.209793	36062.776240
622.557176	35885.526751
622.904506	35791.093336
623.251783	35584.529537
623.599007	35506.643710
623.946179	35407.695942
624.293297	35468.144418
624.640363	35047.971807
624.987376	35129.618334
625.334336	35004.653172
625.681243	34794.409330
626.028097	34853.834451
626.374899	34805.628418
626.721647	34858.910893
627.068343	34849.655335
627.414987	34722.729163
627.761577	34592.450624
628.108115	34960.164989
628.454600	34547.952359
628.801032	34790.179802
629.147412	34813.028832
629.493739	34891.338115
629.840014	34649.279552
630.186236	35016.225140
630.532405	34733.058488
630.878521	34995.329557
631.224585	34934.913849
631.570597	34732.665278
631.916556	34933.915701
632.262462	34944.076146
632.608316	35033.803644
632.954117	34988.992827
633.299866	35019.189339
633.645562	35013.639028
633.991206	34647.754603
634.336797	34321.758307
634.682336	34373.384763
635.027823	34212.352666
635.373257	34111.698467
635.718639	33960.138698
636.063968	33884.922162
636.409245	33404.454830
636.754470	33516.640667
637.099642	33336.537884
637.444762	32964.281440
637.789829	33155.741943
638.134845	32861.978785
638.479808	32871.166288
638.824719	32821.130315
639.169577	32507.023581
639.514383	32625.846098
639.859137	32390.681312
640.203839	32641.118273
640.548489	32336.942612
640.893086	32462.711838
641.237632	32269.333177
641.582125	32398.515265
641.926566	32389.002607
642.270955	32385.609911
642.615292	32448.589046
642.959576	32460.977682
643.303809	32501.092663
643.647990	32666.145081
643.992118	32668.234640
644.336195	32694.375543
644.680219	32812.509942
645.024192	33112.627475
645.368112	33623.072028
645.711981	33668.354192
646.055797	34522.562588
646.399562	34477.555167
646.743274	35371.737392
647.086935	35806.395759
647.430544	35744.170276
647.774101	35876.132560
648.117606	36137.198795
648.461059	36448.769829
648.804460	36125.110108
649.147810	35574.903453
649.491108	35396.756638
649.834354	35085.238536
650.177548	34325.256868
650.520690	33931.187351
650.863781	33978.859022
651.206820	33862.887278
651.549807	33484.730163
651.892742	33047.767989
652.235626	32889.516088
652.578458	32792.080666
652.921238	32239.045925
653.263967	32584.170879
653.606644	32300.159833
653.949269	32281.842800
654.291843	31935.076951
654.634365	32319.061639
654.976836	31964.786991
655.319255	31989.319766
655.661622	32017.867820
656.003938	31819.175783
656.346203	31715.557386
656.688416	31956.186782
657.030577	31762.697215
657.372687	31636.973359
657.714746	31911.582653
658.056753	32050.703376
658.398708	31541.408206
658.740612	31616.765894
659.082465	31886.112223
659.424266	31750.759763
659.766016	31875.629144
660.107715	31779.232200
660.449362	31910.317323
660.790958	31913.510894
661.132503	31947.798302
661.473996	31982.554538
661.815438	32102.889400
662.156829	32317.488799
662.498168	32109.001799
662.839456	32157.273368
663.180693	32315.822698
663.521879	32485.913749
663.863013	32460.113124
664.204097	32471.652325
664.545129	32931.264403
664.886110	32908.306989
665.227040	32977.953050
665.567918	33103.225723
665.908746	33183.506098
666.249522	33354.204608
666.590248	33370.928636
666.930922	33499.533512
667.271545	33468.099397
667.612118	33542.816859
667.952639	33362.083932
668.293109	33427.828139
668.633528	33340.341435
668.973896	33268.119344
669.314213	33322.407530
669.654480	33074.851588
669.994695	33110.147227
670.334859	33027.129505
670.674973	32947.431384
671.015035	33098.552573
671.355047	33071.963007
671.695008	33020.704555
672.034918	32936.025773
672.374777	33031.021276
672.714585	32872.615619
673.054342	33114.409523
673.394049	32890.073135
673.733705	33172.622247
674.073310	32863.854094
674.412864	32920.269647
674.752368	32551.542010
675.091820	32846.958667
675.431223	32430.924843
675.770574	32184.054498
676.109875	32056.735116
676.449125	31788.213016
676.788324	31719.514692
677.127473	31216.117671
677.466571	31149.675264
677.805619	30811.771763
678.144616	30826.620481
678.483562	30761.705543
678.822458	30440.773086
679.161303	30382.656144
679.500098	30293.145417
679.838842	30175.552941
680.177535	30348.527533
680.516179	30612.898243
680.854771	30870.188653
681.193314	31704.580273
681.531805	32833.483663
681.870247	33602.304995
682.208638	34336.806151
682.546978	34546.732400
682.885268	34642.758819
683.223508	34122.332781
683.561697	33792.232986
683.899836	33609.443268
684.237925	33130.788231
684.575963	32969.897286
684.913951	32532.531819
685.251889	32686.082845
685.589776	32669.618436
685.927614	32662.248269
686.265401	32816.615962
686.603137	32926.387087
686.940824	33420.793209
687.278460	33805.715552
687.616046	33944.972386
687.953582	34538.948859
688.291068	34415.997637
688.628504	34693.303948
688.965889	34641.097759
689.303224	34258.418729
689.640510	33927.814819
689.977745	33205.407391
690.314930	32408.126225
690.652065	31887.488458
690.989150	31151.860604
691.326185	30295.766817
691.663170	29583.779453
692.000105	28846.417442
692.336990	28187.783130
692.673825	27736.589778
693.010610	27225.676398
693.347345	26663.769226
693.684030	26024.818099
694.020665	25757.833550
694.357251	25093.933753
694.693786	25053.400356
695.030272	24822.626415
695.366707	24293.186794
695.703093	24008.802703
696.039429	24005.629296
696.375716	23745.357044
696.711952	23709.194327
697.048139	23553.858733
697.384276	23393.600452
697.720363	23507.689325
698.056400	23318.875428
698.392388	23097.057098
698.728326	23066.338827
699.064214	22864.866592
699.400053	22806.001039
699.735842	22455.976083
700.071581	22186.980114
700.407270	21902.134757
700.742910	21718.331767
701.078501	21457.976336
701.414042	21168.798107
701.749533	20876.355732
702.084974	20546.006399
702.420366	20740.484033
702.755709	20314.680452
703.091002	20015.916470
703.426246	20036.985972
703.761440	19940.105077
704.096584	19678.877526
704.431679	19637.459406
704.766725	19546.489265
705.101721	19491.918774
705.436668	19591.027859
705.771565	19261.364124
706.106413	19592.951059
706.441212	19580.721220
706.775961	19719.098372
707.110661	19783.791500
707.445311	20140.334667
707.779913	19990.042748
708.114465	20243.385934
708.448967	20514.710916
708.783421	21203.889579
709.117825	21475.091053
709.452180	21688.273888
709.786485	22097.113985
710.120742	22877.663562
710.454949	22897.986973
710.789107	23364.906204
711.123216	24072.938782
711.457275	24177.915770
711.791286	24727.348607
712.125247	24783.141577
712.459159	24489.534695
712.793023	25150.238401
713.126837	24040.332599
713.460602	24285.226812
713.794318	23917.046141
714.127985	23525.802191
714.461602	22646.332573
714.795171	22602.219957
715.128691	21600.227615
715.462162	21071.027449
715.795584	20647.815022
716.128957	20392.825899
716.462281	19995.802266
716.795556	19757.292674
717.128782	19275.917935
717.461960	18736.806860
717.795088	18656.148399
718.128167	18272.839225
718.461198	17799.454714
718.794180	17663.083941
719.127113	17303.140515
719.459997	17113.809900
719.792833	16774.610822
720.125619	16741.014052
720.458357	16421.437666
720.791046	16258.487409
721.123686	16105.352279
721.456278	15869.728748
721.788821	15830.337172
722.121315	15578.856692
722.453761	15644.071578
722.786158	15579.302834
723.118506	15578.667648
723.450805	15453.969667
723.783056	15611.266270
724.115259	15509.601320
724.447412	15455.068638
724.779518	15687.307034
725.111574	15706.990220
725.443582	15903.912812
725.775542	15879.140582
726.107453	16345.439751
726.439315	16240.689616
726.771129	16635.628731
727.102895	16998.947210
727.434612	17195.842076
727.766281	17320.744224
728.097901	17575.710662
728.429473	17617.806817
728.760996	17606.300384
729.092471	17691.022015
729.423897	17574.135302
729.755276	17439.347451
730.086606	17554.316005
730.417887	18067.402123
730.749120	18587.293799
731.080305	18760.288555
731.411442	19085.715200
731.742530	19156.082146
732.073570	19254.949255
732.404562	19533.636843
732.735506	19356.054637
733.066401	19076.999045
733.397249	18555.037976
733.728048	17917.871418
734.058798	17094.701406
734.389501	16422.085454
734.720156	15972.316229
735.050762	15449.858606
735.381320	15095.866262
735.711831	14860.283061
736.042293	14515.357232
736.372707	14520.927707
736.703073	14315.994721
737.033391	14498.872659
737.363661	14463.735817
737.693883	14587.970012
738.024056	14746.715947
738.354182	14934.950111
738.684260	15211.379262
739.014290	15435.075422
739.344272	15621.761952
739.674207	15894.853859
740.004093	16013.099163
740.333931	15998.356309
740.663722	16035.678492
740.993464	16031.007862
741.323159	15862.192223
741.652806	15585.906745
741.982405	15369.195103
742.311956	15038.074475
742.641460	14915.597121
742.970915	14606.218989
743.300323	14281.515749
743.629683	14066.598758
743.958996	13794.058858
744.288260	13521.675233
744.617477	13225.880490
744.946647	13149.658244
745.275768	12880.314435
745.604842	12699.934389
745.933869	12535.055890
746.262847	12487.568221
746.591778	12414.123651
746.920662	12310.306128
747.249498	12315.170842
747.578286	12429.942792
747.907027	12572.476375
748.235720	12789.107359
748.564365	12824.385354
748.892963	12726.483625
749.221514	12788.338583
749.550017	12638.364256
749.878473	12604.268412
750.206881	12377.834905
750.535242	12292.699899
750.863555	12207.186806
751.191821	12115.505862
751.520039	12136.862710
751.848210	12042.146991
752.176334	12068.234962
752.504411	11980.528967
752.832440	11818.846561
753.160421	11886.259390
753.488356	11764.303797
753.816243	11669.749394
754.144082	11529.547344
754.471875	11481.303502
754.799620	11422.669842
755.127318	11396.586912
755.454969	11358.085099
755.782572	11307.350927
756.110129	11314.627832
756.437638	11235.574978
756.765100	11228.708927
757.092515	11235.640513
757.419882	11251.378996
757.747203	11253.884449
758.074477	11332.297077
758.401703	11282.961824
758.728882	11445.697832
759.056014	11482.384829
759.383099	11598.031419
759.710138	11700.439939
760.037129	11783.860953
760.364073	11805.147225
760.690970	11790.724484
761.017820	11783.041765
761.344623	11973.496558
761.671379	12290.635546
761.998088	12917.404724
762.324751	14478.803826
762.651366	17316.532340
762.977935	20965.329576
763.304456	23176.225898
763.630931	23636.831084
763.957359	22467.056540
764.283740	20560.605581
764.610074	18697.120377
764.936362	16572.384936
765.262602	15068.207972
765.588796	13600.423097
765.914943	12579.097931
766.241044	11735.964950
766.567097	11100.396438
766.893104	10554.913345
767.219064	10205.034583
767.544978	9820.944030
767.870845	9509.917441
768.196665	9319.150097
768.522438	9132.019945
768.848165	8963.816806
769.173846	8798.630797
769.499479	8674.187394
769.825066	8525.627111
770.150607	8341.440993
770.476101	8277.877085
770.801548	8169.197369
771.126949	8031.594034
771.452303	7938.020136
771.777611	7774.598532
772.102872	7752.175479
772.428087	7634.202397
772.753256	7514.575816
773.078378	7432.957015
773.403453	7286.710621
773.728482	7185.431320
774.053465	7121.239787
774.378401	7032.765017
774.703291	6945.270751
775.028135	6853.186514
775.352932	6811.236552
775.677683	6730.444500
776.002388	6642.378063
776.327046	6642.657847
776.651658	6555.713067
776.976224	6478.449822
777.300743	6463.326361
777.625216	6395.636267
777.949643	6354.833168
778.274024	6360.164188
778.598359	6293.061389
778.922647	6296.227234
779.246889	6257.727942
779.571086	6262.431339
779.895236	6274.729233
780.219339	6266.227327
780.543397	6264.031905
780.867409	6321.967366
781.191374	6317.566438
781.515294	6282.303567
781.839167	6336.427915
782.162995	6305.278626
782.486776	6254.297437
782.810511	6216.208999
783.134201	6144.584285
783.457844	6133.650022
783.781441	6079.621456
784.104993	6039.433378
784.428498	6006.280229
784.751958	5992.994268
785.075372	5964.191636
785.398739	5931.119146
785.722061	5954.043793
786.045337	5950.948525
786.368568	6062.395833
786.691752	6081.431230
787.014891	6331.853068
787.337983	6606.422033
787.661030	7046.063581
787.984031	7467.453631
788.306987	7731.849547
788.629897	7812.177813
788.952760	7729.649083
789.275579	7548.999335
789.598351	7258.250787
789.921078	6992.697926
790.243759	6715.343724
790.566395	6511.998701
790.888984	6320.344114
791.211529	6178.566703
791.534027	6019.788001
791.856480	5876.820878
792.178888	5818.724101
792.501249	5751.379326
792.823566	5649.043903
793.145836	5646.888810
793.468062	5626.330985
793.790241	5587.289769
794.112375	5630.847858
794.434464	5730.435853
794.756507	5758.048773
795.078505	5875.792483
795.400457	6090.717036
795.722364	6331.553120
796.044226	6520.672006
796.366042	6684.754002
796.687812	6630.740559
797.009538	6657.337687
797.331218	6561.923768
797.652852	6497.573439
797.974442	6373.127515
798.295986	6301.805271
798.617484	6180.769688
798.938938	6069.420681
799.260346	6001.090362
799.581709	5861.331933
799.903026	5814.272762
800.224299	5737.390124
800.545526	5623.928875
800.866708	5558.547630
801.187845	5506.094424
801.508936	5427.074338
801.829983	5405.301594
802.150984	5303.717303
802.471940	5272.815030
802.792851	5256.902628
803.113717	5237.582406
803.434538	5206.047468
803.755314	5175.283827
804.076045	5170.570348
804.396731	5131.191374
804.717372	5148.207789
805.037967	5145.591430
805.358518	5178.999157
805.679024	5232.024534
805.999485	5245.963324
806.319901	5265.263382
806.640272	5281.309374
806.960598	5326.261343
807.280879	5319.468388
807.601115	5357.647567
807.921306	5317.230116
808.241453	5313.424045
808.561554	5324.464172
808.881611	5287.731804
809.201623	5286.884890
809.521590	5238.883023
809.841513	5222.930292
810.161390	5238.812447
810.481223	5152.802801
810.801011	5138.304443
811.120755	5110.545329
811.440453	5058.263522
811.760107	5030.839645
812.079716	5004.756715
812.399281	4955.769303
812.718801	4949.845947
813.038276	4910.288013
813.357707	4877.215523
813.677093	4900.341816
813.996434	4842.514741
814.315731	4857.436556
814.634983	4856.425805
814.954191	4861.998800
815.273354	4921.602883
815.592473	4964.495540
815.911547	5039.966654
816.230577	5090.973049
816.549562	5179.344476
816.868502	5228.475561
817.187399	5284.354231
817.506250	5368.085276
817.825058	5386.931630
818.143821	5546.237132
818.462539	5714.155446
818.781213	5944.006856
819.099843	6304.068749
819.418429	6932.713236
819.736970	7544.270733
820.055466	8260.270855
820.373919	9168.333897
820.692327	10619.881215
821.010691	13311.726299
821.329011	19515.176137
821.647286	29072.271216
821.965517	39415.400647
822.283704	44867.153953
822.601847	46331.150401
822.919945	41752.131730
823.237999	36650.189131
823.556010	31445.845573
823.873976	26740.185556
824.191897	22546.043859
824.509775	19462.624629
824.827609	16715.445320
825.145398	15155.845911
825.463144	14409.961829
825.780845	14699.679461
826.098502	15945.053669
826.416116	18409.068846
826.733685	20676.731080
827.051210	21211.302596
827.368692	19774.077196
827.686129	17227.651757
828.003522	14755.963944
828.320872	12534.864327
828.638177	10887.458099
828.955439	9647.251074
829.272656	8588.538190
829.589830	7750.274964
829.906960	7021.898810
830.224046	6490.888869
830.541088	6083.964410
830.858086	5828.198949
831.175041	5621.869563
831.491952	5566.860493
831.808819	5597.508187
832.125642	5845.230488
832.442421	6390.327932
832.759157	7493.866756
833.075849	9260.433257
833.392497	11105.198137
833.709101	12216.598640
834.025662	11966.275105
834.342179	10916.583366
834.658653	9613.296382
834.975083	8501.805138
835.291469	7604.605783
835.607811	6872.751232
835.924110	6352.047931
836.240366	5868.361822
836.556578	5418.960601
836.872746	5067.020007
837.188871	4795.977329
837.504952	4573.841405
837.820990	4406.291095
838.136984	4292.547541
838.452935	4242.758585
838.768842	4270.938635
839.084706	4553.268456
839.400526	5293.181292
839.716303	6192.409712
840.032037	6754.412666
840.347727	6611.528722
840.663373	6015.203072
840.978977	5438.711841
841.294537	4994.588708
841.610054	4663.389942
841.925527	4425.964198
842.240957	4222.515832
842.556344	4041.132596
842.871687	3882.694172
843.186987	3731.946028
843.502244	3613.899849
843.817458	3524.081611
844.132629	3457.666929
844.447756	3408.303951
844.762840	3361.804348
845.077881	3323.431085
845.392879	3292.503606
845.707833	3267.703649
846.022745	3238.333887
846.337613	3226.598081
846.652438	3202.433310
846.967221	3196.615818
847.281960	3176.546985
847.596656	3165.748833
847.911309	3156.573933
848.225919	3140.684217
848.540485	3131.627784
848.855009	3123.882051
849.169490	3110.291100
849.483928	3105.736418
849.798323	3099.881117
850.112675	3085.347471
850.426984	3088.800661
850.741251	3082.121132
851.055474	3077.836152
851.369654	3081.296904
851.683792	3080.394537
851.997887	3083.870413
852.311938	3080.437387
852.625947	3081.579208
852.939914	3076.094433
853.253837	3082.905032
853.567718	3079.840010
853.881555	3072.681572
854.195350	3078.236923
854.509103	3072.895821
854.822812	3074.236768
855.136479	3068.515058
855.450103	3073.442786
855.763685	3068.378947
856.077224	3069.175449
856.390720	3074.514031
856.704173	3085.039960
857.017584	3091.321238
857.330953	3096.657299
857.644278	3104.569390
857.957561	3110.941409
858.270802	3104.123248
858.584000	3104.471088
858.897155	3098.162084
859.210268	3088.389807
859.523339	3073.919175
859.836367	3073.427663
860.149352	3068.920871
860.462295	3064.396435
860.775195	3053.724313
861.088054	3050.790361
861.400869	3057.386711
861.713642	3048.005124
862.026373	3056.655744
862.339062	3062.337124
862.651708	3070.128227
862.964312	3086.627924
863.276873	3097.050509
863.589392	3129.165180
863.901869	3151.608397
864.214303	3175.778209
864.526696	3193.545756
864.839045	3207.691233
865.151353	3217.899570
865.463619	3221.214129
865.775842	3219.885785
866.088023	3225.224367
866.400162	3223.230590
866.712258	3222.827298
867.024313	3221.493913
867.336325	3219.331258
867.648296	3222.146742
867.960224	3215.477296
868.272110	3221.637586
868.583954	3224.289232
868.895755	3230.126889
869.207515	3227.593709
869.519233	3245.900659
869.830909	3250.941813
870.142542	3261.838267
870.454134	3268.900923
870.765684	3281.362656
871.077191	3300.816468
871.388657	3312.229641
871.700081	3331.748988
872.011463	3351.553161
872.322803	3366.686705
872.634101	3388.567833
872.945357	3407.623395
873.256571	3433.711366
873.567744	3451.247020
873.878874	3457.399748
874.189963	3472.823158
874.501010	3474.343066
874.812015	3470.428610
875.122979	3486.721619
875.433900	3479.202738
875.744780	3487.031650
876.055618	3493.799399
876.366415	3491.649347
876.677169	3498.429699
876.987882	3514.450486
877.298554	3536.891183
877.609183	3571.549115
877.919771	3620.612145
878.230317	3687.820808
878.540822	3791.396355
878.851285	3944.473512
879.161707	4164.751771
879.472087	4532.597205
879.782425	5159.507536
880.092722	6344.934862
880.402977	8279.270964
880.713191	10657.175671
881.023363	13040.706306
881.333494	14391.201175
881.643583	14850.288973
881.953631	14441.252271
882.263637	13595.906223
882.573602	12554.073643
882.883526	11598.323806
883.193408	10643.897272
883.503248	9723.957271
883.813048	8886.810661
884.122806	8130.067933
884.432522	7359.951025
884.742197	6702.032557
885.051831	6136.256299
885.361424	5642.051823
885.670975	5247.541205
885.980485	4916.816307
886.289954	4654.739322
886.599382	4435.439047
886.908768	4256.165534
887.218113	4094.543621
887.527417	3962.092345
887.836680	3841.076926
888.145901	3742.285434
888.455082	3665.420441
888.764221	3595.197168
889.073319	3536.255997
889.382376	3503.344824
889.691392	3480.770537
890.000366	3468.893579
890.309300	3464.374184
890.618193	3470.574804
890.927044	3462.498875
891.235855	3472.026656
891.544625	3483.228100
891.853353	3512.020650
892.162041	3571.133220
892.470687	3662.340296
892.779293	3781.974438
893.087858	3952.322589
893.396381	4234.707863
893.704864	4647.996778
894.013306	5216.412080
894.321707	5786.778309
894.630068	6146.184852
894.938387	6186.158681
895.246665	6006.988512
895.554903	5685.884656
895.863100	5350.763871
896.171256	5078.879321
896.479371	4841.602292
896.787446	4617.230616
897.095480	4418.735184
897.403473	4269.985857
897.711425	4121.528917
898.019336	4006.089015
898.327207	3880.528996
898.635038	3777.802884
898.942827	3673.672810
899.250576	3585.440015
899.558284	3503.969927
899.865952	3447.551854
900.173579	3385.855693
900.481165	3338.209227
900.788711	3297.670788
901.096216	3265.457815
901.403681	3238.228023
901.711105	3225.778893
902.018489	3222.660940
902.325832	3254.606732
902.633135	3314.840958
902.940397	3487.039212
903.247619	3888.645254
903.554800	4641.324811
903.861941	5608.853304
904.169041	6305.863400
904.476101	6520.586307
904.783121	6248.164873
905.090100	5846.011866
905.397039	5426.620634
905.703938	5069.487651
906.010796	4749.775154
906.317614	4495.340558
906.624391	4255.187550
906.931129	4059.610945
907.237826	3880.148389
907.544483	3712.257801
907.851099	3538.673230
908.157675	3377.275649
908.464211	3236.037642
908.770707	3135.927888
909.077163	3058.185734
909.383578	2995.070488
909.689954	2952.548355
909.996289	2923.181113
910.302584	2903.639080
910.608839	2888.487893
910.915054	2877.112529
911.221229	2874.027343
911.527363	2880.321223
911.833458	2884.369270
912.139513	2897.544325
912.445527	2911.462951
912.751502	2944.676593
913.057436	2988.101093
913.363331	3045.086296
913.669186	3131.267341
913.975000	3245.953591
914.280775	3433.950821
914.586510	3701.643652
914.892205	4073.360692
915.197859	4573.463319
915.503475	5163.958874
915.809050	5660.479761
916.114585	5944.190858
916.420081	6011.941445
916.725536	5948.165808
917.030952	5709.000867
917.336328	5501.333054
917.641665	5292.155417
917.946961	5059.302000
918.252218	4859.899160
918.557435	4633.034634
918.862612	4433.835960
919.167750	4259.999331
919.472848	4072.450764
919.777906	3904.507244
920.082925	3746.356166
920.387904	3593.336982
920.692843	3483.167606
920.997743	3383.309910
921.302603	3290.295580
921.607423	3224.092627
921.912204	3160.415293
922.216946	3112.743621
922.521647	3060.078687
922.826310	3023.898326
923.130932	2983.163282
923.435516	2948.422171
923.740059	2918.994435
924.044564	2885.662326
924.349028	2862.044520
924.653454	2833.400684
924.957840	2807.174081
925.262186	2789.305711
925.566493	2764.886362
925.870761	2742.249061
926.174989	2730.155332
926.479178	2715.793085
926.783328	2700.354552
927.087438	2689.730320
927.391509	2674.538803
927.695541	2661.756957
927.999533	2655.021976
928.303486	2644.024698
928.607400	2640.294245
928.911275	2633.707977
929.215110	2627.212450
929.518906	2626.549539
929.822663	2626.957872
930.126381	2622.710700
930.430060	2627.048613
930.733699	2629.551546
931.037299	2631.389046
931.340861	2627.968623
931.644383	2632.946763
931.947866	2633.801238
932.251309	2630.297637
932.554714	2629.632204
932.858080	2626.670526
933.161407	2622.224229
933.464694	2619.144084
933.767943	2619.565020
934.071153	2612.041098
934.374323	2606.027001
934.677455	2605.066662
934.980548	2603.791250
935.283602	2602.402412
935.586617	2599.828903
935.889593	2604.144130
936.192530	2605.361569
936.495428	2609.094543
936.798287	2616.726850
937.101108	2632.551032
937.403890	2655.011893
937.706632	2681.770338
938.009336	2712.400389
938.312002	2743.690831
938.614628	2767.459871
938.917216	2785.832356
939.219765	2793.734365
939.522275	2805.066879
939.824747	2805.565953
940.127179	2795.619756
940.429573	2793.537760
940.731929	2791.523819
941.034246	2781.370935
941.336524	2780.518980
941.638763	2772.596807
941.940964	2768.208482
942.243126	2751.028230
942.545250	2742.145717
942.847335	2726.402193
943.149381	2714.247972
943.451389	2698.822041
943.753359	2689.992460
944.055290	2677.066941
944.357182	2668.330622
944.659036	2665.552946
944.960851	2662.797955
945.262628	2658.134888
945.564367	2657.285454
945.866067	2655.140443
946.167729	2655.029537
946.469352	2655.979795
946.770937	2653.360915
947.072484	2647.256078
947.373992	2644.717857
947.675462	2643.850779
947.976893	2634.645632
948.278286	2633.849129
948.579641	2630.620270
948.880958	2628.528192
949.182236	2626.690691
949.483476	2622.725823
949.784678	2623.154322
950.085841	2625.064919
950.386967	2628.727317
950.688054	2631.293264
950.989103	2640.382465
951.290114	2648.390338
951.591087	2659.196051
951.892021	2672.469409
952.192917	2686.647654
952.493776	2695.575538
952.794596	2698.559901
953.095378	2701.161136
953.396122	2697.949921
953.696828	2696.356917
953.997496	2689.339630
954.298126	2680.409226
954.598718	2675.262208
954.899272	2663.544046
955.199788	2652.803868
955.500266	2641.068062
955.800706	2621.092490
956.101108	2607.844337
956.401472	2596.960486
956.701798	2581.965574
957.002087	2568.858574
957.302337	2557.662171
957.602550	2549.792930
957.902724	2539.352701
958.202861	2529.010773
958.502960	2520.269413
958.803022	2513.645337
959.103045	2506.217196
959.403031	2500.177894
959.702979	2494.221771
960.002889	2489.004177
960.302762	2485.021665
960.602596	2480.318268
960.902393	2478.632002
961.202153	2474.573874
961.501875	2471.435755
961.801559	2472.171764
962.101205	2466.122379
962.400814	2467.750672
962.700385	2463.972327
962.999918	2460.151132
963.299414	2461.234981
963.598873	2460.866976
963.898293	2457.378498
964.197677	2456.846656
964.497022	2454.346244
964.796331	2452.407920
965.095601	2453.562344
965.394835	2454.530246
965.694030	2449.912549
965.993189	2453.990842
966.292309	2451.659309
966.591393	2450.588064
966.890439	2449.847014
967.189447	2451.180399
967.488419	2451.959257
967.787353	2452.836418
968.086249	2451.034206
968.385108	2449.196705
968.683930	2454.005966
968.982714	2453.015379
969.281462	2456.491255
969.580172	2457.000411
969.878844	2457.459156
970.177480	2462.074333
970.476078	2462.815382
970.774639	2468.332925
971.073162	2470.616568
971.371649	2469.762092
971.670098	2471.216465
971.968510	2476.025726
972.266885	2469.358800
972.565223	2478.987404
972.863524	2477.603607
973.161788	2480.308186
973.460014	2479.279791
973.758204	2482.611993
974.056356	2482.833804
974.354471	2484.673825
974.652550	2481.170223
974.950591	2484.295739
975.248595	2483.181644
975.546563	2480.913125
975.844493	2479.768783
976.142386	2479.032774
976.440243	2474.987248
976.738062	2472.653194
977.035845	2472.622947
977.333590	2469.051290
977.631299	2467.153295
977.928971	2465.900568
978.226606	2464.277317
978.524204	2461.166925
978.821765	2456.292129
979.119290	2460.035186
979.416777	2456.569393
979.714228	2458.979064
980.011642	2461.973510
980.309020	2465.635908
980.606360	2471.995323
980.903664	2477.187712
981.200931	2492.769918
981.498162	2509.869512
981.795356	2539.143493
982.092513	2578.283011
982.389633	2623.436626
982.686717	2665.868018
982.983764	2695.310877
983.280775	2716.271995
983.577749	2715.515822
983.874686	2706.945860
984.171587	2685.810823
984.468451	2672.852537
984.765279	2656.299908
985.062070	2635.421969
985.358824	2616.323558
985.655543	2595.440578
985.952224	2569.924778
986.248869	2546.528783
986.545478	2518.925945
986.842050	2501.453306
987.138586	2479.259626
987.435086	2470.210755
987.731549	2456.012345
988.027975	2451.503033
988.324366	2444.405088
988.620719	2440.750252
988.917037	2437.387802
989.213318	2437.135745
989.509563	2434.350507
989.805772	2433.039807
990.101944	2432.868408
990.398080	2430.178952
990.694180	2431.522420
990.990244	2431.121648
991.286271	2429.022007
991.582262	2430.055444
991.878217	2431.582914
992.174136	2431.653490
992.470019	2433.029725
992.765865	2436.334201
993.061676	2436.172884
993.357450	2441.917279
993.653188	2444.299224
993.948890	2448.465738
994.244556	2454.502520
994.540186	2463.264045
994.835780	2471.536578
995.131337	2490.272027
995.426859	2504.813235
995.722345	2527.442975
996.017795	2543.027702
996.313208	2559.875238
996.608586	2565.591906
996.903928	2572.780592
997.199234	2570.822103
997.494504	2564.901268
997.789738	2560.918757
998.084936	2547.491643
998.380099	2538.173071
998.675225	2524.282171
998.970316	2515.233300
999.265371	2500.944149
999.560390	2485.361943
999.855373	2475.614872
1000.150320	2465.053655
1000.445232	2451.923969
1000.740108	2446.529935
1001.034948	2448.080090
1001.329752	2438.741352
1001.624521	2432.833120
1001.919254	2428.313725
1002.213951	2426.735844
1002.508613	2426.771132
1002.803239	2426.934970
1003.097829	2417.301325
1003.392384	2424.109403
1003.686903	2421.445153
1003.981386	2419.390883
1004.275834	2421.044382
1004.570246	2415.463824
1004.864623	2412.731519
1005.158964	2415.042888
1005.453270	2417.424833
1005.747540	2414.924421
1006.041775	2414.029616
1006.335974	2411.062897
1006.630138	2411.473751
1006.924266	2412.650860
1007.218359	2414.473238
1007.512416	2413.522980
1007.806438	2414.324523
1008.100425	2411.793864
1008.394376	2410.281518
1008.688292	2414.281674
1008.982172	2414.453073
1009.276017	2409.290931
1009.569827	2409.522824
1009.863602	2411.743453
1010.157341	2410.936868
1010.451045	2409.361507
1010.744714	2410.825963
1011.038347	2411.715726
1011.331945	2409.600962
1011.625508	2410.415109
1011.919036	2408.073493
1012.212528	2406.354459
1012.505986	2407.392937
1012.799408	2408.345715
1013.092795	2408.040725
1013.386147	2408.867474
1013.679464	2409.437125
1013.972745	2409.260684
1014.265992	2406.561147
1014.559204	2406.069634
1014.852380	2405.915879
1015.145521	2405.459654
1015.438628	2407.123235
1015.731699	2410.319327
1016.024736	2406.571229
1016.317737	2407.607186
1016.610703	2408.554923
1016.903635	2406.646846
1017.196531	2407.186250
1017.489393	2412.038360
1017.782219	2405.782288
1018.075011	2412.950809
1018.367768	2409.860582
1018.660490	2411.798905
1018.953177	2411.798905
1019.245829	2411.798905
