Dividing Wavelength (nm)	Counts (n)	Blue Motor Position (mm): 43.600000	Red Motor Position (mm): 0.000000	
326.493990	1973.808336
326.888308	1973.808336
327.282561	1973.808336
327.676750	1951.029882
328.070874	1950.460232
328.464933	1956.469287
328.858929	1966.319702
329.252859	1978.055508
329.646726	1992.511017
330.040528	2009.955929
330.434265	2024.625687
330.827938	2046.252237
331.221547	2067.107491
331.615091	2087.234297
332.008571	2106.922524
332.401986	2127.586213
332.795338	2150.823412
333.188625	2168.301092
333.581847	2189.471418
333.975006	2205.383820
334.368100	2222.715307
334.761129	2240.321537
335.154095	2257.322828
335.546996	2297.392439
335.939833	2380.752959
336.332606	2397.338356
336.725315	2405.318502
337.117960	2417.722261
337.510540	2422.435740
337.903056	2435.688933
338.295508	2441.352670
338.687896	2448.054884
339.080220	2452.460852
339.472480	2461.396298
339.864676	2464.539457
340.256807	2468.025415
340.648875	2466.813017
341.040879	2468.219499
341.432818	2472.277628
341.824694	2476.212249
342.216506	2471.143368
342.608253	2473.830303
342.999937	2470.982052
343.391557	2467.791001
343.783113	2466.555918
344.174605	2469.900724
344.566033	2465.421659
344.957397	2464.350414
345.348697	2459.120217
345.739934	2461.290433
346.131106	2459.359671
346.522215	2455.472942
346.913260	2459.198354
347.304241	2454.396655
347.695159	2452.642334
348.086012	2452.475976
348.476802	2447.691921
348.867528	2448.369956
349.258191	2447.654112
349.648789	2448.009513
350.039324	2442.083637
350.429796	2448.894236
350.820203	2443.235541
351.210548	2444.757969
351.600828	2442.643205
351.991045	2442.570108
352.381198	2442.741508
352.771288	2441.771086
353.161314	2442.842331
353.551276	2441.755962
353.941175	2438.600200
354.331010	2442.023143
354.720782	2443.956426
355.110490	2444.417691
355.500135	2441.813935
355.889717	2441.403081
356.279235	2441.811415
356.668689	2445.304934
357.058080	2442.822166
357.447408	2440.450303
357.836672	2441.302258
358.225873	2444.556323
358.615010	2437.982658
359.004084	2447.162600
359.393095	2446.204780
359.782043	2448.672425
360.170927	2447.364246
360.559748	2449.642847
360.948505	2449.254678
361.337199	2453.892540
361.725830	2453.176696
362.114398	2456.143415
362.502903	2454.915894
362.891344	2457.454115
363.279722	2449.549586
363.668037	2456.135853
364.056289	2454.177365
364.444478	2459.349589
364.832603	2457.663323
365.220665	2457.711214
365.608665	2459.470577
365.996601	2461.943263
366.384474	2460.960238
366.772284	2465.088943
367.160031	2463.130454
367.547715	2459.803293
367.935336	2461.771863
368.322893	2464.521813
368.710388	2464.277317
369.097820	2470.230920
369.485189	2467.349900
369.872495	2470.029273
370.259738	2468.884932
370.646918	2472.784264
371.034035	2470.624130
371.421090	2471.745786
371.808081	2469.605817
372.195010	2473.416929
372.581875	2473.300982
372.968678	2476.406333
373.355418	2474.510859
373.742096	2479.587301
374.128710	2476.381127
374.515262	2478.936992
374.901751	2475.587146
375.288177	2483.819350
375.674540	2480.088896
376.060841	2483.703403
376.447079	2485.656850
376.833254	2484.598208
377.219367	2482.120481
377.605417	2484.371356
377.991404	2481.623927
378.377329	2490.178765
378.763191	2485.314052
379.148991	2491.454177
379.534727	2491.368478
379.920402	2493.337048
380.306013	2495.282934
380.691563	2496.444920
381.077049	2500.601351
381.462474	2499.278048
381.847835	2507.202742
382.233134	2508.387413
382.618371	2511.517970
383.003545	2517.486696
383.388657	2527.753006
383.773706	2530.949097
384.158693	2537.976466
384.543618	2550.546583
384.928480	2559.739127
385.313280	2575.613720
385.698017	2594.752461
386.082692	2616.202570
386.467305	2633.231588
386.851856	2662.432472
387.236344	2692.868438
387.620770	2719.379866
388.005133	2756.432347
388.389435	2797.585806
388.773674	2834.174501
389.157851	2887.507388
389.541965	2939.264915
389.926018	2979.122798
390.310008	3051.556617
390.693936	3113.383848
391.077802	3181.638550
391.461606	3254.861310
391.845348	3327.400993
392.229027	3409.274373
392.612645	3523.582536
392.996200	3609.473716
393.379694	3724.258268
393.763125	3851.466744
394.146494	3949.078606
394.529801	4066.267789
394.913047	4220.224628
395.296230	4298.599446
395.679351	4393.945310
396.062410	4576.087239
396.445408	4615.148620
396.828343	4759.592801
397.211217	4904.646962
397.594028	4939.856901
397.976778	5114.938694
398.359466	5286.249705
398.742092	5365.950347
399.124656	5531.292632
399.507158	5720.330860
399.889598	5829.827242
400.271977	6041.928749
400.654294	6160.010216
401.036549	6371.658019
401.418742	6485.600699
401.800874	6769.379852
402.182944	6927.460354
402.564952	7266.205728
402.946898	7250.129488
403.328783	7384.637555
403.710606	7624.727548
404.092367	7901.915392
404.474067	8267.938450
404.855705	8214.545069
405.237282	8272.934233
405.618797	8691.355044
406.000250	8982.537131
406.381642	9357.551086
406.762972	9416.882946
407.144240	9341.399229
407.525447	9639.911154
407.906593	9673.124796
408.287677	9970.938522
408.668700	10178.545840
409.049661	10234.565662
409.430560	10450.813518
409.811399	10496.085600
410.192176	10712.779598
410.572891	10834.336941
410.953545	11342.830568
411.334138	10917.803325
411.714669	11527.157837
412.095139	10953.247678
412.475547	11463.271295
412.855894	11363.895029
413.236180	11713.325128
413.616405	11462.096706
413.996568	11756.187539
414.376670	11778.174531
414.756711	11683.652897
415.136691	11976.238945
415.516609	12172.755725
415.896466	12270.728030
416.276262	12574.018968
416.655997	13030.964277
417.035670	13095.009616
417.415283	13737.388727
417.794834	13845.284542
418.174324	13613.961116
418.553753	13536.370197
418.933121	14026.151060
419.312428	13857.942880
419.691674	13777.312145
420.070859	14234.479263
420.449983	13894.914702
420.829045	14442.099185
421.208047	14204.993555
421.586988	14657.061546
421.965867	14909.126800
422.344686	14912.554785
422.723444	15477.915148
423.102141	14195.967369
423.480777	15362.397107
423.859352	14874.907448
424.237866	15968.457226
424.616319	15674.570559
424.994712	16326.328737
425.373044	16128.292049
425.751314	16786.954087
426.129524	15932.090342
426.507673	17000.883013
426.885762	16711.321656
427.263789	16898.356026
427.641756	17067.194350
428.019662	17128.772045
428.397508	17167.616656
428.775292	17469.019682
429.153016	17428.725740
429.530679	17520.802415
429.908282	17530.289866
430.285824	17261.792971
430.663305	17956.675700
431.040726	17569.568016
431.418086	17394.705513
431.795385	18030.331998
432.172624	18444.583775
432.549802	18010.464811
432.926920	18202.875571
433.303977	18076.274554
433.680974	18328.859047
434.057910	18629.611765
434.434786	18655.243512
434.811601	18569.889215
435.188355	19590.735472
435.565050	19246.134798
435.941683	19188.002732
436.318257	20064.712318
436.694770	19876.193329
437.071222	20468.647373
437.447614	19555.941428
437.823946	19577.857844
438.200218	19726.866790
438.576429	19501.673407
438.952580	19796.832965
439.328670	19734.778881
439.704700	20150.018724
440.080670	19730.304857
440.456580	20310.453445
440.832429	20482.074486
441.208218	19485.370315
441.583947	19929.528737
441.959616	20034.881290
442.335224	20267.719584
442.710773	20384.195443
443.086261	20927.263824
443.461689	20288.116092
443.837057	20430.322001
444.212365	21049.042977
444.587612	21047.570960
444.962800	20647.421812
445.337927	21053.885005
445.712995	19796.013777
446.088002	21622.315431
446.462949	21822.998724
446.837837	21983.146100
447.212664	21951.994289
447.587431	24735.603497
447.962139	27625.384445
448.336786	29996.251702
448.711374	28472.129413
449.085901	24822.238246
449.460369	24761.164667
449.834776	24665.992724
450.209124	27125.317107
450.583412	26673.609558
450.957640	27201.703191
451.331808	25874.601797
451.705917	24526.448544
452.079965	24542.842377
452.453954	24908.225207
452.827883	24788.477639
453.201752	24604.553661
453.575562	24750.691670
453.949311	25861.477153
454.323001	25920.685505
454.696632	25680.681211
455.070202	27204.559004
455.443713	27356.822015
455.817164	27936.438761
456.190556	28472.731831
456.563888	27916.143076
456.937160	28350.277163
457.310373	26704.683230
457.683526	27133.234239
458.056619	27103.194003
458.429653	27060.210605
458.802628	27619.839176
459.175542	27735.561383
459.548398	29022.215079
459.921194	30577.892471
460.293930	31265.417635
460.666607	33276.825417
461.039224	35024.348960
461.411782	35419.139361
461.784280	34219.606886
462.156719	33715.917479
462.529099	33155.746984
462.901419	31859.152132
463.273680	30814.110858
463.645882	30901.761400
464.018024	30875.118902
464.390106	31717.029403
464.762130	34380.301227
465.134094	38424.758463
465.505999	43693.792628
465.877845	48266.081358
466.249631	49418.554662
466.621358	47666.267229
466.993026	45552.897070
467.364634	43442.223928
467.736184	41500.121929
468.107674	40268.656265
468.479105	39496.104479
468.850477	38791.101634
469.221790	37375.429687
469.593043	35653.729456
469.964238	34794.038805
470.335373	34696.789906
470.706449	36369.197736
471.077467	38902.387626
471.448425	43462.607833
471.819324	46322.063721
472.190164	44521.802147
472.560945	40965.734416
472.931667	37876.369145
473.302330	36771.136494
473.672934	35958.585673
474.043479	36460.677034
474.413965	35691.855702
474.784393	35317.320657
475.154761	36187.086053
475.525070	36233.855358
475.895321	35762.315909
476.265513	36363.584411
476.635645	37315.674370
477.005719	37148.182034
477.375734	37602.079964
477.745691	38297.678537
478.115588	39609.522879
478.485427	41574.610018
478.855207	44900.244087
479.224928	47527.333029
479.594591	49171.689358
479.964194	48141.340527
480.333739	48271.775341
480.703226	48295.751069
481.072653	48918.068908
481.442022	49418.151370
481.811333	49700.294668
482.180584	48400.349970
482.549777	47890.699398
482.918912	47355.530506
483.287988	47059.813901
483.657005	46241.627070
484.025964	45592.218070
484.394864	45597.395335
484.763706	45177.885635
485.132489	44311.306248
485.501213	44152.023430
485.869879	44314.028471
486.238487	43894.125561
486.607036	44099.262714
486.975527	43569.502980
487.343959	43771.121408
487.712333	43838.030122
488.080648	43756.053399
488.448905	44196.234350
488.817104	44011.463458
489.185244	44967.387215
489.553326	46624.006151
489.921350	49338.042394
490.289315	52257.903907
490.657222	52884.857088
491.025070	53179.386501
491.392861	52262.153600
491.760593	51003.853874
492.128267	49296.513369
492.495883	47767.604504
492.863440	46386.618216
493.230939	45049.101798
493.598380	43968.724556
493.965763	43641.914114
494.333088	42831.588962
494.700354	42358.204452
495.067563	42062.921386
495.434713	41948.041051
495.801805	42018.355065
496.168839	41645.891934
496.535815	41303.965592
496.902733	41340.599657
497.269593	40931.199991
497.636395	40867.240352
498.003139	41255.346183
498.369825	40734.312687
498.736453	41024.229444
499.103023	40569.532491
499.469535	40444.461464
499.835989	40537.402697
500.202385	40213.395136
500.568723	40223.616076
500.935003	40404.462429
501.301226	40213.866484
501.667390	40825.459269
502.033497	41083.152971
502.399546	40501.149239
502.765537	39836.112662
503.131470	40203.396008
503.497345	40570.510475
503.863163	39236.167463
504.228923	39829.990180
504.594625	40234.878013
504.960269	39532.050426
505.325856	40221.992824
505.691385	39580.453065
506.056856	39729.502340
506.422270	40148.616309
506.787625	39721.713757
507.152924	39917.181977
507.518164	40021.090240
507.883347	39251.394268
508.248472	39492.550465
508.613540	39951.988624
508.978550	40248.884859
509.343503	39996.305407
509.708398	40199.663033
510.073236	40734.141287
510.438016	40722.382796
510.802738	40171.982057
511.167403	40791.186984
511.532010	41012.060099
511.896561	41310.423310
512.261053	42148.862976
512.625488	41711.583209
512.989866	41572.472569
513.354186	41416.705956
513.718449	41403.961919
514.082655	42080.421751
514.446803	41750.510999
514.810894	42263.307251
515.174927	42204.950854
515.538904	42121.486990
515.902822	42759.581121
516.266684	42205.155021
516.630488	42617.992753
516.994235	42483.651044
517.357925	43058.216554
517.721558	43227.538829
518.085133	43528.750292
518.448651	43680.993138
518.812112	43451.378663
519.175516	43547.291656
519.538863	43892.850149
519.902152	43865.643042
520.265385	44319.387218
520.628560	44375.076844
520.991678	44147.062935
521.354739	44395.571655
521.717743	44717.766921
522.080690	44601.868273
522.443580	45151.175082
522.806413	45205.523761
523.169189	45140.520603
523.531908	45339.126941
523.894569	45181.651377
524.257174	45361.640734
524.619722	45670.108938
524.982213	45651.754097
525.344647	45559.833697
525.707025	45632.000335
526.069345	46015.332194
526.431608	45952.015302
526.793815	46274.276103
527.155964	45804.201110
527.518057	45980.578480
527.880093	45767.100738
528.242072	46277.804911
528.603995	45990.728843
528.965860	45985.065107
529.327669	46077.963490
529.689421	45982.297513
530.051117	45957.253061
530.412755	46095.030316
530.774337	46163.710996
531.135862	45976.890876
531.497331	46186.590273
531.858743	46075.906699
532.220098	46430.700586
532.581396	46125.796478
532.942638	45803.530636
533.303824	46093.432270
533.664953	46063.455049
534.026025	45780.109435
534.387040	46257.768845
534.747999	46214.881228
535.108902	46373.344858
535.469748	45899.922539
535.830537	46008.196441
536.191270	46203.306739
536.551947	45854.791609
536.912567	46170.798858
537.273131	46277.857843
537.633638	45762.639317
537.994089	46121.939995
538.354483	45733.819040
538.714821	46278.626619
539.075103	46631.230124
539.435328	46385.110911
539.795497	46278.097297
540.155609	46259.997035
540.515665	46735.894561
540.875665	46194.267950
541.235609	46520.906993
541.595496	46475.428224
541.955328	47151.575504
542.315102	46545.401960
542.674821	46307.464539
543.034483	46330.701738
543.394090	46323.969277
543.753640	46286.475695
544.113134	47276.812889
544.472571	46307.547718
544.831953	47547.477480
545.191278	46755.953312
545.550548	46480.844943
545.909761	46934.947041
546.268918	47142.312384
546.628019	47446.422510
546.987064	47002.853904
547.346053	46301.566389
547.704986	47158.905342
548.063863	46712.801035
548.422684	46910.426868
548.781449	46758.748632
549.140158	47148.651635
549.498811	47011.194493
549.857408	46464.191492
550.215949	47296.680076
550.574434	47237.696056
550.932864	46994.525918
551.291237	47714.082573
551.649555	47301.622928
552.007817	47544.505720
552.366022	47205.790593
552.724173	47377.794762
553.082267	47780.890465
553.440305	48081.529757
553.798288	47407.187210
554.156215	47719.587513
554.514086	47907.108354
554.871902	47668.956685
555.229661	47676.654527
555.587365	47502.157507
555.945014	47602.516798
556.302606	47509.013476
556.660143	47747.434847
557.017625	47828.715891
557.375050	47636.862179
557.732421	47968.723857
558.089735	47954.127196
558.446994	47874.630721
558.804197	48359.960245
559.161345	48297.873395
559.518437	47542.859783
559.875474	47853.092391
560.232455	47999.374072
560.589381	48178.715641
560.946251	47880.143222
561.303065	48561.263601
561.659825	48370.297131
562.016528	48050.269562
562.373177	47770.198177
562.729770	48243.365919
563.086307	47762.954039
563.442789	48218.848267
563.799216	48257.808824
564.155587	48046.791166
564.511904	48083.457998
564.868164	48172.346143
565.224370	48415.176003
565.580520	48147.543666
565.936615	48361.591059
566.292654	48078.580682
566.648638	48315.822423
567.004567	48264.697561
567.360441	48307.595260
567.716260	48160.189401
568.072023	48459.011357
568.427732	48434.730639
568.783385	47998.418774
569.138982	48379.668636
569.494525	48356.141571
569.850013	48111.746433
570.205445	48073.836956
570.560823	48043.053150
570.916145	47919.161753
571.271412	47939.303683
571.626625	47687.566104
571.981782	47764.998227
572.336884	47433.164275
572.691931	47762.618803
573.046923	47358.426649
573.401860	47209.803351
573.756743	47184.453909
574.111570	47314.205647
574.466342	47161.884663
574.821059	47278.010163
575.175722	46807.557083
575.530330	46810.846436
575.884882	46539.924746
576.239380	46504.389653
576.593823	46482.987434
576.948211	46412.930519
577.302544	45926.391117
577.656823	45942.628674
578.011047	46161.820563
578.365216	45897.459935
578.719330	45692.461414
579.073389	45544.828703
579.427394	45629.167207
579.781344	45591.207318
580.135239	45240.456437
580.489080	45330.277195
580.842866	44819.600749
581.196597	45267.552639
581.550273	45227.856073
581.903895	45063.529581
582.257463	45488.108161
582.610975	44899.860959
582.964434	45157.247151
583.317837	44808.883256
583.671186	44645.507022
584.024481	44861.497779
584.377721	44404.582717
584.730906	44691.676429
585.084037	44712.014964
585.437113	44424.157518
585.790135	44465.971368
586.143103	44064.851798
586.496016	44192.599678
586.848874	44219.232093
587.201679	44237.039969
587.554428	43698.009553
587.907124	43900.749638
588.259765	43653.554138
588.612352	43897.966921
588.964884	43281.965647
589.317362	43577.387345
589.669786	43502.977393
590.022155	43285.081080
590.374470	43717.836411
590.726731	43229.131834
591.078937	42746.388421
591.431090	42832.750948
591.783188	42496.518590
592.135232	42187.420242
592.487222	42415.681167
592.839157	42517.588092
593.191038	42184.486290
593.542866	41969.125677
593.894639	41346.515451
594.246358	41631.696044
594.598022	41599.777979
594.949633	41214.308671
595.301190	41166.468121
595.652692	40990.753662
596.004141	41338.331137
596.355535	40365.895081
596.706876	40311.402729
597.058162	40134.052416
597.409395	40603.726637
597.760573	40684.490963
598.111698	40255.582032
598.462768	40274.408221
598.813785	40325.409575
599.164748	39770.181931
599.515657	40137.644238
599.866511	39635.431889
600.217312	40240.904713
600.568060	39202.394253
600.918753	39957.359973
601.269392	39909.680740
601.619978	39560.346423
601.970510	39773.309967
602.320988	39949.437800
602.671412	40258.011868
603.021783	40007.897541
603.372100	39653.028036
603.722363	39766.149008
604.072572	39835.144760
604.422728	39847.009116
604.772830	39655.619189
605.122878	39756.177606
605.472872	39684.268067
605.822813	39974.920833
606.172701	39792.509202
606.522534	40039.555987
606.872314	40292.851283
607.222041	40044.377851
607.571714	40449.860540
607.921333	39895.313452
608.270899	40180.945229
608.620411	40523.521880
608.969870	40319.990334
609.319276	40315.458337
609.668627	40372.975382
610.017926	40852.827693
610.367171	41004.599191
610.716362	41086.076840
611.065500	41027.309589
611.414585	41224.259908
611.763616	41502.944975
612.112594	41442.007508
612.461518	41651.240598
612.810389	41950.896865
613.159207	41814.442912
613.507971	41897.664801
613.856682	42370.212480
614.205340	42240.067532
614.553945	42942.428812
614.902496	42400.184660
615.250994	42850.210985
615.599439	42940.858493
615.947830	43134.499294
616.296169	43190.151112
616.644454	43298.525837
616.992686	43481.711286
617.340864	43993.209440
617.688990	43707.370976
618.037063	44312.397658
618.385082	44273.444662
618.733048	44596.953148
619.080961	44599.423314
619.428821	44605.999499
619.776628	44715.884050
620.124382	44542.249067
620.472083	44682.115881
620.819731	44805.059541
621.167326	44462.394670
621.514868	44434.133961
621.862357	43996.276982
622.209793	44016.683573
622.557176	43709.795771
622.904506	43461.171104
623.251783	43121.488076
623.599007	42892.012232
623.946179	42678.005169
624.293297	42617.292033
624.640363	42017.213244
624.987376	41998.893691
625.334336	41771.421706
625.681243	41413.552715
626.028097	41383.807386
626.374899	41213.817158
626.721647	41211.480583
627.068343	41080.786149
627.414987	40862.610052
627.761577	40627.231017
628.108115	40969.139715
628.454600	40418.824676
628.801032	40608.155291
629.147412	40557.506818
629.493739	40570.828067
629.840014	40195.572137
630.186236	40549.246888
630.532405	40150.111011
630.878521	40367.616635
631.224585	40254.825859
631.570597	39956.041712
631.916556	40119.286876
632.262462	40065.036499
632.608316	40090.877454
632.954117	39975.740020
633.299866	39971.371861
633.645562	39901.035162
633.991206	39392.591946
634.336797	38956.280081
634.682336	38959.924835
635.027823	38705.238181
635.373257	38538.411277
635.718639	38289.398442
636.063968	38157.574789
636.409245	37569.577125
636.754470	37626.711042
637.099642	37363.855198
637.444762	36900.273211
637.789829	37051.217960
638.134845	36683.485952
638.479808	36648.951527
638.824719	36553.207413
639.169577	36158.704357
639.514383	36208.755453
639.859137	35919.189055
640.203839	36165.973701
640.548489	35784.630577
640.893086	35853.613726
641.237632	35599.486640
641.582125	35710.018979
641.926566	35651.604609
642.270955	35627.903624
642.615292	35627.580991
642.959576	35599.789109
643.303809	35592.958346
643.647990	35747.913333
643.992118	35717.971400
644.336195	35707.906736
644.680219	35796.804963
645.024192	36108.096213
645.368112	36602.603159
645.711981	36623.276931
646.055797	37502.887701
646.399562	37417.908970
646.743274	38362.895944
647.086935	38809.340529
647.430544	38700.814569
647.774101	38814.469903
648.117606	39073.068492
648.461059	39355.763797
648.804460	38995.984209
649.147810	38367.589258
649.491108	38118.089952
649.834354	37760.541074
650.177548	36931.896369
650.520690	36470.315720
650.863781	36480.909705
651.206820	36341.632707
651.549807	35892.135703
651.892742	35408.505047
652.235626	35216.454730
652.578458	35090.710709
652.921238	34474.049044
653.263967	34794.926048
653.606644	34475.478211
653.949269	34435.295174
654.291843	34041.886048
654.634365	34441.457984
654.976836	34039.370512
655.319255	34038.266500
655.661622	34019.929303
656.003938	33802.915191
656.346203	33666.874614
656.688416	33881.186667
657.030577	33672.205634
657.372687	33528.510064
657.714746	33791.285249
658.056753	33917.233437
658.398708	33359.780124
658.740612	33413.695265
659.082465	33696.519119
659.424266	33510.923999
659.766016	33628.087976
660.107715	33513.225286
660.449362	33626.555465
660.790958	33605.332208
661.132503	33644.459123
661.473996	33686.272974
661.815438	33782.337201
662.156829	33971.451047
662.498168	33741.181221
662.839456	33773.739513
663.180693	33928.626445
663.521879	34087.203501
663.863013	34026.533214
664.204097	34031.962537
664.545129	34497.248434
664.886110	34469.181810
665.227040	34512.543295
665.567918	34658.383876
665.908746	34701.082449
666.249522	34869.431781
666.590248	34876.212133
666.930922	34967.666226
667.271545	34952.878001
667.612118	35028.671749
667.952639	34806.180424
668.293109	34865.204774
668.633528	34766.360350
668.973896	34696.477355
669.314213	34726.255450
669.654480	34455.482474
669.994695	34480.993233
670.334859	34381.443048
670.674973	34262.554996
671.015035	34441.029486
671.355047	34381.677462
671.695008	34322.517001
672.034918	34224.411106
672.374777	34295.171262
672.714585	34123.552741
673.054342	34366.569123
673.394049	34124.807988
673.733705	34412.856998
674.073310	34071.480142
674.412864	34139.286182
674.752368	33733.425406
675.091820	34051.502049
675.431223	33619.124804
675.770574	33343.096426
676.109875	33211.867629
676.449125	32936.209775
676.788324	32860.111037
677.127473	32309.390185
677.466571	32226.034707
677.805619	31883.878992
678.144616	31867.817876
678.483562	31789.206123
678.822458	31464.253346
679.161303	31393.561246
679.500098	31321.253455
679.838842	31196.419363
680.177535	31337.637205
680.516179	31622.747223
680.854771	31853.889168
681.193314	32707.548078
681.531805	33843.635112
681.870247	34631.138960
682.208638	35368.074993
682.546978	35600.699038
682.885268	35698.199994
683.223508	35171.049057
683.561697	34838.068243
683.899836	34648.031866
684.237925	34117.120228
684.575963	33966.382167
684.913951	33514.631768
685.251889	33660.910929
685.589776	33643.902076
685.927614	33627.326762
686.265401	33774.213382
686.603137	33865.251579
686.940824	34365.981829
687.278460	34743.382771
687.616046	34889.253598
687.953582	35499.001321
688.291068	35363.787492
688.628504	35652.595196
688.965889	35581.681285
689.303224	35206.967278
689.640510	34858.265626
689.977745	34128.031806
690.314930	33327.436081
690.652065	32794.255924
690.989150	32063.028997
691.326185	31162.346204
691.663170	30463.037342
692.000105	29694.856237
692.336990	29002.138684
692.673825	28546.642708
693.010610	28019.879939
693.347345	27438.027442
693.684030	26771.281914
694.020665	26492.914439
694.357251	25814.544010
694.693786	25769.796208
695.030272	25514.275243
695.366707	24970.957326
695.703093	24679.800444
696.039429	24661.974924
696.375716	24400.913731
696.711952	24377.371543
697.048139	24214.849784
697.384276	24021.544219
697.720363	24142.436129
698.056400	23941.800727
698.392388	23726.805598
698.728326	23696.735115
699.064214	23487.847344
699.400053	23429.276698
699.735842	23075.692688
700.071581	22788.530920
700.407270	22482.938695
700.742910	22290.674128
701.078501	22019.530628
701.414042	21735.731310
701.749533	21441.872370
702.084974	21081.404664
702.420366	21292.785286
702.755709	20853.136177
703.091002	20544.620082
703.426246	20564.688916
703.761440	20456.886361
704.096584	20186.942655
704.431679	20146.331120
704.766725	20049.578774
705.101721	19980.535131
705.436668	20072.367310
705.771565	19751.616335
706.106413	20106.488360
706.441212	20081.348126
706.775961	20205.282373
707.110661	20276.783578
707.445311	20629.382043
707.779913	20466.900613
708.114465	20709.740556
708.448967	20997.562714
708.783421	21702.905837
709.117825	21960.896967
709.452180	22187.602697
709.786485	22585.145568
710.120742	23398.066914
710.454949	23389.035687
710.789107	23868.746846
711.123216	24582.758233
711.457275	24708.129208
711.791286	25264.486070
712.125247	25326.789691
712.459159	25025.535378
712.793023	25679.819174
713.126837	24590.062865
713.460602	24854.526837
713.794318	24474.199505
714.127985	24098.719243
714.461602	23188.642260
714.795171	23145.363954
715.128691	22128.006176
715.462162	21585.784709
715.795584	21159.971047
716.128957	20880.413860
716.462281	20477.426543
716.795556	20235.922506
717.128782	19735.887935
717.461960	19185.202371
717.795088	19113.413820
718.128167	18705.476089
718.461198	18243.880317
718.794180	18103.474100
719.127113	17722.877067
719.459997	17526.425822
719.792833	17169.257551
720.125619	17141.266544
720.458357	16818.088254
720.791046	16645.605175
721.123686	16475.637632
721.456278	16239.686426
721.788821	16200.993050
722.121315	15920.944351
722.453761	16007.684964
722.786158	15928.274188
723.118506	15926.804692
723.450805	15791.563137
723.783056	15951.375276
724.115259	15845.485839
724.447412	15780.855726
724.779518	16016.280132
725.111574	16038.672937
725.443582	16244.236067
725.775542	16219.698251
726.107453	16702.204730
726.439315	16573.607416
726.771129	16986.664438
727.102895	17347.699274
727.434612	17562.031491
727.766281	17684.332404
728.097901	17947.936859
728.429473	18003.361825
728.760996	17986.620153
729.092471	18069.912618
729.423897	17932.493285
729.755276	17810.560376
730.086606	17924.480371
730.417887	18443.336089
730.749120	18963.159709
731.080305	19134.095154
731.411442	19480.994594
731.742530	19542.960457
732.073570	19655.090842
732.404562	19952.831470
732.735506	19769.290621
733.066401	19489.420883
733.397249	18973.209249
733.728048	18323.422163
734.058798	17476.536043
734.389501	16784.299920
734.720156	16328.776217
735.050762	15782.448731
735.381320	15425.449339
735.711831	15180.091340
736.042293	14819.747143
736.372707	14823.447350
736.703073	14614.022695
737.033391	14805.180729
737.363661	14752.508233
737.693883	14859.645355
738.024056	15039.854002
738.354182	15209.453541
738.684260	15501.858108
739.014290	15718.995728
739.344272	15895.123561
739.674207	16193.229673
740.004093	16305.266796
740.333931	16303.809903
740.663722	16341.081674
740.993464	16329.910477
741.323159	16162.188768
741.652806	15893.049126
741.982405	15679.594069
742.311956	15342.572770
742.641460	15227.528598
742.970915	14916.721299
743.300323	14575.425101
743.629683	14362.280075
743.958996	14083.635337
744.288260	13819.443588
744.617477	13511.224921
744.946647	13435.978138
745.275768	13162.359431
745.604842	12970.969505
745.933869	12799.373669
746.262847	12751.782656
746.591778	12675.227694
746.920662	12571.294225
747.249498	12563.367010
747.578286	12683.991740
747.907027	12841.048888
748.235720	13052.825240
748.564365	13071.142273
748.892963	12974.699958
749.221514	13034.394782
749.550017	12889.791804
749.878473	12852.888038
750.206881	12625.211886
750.535242	12533.503215
750.863555	12436.556785
751.191821	12340.774862
751.520039	12365.370652
751.848210	12265.155034
752.176334	12303.515694
752.504411	12205.172865
752.832440	12041.058102
753.160421	12102.577823
753.488356	11978.552835
753.816243	11887.476829
754.144082	11740.597771
754.471875	11684.575428
754.799620	11625.961932
755.127318	11604.163983
755.454969	11556.217569
755.782572	11511.515137
756.110129	11533.373580
756.437638	11440.999477
756.765100	11431.265009
757.092515	11427.894997
757.419882	11453.882146
757.747203	11448.863677
758.074477	11518.988648
758.401703	11481.278296
758.728882	11638.511885
759.056014	11683.506703
759.383099	11799.430557
759.710138	11893.458158
760.037129	11981.242291
760.364073	12001.764828
760.690970	11982.278248
761.017820	11985.875111
761.344623	12175.243535
761.671379	12506.248217
761.998088	13145.519457
762.324751	14708.942581
762.651366	17591.726408
762.977935	21270.339549
763.304456	23515.992106
763.630931	24020.026832
763.957359	22846.015198
764.283740	20932.183990
764.610074	19042.900681
764.936362	16890.259933
765.262602	15360.753691
765.588796	13872.562226
765.914943	12825.355776
766.241044	11959.114146
766.567097	11318.570015
766.893104	10751.611606
767.219064	10392.167255
767.544978	9999.519343
767.870845	9685.972177
768.196665	9494.247014
768.522438	9292.784862
768.848165	9124.647258
769.173846	8960.698852
769.499479	8831.935180
769.825066	8674.588166
770.150607	8488.539342
770.476101	8430.364427
770.801548	8311.191550
771.126949	8173.986466
771.452303	8086.363650
771.777611	7918.624297
772.102872	7893.973055
772.428087	7776.708254
772.753256	7648.211763
773.078378	7562.663383
773.403453	7420.855725
773.728482	7313.527039
774.053465	7247.868531
774.378401	7160.465005
774.703291	7060.970272
775.028135	6966.632640
775.352932	6927.604027
775.677683	6847.333734
776.002388	6755.617502
776.327046	6751.488797
776.651658	6666.479819
776.976224	6590.986020
777.300743	6572.671508
777.625216	6503.373287
777.949643	6464.049766
778.274024	6465.133614
778.598359	6398.315641
778.922647	6395.447224
779.246889	6359.322316
779.571086	6361.888263
779.895236	6369.306321
780.219339	6363.675352
780.543397	6362.951946
780.867409	6413.832312
781.191374	6409.443988
781.515294	6384.591099
781.839167	6433.838131
782.162995	6405.950468
782.486776	6355.866605
782.810511	6314.128371
783.134201	6234.856227
783.457844	6229.336164
783.781441	6174.866496
784.104993	6135.333768
784.428498	6105.333861
784.751958	6087.157981
785.075372	6063.998920
785.398739	6021.754051
785.722061	6044.096445
786.045337	6043.630138
786.368568	6158.956615
786.691752	6174.127967
787.014891	6425.517707
787.337983	6703.512136
787.661030	7149.566031
787.984031	7569.229486
788.306987	7842.936413
788.629897	7931.411184
788.952760	7847.344902
789.275579	7673.301586
789.598351	7375.959209
789.921078	7107.404341
790.243759	6823.063099
790.566395	6615.972499
790.888984	6426.029384
791.211529	6280.496313
791.534027	6115.610253
791.856480	5974.556248
792.178888	5913.764974
792.501249	5839.533984
792.823566	5736.908694
793.145836	5734.365432
793.468062	5712.547318
793.790241	5673.617008
794.112375	5717.263318
794.434464	5811.971475
794.756507	5839.319735
795.078505	5963.075020
795.400457	6174.528739
795.722364	6416.489000
796.044226	6617.477283
796.366042	6771.872702
796.687812	6724.125414
797.009538	6750.442757
797.331218	6659.926319
797.652852	6592.944508
797.974442	6471.367001
798.295986	6404.032309
798.617484	6270.305621
798.938938	6160.947871
799.260346	6089.550009
799.581709	5953.257373
799.903026	5897.870216
800.224299	5829.766748
800.545526	5709.827616
800.866708	5643.213809
801.187845	5593.853351
801.508936	5514.445096
801.829983	5485.803780
802.150984	5377.343355
802.471940	5353.415518
802.792851	5335.529504
803.113717	5310.689219
803.434538	5282.698212
803.755314	5250.759982
804.076045	5244.347634
804.396731	5202.014545
804.717372	5218.315116
805.037967	5218.196649
805.358518	5244.534157
805.679024	5306.908353
805.999485	5316.421011
806.319901	5330.102702
806.640272	5347.126679
806.960598	5392.381117
807.280879	5391.476230
807.601115	5427.031488
807.921306	5387.609665
808.241453	5382.689499
808.561554	5392.741559
808.881611	5360.369790
809.201623	5361.763669
809.521590	5309.423889
809.841513	5294.751611
810.161390	5310.381708
810.481223	5223.608327
810.801011	5212.086770
811.120755	5185.572822
811.440453	5129.142145
811.760107	5104.132981
812.079716	5076.368826
812.399281	5024.576012
812.718801	5022.632647
813.038276	4983.702336
813.357707	4950.347542
813.677093	4969.806396
813.996434	4909.191562
814.315731	4929.716620
814.634983	4929.893060
814.954191	4934.903967
815.273354	4996.806816
815.592473	5037.478845
815.911547	5111.046924
816.230577	5168.291746
816.549562	5250.313840
816.868502	5309.103776
817.187399	5365.418506
817.506250	5444.224343
817.825058	5476.477645
818.143821	5633.393641
818.462539	5804.213139
818.781213	6037.913470
819.099843	6402.530045
819.418429	7034.766355
819.736970	7662.856315
820.055466	8381.039257
820.373919	9313.998038
820.692327	10789.374890
821.010691	13536.518911
821.329011	19829.078705
821.647286	29492.663118
821.965517	39892.503009
822.283704	45412.541264
822.601847	46948.716952
822.919945	42368.034702
823.237999	37268.801722
823.556010	32035.390871
823.873976	27279.165561
824.191897	23005.056040
824.509775	19880.811026
824.827609	17068.195019
825.145398	15476.062524
825.463144	14706.089288
825.780845	14997.727600
826.098502	16250.978611
826.416116	18729.058607
826.733685	21012.691217
827.051210	21525.769773
827.368692	20094.941597
827.686129	17507.322369
828.003522	15010.169168
828.320872	12777.933642
828.638177	11098.435429
828.955439	9829.438374
829.272656	8756.106144
829.589830	7897.345587
829.906960	7150.707852
830.224046	6612.761284
830.541088	6195.079003
830.858086	5927.852478
831.175041	5723.269852
831.491952	5660.615872
831.808819	5695.155337
832.125642	5944.901661
832.442421	6499.577298
832.759157	7623.525233
833.075849	9405.537830
833.392497	11262.575398
833.709101	12396.595559
834.025662	12144.739513
834.342179	11090.576270
834.658653	9771.271021
834.975083	8658.771546
835.291469	7743.116526
835.607811	6989.874880
835.924110	6462.852492
836.240366	5962.575946
836.556578	5505.779352
836.872746	5146.682840
837.188871	4873.462384
837.504952	4639.903206
837.820990	4474.621415
838.136984	4354.604145
838.452935	4306.511537
838.768842	4334.905836
839.084706	4621.087099
839.400526	5372.460997
839.716303	6284.814062
840.032037	6854.224992
840.347727	6709.604370
840.663373	6108.008193
840.978977	5524.565212
841.294537	5075.116100
841.610054	4738.868617
841.925527	4494.148325
842.240957	4278.626395
842.556344	4095.367850
842.871687	3934.350875
843.186987	3780.603245
843.502244	3659.232425
843.817458	3569.041141
844.132629	3498.230574
844.447756	3447.481278
844.762840	3402.017632
845.077881	3364.045141
845.392879	3331.300326
845.707833	3303.518527
846.022745	3272.875873
846.337613	3264.315994
846.652438	3241.300606
846.967221	3232.778536
847.281960	3208.737273
847.596656	3199.269986
847.911309	3188.731454
848.225919	3171.536078
848.540485	3162.338493
848.855009	3157.375477
849.169490	3144.855771
849.483928	3138.120790
849.798323	3130.705252
850.112675	3121.918521
850.426984	3123.877010
850.741251	3113.651029
851.055474	3106.986624
851.369654	3111.059876
851.683792	3110.896038
851.997887	3113.991307
852.311938	3111.221193
852.625947	3110.487705
852.939914	3103.687188
853.253837	3115.198663
853.567718	3109.660956
853.881555	3102.971345
854.195350	3108.698095
854.509103	3104.148454
854.822812	3099.762650
855.136479	3097.539501
855.450103	3101.751385
855.763685	3095.631425
856.077224	3097.463884
856.390720	3106.636263
856.704173	3117.391565
857.017584	3122.268882
857.330953	3129.147536
857.644278	3136.444606
857.957561	3136.207672
858.270802	3134.551653
858.584000	3133.286323
858.897155	3125.275930
859.210268	3118.367028
859.523339	3107.694906
859.836367	3104.680296
860.149352	3099.145109
860.462295	3096.543873
860.775195	3087.842842
861.088054	3079.391347
861.400869	3081.468303
861.713642	3080.213056
862.026373	3090.683532
862.339062	3090.083635
862.651708	3100.589399
862.964312	3118.780403
863.276873	3125.112092
863.589392	3155.961433
863.901869	3184.988397
864.214303	3202.818958
864.526696	3220.629355
864.839045	3240.811614
865.151353	3253.515322
865.463619	3252.983480
865.775842	3253.916094
866.088023	3259.446239
866.400162	3253.462390
866.712258	3256.446753
867.024313	3254.720158
867.336325	3254.377359
867.648296	3255.022627
867.960224	3250.467944
868.272110	3257.086979
868.583954	3255.867020
868.895755	3265.230963
869.207515	3262.125613
869.519233	3281.251750
869.830909	3286.335754
870.142542	3298.081643
870.454134	3303.689926
870.765684	3318.246258
871.077191	3338.138651
871.388657	3348.914117
871.700081	3368.688043
872.011463	3387.829304
872.322803	3408.354362
872.634101	3424.090324
872.945357	3445.298458
873.256571	3475.956235
873.567744	3492.123216
873.878874	3497.529853
874.189963	3511.433356
874.501010	3514.765558
874.812015	3511.347656
875.122979	3532.207951
875.433900	3526.067825
875.744780	3526.072866
876.055618	3536.785318
876.366415	3536.074516
876.677169	3539.870504
876.987882	3555.346847
877.298554	3578.573963
877.609183	3618.807412
877.919771	3665.967406
878.230317	3739.522882
878.540822	3846.460878
878.851285	4000.674816
879.161707	4231.352975
879.472087	4610.150316
879.782425	5256.078399
880.092722	6459.406863
880.402977	8428.206813
880.713191	10840.265338
881.023363	13250.821599
881.333494	14610.224186
881.643583	15082.678604
881.953631	14689.629921
882.263637	13853.030275
882.573602	12817.486535
882.883526	11841.070487
883.193408	10870.572755
883.503248	9932.938304
883.813048	9076.158920
884.122806	8306.004203
884.432522	7518.671754
884.742197	6843.237797
885.051831	6260.482933
885.361424	5754.174646
885.670975	5343.834805
885.980485	5013.039331
886.289954	4734.772680
886.599382	4513.259339
886.908768	4331.087162
887.218113	4166.304446
887.527417	4024.469062
887.836680	3897.222777
888.145901	3796.689567
888.455082	3717.034295
888.764221	3646.606855
889.073319	3585.074531
889.382376	3551.971794
889.691392	3522.042464
890.000366	3518.357380
890.309300	3510.891432
890.618193	3517.031557
890.927044	3507.697861
891.235855	3518.228831
891.544625	3533.574103
891.853353	3560.377918
892.162041	3621.698514
892.470687	3717.233420
892.779293	3837.235567
893.087858	4011.674613
893.396381	4304.389212
893.704864	4725.249940
894.013306	5297.448628
894.321707	5877.637545
894.630068	6241.127422
894.938387	6289.492252
895.246665	6104.146670
895.554903	5784.270335
895.863100	5444.594868
896.171256	5171.628990
896.479371	4921.630609
896.787446	4690.866751
897.095480	4491.577336
897.403473	4339.717618
897.711425	4188.505688
898.019336	4067.649065
898.327207	3939.840692
898.635038	3837.250690
898.942827	3726.168865
899.250576	3638.014208
899.558284	3551.908780
899.865952	3499.884072
900.173579	3432.786314
900.481165	3385.336454
900.788711	3343.134434
901.096216	3306.129845
901.403681	3283.416926
901.711105	3266.425717
902.018489	3265.477980
902.325832	3297.496869
902.633135	3357.282433
902.940397	3534.509237
903.247619	3946.071558
903.554800	4714.527406
903.861941	5701.086255
904.169041	6418.570997
904.476101	6645.672457
904.783121	6358.949270
905.090100	5960.985462
905.397039	5538.980391
905.703938	5168.521119
906.010796	4835.739430
906.317614	4577.012291
906.624391	4331.321576
906.931129	4129.267089
907.237826	3940.168367
907.544483	3766.109927
907.851099	3592.908484
908.157675	3427.316663
908.464211	3283.512708
908.770707	3175.538754
909.077163	3092.949531
909.383578	3030.363606
909.689954	2987.201247
909.996289	2956.803089
910.302584	2932.882814
910.608839	2921.555341
910.915054	2909.643095
911.221229	2904.496077
911.527363	2907.367014
911.833458	2915.944537
912.139513	2927.576999
912.445527	2940.550409
912.751502	2978.873260
913.057436	3021.849097
913.363331	3084.283787
913.669186	3168.778567
913.975000	3293.501754
914.280775	3487.805468
914.586510	3762.334103
914.892205	4148.819204
915.197859	4659.046987
915.503475	5254.049335
915.809050	5756.052476
916.114585	6048.590634
916.420081	6110.412824
916.725536	6054.093053
917.030952	5808.856042
917.336328	5600.157314
917.641665	5383.866608
917.946961	5154.544520
918.252218	4954.347698
918.557435	4716.871543
918.862612	4515.404350
919.167750	4335.788038
919.472848	4142.951301
919.777906	3971.332780
920.082925	3805.602327
920.387904	3647.970487
920.692843	3536.455123
920.997743	3435.019546
921.302603	3336.608661
921.607423	3270.418311
921.912204	3203.229812
922.216946	3151.741987
922.521647	3100.881786
922.826310	3059.894685
923.130932	3019.391534
923.435516	2977.262612
923.740059	2948.820422
924.044564	2918.056780
924.349028	2894.202040
924.653454	2860.486803
924.957840	2835.661641
925.262186	2815.665905
925.566493	2789.308232
925.870761	2765.798811
926.174989	2754.854466
926.479178	2742.488515
926.783328	2722.649054
927.087438	2710.860316
927.391509	2701.108204
927.695541	2684.442149
927.999533	2677.301355
928.303486	2666.150323
928.607400	2661.278047
928.911275	2653.413848
929.215110	2647.853455
929.518906	2642.935809
929.822663	2644.377579
930.126381	2642.154430
930.430060	2646.320944
930.733699	2645.726088
931.037299	2653.045843
931.340861	2648.912097
931.644383	2656.700680
931.947866	2655.226142
932.251309	2651.709937
932.554714	2649.259937
932.858080	2644.846407
933.161407	2645.252219
933.464694	2639.177629
933.767943	2634.970786
934.071153	2632.997174
934.374323	2627.766977
934.677455	2626.380660
934.980548	2623.993674
935.283602	2620.825308
935.586617	2617.314145
935.889593	2623.091307
936.192530	2622.360340
936.495428	2631.227729
936.798287	2636.601599
937.101108	2655.188334
937.403890	2675.151303
937.706632	2703.573328
938.009336	2735.380488
938.312002	2763.898296
938.614628	2784.806481
938.917216	2807.327836
939.219765	2818.861996
939.522275	2828.420024
939.824747	2828.727534
940.127179	2822.748726
940.429573	2817.490802
940.731929	2817.783189
941.034246	2806.967394
941.336524	2805.326498
941.638763	2799.393060
941.940964	2791.755712
942.243126	2777.118722
942.545250	2765.894593
942.847335	2752.089393
943.149381	2739.448700
943.451389	2722.797768
943.753359	2711.409802
944.055290	2702.739017
944.357182	2692.848273
944.659036	2685.999866
944.960851	2684.154804
945.262628	2676.409071
945.564367	2679.590039
945.866067	2679.010306
946.167729	2675.751200
946.469352	2674.155675
946.770937	2672.305572
947.072484	2663.412976
947.373992	2666.256187
947.675462	2661.273006
947.976893	2654.696821
948.278286	2651.904022
948.579641	2646.210039
948.880958	2645.589977
949.182236	2646.394041
949.483476	2643.386992
949.784678	2642.640902
950.085841	2642.466982
950.386967	2647.883702
950.688054	2653.275216
950.989103	2660.786535
951.290114	2670.412618
951.591087	2682.324865
951.892021	2691.507327
952.192917	2707.258412
952.493776	2715.435163
952.794596	2720.420864
953.095378	2722.641493
953.396122	2719.878940
953.696828	2715.646892
953.997496	2711.505584
954.298126	2702.615509
954.598718	2692.807944
954.899272	2682.886953
955.199788	2673.152485
955.500266	2658.999446
955.800706	2643.949081
956.101108	2625.750516
956.401472	2613.772734
956.701798	2600.761516
957.002087	2586.348857
957.302337	2574.605489
957.602550	2567.550395
957.902724	2554.766028
958.202861	2544.681200
958.502960	2535.110570
958.803022	2529.494724
959.103045	2519.619104
959.403031	2514.358660
959.702979	2509.327588
960.002889	2506.832217
960.302762	2496.490290
960.602596	2495.048520
960.902393	2491.658344
961.202153	2488.169866
961.501875	2483.902529
961.801559	2481.878506
962.101205	2482.382621
962.400814	2478.861375
962.700385	2476.073617
962.999918	2472.406178
963.299414	2472.045735
963.598873	2471.531537
963.898293	2467.763275
964.197677	2469.167236
964.497022	2468.461475
964.796331	2466.550877
965.095601	2466.087091
965.394835	2465.426700
965.694030	2461.804631
965.993189	2462.974179
966.292309	2459.858746
966.591393	2461.078705
966.890439	2459.400001
967.189447	2463.432924
967.488419	2460.511575
967.787353	2461.592903
968.086249	2462.936370
968.385108	2461.343365
968.683930	2463.712708
968.982714	2462.165073
969.281462	2466.140023
969.580172	2466.147585
969.878844	2470.402319
970.177480	2472.368369
970.476078	2476.819708
970.774639	2481.634010
971.073162	2481.326499
971.371649	2480.219966
971.670098	2483.968064
971.968510	2484.371356
972.266885	2484.399083
972.565223	2490.902171
972.863524	2487.277581
973.161788	2493.389980
973.460014	2493.884013
973.758204	2491.020638
974.056356	2492.843015
974.354471	2495.522388
974.652550	2492.848056
974.950591	2493.803355
975.248595	2493.084991
975.546563	2491.237408
975.844493	2489.319249
976.142386	2489.266317
976.440243	2486.498723
976.738062	2485.845894
977.035845	2482.032261
977.333590	2479.410861
977.631299	2473.845427
977.928971	2476.716364
978.226606	2475.226703
978.524204	2472.932978
978.821765	2472.907772
979.119290	2470.697226
979.416777	2469.003399
979.714228	2472.633029
980.011642	2475.632516
980.309020	2477.517908
980.606360	2482.695172
980.903664	2487.864876
981.200931	2503.031187
981.498162	2521.804444
981.795356	2554.047664
982.092513	2593.736668
982.389633	2639.258287
982.686717	2684.714372
982.983764	2716.098075
983.280775	2733.666496
983.577749	2732.028121
983.874686	2727.823799
984.171587	2708.382589
984.468451	2692.134950
984.765279	2673.676765
985.062070	2653.098775
985.358824	2635.250570
985.655543	2610.745521
985.952224	2589.920515
986.248869	2557.531101
986.545478	2534.213244
986.842050	2511.487723
987.138586	2494.877121
987.435086	2479.055459
987.731549	2466.384519
988.027975	2462.124744
988.324366	2459.520988
988.620719	2453.201902
988.917037	2447.727209
989.213318	2443.568257
989.509563	2440.611620
989.805772	2439.442073
990.101944	2439.532813
990.398080	2439.570622
990.694180	2436.669438
990.990244	2441.372834
991.286271	2437.090374
991.582262	2438.690941
991.878217	2439.605910
992.174136	2440.294027
992.470019	2439.371496
992.765865	2442.428956
993.061676	2445.430963
993.357450	2448.506067
993.653188	2451.374484
993.948890	2455.306584
994.244556	2461.474435
994.540186	2474.762917
994.835780	2482.707775
995.131337	2500.442555
995.426859	2512.163237
995.722345	2536.201979
996.017795	2557.047151
996.313208	2571.101887
996.608586	2580.760738
996.903928	2584.471028
997.199234	2582.310893
997.494504	2579.608835
997.789738	2572.999882
998.084936	2562.993192
998.380099	2546.248999
998.675225	2538.324305
998.970316	2524.816533
999.265371	2510.988648
999.560390	2494.861997
999.855373	2485.172900
1000.150320	2473.293421
1000.445232	2465.275465
1000.740108	2457.070987
1001.034948	2452.428085
1001.329752	2447.029009
1001.624521	2441.133380
1001.919254	2436.243460
1002.213951	2434.592483
1002.508613	2430.196596
1002.803239	2430.105856
1003.097829	2426.922367
1003.392384	2425.924218
1003.686903	2426.829106
1003.981386	2424.989084
1004.275834	2426.138468
1004.570246	2422.738209
1004.864623	2421.883734
1005.158964	2422.569331
1005.453270	2420.615883
1005.747540	2420.038671
1006.041775	2419.716038
1006.335974	2418.816192
1006.630138	2415.662950
1006.924266	2419.678229
1007.218359	2418.279309
1007.512416	2418.639751
1007.806438	2415.713361
1008.100425	2418.304514
1008.394376	2415.874678
1008.688292	2418.891809
1008.982172	2419.035482
1009.276017	2415.173958
1009.569827	2416.308217
1009.863602	2416.802251
1010.157341	2413.931313
1010.451045	2411.806467
1010.744714	2414.468196
1011.038347	2414.306879
1011.331945	2414.294277
1011.625508	2416.396438
1011.919036	2411.561971
1012.212528	2413.185223
1012.505986	2415.095820
1012.799408	2412.943247
1013.092795	2414.632034
1013.386147	2410.591549
1013.679464	2411.226734
1013.972745	2414.695048
1014.265992	2413.263361
1014.559204	2414.057342
1014.852380	2408.907804
1015.145521	2412.673546
1015.438628	2412.857548
1015.731699	2411.839235
1016.024736	2413.701941
1016.317737	2415.302507
1016.610703	2413.712023
1016.903635	2410.800757
1017.196531	2409.227917
1017.489393	2413.701941
1017.782219	2408.922927
1018.075011	2417.472724
1018.367768	2413.591036
1018.660490	2415.579771
1018.953177	2415.579771
1019.245829	2415.579771
