Wavelength (nm)	EQE (%)	Current (A)	Dark Current (A) -> 	-2.505835800E-9	
400.000000	7.240555	-2.127608E-7
401.000000	8.090499	-3.216755E-7
402.000000	8.154936	-4.929740E-7
403.000000	8.065767	-7.067824E-7
404.000000	7.943625	-9.454524E-7
405.000000	8.119397	-1.231491E-6
406.000000	8.125626	-1.630929E-6
407.000000	8.150827	-1.719284E-6
408.000000	8.080036	-1.856157E-6
409.000000	8.055659	-1.949678E-6
410.000000	8.070558	-2.088662E-6
411.000000	8.117087	-2.674684E-6
412.000000	8.098701	-3.069582E-6
413.000000	8.235630	-4.127638E-6
414.000000	8.252601	-4.674100E-6
415.000000	8.293863	-4.746019E-6
416.000000	8.354352	-4.480171E-6
417.000000	8.334984	-3.930809E-6
418.000000	8.142437	-2.499456E-6
419.000000	8.358343	-1.880254E-6
420.000000	8.521022	-1.978055E-6
421.000000	8.551933	-2.108984E-6
422.000000	8.504739	-1.908424E-6
423.000000	8.652270	-2.051389E-6
424.000000	8.698821	-2.301804E-6
425.000000	8.745859	-2.490682E-6
426.000000	8.818103	-2.670638E-6
427.000000	9.003320	-2.861277E-6
428.000000	9.051363	-3.171564E-6
429.000000	9.059254	-3.541704E-6
430.000000	9.053389	-3.824991E-6
431.000000	9.273807	-3.950964E-6
432.000000	9.263760	-3.931313E-6
433.000000	9.389148	-4.092924E-6
434.000000	9.395530	-4.506130E-6
435.000000	9.583628	-4.695596E-6
436.000000	9.667375	-4.804549E-6
437.000000	9.749945	-5.330691E-6
438.000000	9.886788	-5.492991E-6
439.000000	9.945146	-5.455209E-6
440.000000	10.149111	-5.634704E-6
441.000000	10.254980	-6.222105E-6
442.000000	10.444378	-6.091914E-6
443.000000	10.512835	-5.845167E-6
444.000000	10.582513	-5.904793E-6
445.000000	10.625106	-5.776581E-6
446.000000	10.820979	-5.855320E-6
447.000000	10.950435	-6.718446E-6
448.000000	11.028657	-7.388290E-6
449.000000	11.040322	-6.712817E-6
450.000000	11.076917	-6.450390E-6
451.000000	11.288694	-7.312984E-6
452.000000	11.252179	-7.574029E-6
453.000000	11.308675	-7.028121E-6
454.000000	11.416829	-6.420802E-6
455.000000	11.396814	-6.760995E-6
456.000000	11.438273	-7.932775E-6
457.000000	11.290268	-8.784753E-6
458.000000	11.616561	-8.959813E-6
459.000000	11.737218	-8.491951E-6
460.000000	11.610410	-7.847990E-6
461.000000	11.832075	-7.453859E-6
462.000000	11.775100	-7.203588E-6
463.000000	11.947994	-7.302031E-6
464.000000	12.080193	-7.454117E-6
465.000000	12.297887	-7.631176E-6
466.000000	12.338582	-6.923222E-6
467.000000	12.265150	-5.613243E-6
468.000000	12.375627	-5.964312E-6
469.000000	12.540812	-7.759544E-6
470.000000	12.383632	-7.465504E-6
471.000000	12.393435	-5.748050E-6
472.000000	12.565477	-5.930031E-6
473.000000	12.740313	-8.114749E-6
474.000000	12.911323	-7.902825E-6
475.000000	12.799482	-6.173816E-6
476.000000	12.744855	-6.195984E-6
477.000000	12.986962	-7.217990E-6
478.000000	12.883826	-6.548787E-6
479.000000	13.061812	-6.749473E-6
480.000000	13.119339	-8.061575E-6
481.000000	12.971314	-7.486188E-6
482.000000	12.933669	-5.423984E-6
483.000000	13.149042	-6.210430E-6
484.000000	13.267303	-7.345681E-6
485.000000	13.094235	-6.039755E-6
486.000000	13.129477	-5.990413E-6
487.000000	13.254382	-7.024166E-6
488.000000	13.294727	-6.594907E-6
489.000000	13.141101	-5.939823E-6
490.000000	13.208455	-6.840772E-6
491.000000	13.229527	-7.391300E-6
492.000000	13.190560	-8.149797E-6
493.000000	13.274825	-8.473807E-6
494.000000	13.166562	-7.537590E-6
495.000000	13.031094	-7.692737E-6
496.000000	13.186564	-8.720813E-6
497.000000	13.045274	-8.879869E-6
498.000000	12.982437	-8.200394E-6
499.000000	13.213930	-8.261090E-6
500.000000	12.995006	-9.284489E-6
501.000000	12.745416	-1.072778E-5
502.000000	12.760306	-9.893079E-6
503.000000	12.840708	-9.610732E-6
504.000000	12.872432	-1.138251E-5
505.000000	12.560837	-1.204964E-5
506.000000	12.638570	-1.077634E-5
507.000000	12.552424	-8.927328E-6
508.000000	12.612304	-8.944535E-6
509.000000	12.601422	-8.803677E-6
510.000000	12.445255	-7.590616E-6
511.000000	12.539442	-7.352628E-6
512.000000	12.533988	-8.347114E-6
513.000000	12.349063	-9.729129E-6
514.000000	12.482367	-1.159233E-5
515.000000	12.399113	-1.348725E-5
516.000000	12.348699	-1.715136E-5
517.000000	12.257228	-1.883614E-5
518.000000	12.207210	-1.543573E-5
519.000000	12.182472	-1.309763E-5
520.000000	12.159776	-1.198690E-5
521.000000	11.936993	-8.849577E-6
522.000000	11.787818	-7.388242E-6
523.000000	12.060458	-7.393320E-6
524.000000	11.922304	-1.004264E-5
525.000000	11.892381	-1.335474E-5
526.000000	11.904880	-1.407840E-5
527.000000	11.954487	-1.573928E-5
528.000000	11.825809	-1.701456E-5
529.000000	11.753968	-1.561752E-5
530.000000	11.602803	-1.162680E-5
531.000000	11.566642	-8.540891E-6
532.000000	11.575983	-7.231003E-6
533.000000	11.523494	-7.965581E-6
534.000000	11.633905	-8.583845E-6
535.000000	11.732371	-1.148428E-5
536.000000	11.602027	-1.585828E-5
537.000000	11.461318	-1.410234E-5
538.000000	11.358277	-1.114530E-5
539.000000	11.437770	-1.117817E-5
540.000000	11.334794	-8.739857E-6
541.000000	11.216216	-7.915360E-6
542.000000	11.272159	-8.256250E-6
543.000000	11.241293	-9.929189E-6
544.000000	11.326448	-1.339372E-5
545.000000	11.212010	-1.354859E-5
546.000000	11.191235	-1.241229E-5
547.000000	11.120743	-1.229304E-5
548.000000	11.029720	-9.267810E-6
549.000000	11.066216	-7.491225E-6
550.000000	11.093492	-7.600093E-6
551.000000	10.994042	-8.415690E-6
552.000000	11.080154	-1.151442E-5
553.000000	11.082110	-1.337822E-5
554.000000	11.131453	-1.392405E-5
555.000000	11.106227	-1.398512E-5
556.000000	11.047096	-1.153414E-5
557.000000	11.024465	-9.316318E-6
558.000000	11.029945	-9.114155E-6
559.000000	11.030984	-1.017997E-5
560.000000	11.116042	-1.265773E-5
561.000000	11.125608	-1.397524E-5
562.000000	11.150055	-1.290008E-5
563.000000	11.199212	-1.281154E-5
564.000000	11.175237	-1.046725E-5
565.000000	11.134779	-8.427271E-6
566.000000	11.150993	-8.724843E-6
567.000000	11.298362	-9.615863E-6
568.000000	11.245989	-1.178893E-5
569.000000	11.329656	-1.297673E-5
570.000000	11.312153	-1.233391E-5
571.000000	11.402534	-1.164066E-5
572.000000	11.437531	-1.010147E-5
573.000000	11.388771	-8.446552E-6
574.000000	11.574632	-9.038202E-6
575.000000	11.583387	-1.080774E-5
576.000000	11.625323	-1.402234E-5
577.000000	11.634688	-1.506894E-5
578.000000	11.660912	-1.556938E-5
579.000000	11.718866	-1.416193E-5
580.000000	11.652013	-1.141301E-5
581.000000	11.879671	-1.054398E-5
582.000000	11.974544	-1.022510E-5
583.000000	12.016272	-1.191950E-5
584.000000	11.987328	-1.461270E-5
585.000000	12.076972	-1.503597E-5
586.000000	12.129473	-1.449462E-5
587.000000	12.140660	-1.338812E-5
588.000000	12.156921	-1.108980E-5
589.000000	12.306453	-1.088306E-5
590.000000	12.321037	-1.130841E-5
591.000000	12.161384	-1.672968E-5
592.000000	12.234259	-1.702353E-5
593.000000	12.154339	-1.704343E-5
594.000000	12.273457	-1.652635E-5
595.000000	12.464680	-1.618417E-5
596.000000	12.560526	-1.637824E-5
597.000000	12.647164	-1.691513E-5
598.000000	12.780022	-1.834394E-5
599.000000	12.739262	-1.996456E-5
600.000000	12.725898	-2.108643E-5
601.000000	12.913032	-2.238326E-5
602.000000	12.841744	-2.249558E-5
603.000000	12.955591	-2.240019E-5
604.000000	12.980592	-2.158379E-5
605.000000	12.997911	-2.082077E-5
606.000000	13.122755	-2.124546E-5
607.000000	13.167755	-2.157934E-5
608.000000	13.360829	-2.333463E-5
609.000000	13.593080	-2.531232E-5
610.000000	13.662498	-2.647214E-5
611.000000	13.737873	-2.752156E-5
612.000000	13.816694	-2.777888E-5
613.000000	13.814467	-2.715678E-5
614.000000	13.832160	-2.598738E-5
615.000000	13.866546	-2.480140E-5
616.000000	14.109770	-2.504207E-5
617.000000	14.218526	-2.611215E-5
618.000000	14.363447	-2.836107E-5
619.000000	14.654579	-3.036961E-5
620.000000	14.692436	-3.127531E-5
621.000000	14.711423	-3.216562E-5
622.000000	14.762020	-3.301759E-5
623.000000	14.851173	-3.427480E-5
624.000000	15.020608	-3.575108E-5
625.000000	14.856189	-3.853101E-5
626.000000	14.865633	-3.675566E-5
627.000000	14.694031	-3.659533E-5
628.000000	15.211698	-3.648913E-5
629.000000	15.454848	-3.721078E-5
630.000000	15.448672	-3.801434E-5
631.000000	15.590818	-3.993702E-5
632.000000	15.740350	-4.222260E-5
633.000000	15.906319	-4.401483E-5
634.000000	15.900201	-4.550623E-5
635.000000	15.920663	-4.564775E-5
636.000000	15.979574	-4.539063E-5
637.000000	16.055291	-4.575137E-5
638.000000	16.112992	-4.611026E-5
639.000000	16.289914	-4.674531E-5
640.000000	16.366833	-4.649333E-5
641.000000	16.343915	-4.552487E-5
642.000000	16.437096	-4.599025E-5
643.000000	16.446143	-4.654950E-5
644.000000	16.596787	-4.921108E-5
645.000000	16.567429	-5.192419E-5
646.000000	16.664542	-5.376614E-5
647.000000	16.733728	-5.388607E-5
648.000000	16.762570	-5.161657E-5
649.000000	16.838546	-4.973608E-5
650.000000	16.883363	-4.861992E-5
651.000000	16.822163	-4.928399E-5
652.000000	16.891281	-5.253301E-5
653.000000	16.996485	-5.474933E-5
654.000000	17.072895	-5.586689E-5
655.000000	17.034421	-5.426196E-5
656.000000	17.028669	-5.127743E-5
657.000000	17.032471	-4.991051E-5
658.000000	16.965696	-4.880585E-5
659.000000	17.074831	-5.102608E-5
660.000000	17.094892	-5.564977E-5
661.000000	17.098789	-5.837858E-5
662.000000	17.161140	-5.899675E-5
663.000000	17.254042	-5.616385E-5
664.000000	17.230379	-5.014185E-5
665.000000	17.295476	-4.709241E-5
666.000000	17.244245	-4.828552E-5
667.000000	17.246415	-5.252616E-5
668.000000	17.259116	-5.715512E-5
669.000000	17.312818	-5.968404E-5
670.000000	17.300986	-5.832569E-5
671.000000	17.277157	-5.390434E-5
672.000000	17.378334	-5.168905E-5
673.000000	17.368821	-5.115388E-5
674.000000	17.436766	-5.188192E-5
675.000000	17.437049	-5.613654E-5
676.000000	17.490156	-5.994209E-5
677.000000	17.469620	-5.999276E-5
678.000000	17.561449	-5.960691E-5
679.000000	17.549113	-5.598629E-5
680.000000	17.668556	-5.331053E-5
681.000000	17.710481	-5.596572E-5
682.000000	17.742919	-6.113300E-5
683.000000	17.790831	-6.475913E-5
684.000000	17.883216	-6.641688E-5
685.000000	18.030812	-6.565648E-5
686.000000	18.005103	-6.049244E-5
687.000000	18.133713	-5.813365E-5
688.000000	18.345253	-6.292151E-5
689.000000	18.338509	-6.685142E-5
690.000000	18.441536	-7.070062E-5
691.000000	18.552269	-7.334520E-5
692.000000	18.584878	-7.134505E-5
693.000000	18.797505	-6.808744E-5
694.000000	18.812203	-6.565484E-5
695.000000	18.847135	-6.718325E-5
696.000000	18.807994	-7.257638E-5
697.000000	19.007932	-7.970756E-5
698.000000	19.189586	-8.446119E-5
699.000000	19.313365	-8.318920E-5
700.000000	19.468762	-7.920459E-5
701.000000	19.567132	-7.699397E-5
702.000000	19.548800	-7.588747E-5
703.000000	19.687892	-8.055966E-5
704.000000	19.843087	-8.977634E-5
705.000000	19.894600	-9.399435E-5
706.000000	19.969355	-9.113835E-5
707.000000	20.203928	-8.775678E-5
708.000000	20.371675	-8.488908E-5
709.000000	20.252824	-7.947655E-5
710.000000	20.206628	-8.062788E-5
711.000000	20.371046	-9.243782E-5
712.000000	20.535865	-0.000100
713.000000	20.682063	-9.726332E-5
714.000000	20.620847	-8.983503E-5
715.000000	20.668970	-8.191393E-5
716.000000	20.587777	-7.949767E-5
717.000000	20.634637	-8.200087E-5
718.000000	20.481010	-8.693355E-5
719.000000	20.558640	-9.290046E-5
720.000000	20.487566	-9.289700E-5
721.000000	20.589972	-9.047437E-5
722.000000	20.764766	-8.536161E-5
723.000000	20.713047	-7.871991E-5
724.000000	20.774899	-7.825800E-5
725.000000	20.592822	-8.162976E-5
726.000000	20.519730	-8.581358E-5
727.000000	20.516963	-8.822906E-5
728.000000	20.651982	-8.686783E-5
729.000000	20.600924	-8.146643E-5
730.000000	20.488478	-7.595343E-5
731.000000	20.306208	-7.332919E-5
732.000000	20.151247	-7.394779E-5
733.000000	20.051214	-7.693385E-5
734.000000	20.025105	-8.038898E-5
735.000000	19.946967	-7.973544E-5
736.000000	19.955375	-7.674083E-5
737.000000	19.809705	-7.343337E-5
738.000000	19.635299	-6.963413E-5
739.000000	19.435234	-6.842289E-5
740.000000	19.362893	-6.958172E-5
741.000000	19.249147	-7.132800E-5
742.000000	19.153164	-7.246997E-5
743.000000	19.185984	-7.111849E-5
744.000000	19.103658	-6.725261E-5
745.000000	18.893281	-6.433645E-5
746.000000	18.728144	-6.263369E-5
747.000000	18.570733	-6.249784E-5
748.000000	18.461982	-6.437200E-5
749.000000	18.352624	-6.512120E-5
750.000000	18.229451	-6.475680E-5
751.000000	18.096686	-6.302336E-5
752.000000	17.982629	-5.989424E-5
753.000000	17.827958	-5.769189E-5
754.000000	17.672880	-5.657332E-5
755.000000	17.556851	-5.676415E-5
756.000000	17.428210	-5.801235E-5
757.000000	17.360462	-5.828033E-5
758.000000	17.317566	-5.762453E-5
759.000000	17.225889	-5.634342E-5
760.000000	17.149163	-5.428536E-5
761.000000	16.961129	-5.218120E-5
762.000000	16.790825	-5.160130E-5
763.000000	16.722881	-5.256314E-5
764.000000	16.736896	-5.394296E-5
765.000000	16.751912	-5.461910E-5
766.000000	16.679579	-5.390244E-5
767.000000	16.542584	-5.221757E-5
768.000000	16.539836	-5.065685E-5
769.000000	16.415283	-4.979821E-5
770.000000	16.342910	-5.052345E-5
771.000000	16.300946	-5.183793E-5
772.000000	16.308750	-5.294659E-5
773.000000	16.296246	-5.299711E-5
774.000000	16.352785	-5.189623E-5
775.000000	16.227562	-4.990466E-5
776.000000	16.228984	-4.874664E-5
777.000000	16.180177	-4.917322E-5
778.000000	16.179218	-5.132461E-5
779.000000	16.201408	-5.350564E-5
780.000000	16.223696	-5.450112E-5
781.000000	16.256649	-5.359783E-5
782.000000	16.228356	-5.156984E-5
783.000000	16.223239	-5.007810E-5
784.000000	16.190759	-5.025309E-5
785.000000	16.123741	-5.232745E-5
786.000000	16.158611	-5.460140E-5
787.000000	16.193967	-5.582856E-5
788.000000	16.293611	-5.545411E-5
789.000000	16.312376	-5.312935E-5
790.000000	16.318722	-5.096621E-5
791.000000	16.318254	-5.055542E-5
792.000000	16.253995	-5.210730E-5
793.000000	16.292364	-5.505461E-5
794.000000	16.362321	-5.777583E-5
795.000000	16.462093	-5.813663E-5
796.000000	16.519111	-5.541639E-5
797.000000	16.563947	-5.260705E-5
798.000000	16.474546	-5.182363E-5
799.000000	16.389647	-5.257081E-5
800.000000	16.429262	-5.563822E-5
801.000000	16.481380	-5.913962E-5
802.000000	16.567695	-5.988443E-5
803.000000	16.662326	-5.762012E-5
804.000000	16.649048	-5.366234E-5
805.000000	16.592798	-5.085113E-5
806.000000	16.510289	-5.061078E-5
807.000000	16.524341	-5.357759E-5
808.000000	16.614665	-5.787286E-5
809.000000	16.621421	-5.996945E-5
810.000000	16.712275	-5.894358E-5
811.000000	16.738826	-5.621352E-5
812.000000	16.655937	-5.271449E-5
813.000000	16.630194	-5.158300E-5
814.000000	16.536321	-5.401640E-5
815.000000	16.531988	-5.789610E-5
816.000000	16.626061	-6.160060E-5
817.000000	16.683014	-6.183930E-5
818.000000	16.698186	-5.767015E-5
819.000000	16.622040	-5.331050E-5
820.000000	16.558407	-5.140274E-5
821.000000	16.458945	-5.276655E-5
822.000000	16.400792	-5.725366E-5
823.000000	16.481008	-6.186031E-5
824.000000	16.459476	-6.256816E-5
825.000000	16.383958	-5.958704E-5
826.000000	16.365955	-5.592307E-5
827.000000	16.301249	-5.410431E-5
828.000000	16.194243	-5.513405E-5
829.000000	16.048451	-5.799974E-5
830.000000	16.009469	-6.208792E-5
831.000000	16.025814	-6.501533E-5
832.000000	16.068571	-6.445545E-5
833.000000	16.024009	-6.068003E-5
834.000000	15.864663	-5.655501E-5
835.000000	15.722880	-5.519963E-5
836.000000	15.573451	-5.704717E-5
837.000000	15.480225	-5.989305E-5
838.000000	15.374713	-6.177027E-5
839.000000	15.381216	-6.178042E-5
840.000000	15.338529	-5.879177E-5
841.000000	15.126117	-5.413553E-5
842.000000	15.022022	-5.210825E-5
843.000000	14.907683	-5.319098E-5
844.000000	14.746973	-5.493577E-5
845.000000	14.647724	-5.680169E-5
846.000000	14.589240	-5.738634E-5
847.000000	14.480342	-5.483742E-5
848.000000	14.343230	-5.017512E-5
849.000000	14.139348	-4.704995E-5
850.000000	14.010123	-4.680564E-5
851.000000	13.829470	-4.791672E-5
852.000000	13.656265	-4.915562E-5
853.000000	13.519135	-4.933101E-5
854.000000	13.389873	-4.738198E-5
855.000000	13.238870	-4.423122E-5
856.000000	13.061465	-4.138247E-5
857.000000	12.867748	-3.983057E-5
858.000000	12.636800	-4.021997E-5
859.000000	12.480282	-4.099267E-5
860.000000	12.274238	-4.004178E-5
861.000000	12.081068	-3.780270E-5
862.000000	11.903828	-3.526653E-5
863.000000	11.682645	-3.293854E-5
864.000000	11.427079	-3.153883E-5
865.000000	11.197999	-3.107607E-5
866.000000	10.914265	-3.087882E-5
867.000000	10.716152	-3.071544E-5
868.000000	10.509755	-2.913666E-5
869.000000	10.216678	-2.629173E-5
870.000000	9.968026	-2.446804E-5
871.000000	9.719739	-2.371484E-5
872.000000	9.447608	-2.318952E-5
873.000000	9.169225	-2.270786E-5
874.000000	8.901410	-2.197516E-5
875.000000	8.634003	-2.085611E-5
876.000000	8.349121	-1.936236E-5
877.000000	8.073355	-1.796619E-5
878.000000	7.794731	-1.701020E-5
879.000000	7.545654	-1.631650E-5
880.000000	7.259060	-1.566860E-5
881.000000	6.982299	-1.508872E-5
882.000000	6.727473	-1.441701E-5
883.000000	6.463818	-1.359683E-5
884.000000	6.188721	-1.264661E-5
885.000000	5.930023	-1.172992E-5
886.000000	5.688192	-1.115462E-5
887.000000	5.439296	-1.081649E-5
888.000000	5.211278	-1.041228E-5
889.000000	4.985459	-9.912267E-6
890.000000	4.780702	-9.363559E-6
891.000000	4.541914	-8.664579E-6
892.000000	4.333497	-8.076054E-6
893.000000	4.132275	-7.736178E-6
894.000000	3.942855	-7.478670E-6
895.000000	3.747984	-7.088824E-6
896.000000	3.544333	-6.747341E-6
897.000000	3.392670	-6.489724E-6
898.000000	3.237235	-6.013690E-6
899.000000	3.079217	-5.580784E-6
900.000000	2.923720	-5.326355E-6
901.000000	2.764608	-5.075971E-6
902.000000	2.615928	-4.807806E-6
903.000000	2.484364	-4.551774E-6
904.000000	2.356523	-4.342059E-6
905.000000	2.237108	-4.131748E-6
906.000000	2.129082	-3.886020E-6
907.000000	2.016305	-3.681820E-6
908.000000	1.909443	-3.494907E-6
909.000000	1.809696	-3.264565E-6
910.000000	1.708547	-3.072672E-6
911.000000	1.623690	-2.931076E-6
912.000000	1.534528	-2.794488E-6
913.000000	1.456831	-2.665280E-6
914.000000	1.381575	-2.516482E-6
915.000000	1.308110	-2.363002E-6
916.000000	1.239063	-2.206740E-6
917.000000	1.168940	-2.062583E-6
918.000000	1.106216	-1.961527E-6
919.000000	1.048754	-1.860047E-6
920.000000	0.992115	-1.767046E-6
921.000000	0.946052	-1.698655E-6
922.000000	0.894640	-1.582680E-6
923.000000	0.846178	-1.471102E-6
924.000000	0.799964	-1.383467E-6
925.000000	0.755103	-1.293672E-6
926.000000	0.713869	-1.225159E-6
927.000000	0.677818	-1.170005E-6
928.000000	0.642235	-1.109102E-6
929.000000	0.610524	-1.050964E-6
930.000000	0.577845	-9.699698E-7
931.000000	0.546035	-8.967427E-7
932.000000	0.515531	-8.386028E-7
933.000000	0.486440	-7.812787E-7
934.000000	0.461899	-7.500249E-7
935.000000	0.436739	-7.185063E-7
936.000000	0.413642	-6.742002E-7
937.000000	0.392921	-6.287680E-7
938.000000	0.373462	-5.819248E-7
939.000000	0.352180	-5.452412E-7
940.000000	0.333920	-5.206532E-7
941.000000	0.314657	-4.888374E-7
942.000000	0.298484	-4.652229E-7
943.000000	0.282694	-4.397791E-7
944.000000	0.268008	-4.082377E-7
945.000000	0.254740	-3.809561E-7
946.000000	0.239952	-3.516078E-7
947.000000	0.225779	-3.250901E-7
948.000000	0.214077	-3.099591E-7
949.000000	0.202598	-2.955724E-7
950.000000	0.191372	-2.796527E-7
951.000000	0.181508	-2.633878E-7
952.000000	0.173006	-2.458559E-7
953.000000	0.163716	-2.294009E-7
954.000000	0.154504	-2.140769E-7
955.000000	0.145938	-2.013716E-7
956.000000	0.138312	-1.922693E-7
957.000000	0.130812	-1.810343E-7
958.000000	0.123565	-1.702472E-7
959.000000	0.117669	-1.598841E-7
960.000000	0.111353	-1.458021E-7
961.000000	0.104994	-1.352465E-7
962.000000	0.099547	-1.276720E-7
963.000000	0.094162	-1.215357E-7
964.000000	0.089261	-1.165588E-7
965.000000	0.084522	-1.092426E-7
966.000000	0.080387	-1.023781E-7
967.000000	0.076099	-9.592551E-8
968.000000	0.073298	-9.041273E-8
969.000000	0.069040	-8.453927E-8
970.000000	0.065244	-8.033366E-8
971.000000	0.061691	-7.618390E-8
972.000000	0.058579	-7.183802E-8
973.000000	0.055743	-6.701365E-8
974.000000	0.053236	-6.242663E-8
975.000000	0.050376	-5.792677E-8
976.000000	0.047661	-5.386827E-8
977.000000	0.045028	-5.123228E-8
978.000000	0.042765	-4.915811E-8
979.000000	0.040845	-4.673015E-8
980.000000	0.038718	-4.410589E-8
981.000000	0.037068	-4.174037E-8
982.000000	0.035333	-3.908157E-8
983.000000	0.033546	-3.679967E-8
984.000000	0.032004	-3.523854E-8
985.000000	0.030252	-3.357189E-8
986.000000	0.028890	-3.181968E-8
987.000000	0.027628	-2.982908E-8
988.000000	0.026293	-2.790925E-8
989.000000	0.025204	-2.624310E-8
990.000000	0.023933	-2.453546E-8
991.000000	0.022720	-2.340341E-8
992.000000	0.021708	-2.259328E-8
993.000000	0.020758	-2.180393E-8
994.000000	0.019977	-2.102331E-8
995.000000	0.019284	-2.011482E-8
996.000000	0.018499	-1.914615E-8
997.000000	0.017779	-1.820682E-8
998.000000	0.017006	-1.729635E-8
999.000000	0.016130	-1.650014E-8
1000.000000	0.015465	-1.587964E-8
1001.000000	0.014854	-1.519366E-8
1002.000000	0.014380	-1.456104E-8
1003.000000	0.013701	-1.368228E-8
1004.000000	0.013218	-1.309639E-8
1005.000000	0.012616	-1.258003E-8
1006.000000	0.012131	-1.224022E-8
1007.000000	0.011614	-1.191546E-8
1008.000000	0.011222	-1.161118E-8
1009.000000	0.010917	-1.118587E-8
1010.000000	0.010499	-1.063764E-8
1011.000000	0.010097	-1.015891E-8
1012.000000	0.009693	-9.818753E-9
1013.000000	0.009379	-9.625140E-9
1014.000000	0.009061	-9.395217E-9
1015.000000	0.008748	-9.127198E-9
1016.000000	0.008534	-8.891621E-9
1017.000000	0.008192	-8.503155E-9
1018.000000	0.007892	-8.278440E-9
1019.000000	0.007586	-8.164970E-9
1020.000000	0.007294	-8.162179E-9
1021.000000	0.007017	-8.182497E-9
1022.000000	0.006804	-8.131014E-9
1023.000000	0.006555	-7.958049E-9
1024.000000	0.006315	-7.802751E-9
1025.000000	0.006065	-7.699363E-9
1026.000000	0.005817	-7.689081E-9
1027.000000	0.005603	-7.699075E-9
1028.000000	0.005388	-7.605319E-9
1029.000000	0.005260	-7.503843E-9
1030.000000	0.005090	-7.276730E-9
1031.000000	0.004957	-7.073683E-9
1032.000000	0.004729	-6.749155E-9
1033.000000	0.004627	-6.625208E-9
1034.000000	0.004506	-6.428567E-9
1035.000000	0.004407	-6.197004E-9
1036.000000	0.004341	-6.014930E-9
1037.000000	0.004231	-5.664659E-9
1038.000000	0.004183	-5.308302E-9
1039.000000	0.004141	-4.992604E-9
1040.000000	0.004060	-4.761050E-9
1041.000000	0.003928	-4.574774E-9
1042.000000	0.003818	-4.443855E-9
1043.000000	0.003715	-4.329471E-9
1044.000000	0.003647	-4.249989E-9
1045.000000	0.003543	-4.146964E-9
1046.000000	0.003432	-4.040333E-9
1047.000000	0.003330	-4.013164E-9
1048.000000	0.003196	-3.977652E-9
1049.000000	0.003066	-3.939205E-9
1050.000000	0.002991	-3.960932E-9
1051.000000	0.002881	-3.900017E-9
1052.000000	0.002796	-3.884031E-9
1053.000000	0.002720	-3.897619E-9
1054.000000	0.002610	-3.862725E-9
1055.000000	0.002498	-3.886030E-9
1056.000000	0.002358	-3.919452E-9
1057.000000	0.002253	-3.995839E-9
1058.000000	0.002118	-4.019254E-9
1059.000000	0.001978	-4.065967E-9
1060.000000	0.001880	-4.268080E-9
1061.000000	0.001724	-4.599757E-9
1062.000000	0.001611	-5.152850E-9
1063.000000	0.001374	-6.820750E-9
1064.000000	0.001270	-1.135101E-8
1065.000000	0.001225	-1.306068E-8
1066.000000	0.001385	-1.050684E-8
1067.000000	0.001390	-6.242903E-9
1068.000000	0.001575	-5.421581E-9
1069.000000	0.001611	-4.559245E-9
1070.000000	0.001622	-3.713114E-9
1071.000000	0.001673	-3.170529E-9
1072.000000	0.001780	-2.986092E-9
1073.000000	0.001821	-2.825614E-9
1074.000000	0.001897	-2.738280E-9
1075.000000	0.001916	-2.617833E-9
1076.000000	0.001917	-2.525677E-9
1077.000000	0.001824	-2.423210E-9
1078.000000	0.001780	-2.398533E-9
1079.000000	0.001770	-2.389301E-9
1080.000000	0.001799	-2.355494E-9
1081.000000	0.001869	-2.281607E-9
1082.000000	0.001955	-2.234113E-9
1083.000000	0.001948	-2.168152E-9
1084.000000	0.001923	-2.109827E-9
1085.000000	0.001856	-2.027135E-9
1086.000000	0.001915	-2.080076E-9
1087.000000	0.001926	-2.055771E-9
1088.000000	0.001956	-2.041219E-9
1089.000000	0.001955	-2.004088E-9
1090.000000	0.001949	-1.965087E-9
1091.000000	0.001918	-1.910589E-9
1092.000000	0.001975	-1.949226E-9
1093.000000	0.001986	-1.938863E-9
1094.000000	0.001992	-1.922778E-9
1095.000000	0.002032	-1.914869E-9
1096.000000	0.001998	-1.858519E-9
1097.000000	0.001960	-1.818821E-9
1098.000000	0.002005	-1.844746E-9
1099.000000	0.001956	-1.843791E-9
1100.000000	0.001907	-1.842817E-9
