Wavelength (nm)	EQE (%)	Current (A)	Dark Current (A) -> 	-19.893854000E-9	
400.000000	5.627516	-1.653623E-7
401.000000	5.854431	-2.327702E-7
402.000000	5.012247	-3.029953E-7
403.000000	4.451010	-3.900305E-7
404.000000	4.153117	-4.943051E-7
405.000000	4.100043	-6.218647E-7
406.000000	3.895571	-7.818967E-7
407.000000	4.487280	-9.465186E-7
408.000000	4.568443	-1.049469E-6
409.000000	5.550774	-1.343431E-6
410.000000	5.384439	-1.393494E-6
411.000000	5.211073	-1.717115E-6
412.000000	5.133616	-1.945751E-6
413.000000	4.965236	-2.488540E-6
414.000000	5.044802	-2.857270E-6
415.000000	5.073180	-2.903039E-6
416.000000	5.161325	-2.767853E-6
417.000000	5.265846	-2.483392E-6
418.000000	5.494882	-1.686745E-6
419.000000	5.650077	-1.271015E-6
420.000000	5.471111	-1.270054E-6
421.000000	5.424412	-1.337709E-6
422.000000	5.586755	-1.253642E-6
423.000000	5.376710	-1.274778E-6
424.000000	5.295191	-1.401166E-6
425.000000	5.313224	-1.513122E-6
426.000000	5.266241	-1.594926E-6
427.000000	5.313115	-1.688521E-6
428.000000	5.260096	-1.843118E-6
429.000000	5.200761	-2.033231E-6
430.000000	5.164461	-2.181947E-6
431.000000	5.256658	-2.239519E-6
432.000000	5.263869	-2.233857E-6
433.000000	5.233138	-2.281233E-6
434.000000	5.158794	-2.474176E-6
435.000000	5.212462	-2.553899E-6
436.000000	5.272230	-2.620224E-6
437.000000	5.209423	-2.848203E-6
438.000000	5.274944	-2.930701E-6
439.000000	5.293874	-2.903848E-6
440.000000	5.339970	-2.964708E-6
441.000000	5.335937	-3.237526E-6
442.000000	5.429640	-3.166957E-6
443.000000	5.447621	-3.028893E-6
444.000000	5.472021	-3.053259E-6
445.000000	5.517784	-2.999869E-6
446.000000	5.559605	-3.008348E-6
447.000000	5.447162	-3.342010E-6
448.000000	5.471369	-3.665366E-6
449.000000	5.667958	-3.446273E-6
450.000000	5.605467	-3.264216E-6
451.000000	5.492103	-3.557866E-6
452.000000	5.523313	-3.717834E-6
453.000000	5.617779	-3.491340E-6
454.000000	5.691578	-3.200932E-6
455.000000	5.545642	-3.289872E-6
456.000000	5.425524	-3.762759E-6
457.000000	5.327372	-4.145132E-6
458.000000	5.543395	-4.275601E-6
459.000000	5.651897	-4.089183E-6
460.000000	5.676008	-3.836665E-6
461.000000	5.738773	-3.615258E-6
462.000000	5.728590	-3.504548E-6
463.000000	5.745946	-3.511642E-6
464.000000	5.792470	-3.574260E-6
465.000000	5.866456	-3.640297E-6
466.000000	6.058426	-3.399404E-6
467.000000	6.197581	-2.836372E-6
468.000000	5.977864	-2.880973E-6
469.000000	5.798303	-3.587661E-6
470.000000	6.048615	-3.646423E-6
471.000000	6.321537	-2.931916E-6
472.000000	6.177849	-2.915515E-6
473.000000	5.975343	-3.805904E-6
474.000000	6.264709	-3.834533E-6
475.000000	6.439144	-3.105914E-6
476.000000	6.337696	-3.081107E-6
477.000000	6.289792	-3.495787E-6
478.000000	6.495161	-3.301459E-6
479.000000	6.437518	-3.326480E-6
480.000000	6.342619	-3.897414E-6
481.000000	6.576104	-3.795294E-6
482.000000	6.952089	-2.915493E-6
483.000000	6.501753	-3.070846E-6
484.000000	6.629442	-3.670510E-6
485.000000	7.003963	-3.230599E-6
486.000000	6.831826	-3.117067E-6
487.000000	6.843402	-3.626664E-6
488.000000	7.120526	-3.532168E-6
489.000000	7.042586	-3.183273E-6
490.000000	6.823135	-3.533760E-6
491.000000	6.975642	-3.897272E-6
492.000000	6.916779	-4.273537E-6
493.000000	6.970203	-4.449336E-6
494.000000	7.171309	-4.105429E-6
495.000000	7.025350	-4.147324E-6
496.000000	6.984938	-4.619425E-6
497.000000	7.106432	-4.837322E-6
498.000000	7.216425	-4.558276E-6
499.000000	7.280751	-4.551783E-6
500.000000	7.168525	-5.121667E-6
501.000000	6.983019	-5.877587E-6
502.000000	7.286608	-5.649315E-6
503.000000	7.311872	-5.472630E-6
504.000000	7.158411	-6.329859E-6
505.000000	7.324336	-7.026252E-6
506.000000	7.478304	-6.376413E-6
507.000000	7.674646	-5.458235E-6
508.000000	7.556900	-5.359287E-6
509.000000	7.680307	-5.365660E-6
510.000000	7.856099	-4.791596E-6
511.000000	7.759096	-4.549624E-6
512.000000	7.692973	-5.123200E-6
513.000000	7.622347	-6.005216E-6
514.000000	7.562624	-7.023382E-6
515.000000	7.654569	-8.326328E-6
516.000000	7.969650	-1.106921E-5
517.000000	7.852181	-1.206674E-5
518.000000	7.952105	-1.005525E-5
519.000000	8.019484	-8.621914E-6
520.000000	8.135037	-8.019381E-6
521.000000	8.458616	-6.270857E-6
522.000000	8.461741	-5.303559E-6
523.000000	8.434063	-5.170262E-6
524.000000	8.137396	-6.854459E-6
525.000000	8.225996	-9.237514E-6
526.000000	8.425698	-9.964010E-6
527.000000	8.607237	-1.133229E-5
528.000000	8.560272	-1.231622E-5
529.000000	8.557480	-1.137034E-5
530.000000	8.560846	-8.578552E-6
531.000000	9.216674	-6.805658E-6
532.000000	9.136855	-5.707388E-6
533.000000	8.956176	-6.190930E-6
534.000000	9.087177	-6.704792E-6
535.000000	8.749675	-8.564656E-6
536.000000	9.137879	-1.249015E-5
537.000000	9.141298	-1.124772E-5
538.000000	9.101818	-8.931151E-6
539.000000	9.276876	-9.066321E-6
540.000000	9.672584	-7.458186E-6
541.000000	9.648471	-6.808992E-6
542.000000	9.612849	-7.040895E-6
543.000000	9.257381	-8.176843E-6
544.000000	9.833151	-1.162787E-5
545.000000	9.742132	-1.177239E-5
546.000000	9.766983	-1.083264E-5
547.000000	9.871656	-1.091228E-5
548.000000	9.931044	-8.344639E-6
549.000000	10.359473	-7.012798E-6
550.000000	10.171806	-6.968651E-6
551.000000	10.063192	-7.703145E-6
552.000000	9.952192	-1.034225E-5
553.000000	10.374666	-1.252420E-5
554.000000	10.433597	-1.305112E-5
555.000000	10.457458	-1.316818E-5
556.000000	10.538690	-1.100332E-5
557.000000	10.549771	-8.915174E-6
558.000000	10.739736	-8.874352E-6
559.000000	10.553584	-9.739400E-6
560.000000	10.963691	-1.248425E-5
561.000000	10.923934	-1.372191E-5
562.000000	10.946088	-1.266410E-5
563.000000	11.069497	-1.266315E-5
564.000000	11.146998	-1.044080E-5
565.000000	11.206096	-8.481247E-6
566.000000	11.174150	-8.742962E-6
567.000000	11.131877	-9.474170E-6
568.000000	11.475880	-1.202992E-5
569.000000	11.421442	-1.308186E-5
570.000000	11.466153	-1.250182E-5
571.000000	11.519981	-1.176056E-5
572.000000	11.642912	-1.028286E-5
573.000000	11.721605	-8.693401E-6
574.000000	11.710052	-9.143946E-6
575.000000	12.017186	-1.121249E-5
576.000000	11.866587	-1.431335E-5
577.000000	11.798481	-1.528108E-5
578.000000	11.874487	-1.585454E-5
579.000000	11.873284	-1.434854E-5
580.000000	11.935579	-1.169076E-5
581.000000	12.143911	-1.077851E-5
582.000000	12.273852	-1.048068E-5
583.000000	12.239389	-1.214082E-5
584.000000	12.102323	-1.475288E-5
585.000000	12.141462	-1.511626E-5
586.000000	12.159917	-1.453100E-5
587.000000	12.218593	-1.347406E-5
588.000000	12.237943	-1.116371E-5
589.000000	12.316925	-1.089232E-5
590.000000	12.389362	-1.137112E-5
591.000000	12.384321	-1.703636E-5
592.000000	12.378309	-1.722397E-5
593.000000	12.183820	-1.708477E-5
594.000000	12.272150	-1.652459E-5
595.000000	12.425987	-1.613393E-5
596.000000	12.450299	-1.623451E-5
597.000000	12.491564	-1.670702E-5
598.000000	12.591150	-1.807284E-5
599.000000	12.422965	-1.946887E-5
600.000000	12.370008	-2.049673E-5
601.000000	12.434697	-2.155412E-5
602.000000	12.340035	-2.161671E-5
603.000000	12.323827	-2.130787E-5
604.000000	12.287154	-2.043076E-5
605.000000	12.311394	-1.972107E-5
606.000000	12.323727	-1.995185E-5
607.000000	12.396392	-2.031523E-5
608.000000	12.439642	-2.172578E-5
609.000000	12.545204	-2.336102E-5
610.000000	12.525826	-2.426975E-5
611.000000	12.501350	-2.504439E-5
612.000000	12.427573	-2.498601E-5
613.000000	12.319698	-2.421833E-5
614.000000	12.288454	-2.308712E-5
615.000000	12.249591	-2.190935E-5
616.000000	12.385805	-2.198237E-5
617.000000	12.461678	-2.288572E-5
618.000000	12.466338	-2.461517E-5
619.000000	12.519316	-2.594457E-5
620.000000	12.424243	-2.644708E-5
621.000000	12.433399	-2.718486E-5
622.000000	12.340286	-2.760100E-5
623.000000	12.253522	-2.827972E-5
624.000000	12.336912	-2.936352E-5
625.000000	12.133934	-3.147057E-5
626.000000	12.028809	-2.974154E-5
627.000000	11.820697	-2.943932E-5
628.000000	12.175910	-2.920702E-5
629.000000	12.220794	-2.942412E-5
630.000000	12.223272	-3.007764E-5
631.000000	12.216797	-3.129422E-5
632.000000	12.208637	-3.274898E-5
633.000000	12.232062	-3.384769E-5
634.000000	12.194609	-3.490086E-5
635.000000	12.151165	-3.483984E-5
636.000000	12.119774	-3.442671E-5
637.000000	12.153523	-3.463284E-5
638.000000	12.122552	-3.469089E-5
639.000000	12.194121	-3.499208E-5
640.000000	12.188745	-3.462462E-5
641.000000	12.108411	-3.372716E-5
642.000000	12.123430	-3.392081E-5
643.000000	12.092723	-3.422749E-5
644.000000	12.175414	-3.610128E-5
645.000000	12.185694	-3.819134E-5
646.000000	12.173490	-3.927630E-5
647.000000	12.157119	-3.914844E-5
648.000000	12.139213	-3.737998E-5
649.000000	12.161656	-3.592193E-5
650.000000	12.125302	-3.491788E-5
651.000000	12.130862	-3.553986E-5
652.000000	12.162431	-3.782597E-5
653.000000	12.217773	-3.935607E-5
654.000000	12.214767	-3.996985E-5
655.000000	12.167402	-3.875841E-5
656.000000	12.181827	-3.668242E-5
657.000000	12.158988	-3.562967E-5
658.000000	12.153623	-3.496278E-5
659.000000	12.174875	-3.638315E-5
660.000000	12.184122	-3.966352E-5
661.000000	12.265326	-4.187620E-5
662.000000	12.295901	-4.227098E-5
663.000000	12.249810	-3.987451E-5
664.000000	12.188394	-3.546925E-5
665.000000	12.237063	-3.331928E-5
666.000000	12.259768	-3.432851E-5
667.000000	12.241955	-3.728444E-5
668.000000	12.299638	-4.073136E-5
669.000000	12.275373	-4.231800E-5
670.000000	12.239099	-4.126088E-5
671.000000	12.249095	-3.821690E-5
672.000000	12.230114	-3.637650E-5
673.000000	12.160777	-3.581538E-5
674.000000	12.264385	-3.649185E-5
675.000000	12.233275	-3.938360E-5
676.000000	12.238553	-4.194385E-5
677.000000	12.251112	-4.207178E-5
678.000000	12.206417	-4.143091E-5
679.000000	12.153887	-3.877410E-5
680.000000	12.243617	-3.694211E-5
681.000000	12.216765	-3.860539E-5
682.000000	12.202367	-4.204310E-5
683.000000	12.195477	-4.439188E-5
684.000000	12.227495	-4.541197E-5
685.000000	12.148673	-4.423756E-5
686.000000	12.120402	-4.072138E-5
687.000000	12.193459	-3.909019E-5
688.000000	12.251627	-4.202127E-5
689.000000	12.188230	-4.443112E-5
690.000000	12.156335	-4.660460E-5
691.000000	12.160904	-4.807735E-5
692.000000	12.144572	-4.662151E-5
693.000000	12.138135	-4.396618E-5
694.000000	12.103495	-4.224136E-5
695.000000	12.118074	-4.319657E-5
696.000000	12.062421	-4.654653E-5
697.000000	12.025097	-5.042585E-5
698.000000	12.048450	-5.303014E-5
699.000000	12.036171	-5.184386E-5
700.000000	12.020851	-4.890432E-5
701.000000	12.031745	-4.734326E-5
702.000000	11.973721	-4.648139E-5
703.000000	11.967754	-4.897011E-5
704.000000	12.007825	-5.432716E-5
705.000000	12.004247	-5.671546E-5
706.000000	11.962734	-5.459685E-5
707.000000	11.991927	-5.208754E-5
708.000000	11.993093	-4.997540E-5
709.000000	11.953586	-4.690851E-5
710.000000	11.875750	-4.738626E-5
711.000000	11.933919	-5.415262E-5
712.000000	11.924197	-5.827130E-5
713.000000	11.967168	-5.627903E-5
714.000000	11.908642	-5.188018E-5
715.000000	11.890088	-4.712203E-5
716.000000	11.860609	-4.579857E-5
717.000000	11.861006	-4.713496E-5
718.000000	11.806133	-5.011223E-5
719.000000	11.758514	-5.313442E-5
720.000000	11.821864	-5.360401E-5
721.000000	11.828216	-5.197435E-5
722.000000	11.827121	-4.861996E-5
723.000000	11.799351	-4.484342E-5
724.000000	11.777651	-4.436582E-5
725.000000	11.746371	-4.656251E-5
726.000000	11.744660	-4.911621E-5
727.000000	11.745588	-5.050953E-5
728.000000	11.752451	-4.943399E-5
729.000000	11.772431	-4.655412E-5
730.000000	11.761776	-4.360242E-5
731.000000	11.700817	-4.225365E-5
732.000000	11.725428	-4.302808E-5
733.000000	11.681855	-4.482173E-5
734.000000	11.681555	-4.689455E-5
735.000000	11.644121	-4.654588E-5
736.000000	11.701543	-4.499971E-5
737.000000	11.652892	-4.319656E-5
738.000000	11.634108	-4.125891E-5
739.000000	11.579195	-4.076524E-5
740.000000	11.623718	-4.177053E-5
741.000000	11.598369	-4.297793E-5
742.000000	11.598283	-4.388451E-5
743.000000	11.636498	-4.313410E-5
744.000000	11.673811	-4.109654E-5
745.000000	11.577947	-3.942587E-5
746.000000	11.638762	-3.892423E-5
747.000000	11.641750	-3.917908E-5
748.000000	11.639644	-4.058433E-5
749.000000	11.624840	-4.124879E-5
750.000000	11.711534	-4.160309E-5
751.000000	11.663861	-4.062046E-5
752.000000	11.688368	-3.893012E-5
753.000000	11.615302	-3.758752E-5
754.000000	11.657144	-3.731612E-5
755.000000	11.670162	-3.773153E-5
756.000000	11.636459	-3.873366E-5
757.000000	11.690653	-3.924637E-5
758.000000	11.711885	-3.897152E-5
759.000000	11.724328	-3.834860E-5
760.000000	11.705261	-3.705279E-5
761.000000	11.682540	-3.594153E-5
762.000000	11.674995	-3.587941E-5
763.000000	11.647010	-3.660873E-5
764.000000	11.704840	-3.772466E-5
765.000000	11.744124	-3.829136E-5
766.000000	11.786739	-3.809053E-5
767.000000	11.755764	-3.710771E-5
768.000000	11.728629	-3.592148E-5
769.000000	11.741694	-3.562018E-5
770.000000	11.740926	-3.629660E-5
771.000000	11.782281	-3.746832E-5
772.000000	11.805326	-3.832616E-5
773.000000	11.833534	-3.848390E-5
774.000000	11.836240	-3.756279E-5
775.000000	11.756167	-3.615377E-5
776.000000	11.723062	-3.521230E-5
777.000000	11.777170	-3.579203E-5
778.000000	11.763170	-3.731578E-5
779.000000	11.768643	-3.886630E-5
780.000000	11.798144	-3.963413E-5
781.000000	11.784464	-3.885313E-5
782.000000	11.785061	-3.745011E-5
783.000000	11.773750	-3.634336E-5
784.000000	11.728654	-3.640355E-5
785.000000	11.668666	-3.786910E-5
786.000000	11.631611	-3.930426E-5
787.000000	11.649364	-4.016108E-5
788.000000	11.681203	-3.975612E-5
789.000000	11.627535	-3.787084E-5
790.000000	11.627927	-3.631604E-5
791.000000	11.598675	-3.593374E-5
792.000000	11.542703	-3.700377E-5
793.000000	11.552015	-3.903618E-5
794.000000	11.552989	-4.079394E-5
795.000000	11.555377	-4.080834E-5
796.000000	11.523656	-3.865822E-5
797.000000	11.540048	-3.665116E-5
798.000000	11.451217	-3.602185E-5
799.000000	11.399496	-3.656459E-5
800.000000	11.403799	-3.861933E-5
801.000000	11.388821	-4.086615E-5
802.000000	11.383624	-4.114645E-5
803.000000	11.351327	-3.925411E-5
804.000000	11.337147	-3.654130E-5
805.000000	11.277592	-3.456188E-5
806.000000	11.211142	-3.436673E-5
807.000000	11.184262	-3.626322E-5
808.000000	11.190255	-3.897834E-5
809.000000	11.165737	-4.028555E-5
810.000000	11.167372	-3.938691E-5
811.000000	11.092471	-3.725153E-5
812.000000	11.029453	-3.490719E-5
813.000000	10.988982	-3.408527E-5
814.000000	10.933603	-3.571495E-5
815.000000	10.918378	-3.823687E-5
816.000000	10.921083	-4.046330E-5
817.000000	10.902559	-4.041276E-5
818.000000	10.856908	-3.749626E-5
819.000000	10.777722	-3.456650E-5
820.000000	10.769761	-3.343288E-5
821.000000	10.696880	-3.429366E-5
822.000000	10.687379	-3.730866E-5
823.000000	10.691911	-4.013134E-5
824.000000	10.651872	-4.049145E-5
825.000000	10.591041	-3.851870E-5
826.000000	10.575874	-3.613815E-5
827.000000	10.547436	-3.500724E-5
828.000000	10.476779	-3.566868E-5
829.000000	10.432315	-3.770280E-5
830.000000	10.443116	-4.050049E-5
831.000000	10.395306	-4.217285E-5
832.000000	10.372284	-4.160608E-5
833.000000	10.332351	-3.912675E-5
834.000000	10.278650	-3.664176E-5
835.000000	10.230212	-3.591606E-5
836.000000	10.198215	-3.735712E-5
837.000000	10.171598	-3.935395E-5
838.000000	10.136359	-4.072438E-5
839.000000	10.139608	-4.072690E-5
840.000000	10.079333	-3.863355E-5
841.000000	10.013894	-3.583917E-5
842.000000	9.988991	-3.464972E-5
843.000000	9.964472	-3.555348E-5
844.000000	9.921611	-3.696022E-5
845.000000	9.886757	-3.833937E-5
846.000000	9.861972	-3.879177E-5
847.000000	9.801223	-3.711748E-5
848.000000	9.783838	-3.422557E-5
849.000000	9.699353	-3.227547E-5
850.000000	9.663838	-3.228538E-5
851.000000	9.623459	-3.334362E-5
852.000000	9.552900	-3.438559E-5
853.000000	9.493971	-3.464328E-5
854.000000	9.418161	-3.332751E-5
855.000000	9.343029	-3.121517E-5
856.000000	9.295344	-2.945032E-5
857.000000	9.233538	-2.858131E-5
858.000000	9.157672	-2.914672E-5
859.000000	9.109434	-2.992080E-5
860.000000	9.000700	-2.936264E-5
861.000000	8.918356	-2.790630E-5
862.000000	8.846117	-2.620769E-5
863.000000	8.758340	-2.469363E-5
864.000000	8.658380	-2.389720E-5
865.000000	8.587760	-2.383228E-5
866.000000	8.461702	-2.393999E-5
867.000000	8.377978	-2.401359E-5
868.000000	8.274704	-2.294033E-5
869.000000	8.129644	-2.092093E-5
870.000000	8.035761	-1.972500E-5
871.000000	7.932119	-1.935329E-5
872.000000	7.818842	-1.919165E-5
873.000000	7.689291	-1.904276E-5
874.000000	7.552396	-1.864481E-5
875.000000	7.416734	-1.791570E-5
876.000000	7.266877	-1.685254E-5
877.000000	7.134526	-1.587695E-5
878.000000	6.999403	-1.527458E-5
879.000000	6.858631	-1.483090E-5
880.000000	6.711269	-1.448620E-5
881.000000	6.565126	-1.418721E-5
882.000000	6.419298	-1.375659E-5
883.000000	6.264424	-1.317740E-5
884.000000	6.091285	-1.244750E-5
885.000000	5.936362	-1.174246E-5
886.000000	5.793133	-1.136041E-5
887.000000	5.632419	-1.120053E-5
888.000000	5.488151	-1.096548E-5
889.000000	5.337834	-1.061287E-5
890.000000	5.192360	-1.016984E-5
891.000000	5.003858	-9.545826E-6
892.000000	4.914363	-9.158575E-6
893.000000	4.742156	-8.877958E-6
894.000000	4.600355	-8.725792E-6
895.000000	4.471269	-8.456824E-6
896.000000	4.307792	-8.200735E-6
897.000000	4.173041	-7.982469E-6
898.000000	4.061399	-7.544708E-6
899.000000	3.928804	-7.120578E-6
900.000000	3.781793	-6.889570E-6
901.000000	3.655939	-6.712502E-6
902.000000	3.521104	-6.471427E-6
903.000000	3.405053	-6.238633E-6
904.000000	3.277038	-6.038171E-6
905.000000	3.156000	-5.828862E-6
906.000000	3.054835	-5.575714E-6
907.000000	2.948076	-5.383255E-6
908.000000	2.829420	-5.178765E-6
909.000000	2.726581	-4.918562E-6
910.000000	2.626797	-4.724065E-6
911.000000	2.527111	-4.561928E-6
912.000000	2.425541	-4.417088E-6
913.000000	2.336948	-4.275459E-6
914.000000	2.253693	-4.105010E-6
915.000000	2.176588	-3.931842E-6
916.000000	2.086640	-3.716254E-6
917.000000	1.999003	-3.527220E-6
918.000000	1.913501	-3.392996E-6
919.000000	1.843612	-3.269789E-6
920.000000	1.769463	-3.151571E-6
921.000000	1.703131	-3.058007E-6
922.000000	1.647433	-2.914423E-6
923.000000	1.580841	-2.748333E-6
924.000000	1.509536	-2.610609E-6
925.000000	1.457363	-2.496811E-6
926.000000	1.390561	-2.386513E-6
927.000000	1.333770	-2.302266E-6
928.000000	1.284660	-2.218532E-6
929.000000	1.240892	-2.136089E-6
930.000000	1.195821	-2.007302E-6
931.000000	1.148362	-1.885931E-6
932.000000	1.097995	-1.786083E-6
933.000000	1.051512	-1.688850E-6
934.000000	1.008850	-1.638157E-6
935.000000	0.965329	-1.588123E-6
936.000000	0.930552	-1.516718E-6
937.000000	0.901645	-1.442850E-6
938.000000	0.869319	-1.354564E-6
939.000000	0.827794	-1.281581E-6
940.000000	0.798201	-1.244568E-6
941.000000	0.765945	-1.189941E-6
942.000000	0.732288	-1.141358E-6
943.000000	0.703004	-1.093642E-6
944.000000	0.683606	-1.041290E-6
945.000000	0.367396	-5.494294E-7
946.000000	0.481345	-7.053256E-7
947.000000	0.536230	-7.720945E-7
948.000000	0.547777	-7.931193E-7
949.000000	0.543479	-7.928883E-7
950.000000	0.534845	-7.815730E-7
951.000000	0.524746	-7.614648E-7
952.000000	0.516396	-7.338423E-7
953.000000	0.502858	-7.046086E-7
954.000000	0.487255	-6.751276E-7
955.000000	0.465887	-6.428514E-7
956.000000	0.445961	-6.199369E-7
957.000000	0.430186	-5.953471E-7
958.000000	0.416588	-5.739739E-7
959.000000	0.405986	-5.516407E-7
960.000000	0.402361	-5.268394E-7
961.000000	0.388470	-5.004017E-7
962.000000	0.373184	-4.786176E-7
963.000000	0.356046	-4.595507E-7
964.000000	0.340424	-4.445312E-7
965.000000	0.332145	-4.292880E-7
966.000000	0.325786	-4.149096E-7
967.000000	0.317790	-4.005852E-7
968.000000	0.312196	-3.850936E-7
969.000000	0.302353	-3.702292E-7
970.000000	0.291863	-3.593657E-7
971.000000	0.282310	-3.486298E-7
972.000000	0.275352	-3.376788E-7
973.000000	0.272775	-3.279281E-7
974.000000	0.269441	-3.159590E-7
975.000000	0.266382	-3.063086E-7
976.000000	0.262215	-2.963631E-7
977.000000	0.252326	-2.870952E-7
978.000000	0.243381	-2.797672E-7
979.000000	0.238162	-2.724747E-7
980.000000	0.233585	-2.660926E-7
981.000000	0.231620	-2.608181E-7
982.000000	0.230532	-2.549927E-7
983.000000	0.227807	-2.499039E-7
984.000000	0.222272	-2.447333E-7
985.000000	0.215215	-2.388296E-7
986.000000	0.213382	-2.350174E-7
987.000000	0.213660	-2.306816E-7
988.000000	0.213152	-2.262517E-7
989.000000	0.213038	-2.218179E-7
990.000000	0.213080	-2.184401E-7
991.000000	0.208093	-2.143550E-7
992.000000	0.203082	-2.113620E-7
993.000000	0.198028	-2.080048E-7
994.000000	0.196293	-2.065710E-7
995.000000	0.196508	-2.049719E-7
996.000000	0.197221	-2.041218E-7
997.000000	0.196320	-2.010411E-7
998.000000	0.197258	-2.006305E-7
999.000000	0.193275	-1.977118E-7
1000.000000	0.189952	-1.950412E-7
1001.000000	0.188748	-1.930665E-7
1002.000000	0.189816	-1.921999E-7
1003.000000	0.191457	-1.911976E-7
1004.000000	0.191038	-1.892742E-7
1005.000000	0.186903	-1.863737E-7
1006.000000	0.184180	-1.858317E-7
1007.000000	0.178369	-1.829923E-7
1008.000000	0.174671	-1.807325E-7
1009.000000	0.175391	-1.797055E-7
1010.000000	0.177236	-1.795694E-7
1011.000000	0.178171	-1.792612E-7
1012.000000	0.176162	-1.784552E-7
1013.000000	0.173363	-1.779075E-7
1014.000000	0.169958	-1.762207E-7
1015.000000	0.168158	-1.754387E-7
1016.000000	0.168380	-1.754406E-7
1017.000000	0.168430	-1.748343E-7
1018.000000	0.166156	-1.742863E-7
1019.000000	0.160567	-1.728251E-7
1020.000000	0.152823	-1.710115E-7
1021.000000	0.145978	-1.702341E-7
1022.000000	0.143531	-1.715222E-7
1023.000000	0.140323	-1.703548E-7
1024.000000	0.138036	-1.705530E-7
1025.000000	0.134208	-1.703787E-7
1026.000000	0.129317	-1.709214E-7
1027.000000	0.124776	-1.714553E-7
1028.000000	0.122579	-1.730222E-7
1029.000000	0.120925	-1.725148E-7
1030.000000	0.120368	-1.720709E-7
1031.000000	0.120194	-1.715175E-7
1032.000000	0.119242	-1.701759E-7
1033.000000	0.118761	-1.700414E-7
1034.000000	0.118483	-1.690278E-7
1035.000000	0.120445	-1.693599E-7
1036.000000	0.121645	-1.685643E-7
1037.000000	0.125189	-1.676240E-7
1038.000000	0.131332	-1.666665E-7
1039.000000	0.136247	-1.642692E-7
1040.000000	0.140256	-1.644855E-7
1041.000000	0.140867	-1.640450E-7
1042.000000	0.140204	-1.631932E-7
1043.000000	0.139792	-1.628932E-7
1044.000000	0.140356	-1.635741E-7
1045.000000	0.139201	-1.629167E-7
1046.000000	0.136975	-1.612348E-7
1047.000000	0.133631	-1.610583E-7
1048.000000	0.129368	-1.609990E-7
1049.000000	0.123727	-1.589857E-7
1050.000000	0.120981	-1.602067E-7
1051.000000	0.117362	-1.588480E-7
1052.000000	0.115185	-1.600022E-7
1053.000000	0.111394	-1.596430E-7
1054.000000	0.107119	-1.585287E-7
1055.000000	0.101782	-1.583317E-7
1056.000000	0.095709	-1.591075E-7
1057.000000	0.090264	-1.601076E-7
1058.000000	0.084705	-1.607725E-7
1059.000000	0.078498	-1.613945E-7
1060.000000	0.071095	-1.613999E-7
1061.000000	0.060408	-1.611288E-7
1062.000000	0.050581	-1.618218E-7
1063.000000	0.032806	-1.628376E-7
1064.000000	0.018614	-1.663481E-7
1065.000000	0.016325	-1.740344E-7
1066.000000	0.023477	-1.780480E-7
1067.000000	0.038955	-1.749268E-7
1068.000000	0.049400	-1.700415E-7
1069.000000	0.058932	-1.668335E-7
1070.000000	0.071313	-1.632904E-7
1071.000000	0.084176	-1.594915E-7
1072.000000	0.094337	-1.583001E-7
1073.000000	0.101444	-1.574337E-7
1074.000000	0.109013	-1.573373E-7
1075.000000	0.114763	-1.567951E-7
1076.000000	0.118574	-1.562477E-7
1077.000000	0.117746	-1.564228E-7
1078.000000	0.115821	-1.560330E-7
1079.000000	0.114305	-1.543306E-7
1080.000000	0.118344	-1.549090E-7
1081.000000	0.127002	-1.550808E-7
1082.000000	0.136039	-1.554784E-7
1083.000000	0.138635	-1.542852E-7
1084.000000	0.141063	-1.547531E-7
1085.000000	0.141181	-1.542061E-7
1086.000000	0.142757	-1.550731E-7
1087.000000	0.145929	-1.557339E-7
1088.000000	0.148367	-1.548318E-7
1089.000000	0.150957	-1.547365E-7
1090.000000	0.152787	-1.540793E-7
1091.000000	0.154485	-1.539254E-7
1092.000000	0.156309	-1.542772E-7
1093.000000	0.158483	-1.547058E-7
1094.000000	0.162059	-1.564287E-7
1095.000000	0.165591	-1.560845E-7
1096.000000	0.166017	-1.544475E-7
1097.000000	0.167067	-1.550613E-7
1098.000000	0.168430	-1.549961E-7
1099.000000	0.164094	-1.546606E-7
1100.000000	0.158962	-1.536015E-7
