Wavelength (nm)	EQE (%)	Current (A)	Dark Current (A) -> 	-6.726064000E-9	
400.000000	5.714007	-1.679038E-7
401.000000	6.295989	-2.503264E-7
402.000000	6.307590	-3.813001E-7
403.000000	6.229527	-5.458774E-7
404.000000	6.134767	-7.301617E-7
405.000000	6.197758	-9.400308E-7
406.000000	6.254518	-1.255371E-6
407.000000	6.249130	-1.318152E-6
408.000000	6.213048	-1.427270E-6
409.000000	6.177285	-1.495063E-6
410.000000	6.219141	-1.609515E-6
411.000000	6.224563	-2.051073E-6
412.000000	6.191052	-2.346542E-6
413.000000	6.291151	-3.153079E-6
414.000000	6.271159	-3.551853E-6
415.000000	6.221147	-3.559943E-6
416.000000	6.314383	-3.386201E-6
417.000000	6.322752	-2.981833E-6
418.000000	6.216032	-1.908114E-6
419.000000	6.256188	-1.407363E-6
420.000000	6.461116	-1.499872E-6
421.000000	6.538284	-1.612400E-6
422.000000	6.479069	-1.453873E-6
423.000000	6.547805	-1.552436E-6
424.000000	6.582821	-1.741887E-6
425.000000	6.615649	-1.884032E-6
426.000000	6.609085	-2.001618E-6
427.000000	6.733881	-2.140044E-6
428.000000	6.859305	-2.403475E-6
429.000000	6.837380	-2.673065E-6
430.000000	6.820385	-2.881563E-6
431.000000	6.991524	-2.978632E-6
432.000000	7.002925	-2.971870E-6
433.000000	7.078352	-3.085600E-6
434.000000	7.138871	-3.423828E-6
435.000000	7.161274	-3.508739E-6
436.000000	7.234320	-3.595355E-6
437.000000	7.298215	-3.990231E-6
438.000000	7.350580	-4.083902E-6
439.000000	7.449312	-4.086170E-6
440.000000	7.592415	-4.215247E-6
441.000000	7.688549	-4.664949E-6
442.000000	7.765858	-4.529608E-6
443.000000	7.865678	-4.373340E-6
444.000000	7.924831	-4.421869E-6
445.000000	7.908481	-4.299626E-6
446.000000	8.006525	-4.332396E-6
447.000000	8.126072	-4.985608E-6
448.000000	8.175128	-5.476661E-6
449.000000	8.180899	-4.974210E-6
450.000000	8.256869	-4.808199E-6
451.000000	8.351017	-5.409913E-6
452.000000	8.306676	-5.591362E-6
453.000000	8.245149	-5.124199E-6
454.000000	8.399684	-4.723966E-6
455.000000	8.431467	-5.001846E-6
456.000000	8.447991	-5.858928E-6
457.000000	8.285214	-6.446575E-6
458.000000	8.552472	-6.596492E-6
459.000000	8.606398	-6.226783E-6
460.000000	8.554685	-5.782490E-6
461.000000	8.627219	-5.434894E-6
462.000000	8.713506	-5.330614E-6
463.000000	8.807904	-5.382961E-6
464.000000	8.845697	-5.458262E-6
465.000000	9.021350	-5.597995E-6
466.000000	8.967281	-5.031573E-6
467.000000	8.938126	-4.090604E-6
468.000000	9.066503	-4.369512E-6
469.000000	9.091645	-5.625395E-6
470.000000	9.081724	-5.474940E-6
471.000000	9.115969	-4.227968E-6
472.000000	9.277387	-4.378281E-6
473.000000	9.298601	-5.922603E-6
474.000000	9.340490	-5.717172E-6
475.000000	9.260749	-4.466912E-6
476.000000	9.333339	-4.537456E-6
477.000000	9.447720	-5.250924E-6
478.000000	9.388702	-4.772232E-6
479.000000	9.550302	-4.934959E-6
480.000000	9.507165	-5.841965E-6
481.000000	9.493083	-5.478782E-6
482.000000	9.438652	-3.958281E-6
483.000000	9.610647	-4.539209E-6
484.000000	9.651322	-5.343628E-6
485.000000	9.517322	-4.389893E-6
486.000000	9.674055	-4.413853E-6
487.000000	9.659031	-5.118808E-6
488.000000	9.640412	-4.782168E-6
489.000000	9.645413	-4.359760E-6
490.000000	9.618468	-4.981487E-6
491.000000	9.670445	-5.402851E-6
492.000000	9.614036	-5.940039E-6
493.000000	9.523645	-6.079291E-6
494.000000	9.529354	-5.455362E-6
495.000000	9.542365	-5.633211E-6
496.000000	9.601394	-6.349794E-6
497.000000	9.653574	-6.571152E-6
498.000000	9.372372	-5.920086E-6
499.000000	9.420985	-5.889815E-6
500.000000	9.480096	-6.773206E-6
501.000000	9.257354	-7.791888E-6
502.000000	9.247908	-7.169913E-6
503.000000	9.379309	-7.020020E-6
504.000000	9.299326	-8.222974E-6
505.000000	9.253815	-8.877206E-6
506.000000	9.147833	-7.799945E-6
507.000000	9.145626	-6.504401E-6
508.000000	9.189363	-6.517015E-6
509.000000	9.071459	-6.337554E-6
510.000000	8.987378	-5.481586E-6
511.000000	9.033397	-5.296823E-6
512.000000	9.140625	-6.087276E-6
513.000000	8.989223	-7.082101E-6
514.000000	8.975361	-8.335386E-6
515.000000	9.045417	-9.839236E-6
516.000000	9.065429	-1.259116E-5
517.000000	8.881199	-1.364807E-5
518.000000	8.823177	-1.115670E-5
519.000000	8.822801	-9.485577E-6
520.000000	8.768046	-8.643390E-6
521.000000	8.633978	-6.400863E-6
522.000000	8.647990	-5.420294E-6
523.000000	8.665019	-5.311843E-6
524.000000	8.793662	-7.407258E-6
525.000000	8.742118	-9.817102E-6
526.000000	8.727007	-1.032033E-5
527.000000	8.692578	-1.144465E-5
528.000000	8.567014	-1.232592E-5
529.000000	8.481646	-1.126958E-5
530.000000	8.437395	-8.454846E-6
531.000000	8.336634	-6.155830E-6
532.000000	8.327646	-5.201911E-6
533.000000	8.413661	-5.815918E-6
534.000000	8.457778	-6.240403E-6
535.000000	8.506550	-8.326672E-6
536.000000	8.455539	-1.155749E-5
537.000000	8.281443	-1.018973E-5
538.000000	8.232718	-8.078348E-6
539.000000	8.343013	-8.153654E-6
540.000000	8.093969	-6.240972E-6
541.000000	8.147738	-5.749914E-6
542.000000	8.174239	-5.987190E-6
543.000000	8.221316	-7.261709E-6
544.000000	8.217185	-9.716963E-6
545.000000	8.133580	-9.828616E-6
546.000000	8.141133	-9.029397E-6
547.000000	8.147998	-9.006922E-6
548.000000	8.036768	-6.752958E-6
549.000000	8.056869	-5.454061E-6
550.000000	8.039425	-5.507768E-6
551.000000	8.060819	-6.170374E-6
552.000000	8.165425	-8.485454E-6
553.000000	8.156833	-9.846853E-6
554.000000	8.146357	-1.019007E-5
555.000000	8.109041	-1.021102E-5
556.000000	8.082028	-8.438349E-6
557.000000	7.981902	-6.745174E-6
558.000000	8.062029	-6.661736E-6
559.000000	8.114446	-7.488436E-6
560.000000	8.130130	-9.257701E-6
561.000000	8.136449	-1.022046E-5
562.000000	8.142404	-9.420371E-6
563.000000	8.179270	-9.356823E-6
564.000000	8.143530	-7.627611E-6
565.000000	8.126199	-6.150251E-6
566.000000	8.147847	-6.375099E-6
567.000000	8.188550	-6.969150E-6
568.000000	8.269849	-8.669106E-6
569.000000	8.255752	-9.455950E-6
570.000000	8.229695	-8.973032E-6
571.000000	8.305431	-8.478879E-6
572.000000	8.248312	-7.284796E-6
573.000000	8.275038	-6.137233E-6
574.000000	8.401607	-6.560504E-6
575.000000	8.530739	-7.959503E-6
576.000000	8.535369	-1.029527E-5
577.000000	8.596014	-1.113333E-5
578.000000	8.639942	-1.153585E-5
579.000000	8.585713	-1.037560E-5
580.000000	8.504930	-8.330479E-6
581.000000	8.630212	-7.659874E-6
582.000000	8.725509	-7.450739E-6
583.000000	8.863204	-8.791825E-6
584.000000	8.871740	-1.081476E-5
585.000000	8.906263	-1.108840E-5
586.000000	8.907367	-1.064423E-5
587.000000	8.847991	-9.757127E-6
588.000000	8.880324	-8.100819E-6
589.000000	9.002870	-7.961577E-6
590.000000	9.012590	-8.271874E-6
591.000000	8.990633	-1.236787E-5
592.000000	9.069635	-1.262007E-5
593.000000	9.136519	-1.281169E-5
594.000000	9.094361	-1.224566E-5
595.000000	9.179867	-1.191916E-5
596.000000	9.205868	-1.200395E-5
597.000000	9.299411	-1.243763E-5
598.000000	9.455687	-1.357232E-5
599.000000	9.439973	-1.479402E-5
600.000000	9.435645	-1.563458E-5
601.000000	9.613079	-1.666317E-5
602.000000	9.631956	-1.687282E-5
603.000000	9.646328	-1.667848E-5
604.000000	9.760948	-1.623025E-5
605.000000	9.737004	-1.559727E-5
606.000000	9.833941	-1.592094E-5
607.000000	9.879395	-1.619037E-5
608.000000	9.973973	-1.741950E-5
609.000000	10.083127	-1.877627E-5
610.000000	10.145502	-1.965769E-5
611.000000	10.264495	-2.056322E-5
612.000000	10.382416	-2.087416E-5
613.000000	10.340882	-2.032833E-5
614.000000	10.384305	-1.950967E-5
615.000000	10.402235	-1.860521E-5
616.000000	10.575486	-1.876941E-5
617.000000	10.674816	-1.960417E-5
618.000000	10.715168	-2.115743E-5
619.000000	10.893660	-2.257562E-5
620.000000	10.919503	-2.324399E-5
621.000000	11.005648	-2.406317E-5
622.000000	11.100593	-2.482823E-5
623.000000	11.166770	-2.577162E-5
624.000000	11.296236	-2.688657E-5
625.000000	11.245385	-2.916603E-5
626.000000	11.264708	-2.785228E-5
627.000000	11.088684	-2.761625E-5
628.000000	11.456391	-2.748107E-5
629.000000	11.579438	-2.787992E-5
630.000000	11.628291	-2.861358E-5
631.000000	11.728297	-3.004289E-5
632.000000	11.852362	-3.179329E-5
633.000000	11.931943	-3.301722E-5
634.000000	11.923305	-3.412439E-5
635.000000	11.968855	-3.431712E-5
636.000000	12.008204	-3.410979E-5
637.000000	12.056310	-3.435582E-5
638.000000	12.139451	-3.473925E-5
639.000000	12.299792	-3.529531E-5
640.000000	12.301925	-3.494613E-5
641.000000	12.322852	-3.432447E-5
642.000000	12.351261	-3.455827E-5
643.000000	12.397939	-3.509138E-5
644.000000	12.538319	-3.717733E-5
645.000000	12.570967	-3.939883E-5
646.000000	12.596661	-4.064161E-5
647.000000	12.619132	-4.063622E-5
648.000000	12.602867	-3.880770E-5
649.000000	12.646741	-3.735473E-5
650.000000	12.702887	-3.658118E-5
651.000000	12.707838	-3.723023E-5
652.000000	12.767022	-3.970629E-5
653.000000	12.810263	-4.126461E-5
654.000000	12.815673	-4.193617E-5
655.000000	12.772978	-4.068743E-5
656.000000	12.767665	-3.844652E-5
657.000000	12.783672	-3.746019E-5
658.000000	12.797387	-3.681472E-5
659.000000	12.906847	-3.857056E-5
660.000000	12.919236	-4.205657E-5
661.000000	12.979867	-4.431578E-5
662.000000	12.998043	-4.468481E-5
663.000000	13.002251	-4.232379E-5
664.000000	12.958932	-3.771158E-5
665.000000	12.994647	-3.538204E-5
666.000000	12.931388	-3.620911E-5
667.000000	12.985388	-3.954866E-5
668.000000	13.017299	-4.310796E-5
669.000000	13.041054	-4.495760E-5
670.000000	13.016075	-4.388025E-5
671.000000	12.990895	-4.053130E-5
672.000000	13.059182	-3.884243E-5
673.000000	13.027091	-3.836681E-5
674.000000	13.082915	-3.892733E-5
675.000000	13.162481	-4.237507E-5
676.000000	13.167303	-4.512685E-5
677.000000	13.192605	-4.530498E-5
678.000000	13.220573	-4.487315E-5
679.000000	13.229808	-4.220657E-5
680.000000	13.319692	-4.018890E-5
681.000000	13.382277	-4.228845E-5
682.000000	13.358773	-4.602748E-5
683.000000	13.428783	-4.888115E-5
684.000000	13.449701	-4.995115E-5
685.000000	13.558489	-4.937119E-5
686.000000	13.522082	-4.543066E-5
687.000000	13.650840	-4.376231E-5
688.000000	13.775940	-4.724944E-5
689.000000	13.876786	-5.058660E-5
690.000000	13.921683	-5.337254E-5
691.000000	14.005346	-5.536923E-5
692.000000	13.978382	-5.366128E-5
693.000000	14.051441	-5.089647E-5
694.000000	14.117536	-4.927039E-5
695.000000	14.092439	-5.023447E-5
696.000000	14.233985	-5.492617E-5
697.000000	14.384485	-6.031967E-5
698.000000	14.461308	-6.365011E-5
699.000000	14.507964	-6.249071E-5
700.000000	14.613546	-5.945216E-5
701.000000	14.684115	-5.777997E-5
702.000000	14.688202	-5.701887E-5
703.000000	14.871779	-6.085291E-5
704.000000	14.981808	-6.778239E-5
705.000000	15.066909	-7.118536E-5
706.000000	15.060527	-6.873490E-5
707.000000	15.153067	-6.581811E-5
708.000000	15.242906	-6.351742E-5
709.000000	15.190616	-5.961133E-5
710.000000	15.219455	-6.072821E-5
711.000000	15.404148	-6.989950E-5
712.000000	15.436172	-7.543366E-5
713.000000	15.504182	-7.291285E-5
714.000000	15.422490	-6.718831E-5
715.000000	15.376802	-6.094035E-5
716.000000	15.400505	-5.946753E-5
717.000000	15.438143	-6.135030E-5
718.000000	15.316856	-6.501382E-5
719.000000	15.329740	-6.927209E-5
720.000000	15.262162	-6.920339E-5
721.000000	15.406790	-6.769896E-5
722.000000	15.329725	-6.301877E-5
723.000000	15.342497	-5.830914E-5
724.000000	15.282790	-5.756950E-5
725.000000	15.218218	-6.032488E-5
726.000000	15.197417	-6.355565E-5
727.000000	15.198037	-6.535609E-5
728.000000	15.250621	-6.414824E-5
729.000000	15.160464	-5.995211E-5
730.000000	15.082154	-5.591149E-5
731.000000	14.937523	-5.394195E-5
732.000000	14.788607	-5.426884E-5
733.000000	14.814145	-5.683991E-5
734.000000	14.762125	-5.926122E-5
735.000000	14.612051	-5.840980E-5
736.000000	14.629969	-5.626133E-5
737.000000	14.495172	-5.373272E-5
738.000000	14.391321	-5.103702E-5
739.000000	14.322787	-5.042422E-5
740.000000	14.247072	-5.119771E-5
741.000000	14.105260	-5.226725E-5
742.000000	14.033852	-5.309999E-5
743.000000	14.000991	-5.189879E-5
744.000000	13.969603	-4.917866E-5
745.000000	13.829728	-4.709376E-5
746.000000	13.714030	-4.586468E-5
747.000000	13.612972	-4.581302E-5
748.000000	13.517029	-4.713027E-5
749.000000	13.447327	-4.771558E-5
750.000000	13.406172	-4.762298E-5
751.000000	13.304909	-4.633556E-5
752.000000	13.169285	-4.386257E-5
753.000000	13.012935	-4.211031E-5
754.000000	12.936761	-4.141235E-5
755.000000	12.889408	-4.167355E-5
756.000000	12.810498	-4.264162E-5
757.000000	12.748715	-4.279836E-5
758.000000	12.680378	-4.219420E-5
759.000000	12.639067	-4.134058E-5
760.000000	12.572068	-3.979665E-5
761.000000	12.481164	-3.839851E-5
762.000000	12.382535	-3.805381E-5
763.000000	12.340984	-3.879002E-5
764.000000	12.336569	-3.976072E-5
765.000000	12.293971	-4.008412E-5
766.000000	12.281531	-3.968952E-5
767.000000	12.249235	-3.866538E-5
768.000000	12.202345	-3.737234E-5
769.000000	12.180670	-3.695188E-5
770.000000	12.141685	-3.753553E-5
771.000000	12.078550	-3.841047E-5
772.000000	12.102990	-3.929253E-5
773.000000	12.101533	-3.935546E-5
774.000000	12.101496	-3.840459E-5
775.000000	12.009342	-3.693236E-5
776.000000	12.002592	-3.605192E-5
777.000000	12.010618	-3.650150E-5
778.000000	12.022648	-3.813891E-5
779.000000	12.048032	-3.978899E-5
780.000000	12.079124	-4.057804E-5
781.000000	12.096144	-3.988073E-5
782.000000	12.062716	-3.833243E-5
783.000000	12.061416	-3.723133E-5
784.000000	12.039288	-3.736770E-5
785.000000	11.997514	-3.893633E-5
786.000000	12.043805	-4.069710E-5
787.000000	12.072953	-4.162140E-5
788.000000	12.142303	-4.132544E-5
789.000000	12.136703	-3.952920E-5
790.000000	12.137844	-3.790860E-5
791.000000	12.131080	-3.758318E-5
792.000000	12.141474	-3.892332E-5
793.000000	12.144726	-4.103905E-5
794.000000	12.175258	-4.299119E-5
795.000000	12.241774	-4.323238E-5
796.000000	12.227901	-4.102074E-5
797.000000	12.297252	-3.905604E-5
798.000000	12.229316	-3.846950E-5
799.000000	12.214563	-3.917897E-5
800.000000	12.263700	-4.153141E-5
801.000000	12.275538	-4.404793E-5
802.000000	12.301223	-4.446314E-5
803.000000	12.353137	-4.271848E-5
804.000000	12.358171	-3.983221E-5
805.000000	12.324361	-3.776986E-5
806.000000	12.306018	-3.772297E-5
807.000000	12.310802	-3.991585E-5
808.000000	12.346237	-4.300490E-5
809.000000	12.320250	-4.445099E-5
810.000000	12.347058	-4.354762E-5
811.000000	12.339110	-4.143808E-5
812.000000	12.318906	-3.898819E-5
813.000000	12.292629	-3.812888E-5
814.000000	12.221394	-3.992156E-5
815.000000	12.233379	-4.284209E-5
816.000000	12.279838	-4.549757E-5
817.000000	12.288074	-4.554848E-5
818.000000	12.274371	-4.239172E-5
819.000000	12.227147	-3.921512E-5
820.000000	12.183751	-3.782237E-5
821.000000	12.114435	-3.883827E-5
822.000000	12.067648	-4.212705E-5
823.000000	12.146684	-4.559173E-5
824.000000	12.094290	-4.597458E-5
825.000000	12.052920	-4.383543E-5
826.000000	12.006277	-4.102589E-5
827.000000	11.970150	-3.972927E-5
828.000000	11.869919	-4.041169E-5
829.000000	11.767048	-4.252658E-5
830.000000	11.741932	-4.553756E-5
831.000000	11.722421	-4.755684E-5
832.000000	11.657215	-4.676029E-5
833.000000	11.630150	-4.404128E-5
834.000000	11.544249	-4.115342E-5
835.000000	11.439614	-4.016201E-5
836.000000	11.350134	-4.157672E-5
837.000000	11.280772	-4.364535E-5
838.000000	11.192180	-4.496630E-5
839.000000	11.189010	-4.494194E-5
840.000000	11.126261	-4.264637E-5
841.000000	10.977447	-3.928767E-5
842.000000	10.881835	-3.774681E-5
843.000000	10.791240	-3.850341E-5
844.000000	10.679706	-3.978429E-5
845.000000	10.581345	-4.103288E-5
846.000000	10.529540	-4.141763E-5
847.000000	10.428890	-3.949447E-5
848.000000	10.336412	-3.615857E-5
849.000000	10.181180	-3.387879E-5
850.000000	10.074818	-3.365840E-5
851.000000	9.939097	-3.443725E-5
852.000000	9.800088	-3.527534E-5
853.000000	9.699075	-3.539170E-5
854.000000	9.577268	-3.389053E-5
855.000000	9.433265	-3.151665E-5
856.000000	9.294476	-2.944757E-5
857.000000	9.160487	-2.835519E-5
858.000000	8.985831	-2.859979E-5
859.000000	8.838518	-2.903095E-5
860.000000	8.674350	-2.829800E-5
861.000000	8.530846	-2.669375E-5
862.000000	8.376924	-2.481765E-5
863.000000	8.213814	-2.315837E-5
864.000000	8.023708	-2.214550E-5
865.000000	7.844635	-2.177000E-5
866.000000	7.645081	-2.162959E-5
867.000000	7.472269	-2.141758E-5
868.000000	7.313135	-2.027453E-5
869.000000	7.106703	-1.828848E-5
870.000000	6.921786	-1.699058E-5
871.000000	6.729630	-1.641938E-5
872.000000	6.526660	-1.601994E-5
873.000000	6.350943	-1.572830E-5
874.000000	6.140563	-1.515938E-5
875.000000	5.940599	-1.434998E-5
876.000000	5.740119	-1.331185E-5
877.000000	5.550860	-1.235271E-5
878.000000	5.354977	-1.168600E-5
879.000000	5.153890	-1.114462E-5
880.000000	4.956004	-1.069748E-5
881.000000	4.763845	-1.029465E-5
882.000000	4.588172	-9.832477E-6
883.000000	4.407054	-9.270368E-6
884.000000	4.218426	-8.620326E-6
885.000000	4.033727	-7.978940E-6
886.000000	3.870253	-7.589617E-6
887.000000	3.684106	-7.326148E-6
888.000000	3.536702	-7.066431E-6
889.000000	3.376348	-6.712974E-6
890.000000	3.239613	-6.345158E-6
891.000000	3.087055	-5.889153E-6
892.000000	2.944843	-5.488110E-6
893.000000	2.798669	-5.239488E-6
894.000000	2.679341	-5.082080E-6
895.000000	2.541891	-4.807657E-6
896.000000	2.416979	-4.601199E-6
897.000000	2.307696	-4.414313E-6
898.000000	2.196260	-4.079909E-6
899.000000	2.087479	-3.783354E-6
900.000000	1.985569	-3.617256E-6
901.000000	1.882480	-3.456335E-6
902.000000	1.781745	-3.274664E-6
903.000000	1.694069	-3.103820E-6
904.000000	1.606566	-2.960211E-6
905.000000	1.529197	-2.824297E-6
906.000000	1.453691	-2.653291E-6
907.000000	1.381058	-2.521844E-6
908.000000	1.308135	-2.394315E-6
909.000000	1.240311	-2.237435E-6
910.000000	1.172065	-2.107857E-6
911.000000	1.115077	-2.012931E-6
912.000000	1.057556	-1.925887E-6
913.000000	1.004577	-1.837879E-6
914.000000	0.953691	-1.737109E-6
915.000000	0.905123	-1.635037E-6
916.000000	0.855604	-1.523810E-6
917.000000	0.809500	-1.428354E-6
918.000000	0.767702	-1.361279E-6
919.000000	0.727100	-1.289568E-6
920.000000	0.691328	-1.231316E-6
921.000000	0.659760	-1.184612E-6
922.000000	0.623804	-1.103553E-6
923.000000	0.590929	-1.027345E-6
924.000000	0.559333	-9.673169E-7
925.000000	0.529318	-9.068479E-7
926.000000	0.501952	-8.614620E-7
927.000000	0.476492	-8.224890E-7
928.000000	0.452326	-7.811406E-7
929.000000	0.429849	-7.399475E-7
930.000000	0.408159	-6.851351E-7
931.000000	0.386622	-6.349420E-7
932.000000	0.365610	-5.947286E-7
933.000000	0.345876	-5.555171E-7
934.000000	0.328172	-5.328816E-7
935.000000	0.312541	-5.141812E-7
936.000000	0.295464	-4.815795E-7
937.000000	0.281319	-4.501788E-7
938.000000	0.267658	-4.170620E-7
939.000000	0.252961	-3.916313E-7
940.000000	0.240243	-3.745908E-7
941.000000	0.227550	-3.535115E-7
942.000000	0.215643	-3.361047E-7
943.000000	0.205025	-3.189506E-7
944.000000	0.194436	-2.961713E-7
945.000000	0.185348	-2.771820E-7
946.000000	0.175168	-2.566782E-7
947.000000	0.165666	-2.385351E-7
948.000000	0.157259	-2.276934E-7
949.000000	0.149545	-2.181728E-7
950.000000	0.141572	-2.068807E-7
951.000000	0.134598	-1.953169E-7
952.000000	0.128217	-1.822068E-7
953.000000	0.121898	-1.708042E-7
954.000000	0.115310	-1.597709E-7
955.000000	0.109467	-1.510475E-7
956.000000	0.103971	-1.445322E-7
957.000000	0.098665	-1.365446E-7
958.000000	0.093599	-1.289603E-7
959.000000	0.089514	-1.216283E-7
960.000000	0.085270	-1.116495E-7
961.000000	0.080488	-1.036790E-7
962.000000	0.068561	-8.793069E-8
963.000000	0.072144	-9.311727E-8
964.000000	0.069853	-9.121526E-8
965.000000	0.067736	-8.754690E-8
966.000000	0.064745	-8.245649E-8
967.000000	0.061929	-7.806393E-8
968.000000	0.059550	-7.345536E-8
969.000000	0.055967	-6.853134E-8
970.000000	0.052728	-6.492295E-8
971.000000	0.050223	-6.202158E-8
972.000000	0.047989	-5.885201E-8
973.000000	0.046180	-5.551739E-8
974.000000	0.044625	-5.232989E-8
975.000000	0.041898	-4.817813E-8
976.000000	0.040509	-4.578424E-8
977.000000	0.038248	-4.351848E-8
978.000000	0.036369	-4.180615E-8
979.000000	0.035097	-4.015362E-8
980.000000	0.033548	-3.821645E-8
981.000000	0.032409	-3.649489E-8
982.000000	0.031314	-3.463604E-8
983.000000	0.029930	-3.283370E-8
984.000000	0.028564	-3.145061E-8
985.000000	0.027183	-3.016530E-8
986.000000	0.026268	-2.893100E-8
987.000000	0.025415	-2.743985E-8
988.000000	0.024601	-2.611339E-8
989.000000	0.023906	-2.489110E-8
990.000000	0.023080	-2.366034E-8
991.000000	0.021991	-2.265270E-8
992.000000	0.021093	-2.195290E-8
993.000000	0.020352	-2.137732E-8
994.000000	0.019662	-2.069116E-8
995.000000	0.019233	-2.006118E-8
996.000000	0.018559	-1.920809E-8
997.000000	0.018038	-1.847160E-8
998.000000	0.017461	-1.775933E-8
999.000000	0.016694	-1.707736E-8
1000.000000	0.016281	-1.671769E-8
1001.000000	0.015839	-1.620125E-8
1002.000000	0.015529	-1.572426E-8
1003.000000	0.015141	-1.512066E-8
1004.000000	0.014739	-1.460280E-8
1005.000000	0.014198	-1.415773E-8
1006.000000	0.013646	-1.376847E-8
1007.000000	0.013122	-1.346247E-8
1008.000000	0.012909	-1.335737E-8
1009.000000	0.012747	-1.306010E-8
1010.000000	0.012515	-1.267967E-8
1011.000000	0.012253	-1.232774E-8
1012.000000	0.011987	-1.214343E-8
1013.000000	0.011480	-1.178108E-8
1014.000000	0.011082	-1.149072E-8
1015.000000	0.010965	-1.143945E-8
1016.000000	0.010764	-1.121580E-8
1017.000000	0.010539	-1.093998E-8
1018.000000	0.010266	-1.076801E-8
1019.000000	0.009910	-1.066677E-8
1020.000000	0.009466	-1.059276E-8
1021.000000	0.009053	-1.055782E-8
1022.000000	0.008744	-1.044875E-8
1023.000000	0.008495	-1.031344E-8
1024.000000	0.008358	-1.032748E-8
1025.000000	0.008048	-1.021751E-8
1026.000000	0.007697	-1.017329E-8
1027.000000	0.007412	-1.018536E-8
1028.000000	0.007246	-1.022796E-8
1029.000000	0.007166	-1.022255E-8
1030.000000	0.007028	-1.004650E-8
1031.000000	0.006908	-9.857575E-9
1032.000000	0.006892	-9.835899E-9
1033.000000	0.006724	-9.626908E-9
1034.000000	0.006576	-9.381860E-9
1035.000000	0.006554	-9.216283E-9
1036.000000	0.006535	-9.055866E-9
1037.000000	0.006631	-8.878061E-9
1038.000000	0.006834	-8.672902E-9
1039.000000	0.007028	-8.472993E-9
1040.000000	0.007041	-8.257036E-9
1041.000000	0.006875	-8.005866E-9
1042.000000	0.006809	-7.926054E-9
1043.000000	0.006686	-7.791420E-9
1044.000000	0.006545	-7.627700E-9
1045.000000	0.006448	-7.546392E-9
1046.000000	0.006439	-7.579955E-9
1047.000000	0.006231	-7.510328E-9
1048.000000	0.006063	-7.545753E-9
1049.000000	0.005746	-7.383563E-9
1050.000000	0.005626	-7.450062E-9
1051.000000	0.005438	-7.360273E-9
1052.000000	0.005294	-7.353963E-9
1053.000000	0.005159	-7.393806E-9
1054.000000	0.004951	-7.327511E-9
1055.000000	0.004725	-7.349933E-9
1056.000000	0.004414	-7.338592E-9
1057.000000	0.004181	-7.416163E-9
1058.000000	0.003874	-7.353019E-9
1059.000000	0.003659	-7.523648E-9
1060.000000	0.003293	-7.476486E-9
1061.000000	0.002938	-7.837282E-9
1062.000000	0.002563	-8.198186E-9
1063.000000	0.001836	-9.112370E-9
1064.000000	0.001450	-1.295492E-8
1065.000000	0.001353	-1.442479E-8
1066.000000	0.001821	-1.380685E-8
1067.000000	0.002557	-1.148353E-8
1068.000000	0.002477	-8.527592E-9
1069.000000	0.002892	-8.186937E-9
1070.000000	0.003316	-7.592798E-9
1071.000000	0.003749	-7.102726E-9
1072.000000	0.004017	-6.740661E-9
1073.000000	0.004223	-6.553464E-9
1074.000000	0.004429	-6.392325E-9
1075.000000	0.004697	-6.417487E-9
1076.000000	0.004780	-6.298996E-9
1077.000000	0.004731	-6.284805E-9
1078.000000	0.004620	-6.224233E-9
1079.000000	0.004555	-6.149893E-9
1080.000000	0.004625	-6.053454E-9
1081.000000	0.004876	-5.954237E-9
1082.000000	0.005169	-5.907084E-9
1083.000000	0.005308	-5.907327E-9
1084.000000	0.005336	-5.853401E-9
1085.000000	0.005341	-5.833876E-9
1086.000000	0.005382	-5.846431E-9
1087.000000	0.005568	-5.941578E-9
1088.000000	0.005591	-5.835116E-9
1089.000000	0.005730	-5.873792E-9
1090.000000	0.005717	-5.765569E-9
1091.000000	0.005720	-5.699684E-9
1092.000000	0.005807	-5.731386E-9
1093.000000	0.005878	-5.737912E-9
1094.000000	0.005916	-5.710667E-9
1095.000000	0.006002	-5.657782E-9
1096.000000	0.006014	-5.594734E-9
1097.000000	0.006030	-5.596522E-9
1098.000000	0.006065	-5.580812E-9
1099.000000	0.005970	-5.627111E-9
1100.000000	0.005808	-5.612267E-9
