Wavelength (nm)	EQE (%)	Current (A)	Dark Current (A) -> 	-14.584698000E-12	
400.000000	0.173816	-3.676383E-9
403.000000	0.083917	-4.033952E-9
406.000000	0.054000	-4.218539E-9
409.000000	0.039783	-4.375136E-9
412.000000	0.027060	-4.558553E-9
415.000000	0.052885	-4.254398E-9
418.000000	0.060700	-4.234323E-9
421.000000	0.052172	-4.279048E-9
424.000000	0.057341	-4.252031E-9
427.000000	0.044964	-4.357092E-9
430.000000	0.029442	-4.551502E-9
433.000000	0.031290	-4.533018E-9
436.000000	0.031542	-4.530103E-9
439.000000	0.029047	-4.576742E-9
442.000000	0.027817	-4.602418E-9
445.000000	0.024754	-4.653378E-9
448.000000	0.022051	-4.705969E-9
451.000000	0.024709	-4.646610E-9
454.000000	0.026734	-4.627931E-9
457.000000	0.024126	-4.662866E-9
460.000000	0.032042	-4.553590E-9
463.000000	0.019461	-4.755330E-9
466.000000	0.024258	-4.668465E-9
469.000000	0.026126	-4.626925E-9
472.000000	0.028075	-4.600402E-9
475.000000	0.029339	-4.559867E-9
478.000000	0.023334	-4.655218E-9
481.000000	0.027619	-4.588202E-9
484.000000	0.028498	-4.565616E-9
487.000000	0.021171	-4.684551E-9
490.000000	0.025320	-4.611037E-9
493.000000	0.024889	-4.608497E-9
496.000000	0.020978	-4.673327E-9
499.000000	0.021037	-4.670727E-9
502.000000	0.022974	-4.633713E-9
505.000000	0.019163	-4.706767E-9
508.000000	0.015145	-4.801121E-9
511.000000	0.013331	-4.858280E-9
514.000000	0.020049	-4.682594E-9
517.000000	0.020335	-4.678271E-9
520.000000	0.012355	-4.891779E-9
523.000000	0.013460	-4.854894E-9
526.000000	0.021796	-4.663919E-9
529.000000	0.016854	-4.773943E-9
532.000000	0.015632	-4.811425E-9
535.000000	0.031558	-4.521985E-9
538.000000	0.018968	-4.748735E-9
541.000000	0.014466	-4.858679E-9
544.000000	0.029910	-4.555723E-9
547.000000	0.016977	-4.809306E-9
550.000000	0.018619	-4.773791E-9
553.000000	0.025105	-4.647412E-9
556.000000	0.019016	-4.775306E-9
559.000000	0.026691	-4.644453E-9
562.000000	0.021263	-4.739908E-9
565.000000	0.022591	-4.717780E-9
568.000000	0.022879	-4.714869E-9
571.000000	0.019574	-4.793435E-9
574.000000	0.020989	-4.750126E-9
577.000000	0.014642	-4.931753E-9
580.000000	0.019968	-4.779954E-9
583.000000	0.018873	-4.791576E-9
586.000000	0.014957	-4.929573E-9
589.000000	0.020917	-4.751976E-9
592.000000	0.034279	-4.480205E-9
595.000000	0.029119	-4.550151E-9
598.000000	0.035783	-4.439727E-9
601.000000	0.027048	-4.586534E-9
604.000000	0.026158	-4.592322E-9
607.000000	0.024546	-4.619767E-9
610.000000	0.024080	-4.623692E-9
613.000000	0.014903	-4.874256E-9
616.000000	0.011941	-4.954008E-9
619.000000	0.019660	-4.683247E-9
622.000000	0.010623	-5.026547E-9
625.000000	0.008915	-5.066139E-9
628.000000	0.016045	-4.731320E-9
631.000000	0.013503	-4.810441E-9
634.000000	0.011168	-4.862370E-9
637.000000	0.008843	-4.937831E-9
640.000000	0.008840	-4.871547E-9
643.000000	0.009138	-4.787558E-9
646.000000	0.007696	-4.807734E-9
649.000000	0.007769	-4.708004E-9
652.000000	0.006234	-4.727232E-9
655.000000	0.006567	-4.578803E-9
658.000000	0.005984	-4.516362E-9
661.000000	0.004963	-4.489876E-9
664.000000	0.005414	-4.330279E-9
667.000000	0.004750	-4.286082E-9
670.000000	0.004628	-4.188390E-9
673.000000	0.004351	-4.114609E-9
676.000000	0.004050	-4.052048E-9
679.000000	0.003991	-3.969738E-9
682.000000	0.003858	-3.906122E-9
685.000000	0.003609	-3.869473E-9
688.000000	0.003573	-3.805297E-9
691.000000	0.003492	-3.760788E-9
694.000000	0.003557	-3.687199E-9
697.000000	0.003593	-3.639464E-9
700.000000	0.003268	-3.642473E-9
703.000000	0.003186	-3.608727E-9
706.000000	0.003068	-3.581688E-9
709.000000	0.003133	-3.535616E-9
712.000000	0.002772	-3.566183E-9
715.000000	0.003106	-3.470082E-9
718.000000	0.003225	-3.413883E-9
721.000000	0.002649	-3.474735E-9
724.000000	0.003256	-3.333006E-9
727.000000	0.002905	-3.353884E-9
730.000000	0.003201	-3.267476E-9
733.000000	0.003241	-3.223015E-9
736.000000	0.003177	-3.195768E-9
739.000000	0.003671	-3.083633E-9
742.000000	0.003269	-3.110521E-9
745.000000	0.003859	-2.991680E-9
748.000000	0.003641	-2.986848E-9
751.000000	0.003715	-2.934889E-9
754.000000	0.004126	-2.840739E-9
757.000000	0.003654	-2.870589E-9
760.000000	0.004307	-2.744809E-9
763.000000	0.003947	-2.749415E-9
766.000000	0.004225	-2.677788E-9
769.000000	0.004544	-2.586793E-9
772.000000	0.004108	-2.591456E-9
775.000000	0.004631	-2.490531E-9
778.000000	0.004200	-2.485404E-9
781.000000	0.004335	-2.432959E-9
784.000000	0.004460	-2.359965E-9
787.000000	0.004066	-2.341798E-9
790.000000	0.004315	-2.261385E-9
793.000000	0.003829	-2.249225E-9
796.000000	0.003952	-2.201778E-9
799.000000	0.003858	-2.156841E-9
802.000000	0.003587	-2.135336E-9
805.000000	0.003677	-2.031701E-9
808.000000	0.003293	-2.007505E-9
811.000000	0.003450	-1.912849E-9
814.000000	0.003117	-1.835005E-9
817.000000	0.003037	-1.787493E-9
820.000000	0.003002	-1.724559E-9
823.000000	0.002654	-1.700451E-9
826.000000	0.002804	-1.617492E-9
829.000000	0.002402	-1.577933E-9
832.000000	0.002427	-1.510559E-9
835.000000	0.002154	-1.455850E-9
838.000000	0.002091	-1.430076E-9
841.000000	0.002098	-1.344987E-9
844.000000	0.001848	-1.293528E-9
847.000000	0.001851	-1.214845E-9
850.000000	0.001638	-1.169380E-9
853.000000	0.001669	-1.113503E-9
856.000000	0.001532	-1.029658E-9
859.000000	0.001432	-9.698912E-10
862.000000	0.001447	-8.957909E-10
865.000000	0.001296	-8.033116E-10
868.000000	0.001268	-7.313274E-10
871.000000	0.001185	-6.671622E-10
874.000000	0.001168	-6.052848E-10
877.000000	0.001101	-5.425682E-10
880.000000	0.001019	-4.938768E-10
883.000000	0.000979	-4.447453E-10
886.000000	0.000903	-4.044010E-10
889.000000	0.000866	-3.723858E-10
892.000000	0.000817	-3.389101E-10
895.000000	0.000777	-3.104083E-10
898.000000	0.000730	-2.894622E-10
901.000000	0.000688	-2.647965E-10
904.000000	0.000616	-2.472816E-10
907.000000	0.000577	-2.269921E-10
910.000000	0.000543	-2.103393E-10
913.000000	0.000495	-2.011535E-10
916.000000	0.000492	-1.892226E-10
919.000000	0.000446	-1.778138E-10
922.000000	0.000412	-1.653138E-10
925.000000	0.000407	-1.553481E-10
928.000000	0.000367	-1.459277E-10
931.000000	0.000366	-1.344426E-10
934.000000	0.000326	-1.268641E-10
937.000000	0.000350	-1.324660E-10
940.000000	0.000383	-1.348591E-10
943.000000	0.000320	-1.145637E-10
946.000000	0.000315	-1.063750E-10
949.000000	0.000284	-1.010255E-10
952.000000	0.000283	-9.582851E-11
955.000000	0.000280	-8.969292E-11
958.000000	0.000281	-8.707673E-11
961.000000	0.000282	-8.373914E-11
964.000000	0.000271	-8.047792E-11
967.000000	0.000280	-7.887066E-11
970.000000	0.000273	-7.586751E-11
973.000000	0.000277	-7.365605E-11
976.000000	0.000287	-7.333349E-11
979.000000	0.000300	-7.064699E-11
982.000000	0.000311	-6.740318E-11
985.000000	0.000319	-6.770816E-11
988.000000	0.000314	-6.523287E-11
991.000000	0.000310	-6.303909E-11
994.000000	0.000325	-6.163130E-11
997.000000	0.000325	-5.961345E-11
1000.000000	0.000339	-6.253470E-11
1003.000000	0.000323	-5.912081E-11
1006.000000	0.000326	-5.789491E-11
1009.000000	0.000326	-5.574216E-11
1012.000000	0.000312	-5.434607E-11
1015.000000	0.000303	-5.373612E-11
1018.000000	0.000308	-5.468047E-11
1021.000000	0.000289	-5.251600E-11
1024.000000	0.000282	-5.295584E-11
1027.000000	0.000252	-5.178276E-11
1030.000000	0.000225	-4.989987E-11
1033.000000	0.000216	-4.988230E-11
1036.000000	0.000193	-4.966528E-11
1039.000000	0.000169	-4.941892E-11
1042.000000	0.000182	-4.761807E-11
1045.000000	0.000214	-4.674999E-11
1048.000000	0.000222	-4.720166E-11
1051.000000	0.000216	-4.702567E-11
1054.000000	0.000186	-4.607538E-11
1057.000000	0.000165	-4.613408E-11
1060.000000	0.000143	-4.529528E-11
1063.000000	0.000115	-4.403999E-11
1066.000000	9.256107E-5	-4.632768E-11
1069.000000	4.286798E-5	-4.576458E-11
1072.000000	2.220522E-5	-4.849212E-11
1075.000000	7.194222E-5	-4.665026E-11
1078.000000	9.905529E-5	-4.482604E-11
1081.000000	0.000114	-4.193426E-11
1084.000000	0.000120	-4.121277E-11
1087.000000	0.000132	-4.130660E-11
1090.000000	0.000130	-3.965830E-11
1093.000000	0.000134	-3.906002E-11
1096.000000	0.000140	-4.018622E-11
1099.000000	0.000125	-3.884297E-11
