Wavelength (nm)	EQE (%)	Current (A)	Dark Current (A) -> 	-19.028870000E-12	
400.000000	23.995650	-5.075330E-7
403.000000	25.511103	-1.226336E-6
406.000000	24.257220	-1.894990E-6
409.000000	24.876250	-2.735762E-6
412.000000	24.632322	-4.149519E-6
415.000000	24.317252	-1.956226E-6
418.000000	27.440846	-1.914221E-6
421.000000	26.360485	-2.162034E-6
424.000000	26.933882	-1.997244E-6
427.000000	27.238272	-2.639463E-6
430.000000	26.253253	-4.058503E-6
433.000000	26.588196	-3.851867E-6
436.000000	26.860154	-3.857693E-6
439.000000	27.298027	-4.301109E-6
442.000000	27.280282	-4.513650E-6
445.000000	26.848208	-5.047122E-6
448.000000	26.462855	-5.647631E-6
451.000000	26.468316	-4.977399E-6
454.000000	27.761997	-4.805961E-6
457.000000	27.083021	-5.234343E-6
460.000000	28.992825	-4.120287E-6
463.000000	25.967145	-6.345100E-6
466.000000	27.709642	-5.332797E-6
469.000000	27.813393	-4.925746E-6
472.000000	28.039845	-4.594705E-6
475.000000	27.841682	-4.327092E-6
478.000000	27.256030	-5.437714E-6
481.000000	28.232432	-4.690145E-6
484.000000	28.091581	-4.500489E-6
487.000000	26.128262	-5.781364E-6
490.000000	27.682816	-5.041399E-6
493.000000	26.950672	-4.990241E-6
496.000000	25.828021	-5.753835E-6
499.000000	26.093030	-5.793267E-6
502.000000	27.060275	-5.457960E-6
505.000000	25.788224	-6.334154E-6
508.000000	23.941704	-7.589566E-6
511.000000	23.120831	-8.426105E-6
514.000000	25.766685	-6.018083E-6
517.000000	26.484783	-6.093004E-6
520.000000	23.077918	-9.137095E-6
523.000000	22.800735	-8.223903E-6
526.000000	27.024667	-5.782781E-6
529.000000	25.280586	-7.160806E-6
532.000000	24.574644	-7.563845E-6
535.000000	28.216971	-4.043264E-6
538.000000	26.647418	-6.671206E-6
541.000000	24.148368	-8.110574E-6
544.000000	28.213772	-4.297352E-6
547.000000	25.642078	-7.264141E-6
550.000000	25.684925	-6.585340E-6
553.000000	27.580836	-5.105690E-6
556.000000	26.154026	-6.567785E-6
559.000000	27.830999	-4.842787E-6
562.000000	26.227488	-5.846682E-6
565.000000	26.223689	-5.476511E-6
568.000000	25.773554	-5.311394E-6
571.000000	24.938574	-6.107285E-6
574.000000	24.371712	-5.515671E-6
577.000000	22.810626	-7.683300E-6
580.000000	23.417046	-5.605528E-6
583.000000	22.330216	-5.669417E-6
586.000000	21.636882	-7.131102E-6
589.000000	22.088387	-5.018042E-6
592.000000	22.595998	-2.953228E-6
595.000000	21.356951	-3.337195E-6
598.000000	20.914191	-2.594868E-6
601.000000	20.793234	-3.525925E-6
604.000000	19.990079	-3.509467E-6
607.000000	19.849586	-3.735810E-6
610.000000	19.685869	-3.779977E-6
613.000000	18.760011	-6.135646E-6
616.000000	17.205770	-7.138308E-6
619.000000	17.377341	-4.139388E-6
622.000000	16.841046	-7.968923E-6
625.000000	14.457572	-8.215998E-6
628.000000	14.854713	-4.380360E-6
631.000000	14.231346	-5.070101E-6
634.000000	12.720016	-5.538212E-6
637.000000	11.441864	-6.388741E-6
640.000000	10.185144	-5.612821E-6
643.000000	9.137177	-4.787087E-6
646.000000	7.859609	-4.910159E-6
649.000000	6.641863	-4.024976E-6
652.000000	5.541498	-4.202070E-6
655.000000	4.512917	-3.146660E-6
658.000000	3.736891	-2.820555E-6
661.000000	2.951682	-2.670307E-6
664.000000	2.440876	-1.952107E-6
667.000000	1.996319	-1.801307E-6
670.000000	1.633557	-1.478470E-6
673.000000	1.344305	-1.271320E-6
676.000000	1.104321	-1.104919E-6
679.000000	0.953129	-9.479348E-7
682.000000	0.822799	-8.329945E-7
685.000000	0.722982	-7.752589E-7
688.000000	0.634290	-6.755742E-7
691.000000	0.569387	-6.131452E-7
694.000000	0.511231	-5.299788E-7
697.000000	0.471798	-4.778694E-7
700.000000	0.433883	-4.836097E-7
703.000000	0.399056	-4.519708E-7
706.000000	0.364186	-4.251781E-7
709.000000	0.339104	-3.826991E-7
712.000000	0.319150	-4.105451E-7
715.000000	0.298859	-3.339086E-7
718.000000	0.278100	-2.943725E-7
721.000000	0.261296	-3.427543E-7
724.000000	0.239262	-2.449344E-7
727.000000	0.227009	-2.620874E-7
730.000000	0.206922	-2.111885E-7
733.000000	0.197870	-1.967482E-7
736.000000	0.181287	-1.823323E-7
739.000000	0.168591	-1.416275E-7
742.000000	0.160454	-1.526902E-7
745.000000	0.147176	-1.141032E-7
748.000000	0.141291	-1.159068E-7
751.000000	0.131123	-1.035748E-7
754.000000	0.123871	-8.528669E-8
757.000000	0.118049	-9.272808E-8
760.000000	0.109106	-6.953425E-8
763.000000	0.104912	-7.307526E-8
766.000000	0.097881	-6.203425E-8
769.000000	0.092720	-5.278434E-8
772.000000	0.086860	-5.479717E-8
775.000000	0.080397	-4.324066E-8
778.000000	0.076836	-4.546424E-8
781.000000	0.071046	-3.986962E-8
784.000000	0.067414	-3.567235E-8
787.000000	0.063114	-3.634968E-8
790.000000	0.058427	-3.061995E-8
793.000000	0.055685	-3.271101E-8
796.000000	0.050844	-2.832528E-8
799.000000	0.047628	-2.662796E-8
802.000000	0.043968	-2.617659E-8
805.000000	0.040425	-2.233606E-8
808.000000	0.037363	-2.278082E-8
811.000000	0.034180	-1.895059E-8
814.000000	0.031955	-1.880931E-8
817.000000	0.029128	-1.714216E-8
820.000000	0.026895	-1.544901E-8
823.000000	0.024784	-1.587616E-8
826.000000	0.022561	-1.301246E-8
829.000000	0.020959	-1.376911E-8
832.000000	0.018950	-1.179585E-8
835.000000	0.017682	-1.195392E-8
838.000000	0.016063	-1.098302E-8
841.000000	0.014864	-9.527084E-9
844.000000	0.013547	-9.482743E-9
847.000000	0.012410	-8.144188E-9
850.000000	0.011354	-8.106536E-9
853.000000	0.010285	-6.861097E-9
856.000000	0.009416	-6.330622E-9
859.000000	0.008541	-5.784017E-9
862.000000	0.007744	-4.792732E-9
865.000000	0.007016	-4.348466E-9
868.000000	0.006405	-3.694647E-9
871.000000	0.005817	-3.275968E-9
874.000000	0.005276	-2.734216E-9
877.000000	0.004734	-2.331856E-9
880.000000	0.004302	-2.084998E-9
883.000000	0.003898	-1.770359E-9
886.000000	0.003546	-1.588796E-9
889.000000	0.003185	-1.370205E-9
892.000000	0.002875	-1.193289E-9
895.000000	0.002629	-1.049819E-9
898.000000	0.002363	-9.368392E-10
901.000000	0.002147	-8.268511E-10
904.000000	0.001945	-7.813797E-10
907.000000	0.001732	-6.816391E-10
910.000000	0.001579	-6.112033E-10
913.000000	0.001428	-5.800974E-10
916.000000	0.001285	-4.939004E-10
919.000000	0.001167	-4.652581E-10
922.000000	0.001041	-4.174582E-10
925.000000	0.000948	-3.617807E-10
928.000000	0.000865	-3.437730E-10
931.000000	0.000779	-2.859487E-10
934.000000	0.000711	-2.765401E-10
937.000000	0.000646	-2.446239E-10
940.000000	0.000590	-2.074591E-10
943.000000	0.000540	-1.932054E-10
946.000000	0.000486	-1.642992E-10
949.000000	0.000445	-1.585508E-10
952.000000	0.000406	-1.373050E-10
955.000000	0.000389	-1.243536E-10
958.000000	0.000353	-1.092610E-10
961.000000	0.000327	-9.711308E-11
964.000000	0.000302	-8.946417E-11
967.000000	0.000284	-8.002626E-11
970.000000	0.000266	-7.374994E-11
973.000000	0.000246	-6.533843E-11
976.000000	0.000233	-5.940232E-11
979.000000	0.000226	-5.337830E-11
982.000000	0.000220	-4.768265E-11
985.000000	0.000208	-4.406348E-11
988.000000	0.000209	-4.325991E-11
991.000000	0.000201	-4.077870E-11
994.000000	0.000189	-3.583975E-11
997.000000	0.000187	-3.431462E-11
1000.000000	0.000178	-3.270746E-11
1003.000000	0.000174	-3.179827E-11
1006.000000	0.000175	-3.105332E-11
1009.000000	0.000175	-2.986258E-11
1012.000000	0.000160	-2.794446E-11
1015.000000	0.000164	-2.896510E-11
1018.000000	0.000157	-2.790930E-11
1021.000000	0.000140	-2.539877E-11
1024.000000	0.000136	-2.550431E-11
1027.000000	0.000123	-2.536943E-11
1030.000000	0.000116	-2.568032E-11
1033.000000	0.000114	-2.649566E-11
1036.000000	0.000105	-2.704113E-11
1039.000000	9.146590E-5	-2.671269E-11
1042.000000	9.355266E-5	-2.446611E-11
1045.000000	9.880024E-5	-2.156844E-11
1048.000000	0.000107	-2.271810E-11
1051.000000	0.000102	-2.211394E-11
1054.000000	7.954824E-5	-1.972072E-11
1057.000000	8.157859E-5	-2.280024E-11
1060.000000	6.856565E-5	-2.168576E-11
1063.000000	6.385110E-5	-2.452474E-11
1066.000000	5.057000E-5	-2.531076E-11
1069.000000	3.712069E-5	-3.962895E-11
1072.000000	2.362611E-5	-5.159509E-11
1075.000000	4.017302E-5	-2.604982E-11
1078.000000	5.094066E-5	-2.305246E-11
1081.000000	5.256808E-5	-1.937461E-11
1084.000000	5.700015E-5	-1.961515E-11
1087.000000	6.090782E-5	-1.902270E-11
1090.000000	6.073458E-5	-1.848893E-11
1093.000000	6.439203E-5	-1.877635E-11
1096.000000	6.265088E-5	-1.802551E-11
1099.000000	6.143892E-5	-1.902858E-11
