Dividing Wavelength (nm)	Counts (n)	Blue Motor Position (mm): 0.000000	Red Motor Position (mm): 9.200000	
326.493990	1977.374952
326.888308	1977.374952
327.282561	1977.374952
327.676750	1952.920315
328.070874	1956.628083
328.464933	1962.019597
328.858929	1970.892028
329.252859	1984.427526
329.646726	2000.092912
330.040528	2014.840807
330.434265	2033.417459
330.827938	2050.655685
331.221547	2068.758468
331.615091	2092.978692
332.008571	2112.755139
332.401986	2132.667696
332.795338	2152.333238
333.188625	2173.959788
333.581847	2191.016532
333.975006	2210.772813
334.368100	2226.934753
334.761129	2244.450242
335.154095	2261.575041
335.546996	2276.305293
335.939833	2289.190482
336.332606	2301.392595
336.725315	2314.759214
337.117960	2320.859011
337.510540	2327.162973
337.903056	2336.320229
338.295508	2341.820128
338.687896	2349.701972
339.080220	2357.596419
339.472480	2363.665968
339.864676	2363.804600
340.256807	2368.394571
340.648875	2371.769623
341.040879	2372.631661
341.432818	2372.578728
341.824694	2377.750952
342.216506	2376.553678
342.608253	2372.238451
342.999937	2372.908924
343.391557	2373.765920
343.783113	2372.188039
344.174605	2369.450693
344.566033	2368.823069
344.957397	2367.282996
345.348697	2361.392408
345.739934	2362.587162
346.131106	2362.496421
346.522215	2360.898375
346.913260	2356.164732
347.304241	2353.044257
347.695159	2356.474763
348.086012	2352.174658
348.476802	2353.021572
348.867528	2350.367405
349.258191	2348.227435
349.648789	2349.812878
350.039324	2347.458659
350.429796	2349.069308
350.820203	2346.636951
351.210548	2344.587722
351.600828	2345.898422
351.991045	2341.989007
352.381198	2344.696107
352.771288	2346.147959
353.161314	2344.411281
353.551276	2345.633761
353.941175	2346.200891
354.331010	2346.223576
354.720782	2345.278360
355.110490	2345.774913
355.500135	2345.890860
355.889717	2346.379852
356.279235	2346.498319
356.668689	2347.546879
357.058080	2346.841118
357.447408	2345.621158
357.836672	2343.345077
358.225873	2346.825994
358.615010	2346.878926
359.004084	2352.076356
359.393095	2350.145594
359.782043	2349.044102
360.170927	2349.792713
360.559748	2354.002077
360.948505	2351.211798
361.337199	2352.436798
361.725830	2351.645337
362.114398	2353.876048
362.502903	2354.952334
362.891344	2357.210771
363.279722	2354.251614
363.668037	2356.222705
364.056289	2359.295288
364.444478	2357.644310
364.832603	2358.854187
365.220665	2359.610360
365.608665	2360.180011
365.996601	2360.358972
366.384474	2361.465505
366.772284	2362.294775
367.160031	2361.198324
367.547715	2360.414424
367.935336	2360.069105
368.322893	2363.955835
368.710388	2360.101873
369.097820	2364.976668
369.485189	2364.608664
369.872495	2363.940711
370.259738	2365.599251
370.646918	2370.070754
371.034035	2372.765251
371.421090	2373.329860
371.808081	2375.202649
372.195010	2377.398072
372.581875	2386.353681
372.968678	2392.551780
373.355418	2398.641494
373.742096	2407.103071
374.128710	2416.653537
374.515262	2429.289189
374.901751	2441.476178
375.288177	2457.393621
375.674540	2476.660911
376.060841	2497.380054
376.447079	2517.645492
376.833254	2542.359749
377.219367	2568.624160
377.605417	2602.840992
377.991404	2628.369395
378.377329	2665.578152
378.763191	2700.659541
379.148991	2744.925913
379.534727	2790.931483
379.920402	2837.481498
380.306013	2887.245248
380.691563	2945.551233
381.077049	2998.591734
381.462474	3053.792368
381.847835	3125.636372
382.233134	3193.979295
382.618371	3252.895260
383.003545	3331.827126
383.388657	3410.146493
383.773706	3497.953310
384.158693	3567.841347
384.543618	3655.801919
384.928480	3729.284298
385.313280	3827.584278
385.698017	3924.767642
386.082692	4031.214126
386.467305	4088.358125
386.851856	4203.684602
387.236344	4343.256508
387.620770	4387.961460
388.005133	4492.005834
388.389435	4612.751551
388.773674	4674.997198
389.157851	4780.639618
389.541965	4882.291965
389.926018	4883.368251
390.310008	5013.810628
390.693936	5091.507411
391.077802	5165.612373
391.461606	5243.276389
391.845348	5306.805010
392.229027	5362.388772
392.612645	5510.598695
392.996200	5552.669645
393.379694	5644.053161
393.763125	5770.157624
394.146494	5785.727228
394.529801	5833.265309
394.913047	5948.763185
395.296230	5879.608636
395.679351	5852.910685
396.062410	5964.383200
396.445408	5813.602288
396.828343	5838.770249
397.211217	5847.065467
397.594028	5691.727353
397.976778	5731.998610
398.359466	5752.138020
398.742092	5645.424355
399.124656	5644.315301
399.507158	5653.245705
399.889598	5574.611267
400.271977	5587.947639
400.654294	5511.150702
401.036549	5509.905537
401.418742	5419.802473
401.800874	5462.301921
402.182944	5392.169388
402.564952	5443.649652
402.946898	5262.190798
403.328783	5180.468653
403.710606	5147.053365
404.092367	5138.564062
404.474067	5154.612575
404.855705	4974.991223
405.237282	4849.090926
405.618797	4877.245770
406.000250	4844.765616
406.381642	4835.661292
406.762972	4716.717787
407.144240	4553.548240
407.525447	4512.959390
407.906593	4396.239035
408.287677	4350.581304
408.668700	4279.185963
409.049661	4177.442875
409.430560	4108.941156
409.811399	4011.465406
410.192176	3951.276549
410.572891	3868.379815
410.953545	3851.297866
411.334138	3694.018907
411.714669	3685.035571
412.095139	3518.927031
412.475547	3502.500431
412.855894	3415.452307
413.236180	3378.634240
413.616405	3281.811318
413.996568	3239.609299
414.376670	3175.485822
414.756711	3110.780092
415.136691	3075.066037
415.516609	3032.269162
415.896466	2986.921463
416.276262	2956.674539
416.655997	2932.227464
417.035670	2886.857079
417.415283	2874.879298
417.794834	2833.630056
418.174324	2794.750157
418.553753	2754.632655
418.933121	2737.923751
419.312428	2702.764223
419.691674	2674.526200
420.070859	2657.325783
420.449983	2629.488531
420.829045	2617.966974
421.208047	2593.756833
421.586988	2585.595205
421.965867	2572.659604
422.344686	2553.543549
422.723444	2547.400903
423.102141	2517.925276
423.480777	2523.193282
423.859352	2503.878101
424.237866	2506.161744
424.616319	2495.416524
424.994712	2494.725886
425.373044	2488.230359
425.751314	2486.692808
426.129524	2472.305354
426.507673	2477.706951
426.885762	2470.195632
427.263789	2465.260342
427.641756	2463.712708
428.019662	2462.364199
428.397508	2457.658282
428.775292	2457.781790
429.153016	2453.380863
429.530679	2455.137705
429.908282	2448.921962
430.285824	2445.531786
430.663305	2447.873402
431.040726	2442.048349
431.418086	2440.813266
431.795385	2443.379214
432.172624	2443.278391
432.549802	2440.944336
432.926920	2439.701692
433.303977	2438.252360
433.680974	2437.584407
434.057910	2438.232196
434.434786	2434.345466
434.811601	2435.872936
435.188355	2436.508121
435.565050	2436.699685
435.941683	2435.935950
436.318257	2435.308326
436.694770	2430.148705
437.071222	2434.733635
437.447614	2430.783891
437.823946	2432.865887
438.200218	2431.088881
438.576429	2431.711463
438.952580	2429.090063
439.328670	2430.710794
439.704700	2432.024015
440.080670	2431.003181
440.456580	2432.523089
440.832429	2433.773295
441.208218	2430.695671
441.583947	2430.572162
441.959616	2428.341452
442.335224	2430.388160
442.710773	2429.916812
443.086261	2431.204827
443.461689	2429.427820
443.837057	2428.535536
444.212365	2428.865732
444.587612	2434.670620
444.962800	2430.801535
445.337927	2430.917481
445.712995	2430.347831
446.088002	2432.371854
446.462949	2429.891607
446.837837	2433.652307
447.212664	2430.657862
447.587431	2440.367124
447.962139	2444.243772
448.336786	2448.944648
448.711374	2445.062959
449.085901	2441.188832
449.460369	2438.627926
449.834776	2438.764037
450.209124	2444.367280
450.583412	2443.583380
450.957640	2446.300562
451.331808	2439.575663
451.705917	2437.334870
452.079965	2439.731939
452.453954	2439.525252
452.827883	2441.037598
453.201752	2436.140117
453.575562	2437.413008
453.949311	2438.791764
454.323001	2441.070365
454.696632	2439.094233
455.070202	2442.643205
455.443713	2442.802002
455.817164	2439.479881
456.190556	2441.178750
456.563888	2441.715633
456.937160	2436.462751
457.310373	2440.931733
457.683526	2442.512135
458.056619	2443.933741
458.429653	2441.831579
458.802628	2442.731425
459.175542	2441.491302
459.548398	2443.545572
459.921194	2451.485389
460.293930	2450.474638
460.666607	2452.218877
461.039224	2456.067798
461.411782	2456.637448
461.784280	2456.952520
462.156719	2453.385904
462.529099	2455.440174
462.901419	2451.676953
463.273680	2448.216201
463.645882	2450.794751
464.018024	2449.937755
464.390106	2448.289297
464.762130	2456.697942
465.134094	2466.175311
465.505999	2473.109418
465.877845	2480.121663
466.249631	2483.156438
466.621358	2479.483958
466.993026	2479.262147
467.364634	2476.106384
467.736184	2469.242853
468.107674	2466.145064
468.479105	2467.503655
468.850477	2464.506689
469.221790	2460.103242
469.593043	2456.874382
469.964238	2454.457149
470.335373	2455.263734
470.706449	2460.009980
471.077467	2464.894858
471.448425	2473.001034
471.819324	2474.442804
472.190164	2473.245530
472.560945	2466.281176
472.931667	2461.650876
473.302330	2459.195834
473.672934	2455.508230
474.043479	2457.403704
474.413965	2454.631069
474.784393	2450.109154
475.154761	2454.520164
475.525070	2452.302056
475.895321	2451.278702
476.265513	2450.595625
476.635645	2458.220371
477.005719	2454.777263
477.375734	2457.343210
477.745691	2457.751543
478.115588	2462.086936
478.485427	2464.736062
478.855207	2473.931127
479.224928	2473.999182
479.594591	2482.433033
479.964194	2475.715695
480.333739	2481.399596
480.703226	2477.409523
481.072653	2479.650316
481.442022	2479.461272
481.811333	2482.773310
482.180584	2477.845582
482.549777	2477.215438
482.918912	2475.413226
483.287988	2476.229893
483.657005	2473.613534
484.025964	2472.171764
484.394864	2471.705457
484.763706	2470.543471
485.132489	2469.368882
485.501213	2469.552884
485.869879	2469.681434
486.238487	2469.197483
486.607036	2468.025415
486.975527	2466.870991
487.343959	2470.740076
487.712333	2464.511731
488.080648	2464.262193
488.448905	2466.722277
488.817104	2468.075826
489.185244	2467.430559
489.553326	2472.380972
489.921350	2478.528659
490.289315	2480.887919
490.657222	2482.075111
491.025070	2486.443270
491.392861	2483.900008
491.760593	2480.426653
492.128267	2476.925572
492.495883	2475.713174
492.863440	2471.581949
493.230939	2471.471043
493.598380	2468.249746
493.965763	2462.810341
494.333088	2465.260342
494.700354	2459.800772
495.067563	2463.397636
495.434713	2460.350258
495.801805	2464.085753
496.168839	2465.923254
496.535815	2463.858901
496.902733	2465.023408
497.269593	2464.980558
497.636395	2462.888479
498.003139	2468.111114
498.369825	2468.161526
498.736453	2467.075157
499.103023	2466.132462
499.469535	2466.755044
499.835989	2464.801597
500.202385	2467.387709
500.568723	2467.246557
500.935003	2469.966259
501.301226	2469.404170
501.667390	2474.110088
502.033497	2473.028760
502.399546	2476.844913
502.765537	2472.907772
503.131470	2475.672845
503.497345	2477.343988
503.863163	2480.086375
504.228923	2480.131746
504.594625	2482.123002
504.960269	2480.514873
505.325856	2486.029896
505.691385	2483.965543
506.056856	2489.289002
506.422270	2491.363437
506.787625	2493.407624
507.152924	2493.891575
507.518164	2495.507265
507.883347	2493.243787
508.248472	2499.585558
508.613540	2502.506907
508.978550	2504.634274
509.343503	2506.602845
509.708398	2507.981600
510.073236	2512.463186
510.438016	2514.628362
510.802738	2515.255985
511.167403	2519.167921
511.532010	2520.450894
511.896561	2520.612211
512.261053	2526.643952
512.625488	2523.984743
512.989866	2523.233611
513.354186	2527.417769
513.718449	2524.345186
514.082655	2533.192411
514.446803	2531.249046
514.810894	2535.866743
515.174927	2536.759027
515.538904	2534.309026
515.902822	2536.862371
516.266684	2536.544778
516.630488	2536.721218
516.994235	2537.593338
517.357925	2537.137113
517.721558	2540.529810
518.085133	2539.067875
518.448651	2534.157792
518.812112	2536.486805
519.175516	2536.214582
519.538863	2536.093595
519.902152	2532.869777
520.265385	2531.228881
520.628560	2532.705939
520.991678	2529.469518
521.354739	2527.793335
521.717743	2528.559590
522.080690	2525.877696
522.443580	2526.898530
522.806413	2524.687984
523.169189	2520.423168
523.531908	2517.960564
523.894569	2512.619462
524.257174	2517.247241
524.619722	2513.567199
524.982213	2511.628875
525.344647	2506.580159
525.707025	2507.825324
526.069345	2501.327277
526.431608	2503.689058
526.793815	2501.299551
527.155964	2498.400887
527.518057	2495.703870
527.880093	2492.933756
528.242072	2490.158601
528.603995	2486.685246
528.965860	2484.273054
529.327669	2483.763897
529.689421	2481.737353
530.051117	2480.174596
530.412755	2476.726446
530.774337	2474.289048
531.135862	2472.005406
531.497331	2470.488018
531.858743	2465.305712
532.220098	2464.020218
532.581396	2461.522326
532.942638	2460.635083
533.303824	2463.395115
533.664953	2459.331945
534.026025	2458.094342
534.387040	2459.495783
534.747999	2456.430761
535.108902	2458.280864
535.469748	2452.536470
535.830537	2454.464711
536.191270	2455.243569
536.551947	2451.104782
536.912567	2451.366922
537.273131	2449.146294
537.633638	2447.316355
537.994089	2446.345933
538.354483	2447.288628
538.714821	2446.973556
539.075103	2446.282918
539.435328	2447.054215
539.795497	2442.101281
540.155609	2446.209822
540.515665	2445.123453
540.875665	2444.115222
541.235609	2443.361570
541.595496	2442.623041
541.955328	2442.761672
542.315102	2441.135900
542.674821	2441.161106
543.034483	2441.128338
543.394090	2438.791764
543.753640	2443.190170
544.113134	2439.522731
544.472571	2443.210335
544.831953	2441.584563
545.191278	2438.070879
545.550548	2439.830241
545.909761	2438.320416
546.268918	2440.808225
546.628019	2436.949222
546.987064	2438.539706
547.346053	2437.803697
547.704986	2440.102464
548.063863	2438.333019
548.422684	2438.607762
548.781449	2438.610282
549.140158	2438.970725
549.498811	2437.589448
549.857408	2437.793615
550.215949	2435.444437
550.574434	2434.736155
550.932864	2435.204983
551.291237	2434.201793
551.649555	2439.527772
552.007817	2435.630960
552.366022	2438.852257
552.724173	2437.516352
553.082267	2437.130703
553.440305	2437.324788
553.798288	2438.086002
554.156215	2438.819490
554.514086	2439.573142
554.871902	2435.136927
555.229661	2435.331012
555.587365	2436.220775
555.945014	2438.774120
556.302606	2438.060796
556.660143	2435.961156
557.017625	2436.976948
557.375050	2433.899324
557.732421	2438.159099
558.089735	2435.827565
558.446994	2438.824531
558.804197	2439.074068
559.161345	2437.717998
559.518437	2434.940322
559.875474	2436.755138
560.232455	2437.017277
560.589381	2436.198090
560.946251	2440.208328
561.303065	2438.088523
561.659825	2436.177925
562.016528	2436.293872
562.373177	2434.731114
562.729770	2433.652307
563.086307	2435.890580
563.442789	2434.640373
563.799216	2436.382092
564.155587	2434.350507
564.511904	2437.163471
564.868164	2435.479726
565.224370	2436.094746
565.580520	2436.026691
565.936615	2434.161464
566.292654	2434.968048
566.648638	2436.099787
567.004567	2434.766402
567.360441	2433.634663
567.716260	2437.004675
568.072023	2433.879159
568.427732	2429.647111
568.783385	2434.458892
569.138982	2429.838674
569.494525	2431.116607
569.850013	2431.174580
570.205445	2434.927719
570.560823	2434.867225
570.916145	2430.304981
571.271412	2433.969900
571.626625	2435.000816
571.981782	2432.364293
572.336884	2434.274890
572.691931	2431.882862
573.046923	2433.344797
573.401860	2433.387647
573.756743	2436.286310
574.111570	2432.908737
574.466342	2430.771288
574.821059	2431.535023
575.175722	2430.292378
575.530330	2434.980651
575.884882	2430.980496
576.239380	2430.330187
576.593823	2433.914447
576.948211	2432.490321
577.302544	2432.636515
577.656823	2432.026535
578.011047	2432.213058
578.365216	2432.255908
578.719330	2430.640218
579.073389	2430.788932
579.427394	2433.170877
579.781344	2430.030238
580.135239	2430.751123
580.489080	2430.645259
580.842866	2431.905547
581.196597	2431.192224
581.550273	2429.551329
581.903895	2431.290527
582.257463	2428.812800
582.610975	2432.298757
582.964434	2431.716504
583.317837	2429.180804
583.671186	2429.957142
584.024481	2429.314394
584.377721	2429.233736
584.730906	2427.413879
585.084037	2432.787749
585.437113	2432.147523
585.790135	2428.893458
586.143103	2431.300609
586.496016	2428.585948
586.848874	2424.898344
587.201679	2428.538057
587.554428	2422.521440
587.907124	2429.077460
588.259765	2423.534712
588.612352	2431.923192
588.964884	2430.947728
589.317362	2429.266503
589.669786	2426.937490
590.022155	2429.906730
590.374470	2428.827923
590.726731	2430.927564
591.078937	2429.200968
591.431090	2428.472522
591.783188	2428.699374
592.135232	2428.638880
592.487222	2428.270876
592.839157	2426.267017
593.191038	2427.618046
593.542866	2429.405135
593.894639	2429.574014
594.246358	2427.106369
594.598022	2428.422110
594.949633	2425.833478
595.301190	2429.190886
595.652692	2426.665268
596.004141	2426.980340
596.355535	2426.856832
596.706876	2427.008067
597.058162	2425.818354
597.409395	2426.115782
597.760573	2424.797521
598.111698	2426.070412
598.462768	2428.003694
598.813785	2425.011770
599.164748	2425.523447
599.515657	2426.927408
599.866511	2423.759043
600.217312	2426.317428
600.568060	2425.805751
600.918753	2428.553180
601.269392	2425.384815
601.619978	2424.043868
601.970510	2426.929929
602.320988	2424.164856
602.671412	2425.878848
603.021783	2427.549991
603.372100	2425.029414
603.722363	2425.467994
604.072572	2425.268868
604.422728	2428.565783
604.772830	2422.367684
605.122878	2422.723086
605.472872	2419.463980
605.822813	2421.629155
606.172701	2424.409352
606.522534	2422.725606
606.872314	2423.103693
607.222041	2426.698036
607.571714	2426.511513
607.921333	2425.916657
608.270899	2425.125196
608.620411	2426.816503
608.969870	2423.328024
609.319276	2425.654517
609.668627	2426.161153
610.017926	2423.580082
610.367171	2423.872469
610.716362	2425.677202
611.065500	2422.967582
611.414585	2424.399269
611.763616	2422.251738
612.112594	2425.720052
612.461518	2423.746440
612.810389	2424.835329
613.159207	2425.614187
613.507971	2425.362130
613.856682	2424.046389
614.205340	2425.641914
614.553945	2426.188879
614.902496	2424.421955
615.250994	2427.507141
615.599439	2425.631832
615.947830	2422.571851
616.296169	2424.479928
616.644454	2424.832809
616.992686	2424.462284
617.340864	2425.843560
617.688990	2424.573189
618.037063	2427.403797
618.385082	2426.655186
618.733048	2426.057809
619.080961	2428.573345
619.428821	2426.324990
619.776628	2423.801893
620.124382	2425.810792
620.472083	2425.150401
620.819731	2424.885741
621.167326	2425.941863
621.514868	2426.435896
621.862357	2424.999167
622.209793	2426.856832
622.557176	2425.956986
622.904506	2423.766605
623.251783	2420.139494
623.599007	2421.029258
623.946179	2417.891140
624.293297	2421.374577
624.640363	2420.963723
624.987376	2421.460277
625.334336	2420.159659
625.681243	2423.501944
626.028097	2423.343148
626.374899	2423.280133
626.721647	2422.833991
627.068343	2422.130750
627.414987	2422.211409
627.761577	2423.131419
628.108115	2422.082859
628.454600	2421.084711
628.801032	2419.390883
629.147412	2418.740574
629.493739	2420.562951
629.840014	2421.737540
630.186236	2420.525143
630.532405	2422.554207
630.878521	2420.028589
631.224585	2422.236614
631.570597	2423.244845
631.916556	2421.775349
632.262462	2421.543456
632.608316	2422.748292
632.954117	2419.673188
633.299866	2419.297622
633.645562	2420.149577
633.991206	2422.037489
634.336797	2418.622107
634.682336	2422.130750
635.027823	2422.697880
635.373257	2418.543969
635.718639	2418.879206
636.063968	2418.420461
636.409245	2418.599422
636.754470	2421.316604
637.099642	2417.129926
637.444762	2418.475914
637.789829	2420.777200
638.134845	2419.774011
638.479808	2419.184196
638.824719	2419.363157
639.169577	2419.542118
639.514383	2419.781573
639.859137	2419.499268
640.203839	2417.346695
640.548489	2416.532549
640.893086	2414.780748
641.237632	2413.671694
641.582125	2415.292425
641.926566	2412.262692
642.270955	2419.320307
642.615292	2415.983063
642.959576	2416.852662
643.303809	2416.809812
643.647990	2416.993814
643.992118	2416.860224
644.336195	2415.199164
644.680219	2416.461973
645.024192	2415.098341
645.368112	2415.867117
645.711981	2417.699576
646.055797	2416.066242
646.399562	2416.212436
646.743274	2417.702097
647.086935	2418.697724
647.430544	2416.930800
647.774101	2419.484144
648.117606	2419.726120
648.461059	2418.191088
648.804460	2421.664443
649.147810	2419.295101
649.491108	2418.672519
649.834354	2418.748136
650.177548	2418.175965
650.520690	2415.178999
650.863781	2418.780903
651.206820	2418.365008
651.549807	2419.428692
651.892742	2419.201840
652.235626	2414.992476
652.578458	2418.380132
652.921238	2414.579102
653.263967	2416.494740
653.606644	2417.949113
653.949269	2416.766963
654.291843	2416.600604
654.634365	2417.485327
654.976836	2414.427867
655.319255	2414.478279
655.661622	2413.185223
656.003938	2415.574730
656.346203	2417.397107
656.688416	2415.184040
657.030577	2415.360481
657.372687	2414.271591
657.714746	2417.112282
658.056753	2414.228742
658.398708	2409.159861
658.740612	2413.646488
659.082465	2409.762279
659.424266	2412.552558
659.766016	2409.459810
660.107715	2415.816705
660.449362	2415.292425
660.790958	2415.292425
661.132503	2413.344019
661.473996	2413.830490
661.815438	2413.346540
662.156829	2412.665984
662.498168	2414.662281
662.839456	2413.396951
663.180693	2415.655388
663.521879	2416.530028
663.863013	2414.238824
664.204097	2414.155645
664.545129	2414.977353
664.886110	2415.297466
665.227040	2416.051119
665.567918	2414.760583
665.908746	2415.352919
666.249522	2414.826118
666.590248	2413.059194
666.930922	2415.821746
667.271545	2413.923752
667.612118	2415.418454
667.952639	2413.994328
668.293109	2415.851993
668.633528	2412.240006
668.973896	2414.485840
669.314213	2416.265368
669.654480	2412.663463
669.994695	2413.361663
670.334859	2416.416602
670.674973	2413.951478
671.015035	2414.054822
671.355047	2416.456932
671.695008	2415.229411
672.034918	2414.132960
672.374777	2414.022054
672.714585	2415.796540
673.054342	2415.690676
673.394049	2414.374935
673.733705	2417.344175
674.073310	2414.508526
674.412864	2412.111457
674.752368	2416.719072
675.091820	2414.894174
675.431223	2414.659760
675.770574	2414.780748
676.109875	2408.645664
676.449125	2412.683628
676.788324	2409.878226
677.127473	2412.524832
677.466571	2410.347053
677.805619	2411.975346
678.144616	2414.256468
678.483562	2412.300500
678.822458	2409.661456
679.161303	2413.142373
679.500098	2413.233114
679.838842	2413.749832
680.177535	2410.349574
680.516179	2414.087589
680.854771	2413.956519
681.193314	2414.712692
681.531805	2415.471386
681.870247	2416.366191
682.208638	2412.182033
682.546978	2415.869637
682.885268	2414.286715
683.223508	2415.088258
683.561697	2410.526014
683.899836	2415.998187
684.237925	2413.177661
684.575963	2412.310583
684.913951	2415.289904
685.251889	2414.586663
685.589776	2414.896694
685.927614	2413.056673
686.265401	2414.062383
686.603137	2412.751683
686.940824	2412.217321
687.278460	2413.825449
687.616046	2414.001890
687.953582	2416.620769
688.291068	2412.786972
688.628504	2415.133629
688.965889	2414.130439
689.303224	2414.395100
689.640510	2413.447363
689.977745	2415.867117
690.314930	2414.206056
690.652065	2415.264699
690.989150	2412.565161
691.326185	2410.894018
691.663170	2412.106416
692.000105	2412.746642
692.336990	2415.168917
692.673825	2413.797723
693.010610	2414.127918
693.347345	2409.187588
693.684030	2408.305386
694.020665	2409.104409
694.357251	2405.560478
694.693786	2410.352094
695.030272	2409.580798
695.366707	2408.716240
695.703093	2410.004255
696.039429	2407.647515
696.375716	2413.270922
696.711952	2412.570202
697.048139	2408.565005
697.384276	2408.081054
697.720363	2408.388565
698.056400	2409.679100
698.392388	2408.310427
698.728326	2407.075344
699.064214	2409.275808
699.400053	2408.774213
699.735842	2407.821435
700.071581	2409.371590
700.407270	2406.379665
700.742910	2408.343194
701.078501	2407.642474
701.414042	2406.397309
701.749533	2407.612227
702.084974	2408.688513
702.420366	2405.686506
702.755709	2405.477298
703.091002	2404.005282
703.426246	2403.412946
703.761440	2408.832186
704.096584	2406.031825
704.431679	2407.559295
704.766725	2410.742784
705.101721	2406.109963
705.436668	2407.397978
705.771565	2406.881260
706.106413	2406.321692
706.441212	2406.631723
706.775961	2407.886970
707.110661	2406.490570
707.445311	2409.510222
707.779913	2406.455282
708.114465	2409.043915
708.448967	2407.503842
708.783421	2407.380334
709.117825	2406.757752
709.452180	2411.201529
709.786485	2411.360325
710.120742	2408.892680
710.454949	2410.629358
710.789107	2407.851682
711.123216	2403.932185
711.457275	2408.007958
711.791286	2405.752041
712.125247	2408.728843
712.459159	2410.848648
712.793023	2410.246230
713.126837	2408.839748
713.460602	2409.812691
713.794318	2410.236148
714.127985	2409.099368
714.461602	2410.137845
714.795171	2408.829666
715.128691	2408.033163
715.462162	2409.679100
715.795584	2406.969480
716.128957	2407.012330
716.462281	2404.501835
716.795556	2407.738256
717.128782	2404.229613
717.461960	2407.128276
717.795088	2406.851013
718.128167	2403.334808
718.461198	2406.641805
718.794180	2405.522669
719.127113	2403.291958
719.459997	2404.769016
719.792833	2404.738769
720.125619	2404.723646
720.458357	2405.648698
720.791046	2407.148441
721.123686	2403.773388
721.456278	2404.033008
721.788821	2405.484860
722.121315	2404.736249
722.453761	2404.890004
722.786158	2406.465365
723.118506	2405.290776
723.450805	2403.337329
723.783056	2407.156003
724.115259	2404.794222
724.447412	2405.295817
724.779518	2407.655077
725.111574	2404.655590
725.443582	2407.219017
725.775542	2407.178688
726.107453	2404.491753
726.439315	2405.918399
726.771129	2407.748338
727.102895	2405.328584
727.434612	2407.781106
727.766281	2404.784140
728.097901	2404.665673
728.429473	2404.254819
728.760996	2403.770868
729.092471	2400.315157
729.423897	2404.181722
729.755276	2406.389747
730.086606	2405.988976
730.417887	2405.552916
730.749120	2408.265057
731.080305	2404.595097
731.411442	2410.001734
731.742530	2404.083419
732.073570	2407.473595
732.404562	2406.175498
732.735506	2406.407391
733.066401	2404.053173
733.397249	2408.272618
733.728048	2405.764644
734.058798	2405.275652
734.389501	2405.845303
734.720156	2405.051321
735.050762	2404.378327
735.381320	2404.703481
735.711831	2404.527041
736.042293	2403.319685
736.372707	2404.398492
736.703073	2404.441341
737.033391	2405.535272
737.363661	2406.815725
737.693883	2403.692730
738.024056	2409.318658
738.354182	2406.064593
738.684260	2406.276321
739.014290	2401.411608
739.344272	2405.815056
739.674207	2404.549726
740.004093	2404.942936
740.333931	2403.997720
740.663722	2405.799932
740.993464	2405.510066
741.323159	2405.736918
741.652806	2406.528379
741.982405	2405.454613
742.311956	2403.788512
742.641460	2403.387740
742.970915	2401.499828
743.300323	2405.638615
743.629683	2402.923954
743.958996	2401.232647
744.288260	2401.467061
744.617477	2403.609551
744.946647	2397.913047
745.275768	2402.969324
745.604842	2397.129148
745.933869	2399.183418
746.262847	2398.260887
746.591778	2403.775909
746.920662	2400.781464
747.249498	2404.098543
747.578286	2401.774571
747.907027	2404.862278
748.235720	2401.527554
748.564365	2402.871022
748.892963	2404.879922
749.221514	2404.655590
749.550017	2405.106774
749.878473	2402.674417
750.206881	2402.097205
750.535242	2403.390261
750.863555	2402.976886
751.191821	2404.635426
751.520039	2404.471588
751.848210	2400.320198
752.176334	2402.122411
752.504411	2403.481002
752.832440	2400.373130
753.160421	2405.200035
753.488356	2400.723490
753.816243	2402.681979
754.144082	2403.768347
754.471875	2401.998902
754.799620	2398.994375
755.127318	2401.976217
755.454969	2401.767009
755.782572	2404.320354
756.110129	2404.763975
756.437638	2403.513769
756.765100	2402.298851
757.092515	2401.245250
757.419882	2401.935888
757.747203	2400.655435
758.074477	2400.950342
758.401703	2406.009140
758.728882	2403.448234
759.056014	2400.773902
759.383099	2403.055024
759.710138	2403.629716
760.037129	2399.763151
760.364073	2406.493091
760.690970	2401.303223
761.017820	2400.965466
761.344623	2403.808677
761.671379	2404.837072
761.998088	2401.406567
762.324751	2399.606875
762.651366	2404.721125
762.977935	2407.319840
763.304456	2405.689027
763.630931	2411.524162
763.957359	2408.743966
764.283740	2407.524007
764.610074	2406.319171
764.936362	2407.075344
765.262602	2402.238357
765.588796	2403.854047
765.914943	2404.050652
766.241044	2401.101577
766.567097	2404.045611
766.893104	2399.669889
767.219064	2403.110477
767.544978	2403.400343
767.870845	2401.225085
768.196665	2401.945970
768.522438	2398.618809
768.848165	2398.712070
769.173846	2398.437327
769.499479	2400.912534
769.825066	2400.567215
770.150607	2402.003943
770.476101	2400.317678
770.801548	2401.693912
771.126949	2396.567059
771.452303	2399.443037
771.777611	2400.146278
772.102872	2398.137378
772.428087	2401.315826
772.753256	2400.733573
773.078378	2398.263407
773.403453	2401.588048
773.728482	2400.194169
774.053465	2399.770712
774.378401	2400.126114
774.703291	2398.596123
775.028135	2399.435476
775.352932	2397.285423
775.677683	2397.106463
776.002388	2398.074364
776.327046	2397.350958
776.651658	2399.755589
776.976224	2395.515978
777.300743	2399.702657
777.625216	2399.574107
777.949643	2398.286093
778.274024	2400.529406
778.598359	2394.046482
778.922647	2394.961452
779.246889	2398.512944
779.571086	2392.624877
779.895236	2400.534447
780.219339	2396.307440
780.543397	2398.142420
780.867409	2398.898593
781.191374	2399.135527
781.515294	2396.952707
781.839167	2399.069992
782.162995	2401.562842
782.486776	2398.623850
782.810511	2399.339694
783.134201	2397.582852
783.457844	2395.858777
783.781441	2396.486401
784.104993	2398.502862
784.428498	2398.185269
784.751958	2396.524209
785.075372	2397.585372
785.398739	2397.618140
785.722061	2397.726524
786.045337	2399.122924
786.368568	2399.110321
786.691752	2396.927502
787.014891	2397.489590
787.337983	2397.681154
787.661030	2400.841958
787.984031	2397.746689
788.306987	2398.107132
788.629897	2400.481515
788.952760	2399.644683
789.275579	2398.381874
789.598351	2399.959756
789.921078	2398.870866
790.243759	2400.252143
790.566395	2398.931360
790.888984	2400.758778
791.211529	2398.517986
791.534027	2396.420866
791.856480	2399.899262
792.178888	2399.135527
792.501249	2398.528068
792.823566	2396.622512
793.145836	2396.297357
793.468062	2399.679972
793.790241	2399.238871
794.112375	2400.083264
794.434464	2396.541853
794.756507	2398.865825
795.078505	2399.236350
795.400457	2396.410783
795.722364	2393.890206
796.044226	2394.469939
796.366042	2396.002450
796.687812	2395.634446
797.009538	2398.880949
797.331218	2398.943963
797.652852	2397.724004
797.974442	2398.976731
798.295986	2397.799621
798.617484	2397.688716
798.938938	2396.577141
799.260346	2399.369941
799.581709	2395.445402
799.903026	2397.991185
800.224299	2397.350958
800.545526	2399.309447
800.866708	2396.125958
801.187845	2398.349107
801.508936	2396.219219
801.829983	2398.349107
802.150984	2396.725855
802.471940	2397.335835
802.792851	2398.938922
803.113717	2397.640825
803.434538	2396.231822
803.755314	2397.592934
804.076045	2397.058572
804.396731	2400.035373
804.717372	2397.197203
805.037967	2396.877090
805.358518	2396.796432
805.679024	2396.569580
805.999485	2396.569580
806.319901	2397.736607
806.640272	2397.083777
806.960598	2398.795249
807.280879	2398.775084
807.601115	2396.889693
807.921306	2398.349107
808.241453	2395.531102
808.561554	2397.164436
808.881611	2396.458674
809.201623	2395.838612
809.521590	2395.946997
809.841513	2397.159395
810.161390	2395.296688
810.481223	2395.959600
810.801011	2398.969169
811.120755	2398.281051
811.440453	2397.459343
811.760107	2396.456154
812.079716	2394.472460
812.399281	2395.921791
812.718801	2395.523540
813.038276	2393.907850
813.357707	2399.778274
813.677093	2396.816596
813.996434	2397.313150
814.315731	2398.187790
814.634983	2394.656462
814.954191	2397.913047
815.273354	2394.575803
815.592473	2395.064795
815.911547	2398.434807
816.230577	2396.070505
816.549562	2399.359858
816.868502	2398.364230
817.187399	2399.117883
817.506250	2397.655948
817.825058	2397.673592
818.143821	2397.839950
818.462539	2398.714591
818.781213	2397.454302
819.099843	2398.734755
819.418429	2397.683675
819.736970	2402.679458
820.055466	2400.839437
820.373919	2401.605692
820.692327	2401.840106
821.010691	2408.378483
821.329011	2411.771179
821.647286	2428.835485
821.965517	2438.335539
822.283704	2445.143617
822.601847	2445.216714
822.919945	2441.377876
823.237999	2436.029211
823.556010	2427.920515
823.873976	2424.926070
824.191897	2421.293919
824.509775	2412.313103
824.827609	2410.155489
825.145398	2409.608524
825.463144	2408.698596
825.780845	2410.571384
826.098502	2409.638771
826.416116	2412.572722
826.733685	2413.278484
827.051210	2415.002559
827.368692	2415.136149
827.686129	2413.313772
828.003522	2409.084244
828.320872	2403.745662
828.638177	2403.269273
828.955439	2397.575290
829.272656	2399.372461
829.589830	2398.129817
829.906960	2398.633932
830.224046	2396.090670
830.541088	2397.270300
830.858086	2398.270969
831.175041	2396.514127
831.491952	2398.525547
831.808819	2396.957748
832.125642	2399.942112
832.442421	2399.362379
832.759157	2400.398336
833.075849	2403.138203
833.392497	2405.368914
833.709101	2407.418143
834.025662	2406.782957
834.342179	2403.639798
834.658653	2405.865467
834.975083	2402.855898
835.291469	2404.355642
835.607811	2398.754920
835.924110	2399.816083
836.240366	2397.287944
836.556578	2398.931360
836.872746	2396.453633
837.188871	2397.678633
837.504952	2394.404404
837.820990	2394.774929
838.136984	2397.108983
838.452935	2394.553118
838.768842	2396.662841
839.084706	2395.183262
839.400526	2397.053530
839.716303	2397.550084
840.032037	2398.601165
840.347727	2396.738458
840.663373	2398.583521
840.978977	2396.186452
841.294537	2398.142420
841.610054	2397.986144
841.925527	2396.292316
842.240957	2397.345917
842.556344	2395.584034
842.871687	2396.251987
843.186987	2393.857439
843.502244	2394.220402
843.817458	2395.853736
844.132629	2395.301729
844.447756	2394.931205
844.762840	2391.936759
845.077881	2392.148488
845.392879	2394.071688
845.707833	2392.962634
846.022745	2388.937273
846.337613	2395.057233
846.652438	2394.734600
846.967221	2395.778118
847.281960	2396.809034
847.596656	2394.049003
847.911309	2391.573796
848.225919	2393.658313
848.540485	2392.614794
848.855009	2393.600340
849.169490	2393.766698
849.483928	2393.219733
849.798323	2393.731410
850.112675	2394.880793
850.426984	2394.409445
850.741251	2391.301574
851.055474	2394.444733
851.369654	2393.650752
851.683792	2392.632438
851.997887	2395.054713
852.311938	2391.616646
852.625947	2396.284754
852.939914	2393.877603
853.253837	2396.234343
853.567718	2392.755947
853.881555	2397.134189
854.195350	2393.774260
854.509103	2393.620505
854.822812	2392.440875
855.136479	2393.524723
855.450103	2395.296688
855.763685	2392.743344
856.077224	2394.938766
856.390720	2393.489435
856.704173	2393.418858
857.017584	2394.250649
857.330953	2394.653941
857.644278	2395.858777
857.957561	2395.629404
858.270802	2395.810886
858.584000	2396.085629
858.897155	2393.096225
859.210268	2394.117058
859.523339	2393.088663
859.836367	2392.448436
860.149352	2395.642007
860.462295	2392.692932
860.775195	2391.140257
861.088054	2389.476676
861.400869	2390.542880
861.713642	2389.547252
862.026373	2393.673437
862.339062	2391.677140
862.651708	2392.128323
862.964312	2390.336193
863.276873	2394.026318
863.589392	2394.608571
863.901869	2395.841133
864.214303	2393.771739
864.526696	2392.219064
864.839045	2396.924981
865.151353	2393.426420
865.463619	2393.338200
865.775842	2393.895248
866.088023	2395.334497
866.400162	2393.663354
866.712258	2392.019938
867.024313	2395.074878
867.336325	2393.718807
867.648296	2395.815927
867.960224	2392.536657
868.272110	2392.927346
868.583954	2395.006822
868.895755	2392.226626
869.207515	2393.610422
869.519233	2392.647562
869.830909	2394.134702
870.142542	2391.452808
870.454134	2391.629249
870.765684	2394.457336
871.077191	2392.947511
871.388657	2396.357851
871.700081	2390.943652
872.011463	2396.032697
872.322803	2391.205792
872.634101	2392.214023
872.945357	2395.841133
873.256571	2394.217881
873.567744	2395.465567
873.878874	2392.851729
874.189963	2393.418858
874.501010	2393.625546
874.812015	2395.079919
875.122979	2394.583365
875.433900	2394.913561
875.744780	2393.653272
876.055618	2394.893396
876.366415	2392.990360
876.677169	2394.812737
876.987882	2392.269475
877.298554	2388.912067
877.609183	2394.487583
877.919771	2390.946172
878.230317	2391.553632
878.540822	2394.049003
878.851285	2395.485732
879.161707	2397.608057
879.472087	2395.485732
879.782425	2398.848181
880.092722	2400.116031
880.402977	2406.334295
880.713191	2410.684810
881.023363	2412.159348
881.333494	2416.013310
881.643583	2417.949113
881.953631	2416.114133
882.263637	2415.975501
882.573602	2415.680594
882.883526	2411.388051
883.193408	2407.743297
883.503248	2406.601476
883.813048	2406.109963
884.122806	2404.670714
884.432522	2402.429921
884.742197	2400.302554
885.051831	2399.760630
885.361424	2400.844478
885.670975	2398.336504
885.980485	2399.165774
886.289954	2396.640156
886.599382	2397.361041
886.908768	2397.454302
887.218113	2396.010012
887.527417	2396.408263
887.836680	2397.224930
888.145901	2395.541184
888.455082	2393.640669
888.764221	2396.677964
889.073319	2393.118910
889.382376	2393.827192
889.691392	2394.611091
890.000366	2393.287788
890.309300	2393.373488
890.618193	2395.546225
890.927044	2394.626215
891.235855	2391.581358
891.544625	2394.497665
891.853353	2393.726369
892.162041	2394.258211
892.470687	2395.127810
892.779293	2393.822151
893.087858	2391.795607
893.396381	2390.709238
893.704864	2395.155536
894.013306	2393.121430
894.321707	2399.236350
894.630068	2399.228788
894.938387	2399.357338
895.246665	2398.656617
895.554903	2400.766340
895.863100	2400.201731
896.171256	2400.602503
896.479371	2398.132337
896.787446	2395.699981
897.095480	2397.300547
897.403473	2394.580844
897.711425	2398.144940
898.019336	2393.315515
898.327207	2395.556308
898.635038	2394.061606
898.942827	2396.317522
899.250576	2393.902809
899.558284	2392.082953
899.865952	2394.419527
900.173579	2394.343910
900.481165	2395.165618
900.788711	2391.977088
901.096216	2394.958931
901.403681	2393.938097
901.711105	2396.262069
902.018489	2393.015566
902.325832	2395.268962
902.633135	2393.557490
902.940397	2396.367933
903.247619	2394.233005
903.554800	2399.478325
903.861941	2400.108470
904.169041	2404.224572
904.476101	2402.160219
904.783121	2403.765827
905.090100	2400.509241
905.397039	2397.875238
905.703938	2397.857594
906.010796	2399.851371
906.317614	2399.158212
906.624391	2395.306771
906.931129	2392.453478
907.237826	2396.521689
907.544483	2392.584548
907.851099	2393.731410
908.157675	2395.195865
908.464211	2393.534805
908.770707	2386.777138
909.077163	2391.014228
909.383578	2390.331152
909.689954	2391.457850
909.996289	2388.264279
910.302584	2391.808210
910.608839	2392.415669
910.915054	2390.288302
911.221229	2390.651265
911.527363	2393.633108
911.833458	2391.684702
912.139513	2390.666388
912.445527	2392.299722
912.751502	2390.386604
913.057436	2395.392470
913.363331	2392.592109
913.669186	2389.388456
913.975000	2391.417520
914.280775	2394.840464
914.586510	2395.352141
914.892205	2392.531615
915.197859	2395.357182
915.503475	2399.576628
915.809050	2403.216341
916.114585	2400.882287
916.420081	2403.796074
916.725536	2399.833727
917.030952	2397.986144
917.336328	2401.212482
917.641665	2399.173336
917.946961	2401.482184
918.252218	2401.023439
918.557435	2396.246946
918.862612	2395.430279
919.167750	2395.972203
919.472848	2396.551936
919.777906	2396.849364
920.082925	2395.405073
920.387904	2392.546739
920.692843	2394.389281
920.997743	2394.951369
921.302603	2391.704866
921.607423	2395.425238
921.912204	2394.550597
922.216946	2394.588406
922.521647	2391.440206
922.826310	2394.180073
923.130932	2393.580175
923.435516	2392.400545
923.740059	2391.853580
924.044564	2391.495658
924.349028	2397.134189
924.653454	2387.417365
924.957840	2388.823847
925.262186	2386.671274
925.566493	2386.802344
925.870761	2389.043137
926.174989	2390.502551
926.479178	2391.687222
926.783328	2392.579506
927.087438	2391.878786
927.391509	2390.419372
927.695541	2388.861655
927.999533	2391.160422
928.303486	2390.608415
928.607400	2390.593292
928.911275	2389.214536
929.215110	2389.242263
929.518906	2391.455329
929.822663	2394.154867
930.126381	2389.186810
930.430060	2390.996584
930.733699	2389.045658
931.037299	2391.725031
931.340861	2389.017931
931.644383	2390.046327
931.947866	2392.871893
932.251309	2393.444064
932.554714	2391.687222
932.858080	2393.081101
933.161407	2388.992725
933.464694	2391.974568
933.767943	2388.967520
934.071153	2391.520864
934.374323	2390.280740
934.677455	2391.747716
934.980548	2392.145967
935.283602	2391.319218
935.586617	2389.093548
935.889593	2390.686553
936.192530	2388.982643
936.495428	2390.404248
936.798287	2391.800648
937.101108	2391.987171
937.403890	2388.445760
937.706632	2392.317366
938.009336	2388.758312
938.312002	2392.992881
938.614628	2390.689074
938.917216	2392.375340
939.219765	2390.759650
939.522275	2391.238559
939.824747	2391.281409
940.127179	2387.747560
940.429573	2387.944165
940.731929	2390.406769
941.034246	2385.257230
941.336524	2391.268806
941.638763	2394.195196
941.940964	2390.111862
942.243126	2390.936090
942.545250	2392.014897
942.847335	2389.484238
943.149381	2391.498179
943.451389	2391.104969
943.753359	2393.106307
944.055290	2390.537839
944.357182	2393.002963
944.659036	2391.072201
944.960851	2389.214536
945.262628	2393.197048
945.564367	2391.198230
945.866067	2389.113713
946.167729	2390.520195
946.469352	2389.335524
946.770937	2390.754609
947.072484	2389.942983
947.373992	2389.680843
947.675462	2389.557335
947.976893	2389.574979
948.278286	2388.884341
948.579641	2392.395504
948.880958	2390.510113
949.182236	2391.369629
949.483476	2389.680843
949.784678	2389.983312
950.085841	2390.840308
950.386967	2389.428785
950.688054	2389.842160
950.989103	2391.707387
951.290114	2392.675288
951.591087	2390.724362
951.892021	2388.934752
952.192917	2391.195710
952.493776	2390.162273
952.794596	2390.626059
953.095378	2388.803682
953.396122	2389.499361
953.696828	2388.259238
953.997496	2392.050185
954.298126	2390.069012
954.598718	2391.150339
954.899272	2389.627911
955.199788	2388.831408
955.500266	2390.114382
955.800706	2388.407952
956.101108	2383.334030
956.401472	2388.697818
956.701798	2384.279247
957.002087	2388.478528
957.302337	2387.480379
957.602550	2388.750750
957.902724	2391.765360
958.202861	2390.545401
958.502960	2389.748898
958.803022	2388.319731
959.103045	2385.627755
959.403031	2388.097921
959.702979	2389.585061
960.002889	2390.749568
960.302762	2389.348127
960.602596	2389.774104
960.902393	2388.957437
961.202153	2388.914588
961.501875	2390.230329
961.801559	2391.223436
962.101205	2388.128168
962.400814	2386.451984
962.700385	2388.924670
962.999918	2389.557335
963.299414	2389.753940
963.598873	2390.053888
963.898293	2389.252345
964.197677	2390.263096
964.497022	2389.310318
964.796331	2390.061450
965.095601	2390.126985
965.394835	2388.879299
965.694030	2388.687736
965.993189	2388.591954
966.292309	2386.199926
966.591393	2392.385422
966.890439	2386.729247
967.189447	2389.690925
967.488419	2389.181769
967.787353	2388.473487
968.086249	2389.055740
968.385108	2391.263765
968.683930	2389.244783
968.982714	2388.556666
969.281462	2389.143960
969.580172	2389.257386
969.878844	2386.522560
970.177480	2391.830895
970.476078	2389.272509
970.774639	2390.343755
971.073162	2389.247304
971.371649	2386.036089
971.670098	2384.611963
971.968510	2387.724875
972.266885	2383.359236
972.565223	2390.694115
972.863524	2391.132695
973.161788	2390.694115
973.460014	2390.966337
973.758204	2388.390308
974.056356	2391.873745
974.354471	2389.935421
974.652550	2389.481717
974.950591	2390.615977
975.248595	2390.323590
975.546563	2388.423075
975.844493	2389.650596
976.142386	2388.939793
976.440243	2390.472304
976.738062	2390.782335
977.035845	2391.034393
977.333590	2388.690256
977.631299	2390.976419
977.928971	2390.147150
978.226606	2388.649927
978.524204	2387.818137
978.821765	2390.132026
979.119290	2387.492982
979.416777	2390.328631
979.714228	2388.816285
980.011642	2385.075749
980.309020	2390.873076
980.606360	2387.616490
980.903664	2389.287633
981.200931	2389.731254
981.498162	2390.532798
981.795356	2391.488097
982.092513	2391.377191
982.389633	2389.096069
982.686717	2389.514485
982.983764	2391.757798
983.280775	2391.636811
983.577749	2391.334341
983.874686	2388.218908
984.171587	2389.675802
984.468451	2390.091697
984.765279	2391.271327
985.062070	2392.695453
985.358824	2389.058260
985.655543	2389.015411
985.952224	2389.073384
986.248869	2389.935421
986.545478	2383.505429
986.842050	2386.033568
987.138586	2383.084493
987.435086	2384.866541
987.731549	2382.623228
988.027975	2390.341234
988.324366	2387.901316
988.620719	2389.640514
988.917037	2387.944165
989.213318	2388.087838
989.509563	2386.862838
989.805772	2387.873589
990.101944	2387.117416
990.398080	2389.582540
990.694180	2388.730585
990.990244	2387.351830
991.286271	2388.208826
991.582262	2389.758981
991.878217	2387.571120
992.174136	2390.069012
992.470019	2388.148332
992.765865	2387.429968
993.061676	2388.710421
993.357450	2387.661861
993.653188	2386.855276
993.948890	2387.843342
994.244556	2389.635473
994.540186	2388.596995
994.835780	2387.329145
995.131337	2390.021121
995.426859	2389.680843
995.722345	2389.885010
996.017795	2387.117416
996.313208	2387.747560
996.608586	2389.554814
996.903928	2387.079608
997.199234	2390.026162
997.494504	2388.203785
997.789738	2389.837119
998.084936	2390.716800
998.380099	2388.541542
998.675225	2388.982643
998.970316	2388.491131
999.265371	2389.874927
999.560390	2388.818806
999.855373	2389.519526
1000.150320	2387.666902
1000.445232	2388.412993
1000.740108	2386.978784
1001.034948	2389.983312
1001.329752	2387.913918
1001.624521	2388.808723
1001.919254	2383.442415
1002.213951	2381.733464
1002.508613	2383.119781
1002.803239	2386.414175
1003.097829	2384.236397
1003.392384	2388.476007
1003.686903	2389.859804
1003.981386	2390.111862
1004.275834	2387.697149
1004.570246	2388.463404
1004.864623	2384.990049
1005.158964	2387.608929
1005.453270	2387.659340
1005.747540	2388.773435
1006.041775	2385.128681
1006.335974	2389.143960
1006.630138	2387.550955
1006.924266	2388.213867
1007.218359	2386.315873
1007.512416	2391.016749
1007.806438	2387.167828
1008.100425	2386.043650
1008.394376	2385.763866
1008.688292	2387.424927
1008.982172	2389.443909
1009.276017	2388.849052
1009.569827	2389.075904
1009.863602	2387.558517
1010.157341	2388.788559
1010.451045	2388.697818
1010.744714	2387.992056
1011.038347	2385.993239
1011.331945	2384.858979
1011.625508	2387.321583
1011.919036	2387.835781
1012.212528	2388.657489
1012.505986	2386.527601
1012.799408	2388.314690
1013.092795	2388.259238
1013.386147	2385.045502
1013.679464	2385.176572
1013.972745	2387.316542
1014.265992	2387.316542
1014.559204	2387.818137
1014.852380	2388.952396
1015.145521	2389.320400
1015.438628	2390.265617
1015.731699	2388.120606
1016.024736	2386.721686
1016.317737	2387.545914
1016.610703	2386.270502
1016.903635	2386.320914
1017.196531	2383.482744
1017.489393	2385.693290
1017.782219	2383.490306
1018.075011	2387.097252
1018.367768	2385.940307
1018.660490	2386.817468
1018.953177	2386.817468
1019.245829	2386.817468
