Dividing Wavelength (nm)	Counts (n)	Blue Motor Position (mm): 0.000000	Red Motor Position (mm): 10.000000	
326.493990	1977.868985
326.888308	1977.868985
327.282561	1977.868985
327.676750	1955.529112
328.070874	1956.411314
328.464933	1960.630760
328.858929	1970.375310
329.252859	1983.076497
329.646726	1999.243477
330.040528	2012.504233
330.434265	2032.893179
330.827938	2052.324307
331.221547	2069.290310
331.615091	2090.533733
332.008571	2111.517535
332.401986	2132.060237
332.795338	2150.644451
333.188625	2170.425939
333.581847	2191.959227
333.975006	2207.700230
334.368100	2228.094218
334.761129	2245.811353
335.154095	2260.082860
335.546996	2273.454520
335.939833	2290.491100
336.332606	2300.845630
336.725315	2313.463638
337.117960	2320.753146
337.510540	2330.747234
337.903056	2337.973728
338.295508	2343.957578
338.687896	2352.283043
339.080220	2359.501975
339.472480	2362.413242
339.864676	2366.955321
340.256807	2368.308871
340.648875	2369.281814
341.040879	2372.641743
341.432818	2373.350025
341.824694	2373.377751
342.216506	2373.965046
342.608253	2375.240458
342.999937	2371.391537
343.391557	2369.924561
343.783113	2368.823069
344.174605	2369.110415
344.566033	2368.722246
344.957397	2370.874818
345.348697	2365.170753
345.739934	2364.966586
346.131106	2362.786287
346.522215	2361.694877
346.913260	2358.715555
347.304241	2357.430061
347.695159	2353.697087
348.086012	2353.417303
348.476802	2350.959740
348.867528	2350.528722
349.258191	2350.294308
349.648789	2350.085100
350.039324	2347.282218
350.429796	2348.807168
350.820203	2345.086796
351.210548	2347.352795
351.600828	2344.065962
351.991045	2345.711899
352.381198	2343.869357
352.771288	2345.474965
353.161314	2347.158710
353.551276	2344.076045
353.941175	2346.730212
354.331010	2344.897753
354.720782	2343.433298
355.110490	2346.891529
355.500135	2348.345902
355.889717	2345.686693
356.279235	2347.819101
356.668689	2348.098885
357.058080	2345.112002
357.447408	2346.699965
357.836672	2343.539162
358.225873	2348.630727
358.615010	2346.006807
359.004084	2351.824298
359.393095	2352.467045
359.782043	2352.010821
360.170927	2352.729185
360.559748	2353.185410
360.948505	2353.986953
361.337199	2352.129288
361.725830	2354.854032
362.114398	2355.685822
362.502903	2355.716069
362.891344	2355.123733
363.279722	2357.407376
363.668037	2355.453929
364.056289	2360.847963
364.444478	2359.204547
364.832603	2359.043230
365.220665	2358.206399
365.608665	2358.115658
365.996601	2359.688498
366.384474	2360.618591
366.772284	2362.420803
367.160031	2361.939373
367.547715	2362.035155
367.935336	2363.640763
368.322893	2365.828623
368.710388	2364.994313
369.097820	2370.282483
369.485189	2368.278624
369.872495	2368.313912
370.259738	2368.540764
370.646918	2371.958667
371.034035	2371.537730
371.421090	2372.268698
371.808081	2379.618700
372.195010	2380.352188
372.581875	2387.866028
372.968678	2391.596481
373.355418	2395.485732
373.742096	2409.464851
374.128710	2417.545821
374.515262	2428.671647
374.901751	2443.858123
375.288177	2457.507047
375.674540	2480.119143
376.060841	2495.834940
376.447079	2520.229083
376.833254	2545.860830
377.219367	2571.820252
377.605417	2604.862495
377.991404	2632.747637
378.377329	2670.992351
378.763191	2704.122814
379.148991	2750.932448
379.534727	2797.036321
379.920402	2841.862261
380.306013	2886.153838
380.691563	2949.047274
381.077049	3006.297137
381.462474	3060.207237
381.847835	3131.554687
382.233134	3201.598999
382.618371	3257.681836
383.003545	3343.515042
383.388657	3420.838780
383.773706	3509.868077
384.158693	3580.814756
384.543618	3670.925381
384.928480	3749.156527
385.313280	3848.578163
385.698017	3950.873257
386.082692	4066.792069
386.467305	4125.052684
386.851856	4241.946959
387.236344	4390.814753
387.620770	4444.886169
388.005133	4554.304413
388.389435	4690.617213
388.773674	4761.669756
389.157851	4885.372110
389.541965	4996.380838
389.926018	5004.885265
390.310008	5155.686341
390.693936	5255.929685
391.077802	5341.457901
391.461606	5442.449857
391.845348	5525.003792
392.229027	5602.579588
392.612645	5766.568323
392.996200	5838.054405
393.379694	5953.673268
393.763125	6098.825732
394.146494	6136.906608
394.529801	6202.875147
394.913047	6353.676223
395.296230	6288.912520
395.679351	6275.941631
396.062410	6419.856491
396.445408	6269.927534
396.828343	6321.329660
397.211217	6351.130441
397.594028	6194.403488
397.976778	6262.522079
398.359466	6302.591691
398.742092	6199.815167
399.124656	6215.515840
399.507158	6252.744762
399.889598	6180.840264
400.271977	6220.993054
400.654294	6146.225181
401.036549	6167.758469
401.418742	6081.164049
401.800874	6154.212889
402.182944	6095.233910
402.564952	6184.676582
402.946898	5980.766950
403.328783	5897.958436
403.710606	5881.685592
404.092367	5895.906687
404.474067	5944.382422
404.855705	5730.566923
405.237282	5600.981542
405.618797	5657.112270
406.000250	5639.818592
406.381642	5654.216127
406.762972	5512.433675
407.144240	5320.456454
407.525447	5284.598727
407.906593	5149.271473
408.287677	5111.397284
408.668700	5036.760481
409.049661	4915.130041
409.430560	4846.363662
409.811399	4726.729519
410.192176	4660.645033
410.572891	4566.279674
410.953545	4565.639448
411.334138	4345.978731
411.714669	4357.805278
412.095139	4125.481182
412.475547	4115.056076
412.855894	3996.430164
413.236180	3952.965336
413.616405	3820.259481
413.996568	3769.820217
414.376670	3682.998944
414.756711	3588.671394
415.136691	3543.066596
415.516609	3485.917555
415.896466	3420.387597
416.276262	3376.038046
416.655997	3347.484950
417.035670	3281.443314
417.415283	3268.159874
417.794834	3208.654094
418.174324	3138.571973
418.553753	3072.313567
418.933121	3047.087634
419.312428	2984.201760
419.691674	2932.179573
420.070859	2910.870616
420.449983	2857.174765
420.829045	2838.318329
421.208047	2792.673202
421.586988	2771.371806
421.965867	2748.784917
422.344686	2718.840463
422.723444	2701.072916
423.102141	2650.610966
423.480777	2652.309835
423.859352	2622.491410
424.237866	2618.697942
424.616319	2595.770774
424.994712	2589.844897
425.373044	2570.943091
425.751314	2562.078222
426.129524	2540.159285
426.507673	2541.159954
426.885762	2525.978519
427.263789	2519.334279
427.641756	2510.141735
428.019662	2507.979080
428.397508	2498.274858
428.775292	2496.323932
429.153016	2488.036275
429.530679	2485.568630
429.908282	2480.593011
430.285824	2473.424491
430.663305	2473.205200
431.040726	2470.205714
431.418086	2465.696402
431.795385	2465.691361
432.172624	2464.005095
432.549802	2459.420165
432.926920	2458.815227
433.303977	2456.559310
433.680974	2452.375153
434.057910	2453.602674
434.434786	2452.697787
434.811601	2448.619493
435.188355	2452.995215
435.565050	2453.161573
435.941683	2448.543876
436.318257	2448.133022
436.694770	2443.606066
437.071222	2450.867848
437.447614	2443.976590
437.823946	2441.352670
438.200218	2443.469954
438.576429	2440.379727
438.952580	2441.539192
439.328670	2444.997424
439.704700	2442.832248
440.080670	2439.830241
440.456580	2439.883173
440.832429	2440.246137
441.208218	2436.833275
441.583947	2437.357555
441.959616	2437.702874
442.335224	2437.740683
442.710773	2438.431321
443.086261	2439.777309
443.461689	2436.578697
443.837057	2436.435024
444.212365	2439.147165
444.587612	2441.272011
444.962800	2436.009047
445.337927	2438.723708
445.712995	2433.554005
446.088002	2441.425767
446.462949	2441.503904
446.837837	2440.263781
447.212664	2439.273194
447.587431	2445.917435
447.962139	2452.755760
448.336786	2460.062912
448.711374	2455.120061
449.085901	2445.836776
449.460369	2444.155551
449.834776	2451.306428
450.209124	2449.932714
450.583412	2452.934721
450.957640	2451.513115
451.331808	2448.601849
451.705917	2444.195881
452.079965	2446.618155
452.453954	2444.142948
452.827883	2445.060438
453.201752	2442.890222
453.575562	2447.782662
453.949311	2446.718978
454.323001	2447.724688
454.696632	2443.258226
455.070202	2450.716613
455.443713	2448.564040
455.817164	2451.455142
456.190556	2447.727209
456.563888	2451.079576
456.937160	2448.405244
457.310373	2448.042281
457.683526	2450.275512
458.056619	2449.383228
458.429653	2450.623352
458.802628	2451.187961
459.175542	2448.589246
459.548398	2454.971347
459.921194	2460.357820
460.293930	2458.238015
460.666607	2463.034672
461.039224	2466.376958
461.411782	2468.423666
461.784280	2464.841926
462.156719	2460.819085
462.529099	2462.149950
462.901419	2458.870679
463.273680	2457.033179
463.645882	2457.489403
464.018024	2455.540997
464.390106	2460.234312
464.762130	2465.003243
465.134094	2470.609006
465.505999	2485.528301
465.877845	2493.831081
466.249631	2495.245125
466.621358	2493.137923
466.993026	2491.665906
467.364634	2486.012252
467.736184	2478.455562
468.107674	2473.885756
468.479105	2474.757876
468.850477	2471.256794
469.221790	2468.547174
469.593043	2461.925619
469.964238	2463.811010
470.335373	2460.136009
470.706449	2464.612554
471.077467	2471.690334
471.448425	2482.642240
471.819324	2487.524598
472.190164	2485.437560
472.560945	2476.280304
472.931667	2470.601444
473.302330	2465.572893
473.672934	2464.239508
474.043479	2466.901237
474.413965	2465.028449
474.784393	2459.460494
475.154761	2460.937553
475.525070	2459.455453
475.895321	2461.043417
476.265513	2461.020732
476.635645	2469.366362
477.005719	2466.369396
477.375734	2468.048100
477.745691	2468.554736
478.115588	2471.975159
478.485427	2475.657722
478.855207	2481.946561
479.224928	2486.302118
479.594591	2491.643221
479.964194	2486.584423
480.333739	2488.978971
480.703226	2489.523415
481.072653	2489.639362
481.442022	2487.897643
481.811333	2492.590958
482.180584	2492.119610
482.549777	2485.283805
482.918912	2486.508805
483.287988	2484.290698
483.657005	2483.763897
484.025964	2482.833804
484.394864	2483.446304
484.763706	2483.479072
485.132489	2477.981694
485.501213	2481.956643
485.869879	2479.355408
486.238487	2480.308186
486.607036	2478.934472
486.975527	2476.050932
487.343959	2480.918166
487.712333	2477.656539
488.080648	2478.906745
488.448905	2479.310038
488.817104	2479.322641
489.185244	2482.591829
489.553326	2484.217601
489.921350	2489.893940
490.289315	2493.959631
490.657222	2494.773777
491.025070	2497.536329
491.392861	2491.786893
491.760593	2494.647748
492.128267	2488.661378
492.495883	2485.861017
492.863440	2481.979329
493.230939	2479.972949
493.598380	2477.543113
493.965763	2473.038842
494.333088	2472.325519
494.700354	2471.629840
495.067563	2474.871302
495.434713	2470.160343
495.801805	2474.215952
496.168839	2475.723257
496.535815	2475.866930
496.902733	2473.958853
497.269593	2476.683597
497.636395	2474.972125
498.003139	2474.556230
498.369825	2478.150572
498.736453	2475.922382
499.103023	2477.782568
499.469535	2478.110243
499.835989	2478.251395
500.202385	2477.603607
500.568723	2477.669142
500.935003	2480.968577
501.301226	2477.417084
501.667390	2481.618886
502.033497	2483.284988
502.399546	2480.106540
502.765537	2484.139463
503.131470	2485.699700
503.497345	2486.360091
503.863163	2486.902015
504.228923	2486.912098
504.594625	2491.701194
504.960269	2491.635659
505.325856	2497.420383
505.691385	2493.931904
506.056856	2499.164622
506.422270	2497.841319
506.787625	2500.828203
507.152924	2505.408091
507.518164	2507.742145
507.883347	2504.430107
508.248472	2509.130983
508.613540	2511.303721
508.978550	2514.784637
509.343503	2516.503671
509.708398	2519.051974
510.073236	2520.564320
510.438016	2525.000536
510.802738	2523.888961
511.167403	2527.256452
511.532010	2525.474404
511.896561	2533.356248
512.261053	2539.463606
512.625488	2533.409180
512.989866	2536.123842
513.354186	2539.549306
513.718449	2534.059489
514.082655	2545.618855
514.446803	2544.403937
514.810894	2548.066335
515.174927	2551.819474
515.538904	2549.987015
515.902822	2553.084804
516.266684	2552.535318
516.630488	2551.219577
516.994235	2550.057591
517.357925	2555.297870
517.721558	2556.676626
518.085133	2555.680998
518.448651	2555.781821
518.812112	2555.928014
519.175516	2553.755277
519.538863	2552.825184
519.902152	2554.700493
520.265385	2553.281409
520.628560	2554.866852
520.991678	2550.561706
521.354739	2550.365101
521.717743	2549.371994
522.080690	2549.636654
522.443580	2550.208825
522.806413	2547.226983
523.169189	2546.932075
523.531908	2543.103319
523.894569	2540.789429
524.257174	2538.402443
524.619722	2536.726259
524.982213	2534.578728
525.344647	2532.383305
525.707025	2529.502286
526.069345	2527.682429
526.431608	2526.984230
526.793815	2522.338806
527.155964	2524.004908
527.518057	2519.339320
527.880093	2516.707838
528.242072	2513.347908
528.603995	2509.451097
528.965860	2508.029491
529.327669	2505.108142
529.689421	2502.393481
530.051117	2503.898266
530.412755	2498.703357
530.774337	2494.683036
531.135862	2492.434682
531.497331	2488.230359
531.858743	2486.584423
532.220098	2484.860348
532.581396	2481.855820
532.942638	2478.689976
533.303824	2478.296766
533.664953	2477.616210
534.026025	2472.968266
534.387040	2473.356435
534.747999	2470.422483
535.108902	2472.940540
535.469748	2470.803091
535.830537	2468.728656
536.191270	2465.628346
536.551947	2465.262863
536.912567	2462.979220
537.273131	2464.990640
537.633638	2461.303036
537.994089	2457.847325
538.354483	2459.057202
538.714821	2458.447223
539.075103	2457.113837
539.435328	2457.081070
539.795497	2452.780966
540.155609	2454.575616
540.515665	2454.958744
540.875665	2451.351798
541.235609	2452.007148
541.595496	2452.334823
541.955328	2452.768363
542.315102	2448.352312
542.674821	2447.661674
543.034483	2450.542693
543.394090	2448.889195
543.753640	2451.135029
544.113134	2450.341047
544.472571	2449.904987
544.831953	2445.224276
545.191278	2447.785182
545.550548	2447.195367
545.909761	2447.202929
546.268918	2444.405088
546.628019	2446.842486
546.987064	2444.936930
547.346053	2447.454987
547.704986	2445.015068
548.063863	2444.614296
548.422684	2441.395520
548.781449	2443.742177
549.140158	2446.318206
549.498811	2443.999276
549.857408	2444.768052
550.215949	2440.447783
550.574434	2438.557350
550.932864	2443.127156
551.291237	2440.556168
551.649555	2443.714450
552.007817	2442.277722
552.366022	2444.669749
552.724173	2443.958946
553.082267	2443.144800
553.440305	2446.192178
553.798288	2442.703699
554.156215	2443.938782
554.514086	2443.069183
554.871902	2443.843000
555.229661	2441.526590
555.587365	2442.507094
555.945014	2444.531117
556.302606	2442.630602
556.660143	2445.138576
557.017625	2444.601693
557.375050	2441.090530
557.732421	2441.519028
558.089735	2442.502053
558.446994	2442.799481
558.804197	2445.249482
559.161345	2440.833431
559.518437	2439.207659
559.875474	2441.014913
560.232455	2442.897783
560.589381	2440.989707
560.946251	2444.475665
561.303065	2441.551795
561.659825	2442.423915
562.016528	2439.275714
562.373177	2443.318720
562.729770	2441.133380
563.086307	2441.574481
563.442789	2442.134049
563.799216	2441.423246
564.155587	2440.301589
564.511904	2442.469285
564.868164	2439.847885
565.224370	2443.137238
565.580520	2440.911569
565.936615	2443.182609
566.292654	2438.224634
566.648638	2441.526590
567.004567	2438.401074
567.360441	2440.430139
567.716260	2442.040787
568.072023	2439.467278
568.427732	2437.465940
568.783385	2438.529624
569.138982	2434.710950
569.494525	2438.086002
569.850013	2434.562236
570.205445	2437.965014
570.560823	2439.857968
570.916145	2439.258070
571.271412	2439.424428
571.626625	2440.077258
571.981782	2437.753286
572.336884	2438.832093
572.691931	2439.850406
573.046923	2439.210179
573.401860	2438.552309
573.756743	2438.217072
574.111570	2439.240426
574.466342	2435.804880
574.821059	2440.672114
575.175722	2436.230858
575.530330	2436.480395
575.884882	2439.865529
576.239380	2438.844696
576.593823	2438.660694
576.948211	2436.351845
577.302544	2437.075251
577.656823	2436.248502
578.011047	2439.739501
578.365216	2436.442586
578.719330	2436.200611
579.073389	2436.845878
579.427394	2440.858637
579.781344	2435.767071
580.135239	2434.889911
580.489080	2434.373192
580.842866	2433.889242
581.196597	2435.762030
581.550273	2435.825045
581.903895	2435.840168
582.257463	2437.241609
582.610975	2434.408480
582.964434	2436.329160
583.317837	2433.435538
583.671186	2437.952412
584.024481	2435.121804
584.377721	2435.167174
584.730906	2433.470826
585.084037	2433.853953
585.437113	2431.144333
585.790135	2434.035435
586.143103	2433.710281
586.496016	2433.170877
586.848874	2431.721545
587.201679	2432.971752
587.554428	2426.574527
587.907124	2431.172060
588.259765	2428.165011
588.612352	2433.760692
588.964884	2433.914447
589.317362	2434.398398
589.669786	2430.839343
590.022155	2436.891249
590.374470	2435.593152
590.726731	2431.998809
591.078937	2433.102822
591.431090	2433.828748
591.783188	2432.081988
592.135232	2430.645259
592.487222	2429.427820
592.839157	2430.277255
593.191038	2433.052410
593.542866	2429.447985
593.894639	2430.862029
594.246358	2432.276072
594.598022	2430.809097
594.949633	2431.275403
595.301190	2431.623243
595.652692	2431.232553
596.004141	2432.041659
596.355535	2429.334559
596.706876	2429.241298
597.058162	2431.487132
597.409395	2431.356062
597.760573	2431.895465
598.111698	2429.044693
598.462768	2432.296237
598.813785	2428.326328
599.164748	2429.281627
599.515657	2431.527461
599.866511	2430.080650
600.217312	2428.107038
600.568060	2429.241298
600.918753	2430.131061
601.269392	2430.395722
601.619978	2428.152408
601.970510	2427.154260
602.320988	2427.517223
602.671412	2431.267842
603.021783	2426.728282
603.372100	2427.537388
603.722363	2428.293561
604.072572	2430.007553
604.422728	2432.548295
604.772830	2424.230391
605.122878	2424.613518
605.472872	2426.919846
605.822813	2422.483631
606.172701	2427.625608
606.522534	2430.733479
606.872314	2429.316915
607.222041	2427.050916
607.571714	2428.172573
607.921333	2424.779877
608.270899	2429.137954
608.620411	2426.030083
608.969870	2426.478745
609.319276	2427.209713
609.668627	2430.534354
610.017926	2427.572676
610.367171	2428.772470
610.716362	2428.588468
611.065500	2427.325659
611.414585	2428.349013
611.763616	2428.406987
612.112594	2429.074940
612.461518	2427.179466
612.810389	2427.391194
613.159207	2429.803386
613.507971	2427.575196
613.856682	2430.836823
614.205340	2427.827254
614.553945	2429.223654
614.902496	2427.945721
615.250994	2428.515372
615.599439	2429.649631
615.947830	2428.298602
616.296169	2428.696853
616.644454	2432.543253
616.992686	2431.290527
617.340864	2427.121492
617.688990	2428.454878
618.037063	2430.541915
618.385082	2427.517223
618.733048	2430.340269
619.080961	2429.473191
619.428821	2426.856832
619.776628	2428.374219
620.124382	2428.631318
620.472083	2428.895979
620.819731	2429.964703
621.167326	2429.032090
621.514868	2429.329518
621.862357	2426.367840
622.209793	2428.424631
622.557176	2429.153077
622.904506	2426.037644
623.251783	2422.120668
623.599007	2425.828437
623.946179	2423.585123
624.293297	2424.855494
624.640363	2427.640731
624.987376	2428.391863
625.334336	2427.214754
625.681243	2427.439085
626.028097	2424.933632
626.374899	2425.793148
626.721647	2425.571338
627.068343	2428.953952
627.414987	2426.660227
627.761577	2426.463622
628.108115	2426.299784
628.454600	2424.222829
628.801032	2425.573858
629.147412	2423.635535
629.493739	2424.021183
629.840014	2424.762232
630.186236	2425.198292
630.532405	2422.231573
630.878521	2423.048240
631.224585	2424.973961
631.570597	2424.726944
631.916556	2427.287851
632.262462	2423.481779
632.608316	2424.469846
632.954117	2422.657551
633.299866	2424.915988
633.645562	2425.767943
633.991206	2424.326173
634.336797	2423.118816
634.682336	2423.562438
635.027823	2422.057653
635.373257	2422.874320
635.718639	2421.445153
636.063968	2422.947417
636.409245	2423.275092
636.754470	2421.450194
637.099642	2422.329876
637.444762	2422.249217
637.789829	2421.140163
638.134845	2421.654361
638.479808	2421.639238
638.824719	2421.777869
639.169577	2420.136974
639.514383	2423.817016
639.859137	2419.703435
640.203839	2420.751995
640.548489	2421.798034
640.893086	2419.761408
641.237632	2415.909966
641.582125	2420.414237
641.926566	2415.239493
642.270955	2419.438774
642.615292	2419.421130
642.959576	2417.518094
643.303809	2420.449525
643.647990	2419.529515
643.992118	2417.855852
644.336195	2418.735533
644.680219	2420.139494
645.024192	2420.885585
645.368112	2417.271078
645.711981	2419.592529
646.055797	2419.138825
646.399562	2421.561100
646.743274	2420.883065
647.086935	2421.866090
647.430544	2422.201326
647.774101	2418.806109
648.117606	2419.650503
648.461059	2422.665112
648.804460	2424.298446
649.147810	2421.636717
649.491108	2420.444484
649.834354	2418.417940
650.177548	2419.244690
650.520690	2420.958682
650.863781	2417.528177
651.206820	2418.990111
651.549807	2418.186047
651.892742	2420.076480
652.235626	2417.626479
652.578458	2418.095307
652.921238	2418.022210
653.263967	2420.013466
653.606644	2416.041036
653.949269	2414.899215
654.291843	2419.128743
654.634365	2417.051788
654.976836	2416.814853
655.319255	2419.068249
655.661622	2418.178486
656.003938	2417.364339
656.346203	2420.542787
656.688416	2420.041192
657.030577	2418.148239
657.372687	2419.136305
657.714746	2418.944741
658.056753	2416.109092
658.398708	2413.465007
658.740612	2416.363670
659.082465	2412.484502
659.424266	2416.852662
659.766016	2412.602969
660.107715	2419.874834
660.449362	2416.802251
660.790958	2419.746284
661.132503	2419.297622
661.473996	2417.629000
661.815438	2419.574885
662.156829	2417.770152
662.498168	2413.568350
662.839456	2416.829977
663.180693	2417.145049
663.521879	2416.648495
663.863013	2415.980542
664.204097	2416.041036
664.545129	2417.508012
664.886110	2418.740574
665.227040	2416.015831
665.567918	2417.805440
665.908746	2418.342323
666.249522	2418.685122
666.590248	2417.500450
666.930922	2416.734195
667.271545	2415.554565
667.612118	2421.382139
667.952639	2417.243352
668.293109	2418.468352
668.633528	2416.177148
668.973896	2418.927097
669.314213	2418.065060
669.654480	2416.643454
669.994695	2418.274268
670.334859	2416.262847
670.674973	2416.850142
671.015035	2416.093968
671.355047	2413.338978
671.695008	2416.572878
672.034918	2417.381983
672.374777	2415.693197
672.714585	2418.987591
673.054342	2416.633372
673.394049	2417.470203
673.733705	2417.356778
674.073310	2419.015317
674.412864	2420.126892
674.752368	2417.268557
675.091820	2416.860224
675.431223	2414.223700
675.770574	2414.626993
676.109875	2411.206570
676.449125	2415.710841
676.788324	2414.183371
677.127473	2414.599266
677.466571	2410.541138
677.805619	2414.483320
678.144616	2416.895512
678.483562	2416.489699
678.822458	2414.077507
679.161303	2415.211767
679.500098	2414.972312
679.838842	2414.662281
680.177535	2416.396438
680.516179	2416.464493
680.854771	2417.245872
681.193314	2415.340316
681.531805	2415.995666
681.870247	2419.960533
682.208638	2417.140008
682.546978	2417.271078
682.885268	2420.066398
683.223508	2416.290573
683.561697	2415.824267
683.899836	2417.838208
684.237925	2417.389545
684.575963	2415.453742
684.913951	2416.691345
685.251889	2415.325193
685.589776	2416.953485
685.927614	2414.904256
686.265401	2415.733526
686.603137	2413.659091
686.940824	2414.521128
687.278460	2417.858372
687.616046	2417.177817
687.953582	2417.949113
688.291068	2414.841242
688.628504	2417.613876
688.965889	2416.446849
689.303224	2417.991963
689.640510	2417.611356
689.977745	2419.526994
690.314930	2415.569688
690.652065	2415.032806
690.989150	2415.519277
691.326185	2416.280491
691.663170	2414.526170
692.000105	2414.563978
692.336990	2413.596077
692.673825	2412.209759
693.010610	2414.357291
693.347345	2411.004924
693.684030	2408.159192
694.020665	2412.759245
694.357251	2406.989645
694.693786	2411.942578
695.030272	2409.595921
695.366707	2411.415778
695.703093	2409.840417
696.039429	2412.582805
696.375716	2410.094995
696.711952	2411.950140
697.048139	2410.974677
697.384276	2411.229255
697.720363	2410.425191
698.056400	2410.526014
698.392388	2408.002917
698.728326	2411.753535
699.064214	2411.806467
699.400053	2409.265726
699.735842	2411.025088
700.071581	2411.393092
700.407270	2407.922258
700.742910	2409.837897
701.078501	2409.910993
701.414042	2410.069790
701.749533	2410.127763
702.084974	2405.610889
702.420366	2408.015519
702.755709	2408.355797
703.091002	2410.115160
703.426246	2409.467372
703.761440	2407.881929
704.096584	2408.716240
704.431679	2407.357649
704.766725	2410.271436
705.101721	2407.430746
705.436668	2407.786147
705.771565	2407.271949
706.106413	2405.706671
706.441212	2407.776065
706.775961	2407.566857
707.110661	2408.882598
707.445311	2405.845303
707.779913	2406.558626
708.114465	2407.894532
708.448967	2409.817732
708.783421	2410.669687
709.117825	2409.779923
709.452180	2411.345202
709.786485	2407.380334
710.120742	2411.877043
710.454949	2411.307393
710.789107	2407.967628
711.123216	2408.723802
711.457275	2408.242371
711.791286	2408.544841
712.125247	2408.945612
712.459159	2414.127918
712.793023	2411.667835
713.126837	2412.333268
713.460602	2411.158679
713.794318	2411.904770
714.127985	2412.023237
714.461602	2408.360838
714.795171	2409.590880
715.128691	2409.636250
715.462162	2408.582649
715.795584	2411.824111
716.128957	2410.127763
716.462281	2409.631209
716.795556	2407.584501
717.128782	2408.146589
717.461960	2405.966290
717.795088	2408.877557
718.128167	2404.930333
718.461198	2407.536610
718.794180	2408.093657
719.127113	2407.269429
719.459997	2406.757752
719.792833	2405.711712
720.125619	2407.975190
720.458357	2403.576783
720.791046	2407.458472
721.123686	2406.782957
721.456278	2406.921589
721.788821	2405.633574
722.121315	2410.246230
722.453761	2404.718605
722.786158	2406.127607
723.118506	2403.133162
723.450805	2406.220869
723.783056	2407.332443
724.115259	2406.364542
724.447412	2406.737587
724.779518	2407.544172
725.111574	2406.024264
725.443582	2406.787998
725.775542	2408.025602
726.107453	2404.602658
726.439315	2407.206414
726.771129	2409.744635
727.102895	2407.108112
727.434612	2409.147258
727.766281	2408.113822
728.097901	2407.269429
728.429473	2405.046280
728.760996	2404.774057
729.092471	2402.608882
729.423897	2403.959911
729.755276	2405.613410
730.086606	2407.282032
730.417887	2407.594583
730.749120	2408.859913
731.080305	2409.227917
731.411442	2406.510735
731.742530	2408.726322
732.073570	2411.632547
732.404562	2408.852351
732.735506	2407.423184
733.066401	2406.588873
733.397249	2406.964439
733.728048	2407.942423
734.058798	2405.784809
734.389501	2407.604665
734.720156	2406.450241
735.050762	2409.477454
735.381320	2404.464027
735.711831	2407.047618
736.042293	2406.477968
736.372707	2405.973852
736.703073	2406.845972
737.033391	2403.654921
737.363661	2405.971332
737.693883	2406.016702
738.024056	2407.947464
738.354182	2405.492422
738.684260	2405.527710
739.014290	2406.755231
739.344272	2407.821435
739.674207	2404.587535
740.004093	2406.054511
740.333931	2406.548544
740.663722	2407.178688
740.993464	2407.539130
741.323159	2407.985272
741.652806	2406.546023
741.982405	2407.327402
742.311956	2406.886301
742.641460	2407.644995
742.970915	2405.994017
743.300323	2407.544172
743.629683	2404.411094
743.958996	2405.991496
744.288260	2403.995199
744.617477	2405.368914
744.946647	2399.995044
745.275768	2401.814900
745.604842	2401.761968
745.933869	2404.121228
746.262847	2401.603172
746.591778	2405.502504
746.920662	2403.564181
747.249498	2404.509397
747.578286	2404.406053
747.907027	2402.447565
748.235720	2402.102246
748.564365	2405.179870
748.892963	2403.675086
749.221514	2404.514438
749.550017	2404.569891
749.878473	2407.125756
750.206881	2401.693912
750.535242	2406.649367
750.863555	2402.082081
751.191821	2404.269942
751.520039	2402.180384
751.848210	2406.898904
752.176334	2405.847823
752.504411	2403.866650
752.832440	2403.987637
753.160421	2404.491753
753.488356	2401.842627
753.816243	2404.539644
754.144082	2403.523851
754.471875	2406.276321
754.799620	2404.663152
755.127318	2404.824469
755.454969	2404.436300
755.782572	2402.818090
756.110129	2404.592576
756.437638	2402.772719
756.765100	2404.574932
757.092515	2402.888666
757.419882	2404.164078
757.747203	2402.359345
758.074477	2404.653070
758.401703	2402.719787
758.728882	2403.085271
759.056014	2405.404202
759.383099	2404.902607
759.710138	2405.086609
760.037129	2402.969324
760.364073	2406.939233
760.690970	2402.419839
761.017820	2403.912020
761.344623	2404.983265
761.671379	2405.706671
761.998088	2401.542678
762.324751	2404.252298
762.651366	2406.102402
762.977935	2411.561971
763.304456	2408.290262
763.630931	2416.149421
763.957359	2411.796385
764.283740	2412.418967
764.610074	2410.881415
764.936362	2410.273956
765.262602	2407.403019
765.588796	2404.985786
765.914943	2403.692730
766.241044	2405.961249
766.567097	2404.267422
766.893104	2404.499315
767.219064	2403.360014
767.544978	2403.601989
767.870845	2402.220713
768.196665	2401.968655
768.522438	2403.264232
768.848165	2404.227092
769.173846	2400.985630
769.499479	2401.227606
769.825066	2397.877759
770.150607	2401.094015
770.476101	2401.469581
770.801548	2402.860940
771.126949	2399.097718
771.452303	2401.368758
771.777611	2399.483367
772.102872	2401.893038
772.428087	2400.678120
772.753256	2400.297513
773.078378	2401.068809
773.403453	2401.343552
773.728482	2399.702657
774.053465	2398.066802
774.378401	2399.700136
774.703291	2398.263407
775.028135	2397.265259
775.352932	2400.284910
775.677683	2396.468757
776.002388	2400.930178
776.327046	2399.553943
776.651658	2400.526885
776.976224	2399.879097
777.300743	2399.420352
777.625216	2399.135527
777.949643	2399.259035
778.274024	2400.748696
778.598359	2397.648387
778.922647	2395.294168
779.246889	2396.375495
779.571086	2394.674106
779.895236	2399.198541
780.219339	2397.534961
780.543397	2399.271638
780.867409	2398.570918
781.191374	2398.583521
781.515294	2399.695095
781.839167	2399.304406
782.162995	2399.921947
782.486776	2399.750548
782.810511	2400.708367
783.134201	2399.498490
783.457844	2399.695095
783.781441	2400.058058
784.104993	2397.136709
784.428498	2397.429096
784.751958	2397.855074
785.075372	2398.853222
785.398739	2397.635784
785.722061	2399.710218
786.045337	2398.346586
786.368568	2398.996895
786.691752	2400.300033
787.014891	2399.163253
787.337983	2399.846330
787.661030	2400.511762
787.984031	2402.036711
788.306987	2402.165260
788.629897	2401.454458
788.952760	2401.169632
789.275579	2399.178377
789.598351	2400.688202
789.921078	2399.178377
790.243759	2399.745507
790.566395	2396.569580
790.888984	2400.209293
791.211529	2397.953376
791.534027	2397.575290
791.856480	2402.150137
792.178888	2397.071174
792.501249	2399.901782
792.823566	2399.266597
793.145836	2398.054199
793.468062	2401.494787
793.790241	2399.049827
794.112375	2400.693243
794.434464	2397.610578
794.756507	2398.601165
795.078505	2398.858263
795.400457	2396.942625
795.722364	2394.331307
796.044226	2395.142933
796.366042	2394.006153
796.687812	2397.345917
797.009538	2400.723490
797.331218	2400.599982
797.652852	2397.824827
797.974442	2401.250291
798.295986	2399.127965
798.617484	2400.942781
798.938938	2398.258366
799.260346	2402.538306
799.581709	2400.453789
799.903026	2400.441186
800.224299	2398.621329
800.545526	2397.759292
800.866708	2398.278531
801.187845	2399.253994
801.508936	2397.509755
801.829983	2400.763820
802.150984	2398.671741
802.471940	2399.959756
802.792851	2396.090670
803.113717	2396.740979
803.434538	2398.175187
803.755314	2399.730383
804.076045	2398.389436
804.396731	2399.347255
804.717372	2400.713408
805.037967	2398.765002
805.358518	2396.720814
805.679024	2397.630743
805.999485	2398.412121
806.319901	2400.373130
806.640272	2398.026473
806.960598	2398.515465
807.280879	2395.289127
807.601115	2399.904303
807.921306	2398.051679
808.241453	2399.778274
808.561554	2398.301216
808.881611	2400.426062
809.201623	2399.531257
809.521590	2398.883469
809.841513	2396.861967
810.161390	2395.717625
810.481223	2398.212996
810.801011	2394.684188
811.120755	2396.952707
811.440453	2395.175701
811.760107	2398.646535
812.079716	2395.331976
812.399281	2391.735113
812.718801	2395.967162
813.038276	2393.711245
813.357707	2396.506565
813.677093	2397.393808
813.996434	2400.267266
814.315731	2395.221071
814.634983	2398.971689
814.954191	2399.332132
815.273354	2397.257697
815.592473	2397.713922
815.911547	2398.465053
816.230577	2397.683675
816.549562	2398.064282
816.868502	2397.305588
817.187399	2399.506052
817.506250	2396.685526
817.825058	2400.854560
818.143821	2400.073182
818.462539	2398.235681
818.781213	2399.281720
819.099843	2401.230126
819.418429	2399.863974
819.736970	2401.361196
820.055466	2404.199366
820.373919	2406.049469
820.692327	2406.062072
821.010691	2409.845458
821.329011	2421.689649
821.647286	2437.201280
821.965517	2447.195367
822.283704	2462.896041
822.601847	2460.488890
822.919945	2454.542849
823.237999	2446.403906
823.556010	2441.352670
823.873976	2431.993768
824.191897	2429.037131
824.509775	2420.104206
824.827609	2420.389032
825.145398	2414.952147
825.463144	2412.613052
825.780845	2414.173289
826.098502	2416.701427
826.416116	2416.885430
826.733685	2422.191244
827.051210	2423.186872
827.368692	2422.309711
827.686129	2419.756367
828.003522	2412.136663
828.320872	2405.988976
828.638177	2408.728843
828.955439	2401.126783
829.272656	2404.116187
829.589830	2398.346586
829.906960	2402.540826
830.224046	2400.907492
830.541088	2397.839950
830.858086	2399.543860
831.175041	2401.187277
831.491952	2397.108983
831.808819	2397.371123
832.125642	2399.100239
832.442421	2401.535116
832.759157	2398.596123
833.075849	2407.075344
833.392497	2408.665828
833.709101	2409.059038
834.025662	2405.646177
834.342179	2409.258164
834.658653	2405.457134
834.975083	2404.322874
835.291469	2405.802453
835.607811	2400.690723
835.924110	2399.659807
836.240366	2401.109139
836.556578	2401.693913
836.872746	2399.788356
837.188871	2395.856256
837.504952	2397.232491
837.820990	2398.407080
838.136984	2397.429096
838.452935	2398.092008
838.768842	2396.630073
839.084706	2397.734086
839.400526	2397.663510
839.716303	2397.356000
840.032037	2401.565363
840.347727	2400.287431
840.663373	2399.037224
840.978977	2397.822306
841.294537	2397.479508
841.610054	2399.521175
841.925527	2396.773746
842.240957	2396.763664
842.556344	2397.499673
842.871687	2396.574621
843.186987	2395.309291
843.502244	2396.735938
843.817458	2394.530433
844.132629	2393.655793
844.447756	2395.188303
844.762840	2389.980792
845.077881	2395.455485
845.392879	2389.635473
845.707833	2393.128992
846.022745	2388.168497
846.337613	2394.260731
846.652438	2393.534805
846.967221	2395.566390
847.281960	2393.376009
847.596656	2397.353479
847.911309	2391.525905
848.225919	2394.724517
848.540485	2392.440875
848.855009	2393.197048
849.169490	2393.192007
849.483928	2393.222253
849.798323	2393.617984
850.112675	2393.451626
850.426984	2393.985988
850.741251	2395.195865
851.055474	2393.675957
851.369654	2392.002294
851.683792	2395.029507
851.997887	2393.192007
852.311938	2392.740823
852.625947	2393.431461
852.939914	2397.292985
853.253837	2396.007491
853.567718	2392.574465
853.881555	2393.597819
854.195350	2392.176214
854.509103	2391.924156
854.822812	2393.018087
855.136479	2396.657800
855.450103	2390.855432
855.763685	2394.969013
856.077224	2395.037069
856.390720	2394.386760
856.704173	2394.369116
857.017584	2393.360885
857.330953	2391.838457
857.644278	2393.318035
857.957561	2398.971689
858.270802	2394.510268
858.584000	2394.432130
858.897155	2393.857439
859.210268	2393.436503
859.523339	2391.382232
859.836367	2395.891544
860.149352	2394.865670
860.462295	2395.122768
860.775195	2390.757129
861.088054	2389.577499
861.400869	2388.992725
861.713642	2389.416182
862.026373	2394.664023
862.339062	2392.541698
862.651708	2393.796945
862.964312	2391.344424
863.276873	2392.468601
863.589392	2391.432644
863.901869	2395.216030
864.214303	2394.001112
864.526696	2394.434651
864.839045	2392.027500
865.151353	2391.846018
865.463619	2392.118241
865.775842	2390.850391
866.088023	2393.086142
866.400162	2394.497665
866.712258	2394.822820
867.024313	2394.903478
867.336325	2396.403222
867.648296	2393.653272
867.960224	2393.696122
868.272110	2392.002294
868.583954	2395.435320
868.895755	2394.744682
869.207515	2392.667727
869.519233	2396.161246
869.830909	2394.681668
870.142542	2393.315515
870.454134	2394.759805
870.765684	2393.912892
871.077191	2392.133364
871.388657	2393.688560
871.700081	2392.957593
872.011463	2393.617984
872.322803	2395.836092
872.634101	2393.970865
872.945357	2390.177397
873.256571	2396.463715
873.567744	2398.732235
873.878874	2396.017573
874.189963	2394.850546
874.501010	2395.581513
874.812015	2394.258211
875.122979	2395.279044
875.433900	2391.788045
875.744780	2394.482542
876.055618	2394.744682
876.366415	2394.583365
876.677169	2393.875083
876.987882	2394.096894
877.298554	2391.493138
877.609183	2393.895248
877.919771	2390.724362
878.230317	2393.612943
878.540822	2397.287944
878.851285	2396.854405
879.161707	2396.670403
879.472087	2400.002605
879.782425	2401.996382
880.092722	2402.560991
880.402977	2407.592063
880.713191	2416.666139
881.023363	2421.094793
881.333494	2425.556214
881.643583	2422.460946
881.953631	2427.683581
882.263637	2424.414393
882.573602	2420.683939
882.883526	2418.538928
883.193408	2416.061201
883.503248	2413.152455
883.813048	2410.238668
884.122806	2408.925448
884.432522	2404.368245
884.742197	2403.123080
885.051831	2403.110477
885.361424	2402.992010
885.670975	2400.234498
885.980485	2399.818603
886.289954	2397.061092
886.599382	2395.586555
886.908768	2397.716442
887.218113	2396.214178
887.527417	2393.590258
887.836680	2396.304919
888.145901	2395.946997
888.455082	2394.585886
888.764221	2395.037069
889.073319	2393.209651
889.382376	2395.473129
889.691392	2396.357851
890.000366	2394.301060
890.309300	2395.979765
890.618193	2395.286606
890.927044	2394.651421
891.235855	2395.740310
891.544625	2397.499673
891.853353	2397.161915
892.162041	2395.793242
892.470687	2395.561349
892.779293	2394.905999
893.087858	2396.158726
893.396381	2394.094373
893.704864	2398.102090
894.013306	2392.506410
894.321707	2401.893038
894.630068	2402.361865
894.938387	2403.294479
895.246665	2399.984961
895.554903	2402.893707
895.863100	2401.661145
896.171256	2399.090157
896.479371	2399.160733
896.787446	2401.885476
897.095480	2397.267779
897.403473	2397.550084
897.711425	2396.577141
898.019336	2396.824158
898.327207	2396.151164
898.635038	2392.531615
898.942827	2395.674775
899.250576	2393.718807
899.558284	2394.394322
899.865952	2394.328787
900.173579	2392.657644
900.481165	2397.875238
900.788711	2393.139074
901.096216	2395.455485
901.403681	2394.069167
901.711105	2392.183776
902.018489	2391.591440
902.325832	2395.568911
902.633135	2394.417007
902.940397	2394.580844
903.247619	2394.535474
903.554800	2400.393295
903.861941	2402.808007
904.169041	2406.906466
904.476101	2402.629047
904.783121	2403.823800
905.090100	2404.950498
905.397039	2400.216854
905.703938	2399.997564
906.010796	2397.817265
906.317614	2397.292985
906.624391	2399.256515
906.931129	2396.471277
907.237826	2397.292985
907.544483	2395.445402
907.851099	2396.655279
908.157675	2394.613612
908.464211	2389.146481
908.770707	2389.806872
909.077163	2391.107489
909.383578	2387.288815
909.689954	2388.770915
909.996289	2388.418034
910.302584	2393.194527
910.608839	2389.436347
910.915054	2392.153529
911.221229	2392.458519
911.527363	2390.956255
911.833458	2390.706718
912.139513	2390.941131
912.445527	2393.585217
912.751502	2390.429454
913.057436	2393.544887
913.363331	2393.736451
913.669186	2394.376678
913.975000	2393.807027
914.280775	2395.642007
914.586510	2395.392470
914.892205	2395.246277
915.197859	2398.623850
915.503475	2401.003274
915.809050	2402.797925
916.114585	2403.881773
916.420081	2404.763975
916.725536	2401.719118
917.030952	2407.269429
917.336328	2403.228944
917.641665	2402.165260
917.946961	2400.965466
918.252218	2403.685168
918.557435	2402.392112
918.862612	2402.437483
919.167750	2397.545043
919.472848	2398.086967
919.777906	2397.287944
920.082925	2398.364230
920.387904	2395.536143
920.692843	2395.435320
920.997743	2392.279558
921.302603	2395.306771
921.607423	2395.452964
921.912204	2393.154198
922.216946	2393.010525
922.521647	2394.099414
922.826310	2392.637480
923.130932	2393.257542
923.435516	2392.471122
923.740059	2390.444578
924.044564	2392.740823
924.349028	2391.500699
924.653454	2387.760163
924.957840	2389.539691
925.262186	2388.019783
925.566493	2391.951883
925.870761	2385.579864
926.174989	2391.336862
926.479178	2390.361399
926.783328	2390.099259
927.087438	2389.980792
927.391509	2389.569938
927.695541	2392.229146
927.999533	2391.253683
928.303486	2391.349465
928.607400	2390.321069
928.911275	2388.148332
929.215110	2392.423231
929.518906	2391.435164
929.822663	2393.625546
930.126381	2393.494476
930.430060	2392.713097
930.733699	2391.667058
931.037299	2389.479197
931.340861	2393.481873
931.644383	2392.163611
931.947866	2389.060781
932.251309	2390.174876
932.554714	2391.268806
932.858080	2392.824002
933.161407	2390.295864
933.464694	2389.302756
933.767943	2390.762170
934.071153	2389.698487
934.374323	2390.583209
934.677455	2387.674464
934.980548	2390.676471
935.283602	2393.073539
935.586617	2391.624208
935.889593	2391.019269
936.192530	2387.929042
936.495428	2392.166132
936.798287	2391.999774
937.101108	2390.699156
937.403890	2389.796789
937.706632	2392.685371
938.009336	2393.295350
938.312002	2392.181255
938.614628	2390.464742
938.917216	2393.388612
939.219765	2390.840308
939.522275	2390.583209
939.824747	2392.526574
940.127179	2387.586243
940.429573	2388.418034
940.731929	2390.200082
941.034246	2385.615152
941.336524	2391.979609
941.638763	2390.908364
941.940964	2393.595299
942.243126	2389.519526
942.545250	2391.951883
942.847335	2393.441544
943.149381	2392.347613
943.451389	2390.240411
943.753359	2392.660165
944.055290	2390.994063
944.357182	2390.948693
944.659036	2389.925339
944.960851	2390.827705
945.262628	2394.308622
945.564367	2390.643703
945.866067	2390.167314
946.167729	2389.806872
946.469352	2391.946842
946.770937	2390.371481
947.072484	2392.201420
947.373992	2388.813764
947.675462	2392.980278
947.976893	2389.595143
948.278286	2392.967675
948.579641	2390.857952
948.880958	2393.302912
949.182236	2393.247459
949.483476	2389.665719
949.784678	2390.883158
950.085841	2389.827036
950.386967	2391.432644
950.688054	2393.401214
950.989103	2391.777963
951.290114	2390.820144
951.591087	2389.698487
951.892021	2390.300905
952.192917	2393.718807
952.493776	2391.301574
952.794596	2390.983981
953.095378	2391.929198
953.396122	2387.805534
953.696828	2390.913405
953.997496	2388.728065
954.298126	2391.193189
954.598718	2393.953221
954.899272	2390.353837
955.199788	2391.956924
955.500266	2389.423744
955.800706	2389.196892
956.101108	2385.365615
956.401472	2387.535832
956.701798	2386.565410
957.002087	2387.180431
957.302337	2390.265617
957.602550	2389.617828
957.902724	2392.004815
958.202861	2390.991543
958.502960	2386.759494
958.803022	2387.641696
959.103045	2388.352499
959.403031	2391.087325
959.702979	2388.569268
960.002889	2391.399876
960.302762	2388.609598
960.602596	2389.491800
960.902393	2392.556821
961.202153	2388.060112
961.501875	2387.215719
961.801559	2392.418189
962.101205	2389.358209
962.400814	2389.302756
962.700385	2389.897612
962.999918	2389.761501
963.299414	2389.345606
963.598873	2388.443240
963.898293	2389.393497
964.197677	2391.263765
964.497022	2387.616490
964.796331	2389.789228
965.095601	2388.685215
965.394835	2388.889382
965.694030	2391.092366
965.993189	2389.857283
966.292309	2388.034906
966.591393	2389.766543
966.890439	2389.297715
967.189447	2390.540360
967.488419	2391.752757
967.787353	2390.429454
968.086249	2389.065822
968.385108	2389.206974
968.683930	2390.890720
968.982714	2389.441388
969.281462	2389.219577
969.580172	2391.936759
969.878844	2391.455329
970.177480	2388.869217
970.476078	2387.056922
970.774639	2393.980947
971.073162	2390.489948
971.371649	2387.689587
971.670098	2385.496685
971.968510	2387.815616
972.266885	2384.584236
972.565223	2389.166645
972.863524	2389.882489
973.161788	2390.636142
973.460014	2388.428116
973.758204	2390.283261
974.056356	2392.118241
974.354471	2388.586912
974.652550	2387.336706
974.950591	2391.024310
975.248595	2387.180431
975.546563	2388.869217
975.844493	2389.373333
976.142386	2389.459032
976.440243	2389.585061
976.738062	2391.092366
977.035845	2385.494165
977.333590	2390.106820
977.631299	2389.091028
977.928971	2387.881151
978.226606	2390.641183
978.524204	2389.857283
978.821765	2388.281923
979.119290	2389.159083
979.416777	2386.956099
979.714228	2388.329814
980.011642	2386.953579
980.309020	2388.314690
980.606360	2391.175545
980.903664	2388.844011
981.200931	2388.052550
981.498162	2389.174207
981.795356	2389.320400
982.092513	2388.997767
982.389633	2388.607077
982.686717	2390.247973
982.983764	2389.350647
983.280775	2390.767212
983.577749	2389.564896
983.874686	2389.358209
984.171587	2389.325442
984.468451	2390.386604
984.765279	2391.810730
985.062070	2393.065978
985.358824	2391.798128
985.655543	2391.084804
985.952224	2386.973743
986.248869	2390.406769
986.545478	2384.972405
986.842050	2388.355019
987.138586	2382.744215
987.435086	2385.221942
987.731549	2386.250338
988.027975	2390.641183
988.324366	2387.240924
988.620719	2387.407283
988.917037	2389.161604
989.213318	2390.217726
989.509563	2389.824516
989.805772	2388.586913
990.101944	2389.872407
990.398080	2388.108003
990.694180	2387.762684
990.990244	2388.488610
991.286271	2386.061294
991.582262	2386.613301
991.878217	2388.246635
992.174136	2387.757643
992.470019	2386.273023
992.765865	2389.280071
993.061676	2388.894423
993.357450	2391.483055
993.653188	2387.974412
993.948890	2389.635473
994.244556	2387.739999
994.540186	2387.588764
994.835780	2389.867366
995.131337	2388.838970
995.426859	2387.760163
995.722345	2391.137736
996.017795	2386.570451
996.313208	2392.178735
996.608586	2388.566748
996.903928	2392.019938
997.199234	2390.537839
997.494504	2388.980123
997.789738	2388.060112
998.084936	2385.857128
998.380099	2389.517005
998.675225	2388.365102
998.970316	2390.028683
999.265371	2390.550442
999.560390	2389.882489
999.855373	2388.884341
1000.150320	2390.308467
1000.445232	2386.920811
1000.740108	2386.373846
1001.034948	2387.745040
1001.329752	2389.607746
1001.624521	2390.444578
1001.919254	2382.197250
1002.213951	2386.860317
1002.508613	2382.776983
1002.803239	2387.003990
1003.097829	2383.265975
1003.392384	2387.243445
1003.686903	2388.844011
1003.981386	2388.821326
1004.275834	2386.787221
1004.570246	2386.817468
1004.864623	2386.918291
1005.158964	2389.761501
1005.453270	2386.706562
1005.747540	2390.963817
1006.041775	2386.825029
1006.335974	2389.169166
1006.630138	2385.600029
1006.924266	2389.201933
1007.218359	2387.077087
1007.512416	2389.459032
1007.806438	2386.608260
1008.100425	2384.982487
1008.394376	2385.869731
1008.688292	2387.722355
1008.982172	2387.913918
1009.276017	2385.456356
1009.569827	2388.150853
1009.863602	2389.280071
1010.157341	2387.969371
1010.451045	2386.225132
1010.744714	2388.546583
1011.038347	2389.340565
1011.331945	2390.820144
1011.625508	2387.979453
1011.919036	2386.346120
1012.212528	2387.326624
1012.505986	2385.385780
1012.799408	2388.591954
1013.092795	2387.702190
1013.386147	2386.913249
1013.679464	2385.811757
1013.972745	2389.917777
1014.265992	2386.923332
1014.559204	2387.024155
1014.852380	2389.839639
1015.145521	2387.611449
1015.438628	2388.198744
1015.731699	2388.029865
1016.024736	2387.792931
1016.317737	2387.394680
1016.610703	2388.047509
1016.903635	2388.549104
1017.196531	2381.030223
1017.489393	2385.519370
1017.782219	2382.114071
1018.075011	2389.781666
1018.367768	2387.974412
1018.660490	2386.699000
1018.953177	2386.699000
1019.245829	2386.699000
