Dividing Wavelength (nm)	Counts (n)	Blue Motor Position (mm): 0.000000	Red Motor Position (mm): 26.000000	
326.493990	1984.699749
326.888308	1984.699749
327.282561	1984.699749
327.676750	1960.855091
328.070874	1962.208641
328.464933	1969.430094
328.858929	1978.010137
329.252859	1989.566983
329.646726	2005.711278
330.040528	2020.572599
330.434265	2041.213604
330.827938	2058.426624
331.221547	2080.703483
331.615091	2102.304827
332.008571	2122.101438
332.401986	2143.770838
332.795338	2160.867911
333.188625	2181.889523
333.581847	2202.041535
333.975006	2218.730275
334.368100	2237.430435
334.761129	2254.041037
335.154095	2267.505959
335.546996	2288.630914
335.939833	2311.477423
336.332606	2322.913281
336.725315	2336.232009
337.117960	2346.190809
337.510540	2350.926973
337.903056	2364.749817
338.295508	2366.413397
338.687896	2372.876157
339.080220	2383.497868
339.472480	2387.908877
339.864676	2391.442726
340.256807	2393.401214
340.648875	2398.177708
341.040879	2398.376833
341.432818	2397.482028
341.824694	2398.525547
342.216506	2397.260218
342.608253	2398.984292
342.999937	2397.766854
343.391557	2399.755589
343.783113	2393.728889
344.174605	2393.759136
344.566033	2393.582696
344.957397	2393.197048
345.348697	2388.924670
345.739934	2388.271840
346.131106	2385.353012
346.522215	2383.558362
346.913260	2382.880326
347.304241	2382.635830
347.695159	2381.234390
348.086012	2377.246837
348.476802	2377.297248
348.867528	2379.593494
349.258191	2372.402288
349.648789	2372.687113
350.039324	2374.527134
350.429796	2371.923378
350.820203	2371.996475
351.210548	2373.823893
351.600828	2370.947915
351.991045	2370.002699
352.381198	2371.694006
352.771288	2371.207535
353.161314	2369.889273
353.551276	2368.598738
353.941175	2371.721732
354.331010	2372.596373
354.720782	2370.768954
355.110490	2373.675179
355.500135	2370.791639
355.889717	2372.437576
356.279235	2374.817001
356.668689	2373.413039
357.058080	2371.938502
357.447408	2372.994624
357.836672	2372.760210
358.225873	2374.275077
358.615010	2374.943030
359.004084	2378.618031
359.393095	2376.757845
359.782043	2378.560058
360.170927	2379.825387
360.559748	2379.401930
360.948505	2380.752959
361.337199	2383.954092
361.725830	2383.374359
362.114398	2386.119268
362.502903	2381.824205
362.891344	2384.440563
363.279722	2388.672612
363.668037	2386.399052
364.056289	2388.171017
364.444478	2386.719165
364.832603	2389.872407
365.220665	2390.298384
365.608665	2389.159083
365.996601	2387.694628
366.384474	2392.574465
366.772284	2390.709238
367.160031	2394.812738
367.547715	2394.336348
367.935336	2394.137223
368.322893	2395.422717
368.710388	2397.968500
369.097820	2403.130641
369.485189	2399.800959
369.872495	2401.439334
370.259738	2402.739952
370.646918	2405.953688
371.034035	2408.479306
371.421090	2411.075500
371.808081	2411.534245
372.195010	2418.687642
372.581875	2423.373395
372.968678	2430.599889
373.355418	2436.863522
373.742096	2446.829883
374.128710	2457.683488
374.515262	2469.494911
374.901751	2485.210708
375.288177	2502.617812
375.674540	2518.121881
376.060841	2540.905376
376.447079	2566.063254
376.833254	2591.742892
377.219367	2616.638630
377.605417	2653.123981
377.991404	2676.618279
378.377329	2718.192674
378.763191	2752.628796
379.148991	2799.662762
379.534727	2848.430884
379.920402	2898.010632
380.306013	2945.919238
380.691563	3008.585821
381.077049	3065.356775
381.462474	3118.997173
381.847835	3192.978626
382.233134	3266.914709
382.618371	3327.884944
383.003545	3410.753952
383.388657	3495.785614
383.773706	3586.712906
384.158693	3657.079852
384.543618	3750.568050
384.928480	3832.287674
385.313280	3936.551339
385.698017	4040.106721
386.082692	4162.369825
386.467305	4226.495823
386.851856	4351.811346
387.236344	4507.651055
387.620770	4571.217485
388.005133	4691.635527
388.389435	4842.199668
388.773674	4923.460548
389.157851	5057.777051
389.541965	5191.445766
389.926018	5217.246391
390.310008	5391.173761
390.693936	5522.586559
391.077802	5636.753570
391.461606	5768.609990
391.845348	5888.624740
392.229027	6007.991701
392.612645	6228.748869
392.996200	6346.502661
393.379694	6520.404825
393.763125	6742.926397
394.146494	6844.102355
394.529801	6978.885164
394.913047	7221.082360
395.296230	7221.987247
395.679351	7280.865403
396.062410	7541.467851
396.445408	7431.784947
396.828343	7586.979388
397.211217	7724.421407
397.594028	7606.236596
397.976778	7810.229407
398.359466	7980.532187
398.742092	7952.218546
399.124656	8101.832431
399.507158	8290.699259
399.889598	8306.001682
400.271977	8516.026233
400.654294	8552.758601
401.036549	8748.244465
401.418742	8772.595758
401.800874	9075.332170
402.182944	9154.064911
402.564952	9521.698617
402.946898	9344.491977
403.328783	9406.346935
403.710606	9596.995812
404.092367	9857.048774
404.474067	10225.098375
404.855705	10007.123924
405.237282	9963.401997
405.618797	10392.515094
406.000250	10636.922836
406.381642	11001.000008
406.762972	10950.328850
407.144240	10754.860630
407.525447	11007.608960
407.906593	10943.679568
408.287677	11203.475431
408.668700	11357.046621
409.049661	11328.259112
409.430560	11496.358908
409.811399	11464.410595
410.192176	11631.497119
410.572891	11698.564630
410.953545	12183.700070
411.334138	11662.419557
411.714669	12262.957091
412.095139	11569.092676
412.475547	12071.277298
412.855894	11918.348855
413.236180	12235.818039
413.616405	11930.238417
413.996568	12197.132225
414.376670	12173.456446
414.756711	12054.828013
415.136691	12330.712719
415.516609	12517.568128
415.896466	12582.200761
416.276262	12872.888815
416.655997	13320.913802
417.035670	13352.000077
417.415283	14000.383202
417.794834	14093.899127
418.174324	13832.797604
418.553753	13734.369076
418.933121	14224.205392
419.312428	14027.638201
419.691674	13945.555613
420.070859	14397.293409
420.449983	14056.370257
420.829045	14603.330408
421.208047	14351.242469
421.586988	14805.316840
421.965867	15059.582558
422.344686	15057.001487
422.723444	15614.588390
423.102141	14309.282425
423.480777	15489.318238
423.859352	15008.001471
424.237866	16113.350069
424.616319	15804.118131
424.994712	16464.889892
425.373044	16257.559837
425.751314	16925.805108
426.129524	16056.952161
426.507673	17146.201834
426.885762	16843.369640
427.263789	17040.655196
427.641756	17206.804065
428.019662	17265.147859
428.397508	17303.160680
428.775292	17601.927183
429.153016	17565.149445
429.530679	17648.535171
429.908282	17664.346750
430.285824	17391.101088
430.663305	18091.977748
431.040726	17692.983024
431.418086	17516.552722
431.795385	18174.617383
432.172624	18582.005628
432.549802	18141.403741
432.926920	18327.785281
433.303977	18216.254793
433.680974	18472.292477
434.057910	18753.661958
434.434786	18776.148025
434.811601	18690.403039
435.188355	19722.362519
435.565050	19383.470952
435.941683	19335.791719
436.318257	20200.185766
436.694770	20005.362814
437.071222	20596.332238
437.447614	19669.879067
437.823946	19701.096412
438.200218	19836.506845
438.576429	19622.461974
438.952580	19898.656711
439.328670	19864.497852
439.704700	20268.334604
440.080670	19842.531024
440.456580	20427.002401
440.832429	20602.217785
441.208218	19610.085941
441.583947	20038.223575
441.959616	20141.499174
442.335224	20380.840555
442.710773	20502.647435
443.086261	21035.696522
443.461689	20404.385264
443.837057	20517.213849
444.212365	21150.160962
444.587612	21137.016153
444.962800	20716.606607
445.337927	21137.406842
445.712995	19872.911538
446.088002	21707.649562
446.462949	21890.900546
446.837837	22065.256413
447.212664	22008.364472
447.587431	24822.916281
447.962139	27718.819711
448.336786	30061.844675
448.711374	28478.660227
449.085901	24815.198275
449.460369	24749.133954
449.834776	24655.910416
450.209124	27082.865551
450.583412	26605.337211
450.957640	27088.551972
451.331808	25738.586425
451.705917	24358.252967
452.079965	24363.309244
452.453954	24679.704662
452.827883	24532.553382
453.201752	24308.348064
453.575562	24432.673000
453.949311	25488.104093
454.323001	25485.500337
454.696632	25210.913728
455.070202	26646.679714
455.443713	26727.895223
455.817164	27223.521305
456.190556	27660.922059
456.563888	27053.856231
456.937160	27392.989773
457.310373	25730.424797
457.683526	26079.673415
458.056619	25980.057694
458.429653	25831.956156
458.802628	26279.943333
459.175542	26295.139892
459.548398	27390.554896
459.921194	28737.551204
460.293930	29236.630476
460.666607	30961.146192
461.039224	32414.848603
461.411782	32629.712662
461.784280	31386.123023
462.156719	30794.145368
462.529099	30141.631017
462.901419	28828.506222
463.273680	27729.050733
463.645882	27652.107602
464.018024	27469.612791
464.390106	28055.898984
464.762130	30212.441585
465.134094	33519.070503
465.505999	37899.760099
465.877845	41707.396531
466.249631	42491.666479
466.621358	40707.380322
466.993026	38568.668282
467.364634	36528.593979
467.736184	34633.825895
468.107674	33326.442974
468.479105	32432.628753
468.850477	31618.825205
469.221790	30236.117364
469.593043	28611.479508
469.964238	27679.143310
470.335373	27384.387044
470.706449	28458.286404
471.077467	30164.860654
471.448425	33407.250149
471.819324	35365.811515
472.190164	33656.199970
472.560945	30678.576916
472.931667	28093.455580
473.302330	27004.415114
473.672934	26169.960480
474.043479	26259.118327
474.413965	25446.607835
474.784393	24940.115547
475.154761	25288.464318
475.525070	25049.884151
475.895321	24484.690146
476.265513	24611.008859
476.635645	24971.862213
477.005719	24606.509629
477.375734	24632.315296
477.745691	24778.738130
478.115588	25342.858368
478.485427	26273.863702
478.855207	28071.718124
479.224928	29409.678164
479.594591	30107.232704
479.964194	29092.957591
480.333739	28807.555187
480.703226	28437.554659
481.072653	28466.984915
481.442022	28395.576971
481.811333	28187.329426
482.180584	27035.191359
482.549777	26382.001493
482.918912	25725.643262
483.287988	25215.755757
483.657005	24413.708180
484.025964	23727.750814
484.394864	23401.278129
484.763706	22826.949554
485.132489	22061.803223
485.501213	21648.451293
485.869879	21399.357799
486.238487	20897.026983
486.607036	20663.132568
486.975527	20100.580128
487.343959	19888.783611
487.712333	19603.131669
488.080648	19270.286966
488.448905	19146.445981
488.817104	18761.987424
489.185244	18828.364296
489.553326	19196.960863
489.921350	19967.846547
490.289315	20881.769931
490.657222	20809.174795
491.025070	20586.333110
491.392861	19846.758032
491.760593	18972.367377
492.128267	17995.001072
492.495883	17111.148171
492.863440	16319.107284
493.230939	15588.691983
493.598380	14964.143433
493.965763	14590.755250
494.333088	14087.360750
494.700354	13693.175287
495.067563	13363.146068
495.434713	13080.102924
495.801805	12852.555321
496.168839	12497.464006
496.535815	12183.478259
496.902733	11956.661624
497.269593	11641.052626
497.636395	11396.412992
498.003139	11270.028744
498.369825	10939.709659
498.736453	10787.234920
499.103023	10477.365275
499.469535	10249.434545
499.835989	10056.847345
500.202385	9797.328745
500.568723	9602.024362
500.935003	9451.523235
501.301226	9229.636848
501.667390	9144.035536
502.033497	9009.340946
502.399546	8723.913336
502.765537	8439.130993
503.131470	8320.195051
503.497345	8200.646608
503.863163	7843.276691
504.228923	7758.305522
504.594625	7654.119996
504.960269	7398.372179
505.325856	7329.812487
505.691385	7098.978052
506.056856	6969.054914
506.422270	6876.574947
506.787625	6689.343973
507.152924	6569.699748
507.518164	6445.311797
507.883347	6232.091154
508.248472	6128.540813
508.613540	6043.728441
508.978550	5950.877949
509.343503	5808.298994
509.708398	5706.485331
510.073236	5633.728878
510.438016	5529.732395
510.802738	5378.341503
511.167403	5318.422349
511.532010	5234.623248
511.896561	5152.840610
512.261053	5115.553715
512.625488	4986.396833
512.989866	4885.233478
513.354186	4791.354591
513.718449	4702.327814
514.082655	4661.537317
514.446803	4567.595416
514.810894	4518.008106
515.174927	4441.720325
515.538904	4368.278275
515.902822	4333.088500
516.266684	4244.805294
516.630488	4195.263354
516.994235	4132.478304
517.357925	4096.529836
517.721558	4047.295407
518.085133	4002.988705
518.448651	3958.956747
518.812112	3900.431472
519.175516	3857.140563
519.538863	3828.383301
519.902152	3785.054583
520.265385	3753.570057
520.628560	3716.792319
520.991678	3675.739683
521.354739	3648.310765
521.717743	3621.665746
522.080690	3589.271292
522.443580	3574.946853
522.806413	3544.193294
523.169189	3516.051053
523.531908	3496.171262
523.894569	3465.203454
524.257174	3443.544137
524.619722	3430.653906
524.982213	3409.440731
525.344647	3387.216804
525.707025	3367.369782
526.069345	3354.018286
526.431608	3337.657221
526.793815	3329.278823
527.155964	3302.805204
527.518057	3289.723409
527.880093	3273.644649
528.242072	3266.062754
528.603995	3250.112543
528.965860	3240.022674
529.327669	3226.429202
529.689421	3216.407388
530.051117	3202.647559
530.412755	3193.621373
530.774337	3185.237934
531.135862	3173.640760
531.497331	3164.571724
531.858743	3152.490599
532.220098	3150.665701
532.581396	3135.060809
532.942638	3122.533542
533.303824	3122.790641
533.664953	3113.756893
534.026025	3099.195520
534.387040	3102.764657
534.747999	3092.178234
535.108902	3089.486258
535.469748	3076.785071
535.830537	3070.702919
536.191270	3070.811304
536.551947	3061.051630
536.912567	3058.767987
537.273131	3053.285732
537.633638	3041.126469
537.994089	3040.471119
538.354483	3031.452495
538.714821	3032.067516
539.075103	3032.052392
539.435328	3024.215919
539.795497	3018.421112
540.155609	3016.875999
540.515665	3013.011954
540.875665	3004.726818
541.235609	3001.772702
541.595496	2998.468225
541.955328	3005.568691
542.315102	2994.044613
542.674821	2986.351812
543.034483	2981.267808
543.394090	2978.074238
543.753640	2976.120790
544.113134	2981.925679
544.472571	2972.077785
544.831953	2979.742859
545.191278	2966.963534
545.550548	2963.696867
545.909761	2964.579069
546.268918	2961.496403
546.628019	2965.020170
546.987064	2955.063891
547.346053	2942.645008
547.704986	2952.175310
548.063863	2942.715584
548.422684	2946.269598
548.781449	2938.692744
549.140158	2937.999585
549.498811	2938.332301
549.857408	2926.344437
550.215949	2932.439192
550.574434	2927.360230
550.932864	2925.787390
551.291237	2928.401228
551.649555	2925.187493
552.007817	2925.626073
552.366022	2914.908580
552.724173	2917.827408
553.082267	2923.440733
553.440305	2924.199426
553.798288	2913.862540
554.156215	2913.572674
554.514086	2915.140473
554.871902	2909.756521
555.229661	2908.546644
555.587365	2903.634039
555.945014	2906.832651
556.302606	2902.676220
556.660143	2901.877197
557.017625	2900.657238
557.375050	2896.478121
557.732421	2899.936353
558.089735	2899.323853
558.446994	2895.636249
558.804197	2901.156312
559.161345	2898.018194
559.518437	2885.788355
559.875474	2889.791031
560.232455	2885.846328
560.589381	2888.228273
560.946251	2887.973695
561.303065	2889.276833
561.659825	2888.124929
562.016528	2878.415667
562.373177	2879.446583
562.729770	2881.057232
563.086307	2875.438866
563.442789	2877.024309
563.799216	2876.008516
564.155587	2871.358052
564.511904	2870.420397
564.868164	2870.216230
565.224370	2872.255377
565.580520	2867.771271
565.936615	2869.124821
566.292654	2859.972606
566.648638	2864.111393
567.004567	2861.570652
567.360441	2859.319776
567.716260	2857.399097
568.072023	2857.993953
568.427732	2853.605628
568.783385	2847.150431
569.138982	2848.385514
569.494525	2847.362159
569.850013	2841.632888
570.205445	2843.326716
570.560823	2841.164061
570.916145	2838.010819
571.271412	2841.847137
571.626625	2837.864626
571.981782	2831.598471
572.336884	2827.648727
572.691931	2827.305929
573.046923	2824.472800
573.401860	2819.121616
573.756743	2815.890236
574.111570	2815.910401
574.466342	2813.856130
574.821059	2814.130873
575.175722	2806.866571
575.530330	2806.473361
575.884882	2799.279634
576.239380	2798.871301
576.593823	2795.355096
576.948211	2790.364353
577.302544	2787.891667
577.656823	2784.851852
578.011047	2782.648867
578.365216	2778.409257
578.719330	2775.077054
579.073389	2772.017074
579.427394	2772.148144
579.781344	2769.967845
580.135239	2763.063985
580.489080	2761.798655
580.842866	2758.491658
581.196597	2764.011722
581.550273	2752.099475
581.903895	2748.081676
582.257463	2749.654516
582.610975	2745.220821
582.964434	2743.093454
583.317837	2738.528689
583.671186	2735.990468
584.024481	2735.420818
584.377721	2730.382184
584.730906	2729.807493
585.084037	2726.921432
585.437113	2721.993704
585.790135	2721.943293
586.143103	2715.982128
586.496016	2713.164123
586.848874	2708.228834
587.201679	2711.863506
587.554428	2703.870756
587.907124	2703.112063
588.259765	2697.773481
588.612352	2699.424459
588.964884	2694.829447
589.317362	2695.252904
589.669786	2692.560928
590.022155	2690.902388
590.374470	2687.144208
590.726731	2685.536080
591.078937	2682.029957
591.431090	2681.490554
591.783188	2677.150120
592.135232	2673.792712
592.487222	2673.018895
592.839157	2670.868843
593.191038	2669.175015
593.542866	2666.185611
593.894639	2660.242090
594.246358	2661.494817
594.598022	2657.930721
594.949633	2654.822850
595.301190	2655.677326
595.652692	2650.981491
596.004141	2653.532315
596.355535	2646.550317
596.706876	2644.957312
597.058162	2643.727270
597.409395	2646.018475
597.760573	2643.354225
598.111698	2639.127217
598.462768	2639.182670
598.813785	2640.465644
599.164748	2637.241826
599.515657	2634.897689
599.866511	2631.668830
600.217312	2633.345014
600.568060	2628.971813
600.918753	2631.270579
601.269392	2630.864766
601.619978	2628.311422
601.970510	2626.988119
602.320988	2627.411576
602.671412	2629.833850
603.021783	2627.086422
603.372100	2623.968468
603.722363	2622.534260
604.072572	2625.813530
604.422728	2621.586523
604.772830	2617.659464
605.122878	2617.994701
605.472872	2619.696090
605.822813	2615.675770
606.172701	2617.205760
606.522534	2620.830350
606.872314	2617.578805
607.222041	2617.346912
607.571714	2616.802468
607.921333	2613.293825
608.270899	2617.510750
608.620411	2619.237345
608.969870	2617.654423
609.319276	2615.592591
609.668627	2616.200050
610.017926	2617.246089
610.367171	2619.837242
610.716362	2614.778444
611.065500	2615.012858
611.414585	2615.738784
611.763616	2614.264247
612.112594	2616.290791
612.461518	2616.121912
612.810389	2614.135697
613.159207	2612.920779
613.507971	2612.898094
613.856682	2615.942951
614.205340	2616.187447
614.553945	2618.544186
614.902496	2616.671398
615.250994	2617.205760
615.599439	2617.861110
615.947830	2616.779782
616.296169	2616.384052
616.644454	2615.990842
616.992686	2616.623507
617.340864	2619.451594
617.688990	2616.298352
618.037063	2616.908332
618.385082	2617.916563
618.733048	2620.008642
619.080961	2618.713065
619.428821	2617.972015
619.776628	2619.885133
620.124382	2617.780452
620.472083	2619.164248
620.819731	2617.898919
621.167326	2612.882971
621.514868	2618.317334
621.862357	2611.196705
622.209793	2611.378186
622.557176	2609.429780
622.904506	2607.955243
623.251783	2605.517845
623.599007	2604.237392
623.946179	2600.922833
624.293297	2603.453492
624.640363	2597.550301
624.987376	2599.513831
625.334336	2598.417380
625.681243	2596.610126
626.028097	2594.341607
626.374899	2596.254725
626.721647	2595.795980
627.068343	2594.318922
627.414987	2590.167531
627.761577	2592.418407
628.108115	2593.494693
628.454600	2590.154928
628.801032	2589.693663
629.147412	2588.360278
629.493739	2590.772470
629.840014	2587.873806
630.186236	2587.236100
630.532405	2587.775504
630.878521	2585.716192
631.224585	2586.989084
631.570597	2584.362643
631.916556	2583.200657
632.262462	2583.911459
632.608316	2584.617221
632.954117	2581.408527
633.299866	2582.782241
633.645562	2580.521283
633.991206	2579.296283
634.336797	2578.189750
634.682336	2579.813001
635.027823	2575.099523
635.373257	2573.826631
635.718639	2573.128431
636.063968	2574.766806
636.409245	2569.518965
636.754470	2570.799418
637.099642	2568.288924
637.444762	2566.295147
637.789829	2565.382698
638.134845	2565.158367
638.479808	2562.635270
638.824719	2561.415310
639.169577	2560.220557
639.514383	2562.710887
639.859137	2562.476473
640.203839	2558.902295
640.548489	2558.367933
640.893086	2556.580844
641.237632	2557.233673
641.582125	2556.948848
641.926566	2556.505227
642.270955	2558.403221
642.615292	2555.000442
642.959576	2553.311656
643.303809	2555.764177
643.647990	2555.098745
643.992118	2555.333158
644.336195	2554.952551
644.680219	2556.096893
645.024192	2556.724517
645.368112	2560.883469
645.711981	2555.975905
646.055797	2564.515620
646.399562	2563.799776
646.743274	2565.854046
647.086935	2561.208623
647.430544	2562.436144
647.774101	2566.832030
648.117606	2567.452092
648.461059	2565.601989
648.804460	2564.772719
649.147810	2564.069478
649.491108	2561.001936
649.834354	2559.630742
650.177548	2556.351471
650.520690	2554.430792
650.863781	2554.178734
651.206820	2556.432130
651.549807	2550.944834
651.892742	2550.712941
652.235626	2547.446273
652.578458	2548.313352
652.921238	2546.057435
653.263967	2546.624565
653.606644	2545.291180
653.949269	2549.203115
654.291843	2543.083154
654.634365	2543.428473
654.976836	2544.323278
655.319255	2545.681869
655.661622	2543.032743
656.003938	2539.188863
656.346203	2540.633154
656.688416	2541.054090
657.030577	2538.863709
657.372687	2539.279604
657.714746	2543.494008
658.056753	2540.391178
658.398708	2535.057638
658.740612	2539.365303
659.082465	2538.218441
659.424266	2536.393543
659.766016	2533.106711
660.107715	2538.694830
660.449362	2538.838503
660.790958	2538.790612
661.132503	2539.151054
661.473996	2538.669624
661.815438	2539.594676
662.156829	2537.179963
662.498168	2535.957483
662.839456	2541.404450
663.180693	2539.030067
663.521879	2540.391178
663.863013	2541.374203
664.204097	2541.228010
664.545129	2541.631302
664.886110	2540.910417
665.227040	2539.375386
665.567918	2540.852444
665.908746	2543.330171
666.249522	2539.536703
666.590248	2541.719522
666.930922	2542.924358
667.271545	2543.128525
667.612118	2541.691796
667.952639	2540.338246
668.293109	2541.979142
668.633528	2541.596014
668.973896	2539.312371
669.314213	2540.093750
669.654480	2539.980324
669.994695	2539.733308
670.334859	2536.945550
670.674973	2537.641229
671.015035	2540.718853
671.355047	2538.604089
671.695008	2538.478060
672.034918	2540.045859
672.374777	2535.680220
672.714585	2535.289531
673.054342	2536.302802
673.394049	2536.517052
673.733705	2537.656352
674.073310	2535.534027
674.412864	2536.126362
674.752368	2530.656710
675.091820	2536.045704
675.431223	2534.868594
675.770574	2532.862215
676.109875	2526.520443
676.449125	2529.739220
676.788324	2526.293592
677.127473	2528.589837
677.466571	2524.088087
677.805619	2527.884076
678.144616	2527.891637
678.483562	2530.092101
678.822458	2527.765608
679.161303	2526.127233
679.500098	2525.696215
679.838842	2525.497089
680.177535	2526.790145
680.516179	2526.139836
680.854771	2526.515402
681.193314	2529.769467
681.531805	2533.535209
681.870247	2533.852802
682.208638	2538.273894
682.546978	2537.699202
682.885268	2538.662062
683.223508	2537.926054
683.561697	2537.865560
683.899836	2537.305992
684.237925	2535.433203
684.575963	2535.052596
684.913951	2531.732997
685.251889	2534.971938
685.589776	2533.318439
685.927614	2532.988244
686.265401	2530.374406
686.603137	2532.595034
686.940824	2537.757175
687.278460	2539.914789
687.616046	2536.827083
687.953582	2538.629295
688.291068	2540.640715
688.628504	2538.417567
688.965889	2538.982176
689.303224	2537.769778
689.640510	2538.412525
689.977745	2535.594520
690.314930	2534.606454
690.652065	2532.479087
690.989150	2527.367357
691.326185	2527.105217
691.663170	2523.044568
692.000105	2519.553569
692.336990	2517.902591
692.673825	2516.682632
693.010610	2515.061901
693.347345	2508.120232
693.684030	2502.781650
694.020665	2505.854233
694.357251	2500.245950
694.693786	2505.098060
695.030272	2503.303409
695.366707	2505.529079
695.703093	2502.816938
696.039429	2501.307113
696.375716	2502.660662
696.711952	2502.955570
697.048139	2499.076402
697.384276	2501.324757
697.720363	2500.036742
698.056400	2501.168481
698.392388	2498.153871
698.728326	2499.308295
699.064214	2496.523058
699.400053	2498.405928
699.735842	2495.192193
700.071581	2495.870228
700.407270	2494.715804
700.742910	2494.017604
701.078501	2493.044661
701.414042	2491.975937
701.749533	2490.304794
702.084974	2488.850421
702.420366	2488.242962
702.755709	2485.223311
703.091002	2487.721203
703.426246	2486.332365
703.761440	2488.469814
704.096584	2486.990236
704.431679	2484.076449
704.766725	2486.423106
705.101721	2484.204998
705.436668	2487.688435
705.771565	2484.603249
706.106413	2486.052581
706.441212	2483.506798
706.775961	2485.873620
707.110661	2486.526449
707.445311	2487.993425
707.779913	2487.431337
708.114465	2488.348827
708.448967	2489.525936
708.783421	2490.640031
709.117825	2491.154229
709.452180	2497.604385
709.786485	2493.140443
710.120742	2497.906854
710.454949	2498.259735
710.789107	2498.980620
711.123216	2497.780825
711.457275	2501.581855
711.791286	2502.769047
712.125247	2502.806856
712.459159	2503.394150
712.793023	2507.452279
713.126837	2502.968173
713.460602	2507.961436
713.794318	2503.837772
714.127985	2501.889366
714.461602	2497.317039
714.795171	2499.701505
715.128691	2493.979795
715.462162	2492.071719
715.795584	2488.898312
716.128957	2491.048364
716.462281	2486.208857
716.795556	2487.529639
717.128782	2483.811788
717.461960	2482.271716
717.795088	2480.167034
718.128167	2482.382621
718.461198	2481.190388
718.794180	2480.424133
719.127113	2481.424802
719.459997	2478.745428
719.792833	2477.351549
720.125619	2475.579584
720.458357	2475.206538
720.791046	2475.962712
721.123686	2472.161682
721.456278	2476.184522
721.788821	2470.883749
722.121315	2475.002372
722.453761	2471.163533
722.786158	2471.876856
723.118506	2472.217134
723.450805	2474.195787
723.783056	2472.181846
724.115259	2471.972638
724.447412	2471.750827
724.779518	2471.435755
725.111574	2475.168730
725.443582	2473.449696
725.775542	2470.772844
726.107453	2475.735860
726.439315	2474.374748
726.771129	2481.145018
727.102895	2477.356591
727.434612	2480.235089
727.766281	2479.587301
728.097901	2479.559575
728.429473	2478.886581
728.760996	2479.189050
729.092471	2477.623772
729.423897	2481.772641
729.755276	2479.163844
730.086606	2483.373208
730.417887	2483.305152
730.749120	2485.598877
731.080305	2485.160297
731.411442	2488.331183
731.742530	2490.844198
732.073570	2491.126502
732.404562	2489.215905
732.735506	2488.726913
733.066401	2488.658858
733.397249	2485.724906
733.728048	2482.271716
734.058798	2480.421612
734.389501	2477.714513
734.720156	2474.760396
735.050762	2475.352732
735.381320	2473.789974
735.711831	2472.083544
736.042293	2471.496249
736.372707	2469.540282
736.703073	2471.740745
737.033391	2469.545323
737.363661	2473.459779
737.693883	2467.624643
738.024056	2474.135293
738.354182	2472.542289
738.684260	2474.641929
739.014290	2475.924903
739.344272	2475.072948
739.674207	2476.701241
740.004093	2476.088740
740.333931	2478.117805
740.663722	2477.522949
740.993464	2476.101343
741.323159	2477.071765
741.652806	2474.954481
741.982405	2476.749132
742.311956	2473.288379
742.641460	2475.924903
742.970915	2470.578759
743.300323	2472.726291
743.629683	2466.550877
743.958996	2465.930815
744.288260	2468.118676
744.617477	2465.217492
744.946647	2459.899075
745.275768	2461.199693
745.604842	2456.292129
745.933869	2459.009311
746.262847	2457.955710
746.591778	2462.240691
746.920662	2459.556276
747.249498	2461.300516
747.578286	2462.820423
747.907027	2464.010136
748.235720	2464.315126
748.564365	2463.256483
748.892963	2463.150619
749.221514	2466.326546
749.550017	2467.667493
749.878473	2464.703294
750.206881	2464.937708
750.535242	2464.274796
750.863555	2462.273458
751.191821	2463.143057
751.520039	2459.972172
751.848210	2462.843109
752.176334	2461.718931
752.504411	2461.068622
752.832440	2461.134158
753.160421	2461.456791
753.488356	2460.035186
753.816243	2462.875876
754.144082	2458.588375
754.471875	2459.410083
754.799620	2460.602316
755.127318	2461.431586
755.454969	2457.985957
755.782572	2461.713890
756.110129	2456.208950
756.437638	2461.408900
756.765100	2455.929166
757.092515	2460.345217
757.419882	2456.153497
757.747203	2458.822788
758.074477	2455.808178
758.401703	2460.768674
758.728882	2460.015021
759.056014	2461.736575
759.383099	2458.810186
759.710138	2461.779425
760.037129	2462.724642
760.364073	2463.884107
760.690970	2461.071143
761.017820	2464.017697
761.344623	2464.554580
761.671379	2466.223202
761.998088	2465.068778
762.324751	2474.944398
762.651366	2489.485607
762.977935	2510.350943
763.304456	2515.772703
763.630931	2525.124044
763.957359	2518.774711
764.283740	2508.158041
764.610074	2501.105466
764.936362	2490.612305
765.262602	2481.018989
765.588796	2474.493215
765.914943	2469.275621
766.241044	2467.881742
766.567097	2459.400001
766.893104	2456.957562
767.219064	2454.754577
767.544978	2453.683332
767.870845	2452.775924
768.196665	2452.065122
768.522438	2448.997580
768.848165	2450.247786
769.173846	2447.144956
769.499479	2449.133691
769.825066	2445.304934
770.150607	2442.668411
770.476101	2446.628237
770.801548	2444.271498
771.126949	2445.372990
771.452303	2444.775613
771.777611	2440.914089
772.102872	2442.013061
772.428087	2442.759152
772.753256	2440.911569
773.078378	2442.950716
773.403453	2439.419387
773.728482	2438.688420
774.053465	2435.696495
774.378401	2440.135231
774.703291	2435.971238
775.028135	2434.274890
775.352932	2437.546599
775.677683	2437.919644
776.002388	2438.338060
776.327046	2437.413008
776.651658	2435.497370
776.976224	2436.225816
777.300743	2435.487287
777.625216	2431.822368
777.949643	2436.036773
778.274024	2435.504931
778.598359	2432.485280
778.922647	2430.481422
779.246889	2433.357400
779.571086	2427.703746
779.895236	2435.525096
780.219339	2435.436876
780.543397	2434.673141
780.867409	2433.390167
781.191374	2432.633994
781.515294	2433.238933
781.839167	2435.562905
782.162995	2434.564756
782.486776	2437.864191
782.810511	2432.636515
783.134201	2436.697164
783.457844	2434.632812
783.781441	2433.392688
784.104993	2432.523089
784.428498	2433.213727
784.751958	2435.285641
785.075372	2436.029211
785.398739	2432.923861
785.722061	2432.631474
786.045337	2434.075764
786.368568	2435.270518
786.691752	2430.796494
787.014891	2437.052566
787.337983	2434.935281
787.661030	2439.628595
787.984031	2442.512135
788.306987	2443.406940
788.629897	2442.653288
788.952760	2442.071034
789.275579	2444.606735
789.598351	2444.715119
789.921078	2442.310489
790.243759	2438.708585
790.566395	2438.285128
790.888984	2436.298913
791.211529	2435.835127
791.534027	2434.557194
791.856480	2436.971907
792.178888	2433.387647
792.501249	2432.792791
792.823566	2431.769436
793.145836	2431.199786
793.468062	2431.935794
793.790241	2432.013932
794.112375	2433.801021
794.434464	2433.009560
794.756507	2433.324632
795.078505	2432.502924
795.400457	2435.015939
795.722364	2430.718356
796.044226	2438.514500
796.366042	2433.354879
796.687812	2434.040476
797.009538	2439.452155
797.331218	2440.225972
797.652852	2435.877977
797.974442	2439.915941
798.295986	2437.816300
798.617484	2437.097936
798.938938	2438.554829
799.260346	2436.261104
799.581709	2433.526278
799.903026	2435.663728
800.224299	2433.974941
800.545526	2432.785229
800.866708	2432.006371
801.187845	2431.953438
801.508936	2430.577203
801.829983	2433.304468
802.150984	2429.732810
802.471940	2430.809097
802.792851	2430.879673
803.113717	2430.972934
803.434538	2428.638880
803.755314	2428.505289
804.076045	2429.604261
804.396731	2432.412183
804.717372	2429.279106
805.037967	2427.320618
805.358518	2429.200968
805.679024	2429.170722
805.999485	2430.894796
806.319901	2429.959662
806.640272	2431.850095
806.960598	2431.280444
807.280879	2431.356062
807.601115	2429.377409
807.921306	2430.524271
808.241453	2431.187183
808.561554	2433.375044
808.881611	2430.090732
809.201623	2433.075095
809.521590	2431.454364
809.841513	2432.523089
810.161390	2431.308171
810.481223	2433.760692
810.801011	2429.185845
811.120755	2432.873449
811.440453	2431.209868
811.760107	2429.309353
812.079716	2427.184507
812.399281	2426.277099
812.718801	2427.333221
813.038276	2422.430699
813.357707	2427.761719
813.677093	2430.176432
813.996434	2427.953283
814.315731	2427.088725
814.634983	2429.309353
814.954191	2429.669796
815.273354	2430.912440
815.592473	2430.108376
815.911547	2431.419076
816.230577	2429.405135
816.549562	2432.452513
816.868502	2434.380754
817.187399	2434.259766
817.506250	2433.579211
817.825058	2434.564756
818.143821	2434.481577
818.462539	2437.150868
818.781213	2438.499377
819.099843	2443.374173
819.418429	2447.064297
819.736970	2457.295319
820.055466	2461.444188
820.373919	2471.392906
820.692327	2484.527632
821.010691	2506.933040
821.329011	2564.664334
821.647286	2648.274391
821.965517	2729.363871
822.283704	2781.141562
822.601847	2795.428192
822.919945	2763.348810
823.237999	2720.952706
823.556010	2679.685821
823.873976	2639.081847
824.191897	2601.154726
824.509775	2572.982238
824.827609	2550.024823
825.145398	2529.756864
825.463144	2523.770494
825.780845	2526.039013
826.098502	2535.261804
826.416116	2558.015052
826.733685	2575.835531
827.051210	2581.048084
827.368692	2573.544327
827.686129	2549.805533
828.003522	2525.560104
828.320872	2504.162926
828.638177	2490.466111
828.955439	2478.246354
829.272656	2467.619602
829.589830	2455.830864
829.906960	2452.302056
830.224046	2449.423557
830.541088	2445.960284
830.858086	2444.311827
831.175041	2436.445107
831.491952	2437.314706
831.808819	2440.004161
832.125642	2440.599017
832.442421	2448.589246
832.759157	2461.731534
833.075849	2474.697382
833.392497	2492.331338
833.709101	2504.737618
834.025662	2501.856598
834.342179	2494.965341
834.658653	2482.246510
834.975083	2470.543471
835.291469	2465.971145
835.607811	2456.982767
835.924110	2447.699482
836.240366	2443.548092
836.556578	2441.387958
836.872746	2434.758841
837.188871	2431.376226
837.504952	2429.735331
837.820990	2427.986050
838.136984	2426.118303
838.452935	2424.613518
838.768842	2426.597213
839.084706	2429.407656
839.400526	2436.644232
839.716303	2445.246961
840.032037	2453.781635
840.347727	2451.291305
840.663373	2445.877105
840.978977	2438.191866
841.294537	2435.363779
841.610054	2430.388160
841.925527	2430.211720
842.240957	2426.627459
842.556344	2424.701739
842.871687	2422.655030
843.186987	2423.287695
843.502244	2421.026738
843.817458	2414.581622
844.132629	2417.931469
844.447756	2416.030954
844.762840	2412.799574
845.077881	2413.578433
845.392879	2413.225552
845.707833	2412.466858
846.022745	2412.865109
846.337613	2416.968609
846.652438	2413.495254
846.967221	2413.714544
847.281960	2409.905952
847.596656	2417.117323
847.911309	2414.543814
848.225919	2413.540624
848.540485	2412.784451
848.855009	2412.424008
849.169490	2412.877712
849.483928	2415.277302
849.798323	2413.250758
850.112675	2412.401323
850.426984	2412.852507
850.741251	2413.898546
851.055474	2412.159348
851.369654	2414.077507
851.683792	2414.266550
851.997887	2412.532393
852.311938	2409.936199
852.625947	2414.929462
852.939914	2415.607497
853.253837	2409.099367
853.567718	2413.623803
853.881555	2413.737229
854.195350	2411.440983
854.509103	2414.821077
854.822812	2410.526014
855.136479	2410.372259
855.450103	2412.537434
855.763685	2414.100192
856.077224	2412.471899
856.390720	2416.141859
856.704173	2412.292938
857.017584	2414.216139
857.330953	2414.198495
857.644278	2412.245047
857.957561	2419.032961
858.270802	2411.395613
858.584000	2413.684297
858.897155	2412.015675
859.210268	2414.468196
859.523339	2414.049781
859.836367	2414.359812
860.149352	2416.784607
860.462295	2414.707651
860.775195	2413.976684
861.088054	2411.352763
861.400869	2412.960891
861.713642	2409.520304
862.026373	2414.541293
862.339062	2413.084400
862.651708	2412.741601
862.964312	2415.496592
863.276873	2413.815367
863.589392	2414.074986
863.901869	2413.749832
864.214303	2416.721592
864.526696	2415.431057
864.839045	2414.901736
865.151353	2414.057342
865.463619	2415.375604
865.775842	2414.823598
866.088023	2415.385686
866.400162	2416.101530
866.712258	2412.938206
867.024313	2417.205543
867.336325	2412.360994
867.648296	2417.132446
867.960224	2416.106571
868.272110	2415.426016
868.583954	2413.775038
868.895755	2415.305028
869.207515	2415.587332
869.519233	2417.888619
869.830909	2415.637744
870.142542	2415.418454
870.454134	2415.133629
870.765684	2414.942065
871.077191	2416.257806
871.388657	2415.731005
871.700081	2418.556572
872.011463	2417.326531
872.322803	2415.020203
872.634101	2418.123033
872.945357	2418.475914
873.256571	2419.476583
873.567744	2418.296953
873.878874	2418.080183
874.189963	2419.582447
874.501010	2420.918353
874.812015	2422.012283
875.122979	2422.743250
875.433900	2419.814340
875.744780	2422.556728
876.055618	2422.909608
876.366415	2421.240987
876.677169	2420.988929
876.987882	2421.424989
877.298554	2417.240831
877.609183	2421.704773
877.919771	2419.852149
878.230317	2422.150915
878.540822	2425.344486
878.851285	2431.968562
879.161707	2435.900662
879.472087	2442.479368
879.782425	2449.960440
880.092722	2470.377113
880.402977	2498.252173
880.713191	2533.605785
881.023363	2570.025601
881.333494	2591.183324
881.643583	2595.120465
881.953631	2592.574682
882.263637	2584.730647
882.573602	2570.217165
882.883526	2559.393808
883.193408	2542.889070
883.503248	2525.849970
883.813048	2514.746829
884.122806	2502.285096
884.432522	2490.178765
884.742197	2476.623103
885.051831	2469.409212
885.361424	2461.151802
885.670975	2454.943621
885.980485	2444.392486
886.289954	2442.126487
886.599382	2439.600869
886.908768	2439.923503
887.218113	2434.915116
887.527417	2433.059972
887.836680	2430.012594
888.145901	2432.449992
888.455082	2426.415731
888.764221	2426.221647
889.073319	2421.558579
889.382376	2422.370205
889.691392	2421.069587
890.000366	2424.749630
890.309300	2419.552200
890.618193	2424.797521
890.927044	2420.653692
891.235855	2422.526481
891.544625	2423.254927
891.853353	2422.302149
892.162041	2426.216605
892.470687	2425.987233
892.779293	2426.133426
893.087858	2428.560742
893.396381	2435.096598
893.704864	2442.804522
894.013306	2448.349791
894.321707	2465.126751
894.630068	2467.463326
894.938387	2472.156640
895.246665	2469.010960
895.554903	2463.506020
895.863100	2459.596606
896.171256	2452.947324
896.479371	2449.995728
896.787446	2444.132866
897.095480	2442.242433
897.403473	2442.174378
897.711425	2434.703388
898.019336	2437.876794
898.327207	2431.706422
898.635038	2428.313725
898.942827	2429.200968
899.250576	2427.134095
899.558284	2422.279464
899.865952	2426.201482
900.173579	2422.672674
900.481165	2421.593867
900.788711	2417.442477
901.096216	2420.353743
901.403681	2417.069432
901.711105	2420.139494
902.018489	2417.230749
902.325832	2421.175452
902.633135	2420.164700
902.940397	2422.740730
903.247619	2434.030394
903.554800	2449.403392
903.861941	2466.029118
904.169041	2479.453711
904.476101	2481.868423
904.783121	2479.330202
905.090100	2471.937350
905.397039	2468.146403
905.703938	2456.695422
906.010796	2451.603856
906.317614	2448.695110
906.624391	2441.874429
906.931129	2435.220106
907.237826	2434.620209
907.544483	2429.984868
907.851099	2426.559404
908.157675	2421.929104
908.464211	2418.987591
908.770707	2413.444842
909.077163	2413.903587
909.383578	2410.846127
909.689954	2412.918042
909.996289	2406.803122
910.302584	2412.353432
910.608839	2414.344688
910.915054	2412.280336
911.221229	2410.180695
911.527363	2413.616241
911.833458	2413.664132
912.139513	2414.601787
912.445527	2411.793864
912.751502	2415.501633
913.057436	2413.681776
913.363331	2417.046747
913.669186	2418.060018
913.975000	2421.563620
914.280775	2426.415731
914.586510	2433.062492
914.892205	2439.038780
915.197859	2448.586726
915.503475	2460.710701
915.809050	2473.169912
916.114585	2477.918679
916.420081	2483.113588
916.725536	2478.374904
917.030952	2476.224852
917.336328	2469.792339
917.641665	2468.847123
917.946961	2460.672892
918.252218	2462.147429
918.557435	2453.824484
918.862612	2447.843155
919.167750	2443.288473
919.472848	2441.398040
919.777906	2436.639191
920.082925	2432.180290
920.387904	2430.806576
920.692843	2428.165011
920.997743	2425.745258
921.302603	2417.848290
921.607423	2421.581264
921.912204	2419.688311
922.216946	2417.906263
922.521647	2416.136818
922.826310	2413.848134
923.130932	2416.109092
923.435516	2414.962229
923.740059	2413.744791
924.044564	2411.609862
924.349028	2410.039543
924.653454	2407.579460
924.957840	2407.723133
925.262186	2407.826476
925.566493	2409.147258
925.870761	2403.239026
926.174989	2410.846127
926.479178	2407.758421
926.783328	2408.378483
927.087438	2407.428225
927.391509	2406.425035
927.695541	2407.193811
927.999533	2404.426218
928.303486	2405.210117
928.607400	2405.812535
928.911275	2407.329922
929.215110	2407.947464
929.518906	2408.050807
929.822663	2402.525703
930.126381	2402.704664
930.430060	2407.173647
930.733699	2406.241033
931.037299	2406.644326
931.340861	2406.853533
931.644383	2403.778430
931.947866	2404.695920
932.251309	2405.880591
932.554714	2407.874367
932.858080	2407.534089
933.161407	2405.278173
933.464694	2406.266239
933.767943	2404.443862
934.071153	2405.076527
934.374323	2403.939747
934.677455	2404.990827
934.980548	2405.744480
935.283602	2405.058883
935.586617	2404.257339
935.889593	2404.217010
936.192530	2403.213820
936.495428	2405.467216
936.798287	2405.704150
937.101108	2406.142731
937.403890	2406.178019
937.706632	2408.857392
938.009336	2410.677249
938.312002	2407.778585
938.614628	2410.304203
938.917216	2411.072979
939.219765	2409.638771
939.522275	2412.388720
939.824747	2412.587846
940.127179	2409.686662
940.429573	2407.665159
940.731929	2410.422670
941.034246	2407.521486
941.336524	2411.640109
941.638763	2410.430232
941.940964	2407.604665
942.243126	2409.195149
942.545250	2408.814542
942.847335	2408.587690
943.149381	2409.268246
943.451389	2408.552402
943.753359	2406.636764
944.055290	2408.219686
944.357182	2407.602145
944.659036	2405.409243
944.960851	2406.694737
945.262628	2405.008471
945.564367	2405.071486
945.866067	2405.013512
946.167729	2408.449059
946.469352	2408.121384
946.770937	2405.777247
947.072484	2407.483678
947.373992	2407.007289
947.675462	2406.372103
947.976893	2406.583832
948.278286	2406.614079
948.579641	2406.780437
948.880958	2406.712381
949.182236	2407.254305
949.483476	2404.660632
949.784678	2404.597617
950.085841	2403.173491
950.386967	2405.401681
950.688054	2405.351270
950.989103	2406.321692
951.290114	2407.082906
951.591087	2407.299676
951.892021	2408.217166
952.192917	2408.093657
952.493776	2406.987124
952.794596	2409.013668
953.095378	2407.629871
953.396122	2412.663463
953.696828	2406.951836
953.997496	2408.461662
954.298126	2404.615261
954.598718	2407.803791
954.899272	2406.218348
955.199788	2408.113822
955.500266	2406.200704
955.800706	2403.607030
956.101108	2401.759448
956.401472	2404.627864
956.701798	2401.083933
957.002087	2405.184912
957.302337	2403.775909
957.602550	2403.483522
957.902724	2402.102246
958.202861	2405.212638
958.502960	2402.407236
958.803022	2402.903789
959.103045	2399.508572
959.403031	2399.977400
959.702979	2400.995713
960.002889	2403.526372
960.302762	2400.421021
960.602596	2404.388409
960.902393	2402.364386
961.202153	2401.313305
961.501875	2403.244067
961.801559	2401.409087
962.101205	2402.533265
962.400814	2399.407749
962.700385	2400.045455
962.999918	2398.858263
963.299414	2399.737945
963.598873	2402.515621
963.898293	2400.234498
964.197677	2397.769374
964.497022	2398.205434
964.796331	2398.928840
965.095601	2398.855743
965.394835	2400.607544
965.694030	2400.095867
965.993189	2398.979251
966.292309	2402.187946
966.591393	2398.853222
966.890439	2402.306413
967.189447	2400.158881
967.488419	2401.840106
967.787353	2400.960425
968.086249	2400.713408
968.385108	2400.473953
968.683930	2398.959087
968.982714	2399.851371
969.281462	2399.954714
969.580172	2399.483367
969.878844	2399.863974
970.177480	2399.276679
970.476078	2401.686351
970.774639	2399.954714
971.073162	2400.234498
971.371649	2399.110321
971.670098	2396.914899
971.968510	2397.802142
972.266885	2396.400701
972.565223	2401.688871
972.863524	2399.274159
973.161788	2402.520662
973.460014	2401.439334
973.758204	2400.599982
974.056356	2400.932698
974.354471	2401.136865
974.652550	2398.762482
974.950591	2401.625857
975.248595	2402.528223
975.546563	2400.733573
975.844493	2399.851371
976.142386	2402.321536
976.440243	2403.564181
976.738062	2402.440003
977.035845	2399.367420
977.333590	2399.352297
977.631299	2400.960425
977.928971	2401.111659
978.226606	2399.402708
978.524204	2398.361710
978.821765	2399.319529
979.119290	2401.111659
979.416777	2399.044786
979.714228	2401.746845
980.011642	2399.959756
980.309020	2403.677607
980.606360	2399.614437
980.903664	2402.034190
981.200931	2397.726524
981.498162	2403.060065
981.795356	2401.862791
982.092513	2402.508059
982.389633	2406.097360
982.686717	2409.792526
982.983764	2409.119532
983.280775	2409.487536
983.577749	2406.354459
983.874686	2407.708009
984.171587	2410.470561
984.468451	2408.386044
984.765279	2406.848492
985.062070	2405.389078
985.358824	2404.073337
985.655543	2407.644995
985.952224	2401.981258
986.248869	2401.139386
986.545478	2398.951525
986.842050	2400.315157
987.138586	2398.182749
987.435086	2398.034035
987.731549	2395.095042
988.027975	2397.217368
988.324366	2398.323901
988.620719	2399.243912
988.917037	2397.958418
989.213318	2400.678120
989.509563	2396.441030
989.805772	2396.662841
990.101944	2397.209806
990.398080	2397.431617
990.694180	2402.714746
990.990244	2401.141906
991.286271	2400.484036
991.582262	2398.122255
991.878217	2396.743499
992.174136	2396.897255
992.470019	2400.673079
992.765865	2398.202913
993.061676	2398.719632
993.357450	2400.393295
993.653188	2399.516134
993.948890	2397.930691
994.244556	2399.874056
994.540186	2401.577966
994.835780	2399.228788
995.131337	2400.899931
995.426859	2400.829355
995.722345	2403.561660
996.017795	2403.380178
996.313208	2403.239026
996.608586	2403.178532
996.903928	2404.804304
997.199234	2403.498646
997.494504	2405.920920
997.789738	2402.611402
998.084936	2403.047462
998.380099	2399.400187
998.675225	2402.051834
998.970316	2403.027298
999.265371	2400.257184
999.560390	2402.671896
999.855373	2399.944632
1000.150320	2397.948335
1000.445232	2400.342883
1000.740108	2401.640980
1001.034948	2398.308778
1001.329752	2398.623850
1001.624521	2400.705846
1001.919254	2394.505227
1002.213951	2395.911709
1002.508613	2395.783160
1002.803239	2398.102090
1003.097829	2390.283261
1003.392384	2399.516134
1003.686903	2396.940104
1003.981386	2399.216185
1004.275834	2396.761143
1004.570246	2398.744837
1004.864623	2394.878272
1005.158964	2399.826165
1005.453270	2394.069167
1005.747540	2397.235012
1006.041775	2397.789539
1006.335974	2394.535474
1006.630138	2396.272152
1006.924266	2396.907337
1007.218359	2398.134858
1007.512416	2397.469426
1007.806438	2395.415155
1008.100425	2396.229302
1008.394376	2397.963459
1008.688292	2396.040258
1008.982172	2397.096380
1009.276017	2395.820968
1009.569827	2399.248953
1009.863602	2398.437327
1010.157341	2396.567059
1010.451045	2395.284085
1010.744714	2396.027656
1011.038347	2396.342728
1011.331945	2395.861297
1011.625508	2398.555794
1011.919036	2396.637635
1012.212528	2394.409445
1012.505986	2398.515465
1012.799408	2399.218706
1013.092795	2398.646535
1013.386147	2399.448078
1013.679464	2397.839950
1013.972745	2397.368602
1014.265992	2397.401370
1014.559204	2396.020094
1014.852380	2398.313819
1015.145521	2397.350958
1015.438628	2395.147974
1015.731699	2399.453120
1016.024736	2399.097718
1016.317737	2396.710732
1016.610703	2395.021945
1016.903635	2395.473129
1017.196531	2392.496327
1017.489393	2396.930022
1017.782219	2390.104300
1018.075011	2396.294837
1018.367768	2399.122924
1018.660490	2396.282234
1018.953177	2396.282234
1019.245829	2396.282234
