Dividing Wavelength (nm)	Counts (n)	Blue Motor Position (mm): 0.000000	Red Motor Position (mm): 24.600000	
326.493990	1984.651858
326.888308	1984.651858
327.282561	1984.651858
327.676750	1959.889710
328.070874	1964.167129
328.464933	1968.731894
328.858929	1977.846300
329.252859	1990.229894
329.646726	2005.025681
330.040528	2019.602177
330.434265	2036.472399
330.827938	2059.447457
331.221547	2078.429922
331.615091	2098.196286
332.008571	2119.142281
332.401986	2140.531896
332.795338	2160.363796
333.188625	2179.704182
333.581847	2198.643797
333.975006	2216.547455
334.368100	2234.430948
334.761129	2252.637076
335.154095	2267.480753
335.546996	2285.863321
335.939833	2307.797381
336.332606	2322.928404
336.725315	2331.921823
337.117960	2341.182422
337.510540	2346.626868
337.903056	2358.720597
338.295508	2364.938860
338.687896	2371.207535
339.080220	2380.029554
339.472480	2381.604914
339.864676	2387.361912
340.256807	2392.133364
340.648875	2392.176214
341.040879	2395.712583
341.432818	2395.319373
341.824694	2394.721997
342.216506	2396.425907
342.608253	2395.339538
342.999937	2392.884496
343.391557	2394.419528
343.783113	2391.193189
344.174605	2391.334341
344.566033	2388.604557
344.957397	2387.334186
345.348697	2383.838146
345.739934	2386.883003
346.131106	2383.034082
346.522215	2381.410830
346.913260	2378.746580
347.304241	2376.803215
347.695159	2377.871940
348.086012	2375.426980
348.476802	2373.498739
348.867528	2372.321630
349.258191	2372.946733
349.648789	2371.870446
350.039324	2371.862885
350.429796	2370.032946
350.820203	2365.437934
351.210548	2368.147554
351.600828	2367.620754
351.991045	2365.258973
352.381198	2368.482791
352.771288	2368.013964
353.161314	2366.552029
353.551276	2368.891124
353.941175	2368.203007
354.331010	2368.271063
354.720782	2366.252080
355.110490	2368.593696
355.500135	2366.741072
355.889717	2369.675024
356.279235	2368.571011
356.668689	2370.307689
357.058080	2368.321474
357.447408	2367.608151
357.836672	2366.065558
358.225873	2368.923892
358.615010	2366.110928
359.004084	2373.103008
359.393095	2372.135107
359.782043	2376.344470
360.170927	2374.880015
360.559748	2376.856147
360.948505	2377.677856
361.337199	2378.098792
361.725830	2377.148534
362.114398	2379.964019
362.502903	2380.188350
362.891344	2382.953423
363.279722	2383.782693
363.668037	2383.475183
364.056289	2381.937631
364.444478	2384.269164
364.832603	2384.584236
365.220665	2385.012734
365.608665	2385.758825
365.996601	2390.570607
366.384474	2385.531973
366.772284	2388.793600
367.160031	2389.028013
367.547715	2388.599515
367.935336	2389.572458
368.322893	2391.820813
368.710388	2393.592778
369.097820	2392.760988
369.485189	2395.387429
369.872495	2398.316339
370.259738	2399.034704
370.646918	2402.979407
371.034035	2402.248439
371.421090	2402.787843
371.808081	2408.292783
372.195010	2413.573392
372.581875	2420.502458
372.968678	2424.545463
373.355418	2431.081319
373.742096	2440.936775
374.128710	2451.939093
374.515262	2464.799076
374.901751	2479.032774
375.288177	2494.584734
375.674540	2517.421161
376.060841	2536.534696
376.447079	2559.451781
376.833254	2583.369535
377.219367	2611.869699
377.605417	2646.613331
377.991404	2669.787515
378.377329	2709.438711
378.763191	2743.433732
379.148991	2793.550363
379.534727	2841.542147
379.920402	2885.926986
380.306013	2937.001437
380.691563	2999.494100
381.077049	3051.168448
381.462474	3109.529886
381.847835	3184.829601
382.233134	3255.004983
382.618371	3313.000937
383.003545	3401.833630
383.388657	3482.040908
383.773706	3572.824527
384.158693	3646.369921
384.543618	3738.421390
384.928480	3818.066579
385.313280	3926.277467
385.698017	4027.105585
386.082692	4152.690810
386.467305	4212.340263
386.851856	4339.931867
387.236344	4492.303262
387.620770	4558.284404
388.005133	4676.275131
388.389435	4821.485567
388.773674	4911.727262
389.157851	5038.867683
389.541965	5174.555380
389.926018	5199.204102
390.310008	5374.986616
390.693936	5501.449001
391.077802	5617.080467
391.461606	5751.011322
391.845348	5862.148600
392.229027	5980.051106
392.612645	6209.199275
392.996200	6322.854609
393.379694	6495.037739
393.763125	6717.425720
394.146494	6811.377704
394.529801	6948.255114
394.913047	7190.991712
395.296230	7184.710435
395.679351	7243.679332
396.062410	7500.117787
396.445408	7394.215747
396.828343	7550.368008
397.211217	7686.043102
397.594028	7570.978766
397.976778	7772.377903
398.359466	7934.105680
398.742092	7909.101557
399.124656	8058.148312
399.507158	8240.960715
399.889598	8260.419569
400.271977	8473.983010
400.654294	8497.013522
401.036549	8696.234881
401.418742	8722.471566
401.800874	9024.232514
402.182944	9104.719577
402.564952	9466.636614
402.946898	9295.471797
403.328783	9343.430814
403.710606	9542.102687
404.092367	9793.431933
404.474067	10161.728551
404.855705	9950.219379
405.237282	9902.792204
405.618797	10331.383542
406.000250	10568.960520
406.381642	10932.515933
406.762972	10888.461289
407.144240	10682.641060
407.525447	10936.785790
407.906593	10879.944260
408.287677	11133.962961
408.668700	11281.325970
409.049661	11266.784762
409.430560	11423.564646
409.811399	11394.157075
410.192176	11558.236551
410.572891	11626.997889
410.953545	12111.387239
411.334138	11588.604462
411.714669	12176.128257
412.095139	11498.453507
412.475547	11995.465906
412.855894	11839.535456
413.236180	12162.393633
413.616405	11856.302334
413.996568	12123.254115
414.376670	12097.443407
414.756711	11979.356899
415.136691	12251.480904
415.516609	12423.124631
415.896466	12497.801763
416.276262	12787.075774
416.655997	13231.478691
417.035670	13271.707099
417.415283	13910.960695
417.794834	14000.733563
418.174324	13744.534562
418.553753	13644.646619
418.933121	14128.496566
419.312428	13936.849540
419.691674	13844.535931
420.070859	14302.653308
420.449983	13964.646463
420.829045	14507.528320
421.208047	14255.515998
421.586988	14701.285068
421.965867	14954.529953
422.344686	14951.298573
422.723444	15503.393139
423.102141	14212.031005
423.480777	15392.311314
423.859352	14893.849584
424.237866	15995.044271
424.616319	15698.160639
424.994712	16343.940008
425.373044	16150.815925
425.751314	16809.273796
426.129524	15951.718074
426.507673	17020.687186
426.885762	16720.252060
427.263789	16912.320022
427.641756	17077.528716
428.019662	17136.573230
428.397508	17185.520313
428.775292	17471.575547
429.153016	17433.202284
429.530679	17510.480652
429.908282	17532.593673
430.285824	17257.873474
430.663305	17950.775029
431.040726	17556.236685
431.418086	17380.071043
431.795385	18024.310340
432.172624	18429.432587
432.549802	17995.666504
432.926920	18179.789607
433.303977	18071.329182
433.680974	18315.177355
434.057910	18602.797867
434.434786	18626.352659
434.811601	18536.932672
435.188355	19566.855526
435.565050	19225.700481
435.941683	19164.084978
436.318257	20038.422701
436.694770	19851.645430
437.071222	20422.132647
437.447614	19493.816769
437.823946	19518.064719
438.200218	19662.677778
438.576429	19436.902142
438.952580	19701.529951
439.328670	19660.736934
439.704700	20055.030782
440.080670	19632.037645
440.456580	20198.292813
440.832429	20365.691888
441.208218	19355.757209
441.583947	19773.643657
441.959616	19874.146621
442.335224	20080.891902
442.710773	20188.452481
443.086261	20692.081394
443.461689	20052.663961
443.837057	20145.418671
444.212365	20753.011300
444.587612	20712.137624
444.962800	20267.787639
445.337927	20647.147069
445.712995	19384.073370
446.088002	21136.310391
446.462949	21280.111825
446.837837	21402.324518
447.212664	21317.267650
447.587431	23965.186640
447.962139	26684.760590
448.336786	28897.542303
448.711374	27326.242376
449.085901	23757.198714
449.460369	23617.437765
449.834776	23450.215130
450.209124	25675.234244
450.583412	25165.354300
450.957640	25533.759303
451.331808	24186.253839
451.705917	22822.833452
452.079965	22740.934866
452.453954	22944.814251
452.827883	22733.703331
453.201752	22452.422070
453.575562	22472.289257
453.949311	23325.985976
454.323001	23247.570828
454.696632	22887.279563
455.070202	24095.606331
455.443713	24087.006122
455.817164	24399.734101
456.190556	24689.713873
456.563888	24041.592888
456.937160	24231.609100
457.310373	22669.466428
457.683526	22861.133618
458.056619	22654.320282
458.429653	22420.554416
458.802628	22691.725643
459.175542	22596.508329
459.548398	23416.053751
459.921194	24431.884060
460.293930	24735.192643
460.666607	26044.738218
461.039224	27135.273386
461.411782	27154.011355
461.784280	25994.117472
462.156719	25375.734253
462.529099	24691.397619
462.901419	23493.710206
463.273680	22464.220891
463.645882	22274.073609
464.018024	22001.271568
464.390106	22328.608811
464.762130	23878.975347
465.134094	26326.773132
465.505999	29625.111873
465.877845	32429.407456
466.249631	32837.312419
466.621358	31221.872148
466.993026	29373.654078
467.364634	27604.602288
467.736184	25984.166234
468.107674	24854.594892
468.479105	24022.993551
468.850477	23265.182099
469.221790	22109.351386
469.593043	20811.438273
469.964238	19998.884931
470.335373	19651.022631
470.706449	20236.487115
471.077467	21248.619737
471.448425	23340.814530
471.819324	24540.921697
472.190164	23218.223751
472.560945	21054.086652
472.931667	19196.431542
473.302330	18333.431373
473.672934	17622.656408
474.043479	17554.028660
474.413965	16910.258190
474.784393	16461.368646
475.154761	16551.602779
475.525070	16287.713499
475.895321	15819.939792
476.265513	15775.456651
476.635645	15879.261570
477.005719	15538.335897
477.375734	15433.878148
477.745691	15403.369085
478.115588	15608.261742
478.485427	16036.474994
478.855207	16936.343641
479.224928	17588.951253
479.594591	17857.012088
479.964194	17123.564533
480.333739	16818.816700
480.703226	16465.643544
481.072653	16360.520363
481.442022	16211.337497
481.811333	15970.907226
482.180584	15254.793678
482.549777	14776.957829
482.918912	14344.142004
483.287988	13959.653200
483.657005	13452.190489
484.025964	12998.360614
484.394864	12707.664998
484.763706	12319.286944
485.132489	11860.932633
485.501213	11570.022768
485.869879	11354.006806
486.238487	11032.842456
486.607036	10832.222177
486.975527	10501.434264
487.343959	10317.260750
487.712333	10110.568401
488.080648	9874.886897
488.448905	9744.658769
488.817104	9499.363785
489.185244	9449.889901
489.553326	9530.306387
489.921350	9779.644377
490.289315	10072.633718
490.657222	9964.768149
491.025070	9791.791037
491.392861	9415.743646
491.760593	8984.664498
492.128267	8522.171400
492.495883	8113.946323
492.863440	7746.942762
493.230939	7396.877477
493.598380	7102.910152
493.965763	6904.767600
494.333088	6670.721950
494.700354	6476.075439
495.067563	6308.699049
495.434713	6158.989382
495.801805	6031.112953
496.168839	5871.716710
496.535815	5721.510490
496.902733	5601.140339
497.269593	5456.063493
497.636395	5339.189382
498.003139	5263.456128
498.369825	5118.969097
498.736453	5033.420716
499.103023	4905.902209
499.469535	4806.374709
499.835989	4719.535792
500.202385	4612.822127
500.568723	4535.405128
500.935003	4463.546000
501.301226	4376.465109
501.667390	4330.706555
502.033497	4270.431999
502.399546	4174.022453
502.765537	4075.987134
503.131470	4028.660781
503.497345	3982.289728
503.863163	3874.651011
504.228923	3842.564067
504.594625	3808.427893
504.960269	3735.976430
505.325856	3711.267215
505.691385	3643.418325
506.056856	3608.420114
506.422270	3582.211156
506.787625	3530.564534
507.152924	3500.219309
507.518164	3469.203610
507.883347	3418.706372
508.248472	3397.256262
508.613540	3376.824466
508.978550	3360.453318
509.343503	3324.290601
509.708398	3307.785864
510.073236	3297.905202
510.438016	3277.576749
510.802738	3246.729929
511.167403	3236.801376
511.532010	3222.756722
511.896561	3215.946123
512.261053	3215.416802
512.625488	3189.444777
512.989866	3169.844771
513.354186	3152.167965
513.718449	3140.253198
514.082655	3144.702016
514.446803	3126.097638
514.810894	3123.612349
515.174927	3112.531893
515.538904	3100.914554
515.902822	3099.442537
516.266684	3085.294539
516.630488	3079.247675
516.994235	3067.968093
517.357925	3070.435738
517.721558	3066.024728
518.085133	3063.486507
518.448651	3057.008624
518.812112	3044.345246
519.175516	3041.534803
519.538863	3039.510779
519.902152	3032.276724
520.265385	3031.538195
520.628560	3027.596012
520.991678	3016.515556
521.354739	3013.780730
521.717743	3012.744773
522.080690	3007.307889
522.443580	3005.931654
522.806413	3006.221520
523.169189	2999.141219
523.531908	2999.821775
523.894569	2989.815085
524.257174	2990.533449
524.619722	2985.577995
524.982213	2981.446769
525.344647	2976.682879
525.707025	2971.845892
526.069345	2971.936633
526.431608	2971.031746
526.793815	2969.761375
527.155964	2961.206537
527.518057	2959.328707
527.880093	2955.169755
528.242072	2956.394755
528.603995	2948.986780
528.965860	2946.360339
529.327669	2943.451593
529.689421	2939.844647
530.051117	2936.933381
530.412755	2937.576128
530.774337	2931.405756
531.135862	2929.132195
531.497331	2927.821495
531.858743	2924.285126
532.220098	2928.907864
532.581396	2918.850762
532.942638	2913.943199
533.303824	2917.025864
533.664953	2916.998138
534.026025	2912.710637
534.387040	2912.919845
534.747999	2912.403126
535.108902	2906.575553
535.469748	2901.236971
535.830537	2903.606313
536.191270	2903.671848
536.551947	2898.776888
536.912567	2899.265879
537.273131	2901.151271
537.633638	2892.641803
537.994089	2896.712535
538.354483	2889.395300
538.714821	2897.307391
539.075103	2896.856208
539.435328	2894.726320
539.795497	2888.956720
540.155609	2889.339848
540.515665	2893.135836
540.875665	2885.443036
541.235609	2887.850187
541.595496	2882.095709
541.955328	2891.820095
542.315102	2887.041081
542.674821	2877.795605
543.034483	2882.531769
543.394090	2880.981614
543.753640	2877.616644
544.113134	2888.293808
544.472571	2876.694113
544.831953	2886.630227
545.191278	2881.437839
545.550548	2871.098432
545.909761	2876.258053
546.268918	2879.260060
546.628019	2880.744680
546.987064	2878.375338
547.346053	2863.579551
547.704986	2875.764020
548.063863	2868.789584
548.422684	2869.729759
548.781449	2866.178266
549.140158	2870.047352
549.498811	2867.569625
549.857408	2857.623428
550.215949	2864.063502
550.574434	2864.958307
550.932864	2859.965044
551.291237	2864.015611
551.649555	2865.369161
552.007817	2866.122813
552.366022	2863.871938
552.724173	2861.177442
553.082267	2863.093080
553.440305	2864.665920
553.798288	2860.726258
554.156215	2857.744416
554.514086	2862.041999
554.871902	2856.272399
555.229661	2860.166690
555.587365	2852.168900
555.945014	2852.524301
556.302606	2853.313242
556.660143	2856.436236
557.017625	2853.416585
557.375050	2847.573888
557.732421	2850.157479
558.089735	2851.195957
558.446994	2848.448528
558.804197	2853.744260
559.161345	2848.612366
559.518437	2842.013495
559.875474	2844.493743
560.232455	2844.287056
560.589381	2843.979545
560.946251	2840.942250
561.303065	2843.233454
561.659825	2842.794874
562.016528	2837.857064
562.373177	2835.086950
562.729770	2832.400015
563.086307	2832.793225
563.442789	2832.783142
563.799216	2829.702997
564.155587	2826.774087
564.511904	2828.220898
564.868164	2825.642348
565.224370	2826.370795
565.580520	2820.936431
565.936615	2822.257213
566.292654	2818.481389
566.648638	2815.330668
567.004567	2814.725729
567.360441	2810.934782
567.716260	2808.149544
568.072023	2808.971252
568.427732	2806.309523
568.783385	2802.289203
569.138982	2800.834830
569.494525	2798.324335
569.850013	2791.659930
570.205445	2792.007770
570.560823	2789.976185
570.916145	2786.323869
571.271412	2784.304887
571.626625	2784.284722
571.981782	2778.875564
572.336884	2775.059410
572.691931	2773.574791
573.046923	2766.615478
573.401860	2763.489962
573.756743	2759.207502
574.111570	2758.756319
574.466342	2755.746750
574.821059	2754.511667
575.175722	2748.124525
575.530330	2745.833321
575.884882	2739.894842
576.239380	2740.575397
576.593823	2734.500807
576.948211	2731.382853
577.302544	2724.294991
577.656823	2724.035372
578.011047	2723.790876
578.365216	2717.867520
578.719330	2716.040102
579.073389	2709.085830
579.427394	2710.860316
579.781344	2704.203472
580.135239	2701.367823
580.489080	2698.093594
580.842866	2695.212575
581.196597	2697.254242
581.550273	2691.028417
581.903895	2689.440453
582.257463	2687.731502
582.610975	2682.259330
582.964434	2686.204033
583.317837	2675.670542
583.671186	2675.403361
584.024481	2675.131138
584.377721	2672.073678
584.730906	2668.073523
585.084037	2667.836589
585.437113	2665.792401
585.790135	2662.288799
586.143103	2659.193530
586.496016	2658.538180
586.848874	2651.742705
587.201679	2656.672953
587.554428	2645.794143
587.907124	2649.166675
588.259765	2643.901190
588.612352	2648.256747
588.964884	2642.204842
589.317362	2645.337919
589.669786	2640.853813
590.022155	2638.857516
590.374470	2640.689975
590.726731	2637.153606
591.078937	2636.082361
591.431090	2631.603295
591.783188	2631.031124
592.135232	2629.266721
592.487222	2626.380660
592.839157	2627.086422
593.191038	2622.635083
593.542866	2620.817747
593.894639	2619.068466
594.246358	2619.171810
594.598022	2615.920266
594.949633	2614.044957
595.301190	2615.527056
595.652692	2614.912035
596.004141	2612.338526
596.355535	2610.064966
596.706876	2606.452979
597.058162	2604.078595
597.409395	2606.052207
597.760573	2605.026332
598.111698	2604.991044
598.462768	2605.757300
598.813785	2603.511466
599.164748	2599.498707
599.515657	2600.350662
599.866511	2598.331680
600.217312	2600.832092
600.568060	2596.307657
600.918753	2599.367637
601.269392	2595.566607
601.619978	2596.509303
601.970510	2597.061309
602.320988	2594.457553
602.671412	2599.226485
603.021783	2595.927050
603.372100	2594.686926
603.722363	2594.215578
604.072572	2595.264138
604.422728	2594.334045
604.772830	2589.885227
605.122878	2589.257603
605.472872	2587.997315
605.822813	2586.878178
606.172701	2591.069898
606.522534	2590.132243
606.872314	2590.893457
607.222041	2589.476893
607.571714	2593.933273
607.921333	2590.575865
608.270899	2592.342789
608.620411	2591.170721
608.969870	2592.506627
609.319276	2588.355237
609.668627	2589.345823
610.017926	2593.078798
610.367171	2592.236925
610.716362	2592.161308
611.065500	2592.310022
611.414585	2592.035279
611.763616	2590.263313
612.112594	2591.047213
612.461518	2591.349682
612.810389	2589.633169
613.159207	2593.623242
613.507971	2590.616194
613.856682	2593.298088
614.205340	2591.009404
614.553945	2598.031731
614.902496	2593.930753
615.250994	2593.930753
615.599439	2591.717686
615.947830	2594.230701
616.296169	2592.579723
616.644454	2592.705752
616.992686	2596.416042
617.340864	2597.439396
617.688990	2593.560228
618.037063	2596.905033
618.385082	2595.193562
618.733048	2597.386464
619.080961	2595.291864
619.428821	2595.208685
619.776628	2596.831937
620.124382	2591.924373
620.472083	2592.075608
620.819731	2596.058120
621.167326	2593.938314
621.514868	2592.509147
621.862357	2591.594178
622.209793	2589.660895
622.557176	2586.653847
622.904506	2586.215267
623.251783	2578.829976
623.599007	2581.461459
623.946179	2574.562640
624.293297	2579.094637
624.640363	2580.367528
624.987376	2579.094637
625.334336	2575.608679
625.681243	2577.441138
626.028097	2573.940057
626.374899	2572.959553
626.721647	2574.900397
627.068343	2575.414595
627.414987	2571.669017
627.761577	2570.837227
628.108115	2568.641804
628.454600	2568.793039
628.801032	2568.304047
629.147412	2569.516445
629.493739	2566.458985
629.840014	2568.384706
630.186236	2566.075857
630.532405	2567.142061
630.878521	2563.736762
631.224585	2566.738769
631.570597	2564.150136
631.916556	2564.558470
632.262462	2563.951011
632.608316	2563.875393
632.954117	2562.259704
633.299866	2562.713408
633.645562	2564.981927
633.991206	2560.051678
634.336797	2555.325597
634.682336	2558.761143
635.027823	2556.918601
635.373257	2556.278375
635.718639	2554.138405
636.063968	2553.901471
636.409245	2548.472148
636.754470	2550.498692
637.099642	2550.728064
637.444762	2547.723537
637.789829	2547.589946
638.134845	2547.882333
638.479808	2547.718495
638.824719	2545.034081
639.169577	2544.610624
639.514383	2545.520552
639.859137	2539.299768
640.203839	2544.237579
640.548489	2539.879501
640.893086	2538.808256
641.237632	2536.585107
641.582125	2540.363452
641.926566	2536.252391
642.270955	2538.568801
642.615292	2539.322454
642.959576	2537.802546
643.303809	2538.911600
643.647990	2538.541075
643.992118	2538.067206
644.336195	2537.500077
644.680219	2536.166691
645.024192	2540.592824
645.368112	2541.533000
645.711981	2539.559388
646.055797	2544.628268
646.399562	2542.637012
646.743274	2546.085162
647.086935	2548.146993
647.430544	2544.666077
647.774101	2544.245140
648.117606	2544.688762
648.461059	2544.963505
648.804460	2546.044832
649.147810	2544.527445
649.491108	2543.171375
649.834354	2540.431507
650.177548	2536.912782
650.520690	2537.845396
650.863781	2537.096784
651.206820	2537.898328
651.549807	2533.358769
651.892742	2530.593696
652.235626	2529.736700
652.578458	2532.932791
652.921238	2527.574045
653.263967	2529.661082
653.606644	2527.984899
653.949269	2529.136802
654.291843	2530.117307
654.634365	2530.008922
654.976836	2526.780063
655.319255	2528.657893
655.661622	2528.037831
656.003938	2524.362830
656.346203	2524.766122
656.688416	2525.865093
657.030577	2522.207736
657.372687	2523.770494
657.714746	2521.789321
658.056753	2524.526667
658.398708	2518.315966
658.740612	2520.781090
659.082465	2518.636079
659.424266	2518.822602
659.766016	2517.985770
660.107715	2520.977695
660.449362	2520.289577
660.790958	2523.309228
661.132503	2523.110103
661.473996	2523.163035
661.815438	2522.696728
662.156829	2521.436440
662.498168	2521.784279
662.839456	2518.820081
663.180693	2523.183200
663.521879	2524.072963
663.863013	2519.982067
664.204097	2520.642458
664.545129	2522.147242
664.886110	2521.572551
665.227040	2520.564320
665.567918	2520.511388
665.908746	2521.983405
666.249522	2524.776204
666.590248	2520.695390
666.930922	2526.149919
667.271545	2524.536749
667.612118	2524.798889
667.952639	2521.151615
668.293109	2523.515916
668.633528	2521.610360
668.973896	2524.483817
669.314213	2522.958868
669.654480	2522.432068
669.994695	2521.880061
670.334859	2520.955010
670.674973	2516.773373
671.015035	2520.642458
671.355047	2520.468538
671.695008	2522.401821
672.034918	2521.035668
672.374777	2520.231604
672.714585	2518.709176
673.054342	2519.228414
673.394049	2519.127591
673.733705	2520.372756
674.073310	2521.375946
674.412864	2517.635410
674.752368	2518.986439
675.091820	2519.956861
675.431223	2518.371418
675.770574	2516.969977
676.109875	2511.394461
676.449125	2511.679287
676.788324	2510.900428
677.127473	2512.248937
677.466571	2506.595283
677.805619	2510.335819
678.144616	2510.603000
678.483562	2509.302383
678.822458	2510.441683
679.161303	2508.193329
679.500098	2509.249450
679.838842	2504.011692
680.177535	2509.332629
680.516179	2511.006292
680.854771	2511.543175
681.193314	2513.161386
681.531805	2516.443177
681.870247	2519.795544
682.208638	2522.240504
682.546978	2519.551048
682.885268	2520.123219
683.223508	2520.017355
683.561697	2519.379649
683.899836	2519.203209
684.237925	2515.122395
684.575963	2515.654236
684.913951	2514.777076
685.251889	2514.910666
685.589776	2514.772034
685.927614	2514.436798
686.265401	2516.493588
686.603137	2514.593073
686.940824	2517.605163
687.278460	2517.337982
687.616046	2518.308404
687.953582	2522.686646
688.291068	2521.529701
688.628504	2521.960720
688.965889	2519.888806
689.303224	2521.580113
689.640510	2518.918383
689.977745	2516.486027
690.314930	2516.216325
690.652065	2512.707682
690.989150	2510.635768
691.326185	2507.497649
691.663170	2504.435148
692.000105	2502.121259
692.336990	2501.551608
692.673825	2501.481032
693.010610	2498.234529
693.347345	2491.673467
693.684030	2492.296050
694.020665	2489.657006
694.357251	2485.699700
694.693786	2491.486945
695.030272	2490.511482
695.366707	2487.874958
695.703093	2489.117603
696.039429	2486.435709
696.375716	2482.964874
696.711952	2488.288333
697.048139	2484.595688
697.384276	2485.440081
697.720363	2484.744402
698.056400	2486.276912
698.392388	2483.511839
698.728326	2481.127374
699.064214	2482.848928
699.400053	2487.557365
699.735842	2485.029227
700.071581	2481.225676
700.407270	2480.308186
700.742910	2481.369349
701.078501	2477.197794
701.414042	2476.050932
701.749533	2475.836683
702.084974	2477.069245
702.420366	2476.449183
702.755709	2473.631178
703.091002	2473.976497
703.426246	2475.637557
703.761440	2475.030098
704.096584	2471.932309
704.431679	2476.582773
704.766725	2474.198308
705.101721	2471.425673
705.436668	2472.229737
705.771565	2470.132617
706.106413	2473.237968
706.441212	2470.034315
706.775961	2472.416260
707.110661	2472.449027
707.445311	2472.580097
707.779913	2473.820221
708.114465	2475.927423
708.448967	2478.649647
708.783421	2477.749801
709.117825	2478.697537
709.452180	2481.646612
709.786485	2479.627630
710.120742	2485.009062
710.454949	2483.799185
710.789107	2483.726088
711.123216	2484.867910
711.457275	2487.141470
711.791286	2485.674494
712.125247	2488.535349
712.459159	2489.198261
712.793023	2490.967706
713.126837	2487.907726
713.460602	2488.547952
713.794318	2485.714824
714.127985	2485.666933
714.461602	2483.461428
714.795171	2484.794813
715.128691	2477.885912
715.462162	2481.941520
715.795584	2476.391210
716.128957	2476.040849
716.462281	2473.379120
716.795556	2474.609162
717.128782	2474.815849
717.461960	2471.556743
717.795088	2470.982052
718.128167	2468.789150
718.461198	2467.957359
718.794180	2467.100363
719.127113	2466.094653
719.459997	2467.198666
719.792833	2465.028449
720.125619	2465.235136
720.458357	2464.562142
720.791046	2465.381330
721.123686	2462.502831
721.456278	2460.211626
721.788821	2461.494600
722.121315	2461.199693
722.453761	2458.845474
722.786158	2462.742286
723.118506	2457.880093
723.450805	2461.398818
723.783056	2460.660289
724.115259	2463.674899
724.447412	2460.884620
724.779518	2461.471915
725.111574	2462.601133
725.443582	2464.673048
725.775542	2462.739765
726.107453	2461.640793
726.439315	2464.688171
726.771129	2467.803604
727.102895	2467.054993
727.434612	2469.305868
727.766281	2467.715384
728.097901	2467.251598
728.429473	2466.439972
728.760996	2467.851495
729.092471	2465.305712
729.423897	2472.491877
729.755276	2468.516927
730.086606	2468.751341
730.417887	2472.582618
730.749120	2471.977679
731.080305	2472.847278
731.411442	2475.400623
731.742530	2474.909110
732.073570	2478.004379
732.404562	2477.359111
732.735506	2475.879532
733.066401	2473.903400
733.397249	2471.221506
733.728048	2472.267546
734.058798	2468.448872
734.389501	2465.593058
734.720156	2464.393263
735.050762	2460.297326
735.381320	2462.578448
735.711831	2459.823457
736.042293	2460.325052
736.372707	2460.037707
736.703073	2457.680967
737.033391	2459.200875
737.363661	2458.059054
737.693883	2459.160546
738.024056	2463.014508
738.354182	2460.574589
738.684260	2464.705815
739.014290	2459.631894
739.344272	2464.690692
739.674207	2462.822944
740.004093	2465.782101
740.333931	2464.778912
740.663722	2467.939715
740.993464	2464.420990
741.323159	2465.709005
741.652806	2466.301340
741.982405	2464.620115
742.311956	2459.276492
742.641460	2465.401494
742.970915	2461.003088
743.300323	2461.678602
743.629683	2456.589557
743.958996	2459.745320
744.288260	2457.365895
744.617477	2456.385391
744.946647	2454.444546
745.275768	2454.449588
745.604842	2450.202415
745.933869	2451.099741
746.262847	2447.384410
746.591778	2453.758949
746.920662	2450.537652
747.249498	2452.430605
747.578286	2450.441870
747.907027	2452.748198
748.235720	2452.536470
748.564365	2455.992181
748.892963	2452.239042
749.221514	2452.881789
749.550017	2454.447067
749.878473	2454.494958
750.206881	2452.937241
750.535242	2452.493620
750.863555	2451.276181
751.191821	2454.938579
751.520039	2452.226439
751.848210	2452.614608
752.176334	2452.987653
752.504411	2451.954216
752.832440	2450.663681
753.160421	2453.224587
753.488356	2451.298866
753.816243	2452.725513
754.144082	2450.588064
754.471875	2449.032868
754.799620	2446.824842
755.127318	2452.206274
755.454969	2449.047991
755.782572	2449.894905
756.110129	2448.609411
756.437638	2450.406582
756.765100	2449.484051
757.092515	2448.682508
757.419882	2451.422375
757.747203	2448.858948
758.074477	2450.744339
758.401703	2449.325255
758.728882	2452.576799
759.056014	2451.384566
759.383099	2452.707869
759.710138	2454.663837
760.037129	2450.227621
760.364073	2455.717438
760.690970	2449.572271
761.017820	2454.326079
761.344623	2452.586881
761.671379	2453.048147
761.998088	2452.896912
762.324751	2463.546350
762.651366	2473.043883
762.977935	2493.722697
763.304456	2495.247646
763.630931	2506.585201
763.957359	2500.505569
764.283740	2494.380567
764.610074	2485.750112
764.936362	2474.601600
765.262602	2470.155302
765.588796	2461.877728
765.914943	2459.435289
766.241044	2455.581327
766.567097	2450.620831
766.893104	2450.635955
767.219064	2446.177054
767.544978	2445.922476
767.870845	2442.297886
768.196665	2443.200253
768.522438	2440.089861
768.848165	2441.478699
769.173846	2443.041456
769.499479	2437.665066
769.825066	2437.728080
770.150607	2439.694130
770.476101	2435.988882
770.801548	2440.344439
771.126949	2437.264294
771.452303	2434.776485
771.777611	2434.121135
772.102872	2435.252874
772.428087	2434.562236
772.753256	2435.283121
773.078378	2430.488983
773.403453	2433.722883
773.728482	2432.523089
774.053465	2433.231371
774.378401	2430.423448
774.703291	2431.696340
775.028135	2432.830599
775.352932	2431.129210
775.677683	2431.106525
776.002388	2431.466967
776.327046	2430.302461
776.651658	2429.629467
776.976224	2428.827923
777.300743	2430.259611
777.625216	2428.134764
777.949643	2427.391194
778.274024	2432.240784
778.598359	2423.784249
778.922647	2424.353899
779.246889	2426.367840
779.571086	2423.239804
779.895236	2427.887748
780.219339	2430.244487
780.543397	2427.711308
780.867409	2424.585792
781.191374	2428.797676
781.515294	2428.472522
781.839167	2430.642738
782.162995	2429.435382
782.486776	2429.936977
782.810511	2428.076791
783.134201	2428.124682
783.457844	2427.451688
783.781441	2429.710125
784.104993	2426.723241
784.428498	2429.465629
784.751958	2426.088056
785.075372	2428.550660
785.398739	2426.997984
785.722061	2427.905392
786.045337	2425.508323
786.368568	2426.826585
786.691752	2428.711977
787.014891	2429.649631
787.337983	2431.096442
787.661030	2432.770105
787.984031	2438.143975
788.306987	2436.792946
788.629897	2439.691610
788.952760	2436.830755
789.275579	2439.467278
789.598351	2436.286310
789.921078	2434.549633
790.243759	2431.257759
790.566395	2431.545105
790.888984	2430.723397
791.211529	2427.416400
791.534027	2429.546287
791.856480	2428.941349
792.178888	2429.974786
792.501249	2428.659044
792.823566	2427.978489
793.145836	2429.450506
793.468062	2425.833478
793.790241	2426.171235
794.112375	2427.121493
794.434464	2428.994281
794.756507	2426.312387
795.078505	2427.789445
795.400457	2428.011256
795.722364	2428.908582
796.044226	2427.650814
796.366042	2432.051741
796.687812	2428.457398
797.009538	2431.386309
797.331218	2433.327153
797.652852	2434.763882
797.974442	2429.765578
798.295986	2432.452513
798.617484	2431.441761
798.938938	2429.274065
799.260346	2428.769950
799.581709	2427.214754
799.903026	2432.628953
800.224299	2428.570824
800.545526	2426.607295
800.866708	2426.869435
801.187845	2428.792635
801.508936	2426.806420
801.829983	2422.072777
802.150984	2426.632501
802.471940	2428.021338
802.792851	2422.556728
803.113717	2426.582089
803.434538	2426.461101
803.755314	2427.187028
804.076045	2424.694177
804.396731	2424.648807
804.717372	2422.637386
805.037967	2422.947417
805.358518	2422.468508
805.679024	2424.875658
805.999485	2424.812644
806.319901	2425.457912
806.640272	2425.599064
806.960598	2426.808941
807.280879	2423.728796
807.601115	2425.684764
807.921306	2422.841553
808.241453	2426.756009
808.561554	2423.854825
808.881611	2426.178797
809.201623	2428.134764
809.521590	2426.735844
809.841513	2423.020514
810.161390	2426.569486
810.481223	2424.147212
810.801011	2427.832295
811.120755	2425.437747
811.440453	2426.113262
811.760107	2421.530853
812.079716	2422.891964
812.399281	2420.401634
812.718801	2423.912798
813.038276	2419.390883
813.357707	2424.094280
813.677093	2423.804413
813.996434	2422.319793
814.315731	2423.610329
814.634983	2424.079156
814.954191	2424.048909
815.273354	2424.797521
815.592473	2425.707449
815.911547	2427.804569
816.230577	2427.040834
816.549562	2427.912954
816.868502	2428.729621
817.187399	2427.277768
817.506250	2428.845567
817.825058	2427.192069
818.143821	2427.111410
818.462539	2430.612492
818.781213	2434.887390
819.099843	2437.927206
819.418429	2439.989038
819.736970	2447.402054
820.055466	2452.423044
820.373919	2458.865638
820.692327	2470.777885
821.010691	2492.633807
821.329011	2539.143493
821.647286	2611.819287
821.965517	2687.776873
822.283704	2732.746486
822.601847	2744.797364
822.919945	2715.830894
823.237999	2678.682631
823.556010	2642.293062
823.873976	2606.253853
824.191897	2573.952660
824.509775	2546.624565
824.827609	2528.526823
825.145398	2511.825480
825.463144	2505.627381
825.780845	2511.061745
826.098502	2518.996521
826.416116	2533.830117
826.733685	2551.456511
827.051210	2557.158056
827.368692	2548.653629
827.686129	2527.599250
828.003522	2507.442197
828.320872	2488.910915
828.638177	2478.987404
828.955439	2464.519292
829.272656	2456.758436
829.589830	2449.151335
829.906960	2444.737805
830.224046	2439.976435
830.541088	2437.561722
830.858086	2434.042997
831.175041	2434.635332
831.491952	2432.061823
831.808819	2434.542071
832.125642	2434.514345
832.442421	2442.623041
832.759157	2452.397838
833.075849	2463.735393
833.392497	2481.137456
833.709101	2491.091214
834.025662	2486.967550
834.342179	2480.063690
834.658653	2467.576752
834.975083	2460.955197
835.291469	2460.083077
835.607811	2443.684203
835.924110	2443.248144
836.240366	2439.726898
836.556578	2431.986206
836.872746	2430.536874
837.188871	2428.424631
837.504952	2424.547983
837.820990	2425.276430
838.136984	2423.350709
838.452935	2422.037489
838.768842	2422.909608
839.084706	2425.223498
839.400526	2432.513007
839.716303	2438.577515
840.032037	2441.287135
840.347727	2442.398709
840.663373	2438.862340
840.978977	2430.942687
841.294537	2430.284817
841.610054	2428.492686
841.925527	2423.539753
842.240957	2421.616553
842.556344	2420.779721
842.871687	2420.099165
843.186987	2415.993145
843.502244	2415.632703
843.817458	2413.041550
844.132629	2415.378125
844.447756	2415.426016
844.762840	2409.033832
845.077881	2409.190108
845.392879	2409.570715
845.707833	2412.169430
846.022745	2406.936712
846.337613	2411.118350
846.652438	2411.758576
846.967221	2408.353277
847.281960	2411.072979
847.596656	2411.680438
847.911309	2409.701785
848.225919	2411.007444
848.540485	2411.289749
848.855009	2409.376631
849.169490	2408.509553
849.483928	2409.222876
849.798323	2409.386713
850.112675	2408.121384
850.426984	2409.535427
850.741251	2409.011147
851.055474	2409.449728
851.369654	2408.648184
851.683792	2407.947464
851.997887	2408.943092
852.311938	2410.112639
852.625947	2407.690365
852.939914	2407.105591
853.253837	2410.589028
853.567718	2412.093813
853.881555	2411.713206
854.195350	2410.321847
854.509103	2412.078689
854.822812	2409.346384
855.136479	2412.751683
855.450103	2410.228586
855.763685	2407.919737
856.077224	2411.347722
856.390720	2409.127094
856.704173	2408.849830
857.017584	2411.617424
857.330953	2409.565674
857.644278	2409.855541
857.957561	2416.247724
858.270802	2409.414440
858.584000	2412.086251
858.897155	2410.606673
859.210268	2409.527866
859.523339	2410.684810
859.836367	2409.986611
860.149352	2413.354101
860.462295	2411.695562
860.775195	2407.040056
861.088054	2405.537792
861.400869	2408.401168
861.713642	2404.895045
862.026373	2408.940571
862.339062	2410.634399
862.651708	2410.079872
862.964312	2410.344533
863.276873	2410.999883
863.589392	2409.895870
863.901869	2411.569533
864.214303	2411.607342
864.526696	2412.587846
864.839045	2410.606673
865.151353	2409.474933
865.463619	2407.758421
865.775842	2412.479461
866.088023	2413.475089
866.400162	2412.308062
866.712258	2411.133473
867.024313	2411.824111
867.336325	2412.804616
867.648296	2412.759245
867.960224	2411.453586
868.272110	2414.276632
868.583954	2412.098854
868.895755	2410.145407
869.207515	2410.463000
869.519233	2413.596077
869.830909	2413.631365
870.142542	2413.727147
870.454134	2414.810995
870.765684	2411.808988
871.077191	2409.411919
871.388657	2412.847465
871.700081	2412.993659
872.011463	2416.356108
872.322803	2412.484502
872.634101	2413.500295
872.945357	2415.395769
873.256571	2418.627148
873.567744	2414.924421
873.878874	2415.642785
874.189963	2416.439287
874.501010	2419.549679
874.812015	2417.326531
875.122979	2415.166396
875.433900	2417.969278
875.744780	2414.448032
876.055618	2416.257806
876.366415	2419.063208
876.677169	2417.528177
876.987882	2415.602456
877.298554	2411.849317
877.609183	2418.440626
877.919771	2415.242013
878.230317	2418.475914
878.540822	2422.465987
878.851285	2427.060999
879.161707	2429.367327
879.472087	2434.158943
879.782425	2443.636312
880.092722	2459.037038
880.402977	2485.694659
880.713191	2515.485358
881.023363	2547.416026
881.333494	2566.504355
881.643583	2568.336815
881.953631	2569.171126
882.263637	2560.117213
882.573602	2546.503577
882.883526	2536.796836
883.193408	2519.679598
883.503248	2510.897908
883.813048	2500.140085
884.122806	2488.152222
884.432522	2478.821046
884.742197	2467.642287
885.051831	2460.544342
885.361424	2452.357509
885.670975	2446.086313
885.980485	2440.677155
886.289954	2436.417380
886.599382	2433.803542
886.908768	2431.340938
887.218113	2427.497058
887.527417	2426.057809
887.836680	2421.994639
888.145901	2423.161666
888.455082	2420.247879
888.764221	2420.043712
889.073319	2418.740574
889.382376	2420.545307
889.691392	2420.358785
890.000366	2420.885585
890.309300	2417.707138
890.618193	2420.512540
890.927044	2417.767632
891.235855	2418.201171
891.544625	2419.126222
891.853353	2419.242169
892.162041	2419.716037
892.470687	2422.188723
892.779293	2421.553538
893.087858	2424.240473
893.396381	2426.859353
893.704864	2433.783377
894.013306	2441.463575
894.321707	2452.987653
894.630068	2459.387398
894.938387	2460.703139
895.246665	2458.643828
895.554903	2454.205092
895.863100	2446.461879
896.171256	2445.952723
896.479371	2442.965839
896.787446	2439.714295
897.095480	2434.715991
897.403473	2431.880342
897.711425	2426.687953
898.019336	2428.717018
898.327207	2426.080494
898.635038	2423.718714
898.942827	2422.866759
899.250576	2421.954310
899.558284	2419.080852
899.865952	2419.211922
900.173579	2418.536407
900.481165	2419.108578
900.788711	2417.613876
901.096216	2416.991294
901.403681	2414.939544
901.711105	2415.047929
902.018489	2414.097672
902.325832	2417.813002
902.633135	2418.115471
902.940397	2419.640420
903.247619	2429.435382
903.554800	2442.043308
903.861941	2456.942438
904.169041	2466.263532
904.476101	2469.620940
904.783121	2466.424848
905.090100	2463.533747
905.397039	2456.851697
905.703938	2448.213680
906.010796	2444.518514
906.317614	2437.105498
906.624391	2436.193049
906.931129	2429.362285
907.237826	2429.022008
907.544483	2424.900864
907.851099	2422.342479
908.157675	2419.632858
908.464211	2415.262178
908.770707	2408.572567
909.077163	2410.326888
909.383578	2408.746487
909.689954	2408.413771
909.996289	2407.753379
910.302584	2408.847310
910.608839	2408.065931
910.915054	2411.367887
911.221229	2406.271280
911.527363	2408.260015
911.833458	2410.994841
912.139513	2409.056518
912.445527	2408.922927
912.751502	2411.415778
913.057436	2410.241189
913.363331	2412.325706
913.669186	2416.898032
913.975000	2417.089596
914.280775	2421.654361
914.586510	2424.646286
914.892205	2432.676844
915.197859	2441.012392
915.503475	2451.026644
915.809050	2462.951493
916.114585	2464.839406
916.420081	2468.650518
916.725536	2466.835702
917.030952	2464.080712
917.336328	2460.350258
917.641665	2458.001080
917.946961	2454.709207
918.252218	2450.099072
918.557435	2443.825356
918.862612	2442.799481
919.167750	2436.770261
919.472848	2435.832606
919.777906	2428.656524
920.082925	2425.067222
920.387904	2423.935483
920.692843	2420.578075
920.997743	2418.435584
921.302603	2418.387693
921.607423	2417.702097
921.912204	2413.946437
922.216946	2415.398289
922.521647	2411.816549
922.826310	2413.117167
923.130932	2414.899215
923.435516	2410.168092
923.740059	2410.601631
924.044564	2411.428381
924.349028	2408.081054
924.653454	2402.598800
924.957840	2406.427556
925.262186	2404.025446
925.566493	2407.682803
925.870761	2401.651063
926.174989	2405.641136
926.479178	2406.624161
926.783328	2406.851013
927.087438	2405.275652
927.391509	2406.104922
927.695541	2405.424366
927.999533	2403.468399
928.303486	2402.339180
928.607400	2406.840931
928.911275	2404.857237
929.215110	2404.637946
929.518906	2401.512431
929.822663	2402.981927
930.126381	2404.327915
930.430060	2403.017215
930.733699	2402.802966
931.037299	2404.332957
931.340861	2402.878584
931.644383	2403.274314
931.947866	2401.109139
932.251309	2402.944119
932.554714	2405.121897
932.858080	2404.965621
933.161407	2404.312792
933.464694	2402.162740
933.767943	2402.747514
934.071153	2402.467730
934.374323	2402.084602
934.677455	2402.737431
934.980548	2404.428738
935.283602	2401.590569
935.586617	2402.727349
935.889593	2404.156516
936.192530	2403.652401
936.495428	2404.035528
936.798287	2403.246588
937.101108	2401.804818
937.403890	2404.249777
937.706632	2404.801784
938.009336	2406.276321
938.312002	2405.605848
938.614628	2407.269429
938.917216	2406.520817
939.219765	2407.602145
939.522275	2406.777916
939.824747	2407.748338
940.127179	2403.294479
940.429573	2405.361352
940.731929	2405.426887
941.034246	2403.236506
941.336524	2409.545510
941.638763	2406.777916
941.940964	2407.418143
942.243126	2407.115673
942.545250	2407.720612
942.847335	2405.038718
943.149381	2405.978893
943.451389	2406.790519
943.753359	2406.488050
944.055290	2402.349262
944.357182	2404.370765
944.659036	2405.230282
944.960851	2405.215158
945.262628	2407.007289
945.564367	2404.159037
945.866067	2406.293965
946.167729	2405.575601
946.469352	2404.325395
946.770937	2406.362021
947.072484	2405.865467
947.373992	2403.937226
947.675462	2402.364386
947.976893	2403.889335
948.278286	2405.245405
948.579641	2404.214489
948.880958	2405.820097
949.182236	2402.180384
949.483476	2403.652401
949.784678	2403.342370
950.085841	2405.323543
950.386967	2402.591238
950.688054	2403.934705
950.989103	2404.151475
951.290114	2404.753893
951.591087	2405.565519
951.892021	2404.181722
952.192917	2407.561816
952.493776	2404.090981
952.794596	2406.949315
953.095378	2405.230282
953.396122	2406.109963
953.696828	2404.345559
953.997496	2402.775240
954.298126	2406.611558
954.598718	2405.210117
954.899272	2403.917061
955.199788	2403.178532
955.500266	2402.719787
955.800706	2401.121742
956.101108	2399.768192
956.401472	2400.892369
956.701798	2398.956566
957.002087	2401.567884
957.302337	2397.504714
957.602550	2401.456978
957.902724	2399.674930
958.202861	2399.274159
958.502960	2402.301372
958.803022	2403.188615
959.103045	2403.029818
959.403031	2400.300033
959.702979	2399.944632
960.002889	2399.813562
960.302762	2399.606875
960.602596	2400.017729
960.902393	2397.756771
961.202153	2401.754406
961.501875	2399.062430
961.801559	2399.044786
962.101205	2397.431617
962.400814	2397.590413
962.700385	2398.094529
962.999918	2400.211813
963.299414	2397.101421
963.598873	2400.037893
963.898293	2397.955897
964.197677	2399.075033
964.497022	2397.358520
964.796331	2400.511762
965.095601	2395.901627
965.394835	2399.866494
965.694030	2397.915568
965.993189	2400.466392
966.292309	2397.666031
966.591393	2398.475136
966.890439	2398.487739
967.189447	2399.692574
967.488419	2399.443037
967.787353	2398.102090
968.086249	2395.226112
968.385108	2397.282903
968.683930	2401.028480
968.982714	2399.306926
969.281462	2399.082595
969.580172	2400.272307
969.878844	2398.500342
970.177480	2401.033521
970.476078	2401.401526
970.774639	2399.566546
971.073162	2398.144940
971.371649	2394.205278
971.670098	2396.390619
971.968510	2397.187121
972.266885	2396.130999
972.565223	2399.395146
972.863524	2398.139899
973.161788	2398.792728
973.460014	2399.722821
973.758204	2399.367420
974.056356	2400.163922
974.354471	2397.918088
974.652550	2400.053017
974.950591	2400.841957
975.248595	2401.512431
975.546563	2400.040414
975.844493	2398.671741
976.142386	2396.589744
976.440243	2398.263407
976.738062	2400.673079
977.035845	2396.937584
977.333590	2399.803480
977.631299	2396.917419
977.928971	2400.579818
978.226606	2400.022770
978.524204	2399.004457
978.821765	2397.023283
979.119290	2399.634601
979.416777	2395.299209
979.714228	2401.328429
980.011642	2397.890362
980.309020	2402.384551
980.606360	2399.715260
980.903664	2400.168963
981.200931	2397.078736
981.498162	2400.932698
981.795356	2399.674930
982.092513	2404.698440
982.389633	2402.465209
982.686717	2404.814387
982.983764	2405.177350
983.280775	2404.534603
983.577749	2404.307751
983.874686	2405.207597
984.171587	2408.602814
984.468451	2404.532082
984.765279	2403.952349
985.062070	2403.929664
985.358824	2403.044942
985.655543	2402.976886
985.952224	2402.911351
986.248869	2400.390774
986.545478	2394.316184
986.842050	2395.246277
987.138586	2396.302398
987.435086	2395.974723
987.731549	2392.438354
988.027975	2397.030845
988.324366	2396.761143
988.620719	2395.790721
988.917037	2398.187790
989.213318	2397.550084
989.509563	2397.330794
989.805772	2398.195352
990.101944	2396.562018
990.398080	2398.898593
990.694180	2395.082439
990.990244	2397.540002
991.286271	2399.851371
991.582262	2398.903634
991.878217	2395.647048
992.174136	2400.549571
992.470019	2397.794580
992.765865	2399.369941
993.061676	2393.479352
993.357450	2394.036400
993.653188	2394.280896
993.948890	2399.513613
994.244556	2398.288613
994.540186	2401.209962
994.835780	2399.775753
995.131337	2399.483367
995.426859	2402.863460
995.722345	2400.398336
996.017795	2399.823644
996.313208	2402.853378
996.608586	2401.787174
996.903928	2402.296330
997.199234	2401.613254
997.494504	2402.699623
997.789738	2400.965466
998.084936	2401.696433
998.380099	2400.141237
998.675225	2398.528068
998.970316	2397.093860
999.265371	2399.143089
999.560390	2400.171484
999.855373	2398.921278
1000.150320	2398.795249
1000.445232	2402.079561
1000.740108	2398.951525
1001.034948	2397.257697
1001.329752	2396.952707
1001.624521	2398.525547
1001.919254	2392.763508
1002.213951	2395.170659
1002.508613	2394.948849
1002.803239	2396.408263
1003.097829	2392.740823
1003.392384	2395.150495
1003.686903	2394.366595
1003.981386	2394.548077
1004.275834	2398.606206
1004.570246	2397.701319
1004.864623	2398.361710
1005.158964	2397.983623
1005.453270	2397.431617
1005.747540	2395.899106
1006.041775	2397.219888
1006.335974	2397.323232
1006.630138	2394.830382
1006.924266	2396.985475
1007.218359	2395.505896
1007.512416	2397.608057
1007.806438	2395.803324
1008.100425	2395.826009
1008.394376	2394.868190
1008.688292	2396.002450
1008.982172	2395.805845
1009.276017	2395.102604
1009.569827	2396.186452
1009.863602	2394.976575
1010.157341	2397.361041
1010.451045	2398.124776
1010.744714	2394.222923
1011.038347	2398.220557
1011.331945	2395.815927
1011.625508	2397.005639
1011.919036	2395.906668
1012.212528	2396.612429
1012.505986	2395.261400
1012.799408	2396.819117
1013.092795	2394.971534
1013.386147	2396.037738
1013.679464	2395.785680
1013.972745	2397.446740
1014.265992	2396.133520
1014.559204	2396.133520
1014.852380	2395.861298
1015.145521	2396.849364
1015.438628	2395.717625
1015.731699	2394.636297
1016.024736	2394.177552
1016.317737	2395.084960
1016.610703	2397.623181
1016.903635	2394.379198
1017.196531	2392.398025
1017.489393	2394.283416
1017.782219	2391.099928
1018.075011	2397.799621
1018.367768	2393.928015
1018.660490	2397.114024
1018.953177	2397.114024
1019.245829	2397.114024
