Dividing Wavelength (nm)	Counts (n)	Blue Motor Position (mm): 0.000000	Red Motor Position (mm): 45.400000	
326.493990	1999.417397
326.888308	1999.417397
327.282561	1999.417397
327.676750	1974.945116
328.070874	1976.311269
328.464933	1981.158338
328.858929	1989.967754
329.252859	2002.694147
329.646726	2016.774090
330.040528	2032.956194
330.434265	2050.264996
330.827938	2069.260063
331.221547	2093.218147
331.615091	2111.978801
332.008571	2134.616102
332.401986	2154.684936
332.795338	2172.139931
333.188625	2193.290092
333.581847	2213.361446
333.975006	2228.399208
334.368100	2249.990470
334.761129	2265.721390
335.154095	2280.948196
335.546996	2321.221974
335.939833	2397.277862
336.332606	2414.291756
336.725315	2425.911616
337.117960	2436.571135
337.510540	2438.476692
337.903056	2451.656788
338.295508	2458.016204
338.687896	2465.640949
339.080220	2472.537247
339.472480	2477.129739
339.864676	2480.383803
340.256807	2482.637199
340.648875	2485.190544
341.040879	2487.426295
341.432818	2492.916112
341.824694	2487.542242
342.216506	2489.077273
342.608253	2491.474342
342.999937	2489.878817
343.391557	2488.482417
343.783113	2489.604074
344.174605	2482.153248
344.566033	2483.511839
344.957397	2481.860862
345.348697	2476.804584
345.739934	2479.983032
346.131106	2477.356591
346.522215	2474.208390
346.913260	2471.329891
347.304241	2475.022536
347.695159	2468.915178
348.086012	2469.018522
348.476802	2465.071299
348.867528	2469.053810
349.258191	2463.359827
349.648789	2467.619602
350.039324	2461.963427
350.429796	2464.844447
350.820203	2463.226236
351.210548	2460.899744
351.600828	2461.875207
351.991045	2462.165073
352.381198	2459.936883
352.771288	2462.812862
353.161314	2458.207768
353.551276	2463.248922
353.941175	2462.069292
354.331010	2462.633901
354.720782	2465.519961
355.110490	2466.712194
355.500135	2461.537450
355.889717	2462.528037
356.279235	2465.739252
356.668689	2463.241360
357.058080	2465.346042
357.447408	2461.391256
357.836672	2462.268417
358.225873	2464.557101
358.615010	2464.617595
359.004084	2471.423153
359.393095	2469.910806
359.782043	2470.886270
360.170927	2468.274952
360.559748	2469.936012
360.948505	2473.769810
361.337199	2474.561271
361.725830	2473.966415
362.114398	2473.850468
362.502903	2476.217290
362.891344	2477.943885
363.279722	2478.379945
363.668037	2477.354070
364.056289	2477.109574
364.444478	2481.152579
364.832603	2478.079996
365.220665	2482.682570
365.608665	2484.094093
365.996601	2485.971923
366.384474	2483.912611
366.772284	2487.272540
367.160031	2489.185658
367.547715	2487.562407
367.935336	2489.896461
368.322893	2489.712459
368.710388	2487.892602
369.097820	2494.347800
369.485189	2495.330825
369.872495	2493.919302
370.259738	2495.807214
370.646918	2496.954076
371.034035	2502.733759
371.421090	2504.611589
371.808081	2509.927486
372.195010	2512.180881
372.581875	2519.974505
372.968678	2528.834333
373.355418	2532.342976
373.742096	2542.160623
374.128710	2556.099414
374.515262	2570.764130
374.901751	2583.293918
375.288177	2602.941815
375.674540	2621.387397
376.060841	2641.126035
376.447079	2664.857267
376.833254	2695.038655
377.219367	2715.999772
377.605417	2751.975967
377.991404	2782.840431
378.377329	2822.015238
378.763191	2855.060001
379.148991	2904.395253
379.534727	2961.246866
379.920402	3008.981552
380.306013	3055.390414
380.691563	3121.336268
381.077049	3179.659897
381.462474	3236.952611
381.847835	3314.762821
382.233134	3387.892319
382.618371	3450.213583
383.003545	3539.880587
383.388657	3624.486272
383.773706	3717.276270
384.158693	3795.388949
384.543618	3893.489803
384.928480	3975.302688
385.313280	4080.577104
385.698017	4190.103733
386.082692	4315.835151
386.467305	4379.467116
386.851856	4509.065099
387.236344	4672.673226
387.620770	4737.981374
388.005133	4862.908728
388.389435	5015.242315
388.773674	5098.590233
389.157851	5231.434719
389.541965	5370.477303
389.926018	5395.420933
390.310008	5585.202731
390.693936	5709.583120
391.077802	5829.469320
391.461606	5967.985104
391.845348	6085.416262
392.229027	6215.190686
392.612645	6441.478000
392.996200	6563.272277
393.379694	6736.191415
393.763125	6969.017106
394.146494	7067.392702
394.529801	7209.170113
394.913047	7461.285779
395.296230	7455.334697
395.679351	7517.565220
396.062410	7791.141078
396.445408	7685.612084
396.828343	7844.108481
397.211217	7983.700552
397.594028	7866.163529
397.976778	8066.748520
398.359466	8239.339984
398.742092	8216.102785
399.124656	8367.818831
399.507158	8562.067092
399.889598	8580.691634
400.271977	8802.247825
400.654294	8839.706119
401.036549	9033.362044
401.418742	9064.649965
401.800874	9375.852995
402.182944	9456.703021
402.564952	9834.398870
402.946898	9645.847113
403.328783	9714.081651
403.710606	9913.676055
404.092367	10180.148927
404.474067	10556.067769
404.855705	10325.792902
405.237282	10289.052973
405.618797	10722.758562
406.000250	10988.291259
406.381642	11354.606703
406.762972	11305.072325
407.144240	11101.792837
407.525447	11363.771521
407.906593	11296.986314
408.287677	11563.320554
408.668700	11724.501366
409.049661	11701.831298
409.430560	11860.932633
409.811399	11830.610093
410.192176	11994.739980
410.572891	12079.436406
410.953545	12591.098398
411.334138	12038.345961
411.714669	12673.523784
412.095139	11940.829881
412.475547	12479.547745
412.855894	12299.001341
413.236180	12646.735092
413.616405	12324.265083
413.996568	12614.867438
414.376670	12585.825351
414.756711	12453.973972
415.136691	12753.186617
415.516609	12940.183178
415.896466	13003.616017
416.276262	13302.233806
416.655997	13745.063883
417.035670	13785.206592
417.415283	14446.374083
417.794834	14540.162230
418.174324	14285.573878
418.553753	14180.385162
418.933121	14693.012535
419.312428	14485.407737
419.691674	14404.986210
420.070859	14870.312436
420.449983	14518.296225
420.829045	15078.151648
421.208047	14821.798892
421.586988	15294.676767
421.965867	15552.831735
422.344686	15554.588577
422.723444	16129.955630
423.102141	14787.922338
423.480777	15999.921587
423.859352	15498.311656
424.237866	16647.563663
424.616319	16337.008422
424.994712	17009.815937
425.373044	16799.564534
425.751314	17487.611458
426.129524	16602.725120
426.507673	17730.688334
426.885762	17409.274448
427.263789	17632.234600
427.641756	17787.834854
428.019662	17856.505452
428.397508	17902.027071
428.775292	18212.297488
429.153016	18164.214962
429.530679	18251.338704
429.908282	18273.131612
430.285824	17988.031677
430.663305	18714.615701
431.040726	18303.658319
431.418086	18123.663921
431.795385	18789.497000
432.172624	19209.359581
432.549802	18765.730480
432.926920	18947.438871
433.303977	18842.008179
433.680974	19106.512480
434.057910	19386.740140
434.434786	19415.860366
434.811601	19330.392643
435.188355	20392.881351
435.565050	20027.637152
435.941683	19980.139401
436.318257	20883.942668
436.694770	20681.389107
437.071222	21294.572375
437.447614	20353.222594
437.823946	20382.272243
438.200218	20534.492404
438.576429	20306.856582
438.952580	20576.613765
439.328670	20549.600742
439.704700	20969.460802
440.080670	20529.957886
440.456580	21131.062550
440.832429	21326.455153
441.208218	20278.174937
441.583947	20744.259857
441.959616	20841.803663
442.335224	21106.902820
442.710773	21222.907332
443.086261	21782.051952
443.461689	21131.541460
443.837057	21240.677399
444.212365	21915.324936
444.587612	21919.569588
444.962800	21469.936473
445.337927	21917.235534
445.712995	20617.721854
446.088002	22516.802646
446.462949	22705.896327
446.837837	22893.752404
447.212664	22863.371890
447.587431	25779.896160
447.962139	28768.302242
448.336786	31178.477896
448.711374	29577.714945
449.085901	25808.913042
449.460369	25768.021722
449.834776	25701.143255
450.209124	28237.791376
450.583412	27747.687879
450.957640	28276.814948
451.331808	26898.243373
451.705917	25500.820404
452.079965	25558.730658
452.453954	25932.844768
452.827883	25794.757482
453.201752	25601.865291
453.575562	25769.118173
453.949311	26918.183657
454.323001	26984.494995
454.696632	26737.233961
455.070202	28326.561054
455.443713	28461.643813
455.817164	29084.806045
456.190556	29600.866444
456.563888	29028.022488
456.937160	29475.198040
457.310373	27780.649463
457.683526	28257.651002
458.056619	28235.472445
458.429653	28163.247834
458.802628	28756.873947
459.175542	28879.686537
459.548398	30187.989468
459.921194	31802.376137
460.293930	32465.570173
460.666607	34540.052871
461.039224	36328.497980
461.411782	36714.055509
461.784280	35512.191500
462.156719	35034.683325
462.529099	34480.300075
462.901419	33165.375588
463.273680	32090.170569
463.645882	32179.081400
464.018024	32155.093069
464.390106	33007.794160
464.762130	35771.573988
465.134094	39877.987006
465.505999	45234.966620
465.877845	49847.249344
466.249631	51020.378776
466.621358	49329.288430
466.993026	47246.845750
467.364634	45153.257078
467.736184	43164.388295
468.107674	41882.349775
468.479105	41079.485532
468.850477	40391.277291
469.221790	38915.320706
469.593043	37145.946282
469.964238	36240.983549
470.335373	36174.778076
470.706449	37938.574463
471.077467	40575.372668
471.448425	45172.685685
471.819324	47996.409874
472.190164	46101.825792
472.560945	42513.419058
472.931667	39385.960308
473.302330	38259.491796
473.672934	37428.228212
474.043479	37936.540357
474.413965	37116.286653
474.784393	36740.395537
475.154761	37668.913062
475.525070	37694.023049
475.895321	37217.777683
476.265513	37812.921183
476.635645	38808.324736
477.005719	38633.036255
477.375734	39109.768092
477.745691	39799.902054
478.115588	41181.284072
478.485427	43184.631048
478.855207	46578.776919
479.224928	49190.107214
479.594591	50832.920950
479.964194	49836.269711
480.333739	50008.137769
480.703226	50053.175437
481.072653	50690.891481
481.442022	51151.078251
481.811333	51433.035027
482.180584	50134.151492
482.549777	49625.912443
482.918912	49087.905381
483.287988	48798.679262
483.657005	47962.515676
484.025964	47308.289853
484.394864	47336.396807
484.763706	46906.066270
485.132489	46034.632252
485.501213	45849.455548
485.869879	46008.451019
486.238487	45592.255878
486.607036	45798.618032
486.975527	45250.379948
487.343959	45465.574203
487.712333	45516.373910
488.080648	45433.373833
488.448905	45904.507468
488.817104	45713.964456
489.185244	46685.309102
489.553326	48389.561901
489.921350	51077.933630
490.289315	53914.288430
490.657222	54491.828220
491.025070	54765.230158
491.392861	53886.461260
491.760593	52679.445192
492.128267	51038.317722
492.495883	49508.012458
492.863440	48123.696488
493.230939	46759.681245
493.598380	45648.623540
493.965763	45331.872721
494.333088	44507.384447
494.700354	44006.109753
495.067563	43696.633318
495.434713	43565.628853
495.801805	43647.146832
496.168839	43241.424688
496.535815	42911.556786
496.902733	42934.395733
497.269593	42513.855118
497.636395	42472.071514
498.003139	42862.909651
498.369825	42302.686224
498.736453	42618.383443
499.103023	42136.257571
499.469535	42001.260512
499.835989	42110.792183
500.202385	41772.072014
500.568723	41785.110959
500.935003	41977.262099
501.301226	41753.727256
501.667390	42398.289186
502.033497	42674.226824
502.399546	42085.740168
502.765537	41391.346432
503.131470	41782.953345
503.497345	42131.501243
503.863163	40786.581890
504.228923	41398.341033
504.594625	41822.584376
504.960269	41113.974586
505.325856	41823.327946
505.691385	41165.469972
506.056856	41303.763946
506.422270	41740.537077
506.787625	41313.634525
507.152924	41518.363344
507.518164	41620.204734
507.883347	40804.735085
508.248472	41072.173338
508.613540	41566.123236
508.978550	41879.904816
509.343503	41601.189502
509.708398	41811.841677
510.073236	42340.101668
510.438016	42348.467463
510.802738	41809.931080
511.167403	42439.576236
511.532010	42666.029908
511.896561	42975.314779
512.261053	43836.495091
512.625488	43367.806415
512.989866	43256.462450
513.354186	43082.106582
513.718449	43076.296652
514.082655	43763.269810
514.446803	43446.987818
514.810894	43961.150222
515.174927	43873.371131
515.538904	43770.377837
515.902822	44464.907685
516.266684	43894.407866
516.630488	44344.333367
516.994235	44191.835943
517.357925	44764.329538
517.721558	44932.487307
518.085133	45233.058543
518.448651	45384.411626
518.812112	45150.035781
519.175516	45249.742242
519.538863	45601.561848
519.902152	45558.485189
520.265385	46035.872376
520.628560	46076.012563
520.991678	45855.729264
521.354739	46118.426311
521.717743	46423.587518
522.080690	46314.370920
522.443580	46872.136784
522.806413	46913.486849
523.169189	46867.171248
523.531908	47038.139460
523.894569	46901.020075
524.257174	47060.476813
524.619722	47364.312196
524.982213	47378.445071
525.344647	47280.855894
525.707025	47300.977660
526.069345	47717.024087
526.431608	47637.270512
526.793815	47956.206672
527.155964	47493.060745
527.518057	47646.715114
527.880093	47430.139583
528.242072	47969.424577
528.603995	47660.285900
528.965860	47674.441460
529.327669	47765.522507
529.689421	47653.525713
530.051117	47607.424361
530.412755	47752.231505
530.774337	47803.749577
531.135862	47606.194319
531.497331	47826.220520
531.858743	47713.396977
532.220098	48084.297350
532.581396	47769.812529
532.942638	47429.617824
533.303824	47743.422089
533.664953	47699.692600
534.026025	47409.884227
534.387040	47908.287984
534.747999	47843.378087
535.108902	47998.196963
535.469748	47519.315074
535.830537	47644.088673
536.191270	47825.270263
536.551947	47475.348651
536.912567	47783.965569
537.273131	47906.263961
537.633638	47370.759832
537.994089	47733.864061
538.354483	47328.053697
538.714821	47883.866114
539.075103	48226.152899
539.435328	48005.723406
539.795497	47891.339625
540.155609	47881.025424
540.515665	48346.694449
540.875665	47796.185326
541.235609	48115.885220
541.595496	48084.509079
541.955328	48775.752094
542.315102	48130.764186
542.674821	47905.255730
543.034483	47962.853433
543.394090	47911.567255
543.753640	47887.142864
544.113134	48895.925640
544.472571	47888.604799
544.831953	49144.746912
545.191278	48340.826546
545.550548	48060.419925
545.909761	48535.949447
546.268918	48747.035161
546.628019	49042.766890
546.987064	48601.446638
547.346053	47860.207979
547.704986	48754.680071
548.063863	48284.065674
548.422684	48490.543774
548.781449	48346.633955
549.140158	48747.622456
549.498811	48581.307228
549.857408	48020.604892
550.215949	48843.137198
550.574434	48790.394125
550.932864	48550.205830
551.291237	49273.671901
551.649555	48851.729844
552.007817	49092.888562
552.366022	48728.861802
552.724173	48922.883210
553.082267	49326.820786
553.440305	49631.634153
553.798288	48934.528276
554.156215	49242.633516
554.514086	49455.954982
554.871902	49204.048525
555.229661	49234.245036
555.587365	49037.884532
555.945014	49127.576742
556.302606	49044.453156
556.660143	49286.962903
557.017625	49370.951046
557.375050	49141.109719
557.732421	49518.787924
558.089735	49486.506895
558.446994	49401.276107
558.804197	49885.894829
559.161345	49818.461835
559.518437	49076.731664
559.875474	49369.292507
560.232455	49540.429598
560.589381	49692.778308
560.946251	49404.953629
561.303065	50115.524428
561.659825	49883.225538
562.016528	49569.509493
562.373177	49281.382345
562.729770	49772.652870
563.086307	49277.596439
563.442789	49733.122662
563.799216	49786.639551
564.155587	49572.642571
564.511904	49595.148802
564.868164	49687.974088
565.224370	49942.658222
565.580520	49675.345998
565.936615	49892.962527
566.292654	49608.016347
566.648638	49852.086331
567.004567	49794.304626
567.360441	49861.246108
567.716260	49705.398837
568.072023	49976.040743
568.427732	49968.373148
568.783385	49501.343011
569.138982	49910.236041
569.494525	49871.744311
569.850013	49655.075518
570.205445	49609.458117
570.560823	49586.538511
570.916145	49471.791767
571.271412	49490.859932
571.626625	49248.662736
571.981782	49308.027364
572.336884	49002.467906
572.691931	49323.748202
573.046923	48899.409077
573.401860	48759.590155
573.756743	48753.013970
574.111570	48872.247340
574.466342	48724.644876
574.821059	48833.392647
575.175722	48356.922950
575.530330	48359.390595
575.884882	48072.637161
576.239380	48052.558246
576.593823	48012.150877
576.948211	47945.700907
577.302544	47457.250908
577.656823	47482.600351
578.011047	47706.795586
578.365216	47427.193029
578.719330	47210.695636
579.073389	47063.733398
579.427394	47153.266811
579.781344	47121.930999
580.135239	46773.549459
580.489080	46877.601395
580.842866	46335.284147
581.196597	46772.445447
581.550273	46749.286386
581.903895	46596.151255
582.257463	47014.945111
582.610975	46393.998466
582.964434	46686.965121
583.317837	46312.523337
583.671186	46156.355953
584.024481	46380.505817
584.377721	45912.101967
584.730906	46199.407407
585.084037	46250.169305
585.437113	45941.247398
585.790135	45969.656820
586.143103	45579.887408
586.496016	45698.195727
586.848874	45734.267703
587.201679	45749.741525
587.554428	45236.173977
587.907124	45409.856850
588.259765	45162.356361
588.612352	45421.481751
588.964884	44786.634123
589.317362	45094.540239
589.669786	45037.555036
590.022155	44794.210978
590.374470	45220.639661
590.726731	44749.014513
591.078937	44266.944094
591.431090	44356.757291
591.783188	44021.258420
592.135232	43676.377962
592.487222	43925.600005
592.839157	44040.732397
593.191038	43674.023743
593.542866	43449.064773
593.894639	42826.835154
594.246358	43115.111016
594.598022	43109.162455
594.949633	42685.559338
595.301190	42650.833350
595.652692	42454.084677
596.004141	42794.012202
596.355535	41792.576908
596.706876	41749.807758
597.058162	41584.969589
597.409395	42072.640730
597.760573	42133.852941
598.111698	41698.050232
598.462768	41731.457958
598.813785	41765.992383
599.164748	41203.074459
599.515657	41600.438370
599.866511	41051.078630
600.217312	41679.108096
600.568060	40620.201128
600.918753	41386.930381
601.269392	41338.142094
601.619978	40996.389672
601.970510	41206.956148
602.320988	41383.232695
602.671412	41685.253263
603.021783	41441.392487
603.372100	41088.100863
603.722363	41196.236134
604.072572	41269.360591
604.422728	41292.547378
604.772830	41093.815011
605.122878	41185.831193
605.472872	41143.588844
605.822813	41401.421178
606.172701	41223.090361
606.522534	41477.356078
606.872314	41752.897986
607.222041	41491.861998
607.571714	41858.003523
607.921333	41287.622171
608.270899	41611.755760
608.620411	41967.600728
608.969870	41758.430652
609.319276	41748.670978
609.668627	41799.755511
610.017926	42292.097281
610.367171	42456.002836
610.716362	42532.404043
611.065500	42471.340547
611.414585	42658.400122
611.763616	42958.689054
612.112594	42880.248700
612.461518	43112.033392
612.810389	43391.804828
613.159207	43256.127213
613.507971	43331.782329
613.856682	43819.987832
614.205340	43704.799988
614.553945	44408.035908
614.902496	43847.036143
615.250994	44313.047967
615.599439	44378.202359
615.947830	44585.245068
616.296169	44624.054391
616.644454	44761.992963
616.992686	44928.908088
617.340864	45445.699454
617.688990	45158.535166
618.037063	45761.041271
618.385082	45727.759573
618.733048	46024.428957
619.080961	46033.840791
619.428821	46039.663323
619.776628	46173.813468
620.124382	45993.168762
620.472083	46132.783517
620.819731	46260.657426
621.167326	45926.922959
621.514868	45911.660866
621.862357	45480.589280
622.209793	45513.329053
622.557176	45188.189754
622.904506	44924.981029
623.251783	44599.793838
623.599007	44367.031163
623.946179	44121.683246
624.293297	44091.890027
624.640363	43453.120382
624.987376	43467.669152
625.334336	43199.184860
625.681243	42837.905528
626.028097	42773.028399
626.374899	42628.208652
626.721647	42592.247581
627.068343	42462.195894
627.414987	42221.841240
627.761577	41999.843948
628.108115	42310.268120
628.454600	41742.019176
628.801032	41916.559045
629.147412	41884.146947
629.493739	41894.861919
629.840014	41505.188289
630.186236	41835.532580
630.532405	41429.883532
630.878521	41633.515901
631.224585	41512.434947
631.570597	41227.478685
631.916556	41393.995558
632.262462	41320.402274
632.608316	41317.649804
632.954117	41204.095293
633.299866	41197.214118
633.645562	41119.996244
633.991206	40622.741870
634.336797	40186.719871
634.682336	40201.518178
635.027823	39945.503180
635.373257	39756.114591
635.718639	39484.098971
636.063968	39354.513591
636.409245	38769.815362
636.754470	38822.422323
637.099642	38558.631345
637.444762	38055.284736
637.789829	38190.105355
638.134845	37841.055862
638.479808	37788.201885
638.824719	37679.262550
639.169577	37258.116996
639.514383	37318.709145
639.859137	37007.987545
640.203839	37246.872703
640.548489	36857.937601
640.893086	36928.183559
641.237632	36649.944635
641.582125	36763.973014
641.926566	36696.787036
642.270955	36642.292163
642.615292	36651.280540
642.959576	36629.633826
643.303809	36602.429239
643.647990	36740.750939
643.992118	36693.966511
644.336195	36687.208844
644.680219	36747.541373
645.024192	37043.343678
645.368112	37547.370842
645.711981	37517.207098
646.055797	38396.868280
646.399562	38313.517842
646.743274	39250.887632
647.086935	39696.697032
647.430544	39575.043907
647.774101	39692.631341
648.117606	39922.157596
648.461059	40255.587073
648.804460	39872.875276
649.147810	39237.969676
649.491108	39001.912606
649.834354	38616.297104
650.177548	37758.199458
650.520690	37310.557599
650.863781	37326.641401
651.206820	37154.801069
651.549807	36707.260033
651.892742	36209.758642
652.235626	35992.462227
652.578458	35839.548907
652.921238	35214.097990
653.263967	35540.353906
653.606644	35188.625040
653.949269	35137.721989
654.291843	34725.673197
654.634365	35110.318277
654.976836	34687.985531
655.319255	34663.707334
655.661622	34659.339174
656.003938	34430.972384
656.346203	34271.944145
656.688416	34472.929908
657.030577	34275.873725
657.372687	34113.790546
657.714746	34381.596803
658.056753	34491.829194
658.398708	33916.326029
658.740612	33938.618012
659.082465	34223.912031
659.424266	34022.127246
659.766016	34127.658760
660.107715	34006.285420
660.449362	34120.795229
660.790958	34096.708596
661.132503	34090.676856
661.473996	34115.587717
661.815438	34209.769074
662.156829	34418.354376
662.498168	34169.495296
662.839456	34163.813916
663.180693	34302.745595
663.521879	34448.850837
663.863013	34395.076848
664.204097	34385.410436
664.545129	34823.481664
664.886110	34761.611583
665.227040	34822.236499
665.567918	34915.281076
665.908746	34966.186647
666.249522	35118.515193
666.590248	35094.365545
666.930922	35211.358123
667.271545	35171.366650
667.612118	35228.097275
667.952639	35001.530177
668.293109	35051.745110
668.633528	34940.905261
668.973896	34871.067636
669.314213	34876.645672
669.654480	34607.432934
669.994695	34641.117924
670.334859	34491.957743
670.674973	34386.244747
671.015035	34531.838311
671.355047	34467.548476
671.695008	34408.813993
672.034918	34283.468223
672.374777	34324.130170
672.714585	34140.271727
673.054342	34351.652349
673.394049	34082.253088
673.733705	34368.550297
674.073310	34032.176786
674.412864	34105.956593
674.752368	33691.024261
675.091820	33985.780527
675.431223	33574.659307
675.770574	33270.919705
676.109875	33114.893473
676.449125	32836.541123
676.788324	32743.418408
677.127473	32188.468028
677.466571	32130.088946
677.805619	31761.570518
678.144616	31744.092837
678.483562	31646.531387
678.822458	31311.735757
679.161303	31226.837685
679.500098	31122.463115
679.838842	30992.471922
680.177535	31130.612140
680.516179	31346.930573
680.854771	31565.635991
681.193314	32382.970867
681.531805	33436.191414
681.870247	34152.062986
682.208638	34840.205692
682.546978	35062.875978
682.885268	35157.596738
683.223508	34644.876104
683.561697	34321.957433
683.899836	34099.617342
684.237925	33604.447485
684.575963	33432.864252
684.913951	32939.292441
685.251889	33074.735642
685.589776	33018.662888
685.927614	32980.634943
686.265401	33085.483382
686.603137	33129.054074
686.940824	33576.287600
687.278460	33908.925616
687.616046	34001.982795
687.953582	34562.276798
688.291068	34418.341773
688.628504	34702.178900
688.965889	34635.413858
689.303224	34260.732619
689.640510	33948.576811
689.977745	33245.320726
690.314930	32478.752790
690.652065	31994.101300
690.989150	31292.009722
691.326185	30420.573183
691.663170	29735.724871
692.000105	28988.207455
692.336990	28320.594849
692.673825	27852.715278
693.010610	27330.963417
693.347345	26756.236590
693.684030	26102.721570
694.020665	25813.288763
694.357251	25148.037937
694.693786	25100.439362
695.030272	24839.027809
695.366707	24297.489419
695.703093	23989.290917
696.039429	23960.120280
696.375716	23689.939640
696.711952	23632.583912
697.048139	23457.471871
697.384276	23261.542386
697.720363	23371.406772
698.056400	23163.633096
698.392388	22944.186628
698.728326	22895.637796
699.064214	22688.635416
699.400053	22623.065128
699.735842	22288.211525
700.071581	21993.311586
700.407270	21712.355480
700.742910	21539.083460
701.078501	21272.058582
701.414042	20978.308027
701.749533	20681.691576
702.084974	20341.317909
702.420366	20531.145078
702.755709	20099.256825
703.091002	19803.963677
703.426246	19812.594132
703.761440	19694.926040
704.096584	19419.941180
704.431679	19373.945692
704.766725	19263.675493
705.101721	19184.378143
705.436668	19265.273538
705.771565	18926.926416
706.106413	19249.590509
706.441212	19218.335355
706.775961	19316.824378
707.110661	19373.313027
707.445311	19681.962712
707.779913	19500.201390
708.114465	19701.209838
708.448967	19950.184865
708.783421	20588.873851
709.117825	20819.504119
709.452180	20982.121660
709.786485	21325.257879
710.120742	22056.242830
710.454949	22026.684025
710.789107	22439.995626
711.123216	23073.310742
711.457275	23168.989322
711.791286	23677.792979
712.125247	23726.351894
712.459159	23446.315798
712.793023	24093.453758
713.126837	23047.575652
713.460602	23314.046003
713.794318	22976.329025
714.127985	22620.131176
714.461602	21796.494858
714.795171	21753.881984
715.128691	20814.531021
715.462162	20305.505552
715.795584	19912.504760
716.128957	19661.069650
716.462281	19277.563872
716.795556	19042.008396
717.128782	18560.391681
717.461960	18036.101599
717.795088	17952.088250
718.128167	17545.496507
718.461198	17106.449815
718.794180	16960.301724
719.127113	16621.810929
719.459997	16426.035198
719.792833	16095.988336
720.125619	16056.596759
720.458357	15751.967394
720.791046	15582.317444
721.123686	15426.021510
721.456278	15192.490058
721.788821	15137.664989
722.121315	14878.196801
722.453761	14941.627119
722.786158	14856.504716
723.118506	14846.924003
723.450805	14721.757194
723.783056	14845.356204
724.115259	14742.809053
724.447412	14653.779755
724.779518	14868.532909
725.111574	14877.385175
725.443582	15036.345359
725.775542	14996.482435
726.107453	15416.145890
726.439315	15286.568071
726.771129	15627.748322
727.102895	15942.767506
727.434612	16100.265755
727.766281	16216.237499
728.097901	16434.209429
728.429473	16457.217256
728.760996	16439.656396
729.092471	16513.521903
729.423897	16409.411994
729.755276	16294.627441
730.086606	16369.115530
730.417887	16811.716235
730.749120	17236.425885
731.080305	17382.939460
731.411442	17685.058330
731.742530	17750.036283
732.073570	17838.306887
732.404562	18116.240822
732.735506	17937.612576
733.066401	17678.464501
733.397249	17206.010083
733.728048	16639.699463
734.058798	15914.411015
734.389501	15300.958045
734.720156	14873.243867
735.050762	14398.921702
735.381320	14063.458119
735.711831	13832.444724
736.042293	13504.101771
736.372707	13492.960821
736.703073	13280.113223
737.033391	13435.400926
737.363661	13376.048901
737.693883	13454.118730
738.024056	13569.293972
738.354182	13709.304459
738.684260	13940.290128
739.014290	14117.693373
739.344272	14259.443057
739.674207	14496.515920
740.004093	14585.222583
740.333931	14586.797944
740.663722	14624.583913
740.993464	14614.282315
741.323159	14470.241426
741.652806	14230.375764
741.982405	14043.061611
742.311956	13749.129574
742.641460	13648.588802
742.970915	13369.490360
743.300323	13073.562027
743.629683	12886.257955
743.958996	12620.395063
744.288260	12367.679500
744.617477	12103.006321
744.946647	12023.252746
745.275768	11784.730552
745.604842	11623.953032
745.933869	11457.748711
746.262847	11405.547562
746.591778	11349.621002
746.920662	11240.916081
747.249498	11226.354708
747.578286	11309.866463
747.907027	11420.126579
748.235720	11589.756365
748.564365	11608.905188
748.892963	11509.518840
749.221514	11549.139789
749.550017	11420.658421
749.878473	11380.674509
750.206881	11193.940089
750.535242	11101.656726
750.863555	11031.060408
751.191821	10930.960737
751.520039	10939.692015
751.848210	10852.906031
752.176334	10872.455626
752.504411	10782.821390
752.832440	10638.263783
753.160421	10685.358242
753.488356	10573.686602
753.816243	10482.497170
754.144082	10355.046718
754.471875	10296.803747
754.799620	10244.582435
755.127318	10217.720646
755.454969	10168.919757
755.782572	10128.507347
756.110129	10129.117326
756.437638	10048.153875
756.765100	10035.646772
757.092515	10024.830977
757.419882	10036.070229
757.747203	10034.111741
758.074477	10080.129914
758.401703	10039.616681
758.728882	10164.571761
759.056014	10190.879023
759.383099	10283.810173
759.710138	10355.225679
760.037129	10410.385985
760.364073	10426.426936
760.690970	10408.054451
761.017820	10401.705118
761.344623	10556.312265
761.671379	10807.621346
761.998088	11305.374794
762.324751	12578.208167
762.651366	14915.282049
762.977935	17863.416874
763.304456	19687.102169
763.630931	20097.759602
763.957359	19169.327778
764.283740	17607.721989
764.610074	16068.662761
764.936362	14359.920815
765.262602	13110.969909
765.588796	11867.085362
765.914943	11018.898624
766.241044	10315.929885
766.567097	9776.954922
766.893104	9309.748345
767.219064	8999.120007
767.544978	8677.814504
767.870845	8406.086230
768.196665	8242.105057
768.522438	8073.312103
768.848165	7936.318747
769.173846	7788.933052
769.499479	7682.042947
769.825066	7543.822070
770.150607	7389.872793
770.476101	7331.108063
770.801548	7241.224290
771.126949	7121.723738
771.452303	7042.139042
771.777611	6902.050418
772.102872	6881.653910
772.428087	6781.468539
772.753256	6677.837539
773.078378	6603.732578
773.403453	6483.611964
773.728482	6394.917903
774.053465	6344.551735
774.378401	6265.801350
774.703291	6181.828330
775.028135	6098.026709
775.352932	6067.048818
775.677683	5998.108519
776.002388	5921.442651
776.327046	5919.103556
776.651658	5843.554304
776.976224	5777.184993
777.300743	5762.933651
777.625216	5703.339651
777.949643	5665.962016
778.274024	5664.003527
778.598359	5607.542604
778.922647	5598.972643
779.246889	5569.698662
779.571086	5573.018262
779.895236	5579.874231
780.219339	5567.750256
780.543397	5560.740532
780.867409	5598.282005
781.191374	5594.395275
781.515294	5564.413012
781.839167	5601.972129
782.162995	5575.619497
782.486776	5538.957706
782.810511	5500.765925
783.134201	5432.667498
783.457844	5429.143731
783.781441	5387.902052
784.104993	5353.967525
784.428498	5326.856199
784.751958	5312.287265
785.075372	5292.238596
785.398739	5254.240899
785.722061	5269.981902
786.045337	5265.528042
786.368568	5344.817830
786.691752	5357.539182
787.014891	5549.682761
787.337983	5760.408033
787.661030	6091.470688
787.984031	6417.164515
788.306987	6606.192661
788.629897	6661.504201
788.952760	6598.693944
789.275579	6458.355783
789.598351	6232.007975
789.921078	6030.288725
790.243759	5815.041538
790.566395	5650.904089
790.888984	5500.269371
791.211529	5393.543103
791.534027	5267.070635
791.856480	5156.573584
792.178888	5109.516933
792.501249	5052.312440
792.823566	4966.499399
793.145836	4958.451197
793.468062	4942.682468
793.790241	4907.263321
794.112375	4934.094862
794.434464	5005.933825
794.756507	5027.033574
795.078505	5112.445844
795.400457	5271.680770
795.722364	5449.446978
796.044226	5589.936374
796.366042	5710.704777
796.687812	5670.234393
797.009538	5685.085633
797.331218	5616.442761
797.652852	5564.385286
797.974442	5469.034382
798.295986	5407.386111
798.617484	5312.267100
798.938938	5229.940017
799.260346	5178.921019
799.581709	5069.969082
799.903026	5030.786713
800.224299	4975.621367
800.545526	4889.924272
800.866708	4831.005786
801.187845	4798.812978
801.508936	4737.142022
801.829983	4712.503383
802.150984	4633.616887
802.471940	4612.572590
802.792851	4592.450825
803.113717	4579.391716
803.434538	4556.814908
803.755314	4534.613667
804.076045	4517.546840
804.396731	4491.463910
804.717372	4494.299559
805.037967	4500.230477
805.358518	4515.875698
805.679024	4557.757604
805.999485	4560.099220
806.319901	4576.157815
806.640272	4580.599072
806.960598	4615.798929
807.280879	4611.440851
807.601115	4632.810302
807.921306	4604.247125
808.241453	4602.074387
808.561554	4602.860807
808.881611	4577.655038
809.201623	4579.245522
809.521590	4542.490469
809.841513	4525.461452
810.161390	4541.159605
810.481223	4467.079849
810.801011	4462.565496
811.120755	4439.371147
811.440453	4400.037544
811.760107	4377.218761
812.079716	4355.567005
812.399281	4319.802539
812.718801	4311.824913
813.038276	4282.848361
813.357707	4258.968415
813.677093	4272.851753
813.996434	4226.231162
814.315731	4240.921085
814.634983	4233.490424
814.954191	4236.260538
815.273354	4276.602372
815.592473	4306.118327
815.911547	4354.634392
816.230577	4392.218714
816.549562	4456.327068
816.868502	4495.315352
817.187399	4528.266854
817.506250	4583.865740
817.825058	4602.480200
818.143821	4707.810069
818.462539	4822.478675
818.781213	4981.073375
819.099843	5234.804730
819.418429	5676.944169
819.736970	6103.506443
820.055466	6595.477688
820.373919	7236.135245
820.692327	8275.593442
821.010691	10236.088090
821.329011	14874.695720
821.647286	22299.029841
821.965517	30420.285837
822.283704	34693.054411
822.601847	35621.206452
822.919945	31771.042846
823.237999	27684.189505
823.556010	23706.361198
823.873976	20187.560196
824.191897	17048.413532
824.509775	14788.736485
824.827609	12774.208229
825.145398	11589.605131
825.463144	11011.694815
825.780845	11203.649351
826.098502	12086.491501
826.416116	13787.243218
826.733685	15314.622092
827.051210	15599.563231
827.368692	14558.688470
827.686129	12779.758539
828.003522	11077.507079
828.320872	9559.144308
828.638177	8415.298938
828.955439	7534.480812
829.272656	6791.926412
829.589830	6207.137443
829.906960	5694.648702
830.224046	5314.402029
830.541088	5032.611611
830.858086	4842.426520
831.175041	4695.512174
831.491952	4648.916789
831.808819	4663.780631
832.125642	4823.905321
832.442421	5196.565058
832.759157	5954.386592
833.075849	7158.821589
833.392497	8409.965398
833.709101	9156.265375
834.025662	8970.841654
834.342179	8245.938854
834.658653	7355.260231
834.975083	6610.828002
835.291469	6004.276371
835.607811	5509.840002
835.924110	5148.306092
836.240366	4816.532634
836.556578	4512.024256
836.872746	4267.813120
837.188871	4081.855037
837.504952	3934.043365
837.820990	3819.314265
838.136984	3738.038262
838.452935	3703.224054
838.768842	3723.872620
839.084706	3915.060900
839.400526	4421.064197
839.716303	5019.053428
840.032037	5395.350357
840.347727	5285.808604
840.663373	4881.369434
840.978977	4497.921628
841.294537	4201.431206
841.610054	3983.814677
841.925527	3822.064214
842.240957	3682.726722
842.556344	3552.501115
842.871687	3447.904735
843.186987	3346.955629
843.502244	3266.844133
843.817458	3205.669731
844.132629	3159.533091
844.447756	3126.238790
844.762840	3092.921804
845.077881	3064.078843
845.392879	3043.223589
845.707833	3026.731454
846.022745	3008.427025
846.337613	3000.782115
846.652438	2984.542038
846.967221	2976.282107
847.281960	2963.860704
847.596656	2959.505147
847.911309	2947.257664
848.225919	2938.423042
848.540485	2933.011363
848.855009	2929.490117
849.169490	2917.537542
849.483928	2914.661563
849.798323	2908.266860
850.112675	2901.612537
850.426984	2903.376940
850.741251	2898.252608
851.055474	2891.603326
851.369654	2897.738410
851.683792	2892.248593
851.997887	2894.539798
852.311938	2893.161042
852.625947	2894.565003
852.939914	2891.593243
853.253837	2891.817575
853.567718	2893.299674
853.881555	2884.167624
854.195350	2888.082080
854.509103	2885.700134
854.822812	2885.811040
855.136479	2880.540513
855.450103	2884.283570
855.763685	2878.017416
856.077224	2877.278887
856.390720	2880.716954
856.704173	2888.923952
857.017584	2890.774056
857.330953	2895.651372
857.644278	2901.373082
857.957561	2900.626991
858.270802	2900.637073
858.584000	2898.199675
858.897155	2896.200858
859.210268	2890.199364
859.523339	2881.178219
859.836367	2877.190667
860.149352	2874.942312
860.462295	2873.099770
860.775195	2865.280941
861.088054	2859.347503
861.400869	2863.640045
861.713642	2858.646782
862.026373	2867.080633
862.339062	2867.357896
862.651708	2874.949874
862.964312	2883.494630
863.276873	2886.930176
863.589392	2909.449010
863.901869	2925.573141
864.214303	2938.733073
864.526696	2952.056843
864.839045	2959.043882
865.151353	2966.945890
865.463619	2966.656024
865.775842	2970.772126
866.088023	2969.186683
866.400162	2966.015798
866.712258	2967.495376
867.024313	2963.853143
867.336325	2962.940694
867.648296	2965.148719
867.960224	2963.938842
868.272110	2963.172587
868.583954	2964.460602
868.895755	2966.940849
869.207515	2962.703759
869.519233	2978.333857
869.830909	2980.677993
870.142542	2985.923314
870.454134	2986.518170
870.765684	2996.905468
871.077191	3010.491377
871.388657	3015.114115
871.700081	3028.137936
872.011463	3042.162426
872.322803	3052.771535
872.634101	3065.119841
872.945357	3078.312541
873.256571	3095.142433
873.567744	3104.090481
873.878874	3108.556943
874.189963	3116.864765
874.501010	3118.949282
874.812015	3113.472068
875.122979	3123.448512
875.433900	3120.658233
875.744780	3121.691669
876.055618	3127.869603
876.366415	3124.854993
876.677169	3128.777011
876.987882	3133.898823
877.298554	3150.905156
877.609183	3168.440810
877.919771	3198.836447
878.230317	3238.737179
878.540822	3305.048517
878.851285	3394.236611
879.161707	3529.987322
879.472087	3761.703959
879.782425	4157.636182
880.092722	4942.821099
880.402977	6307.514378
880.713191	8076.329233
881.023363	9836.057409
881.333494	10815.939250
881.643583	11083.012019
881.953631	10686.822697
882.263637	10010.995530
882.573602	9262.104400
882.883526	8574.095285
883.193408	7907.989983
883.503248	7274.422809
883.813048	6707.850048
884.122806	6194.758889
884.432522	5678.234705
884.742197	5223.575560
885.051831	4839.689174
885.361424	4505.851363
885.670975	4242.110797
885.980485	4029.301008
886.289954	3854.806509
886.599382	3716.154613
886.908768	3598.451233
887.218113	3495.886437
887.527417	3410.574991
887.836680	3330.171107
888.145901	3269.324380
888.455082	3220.629355
888.764221	3178.165195
889.073319	3137.924185
889.382376	3117.169754
889.691392	3103.571242
890.000366	3097.630242
890.309300	3092.667226
890.618193	3095.041610
890.927044	3094.028338
891.235855	3099.112341
891.544625	3107.067282
891.853353	3123.854324
892.162041	3161.184069
892.470687	3217.226576
892.779293	3287.893471
893.087858	3397.833474
893.396381	3569.930905
893.704864	3836.471832
894.013306	4189.960060
894.321707	4541.076426
894.630068	4747.315071
894.938387	4757.581381
895.246665	4642.075943
895.554903	4443.938432
895.863100	4235.736258
896.171256	4071.699632
896.479371	3924.608845
896.787446	3789.425264
897.095480	3667.562931
897.403473	3577.938778
897.711425	3489.464007
898.019336	3414.013058
898.327207	3338.052951
898.635038	3276.944084
898.942827	3217.839076
899.250576	3161.206754
899.558284	3112.156327
899.865952	3082.012747
900.173579	3041.020605
900.481165	3013.112777
900.788711	2987.539004
901.096216	2968.102835
901.403681	2952.727316
901.711105	2942.377827
902.018489	2936.759461
902.325832	2961.924901
902.633135	2995.816578
902.940397	3099.356837
903.247619	3355.654140
903.554800	3844.426773
903.861941	4460.838901
904.169041	4906.585285
904.476101	5031.169841
904.783121	4838.610367
905.090100	4580.833486
905.397039	4318.136438
905.703938	4094.165534
906.010796	3895.024834
906.317614	3735.351327
906.624391	3590.246755
906.931129	3466.473825
907.237826	3355.089531
907.544483	3248.517018
907.851099	3138.377889
908.157675	3041.915410
908.464211	2952.838221
908.770707	2889.027296
909.077163	2842.527693
909.383578	2804.628298
909.689954	2776.637292
909.996289	2760.228336
910.302584	2748.016141
910.608839	2740.187229
910.915054	2731.841598
911.221229	2727.415465
911.527363	2732.050806
911.833458	2735.998030
912.139513	2745.540934
912.445527	2750.077972
912.751502	2770.698812
913.057436	2794.515744
913.363331	2831.913543
913.669186	2883.376163
913.975000	2955.152111
914.280775	3069.654359
914.586510	3235.294071
914.892205	3469.858960
915.197859	3781.535858
915.503475	4144.312412
915.809050	4438.620015
916.114585	4609.394143
916.420081	4644.563752
916.725536	4597.111371
917.030952	4442.416004
917.336328	4314.247188
917.641665	4183.991334
917.946961	4046.829100
918.252218	3924.669339
918.557435	3790.667908
918.862612	3673.163653
919.167750	3566.243301
919.472848	3448.822225
919.777906	3346.403623
920.082925	3248.975763
920.387904	3157.367915
920.692843	3089.531628
920.997743	3029.249511
921.302603	2976.942498
921.607423	2935.968000
921.912204	2895.744633
922.216946	2866.710108
922.521647	2835.757423
922.826310	2813.583908
923.130932	2789.706483
923.435516	2764.551125
923.740059	2753.710124
924.044564	2731.534088
924.349028	2717.139073
924.653454	2697.584437
924.957840	2686.110771
925.262186	2673.447393
925.566493	2660.867193
925.870761	2645.602580
926.174989	2641.549492
926.479178	2632.341824
926.783328	2618.907149
927.087438	2616.273147
927.391509	2608.202259
927.695541	2598.102307
927.999533	2594.633994
928.303486	2585.295256
928.607400	2582.331058
928.911275	2583.321644
929.215110	2575.649008
929.518906	2575.454924
929.822663	2573.453586
930.126381	2574.053483
930.430060	2576.357290
930.733699	2577.851993
931.037299	2578.424163
931.340861	2576.379976
931.644383	2577.630182
931.947866	2577.632702
932.251309	2575.815366
932.554714	2577.342836
932.858080	2575.553226
933.161407	2570.784295
933.464694	2572.019377
933.767943	2570.489387
934.071153	2564.245918
934.374323	2565.629715
934.677455	2563.555280
934.980548	2557.357182
935.283602	2557.853735
935.586617	2555.118909
935.889593	2559.023283
936.192530	2559.242573
936.495428	2560.278530
936.798287	2567.810014
937.101108	2575.444842
937.403890	2585.973291
937.706632	2601.779829
938.009336	2621.377315
938.312002	2639.694347
938.614628	2653.134063
938.917216	2664.869870
939.219765	2670.203410
939.522275	2672.918072
939.824747	2674.584173
940.127179	2668.262566
940.429573	2663.138233
940.731929	2665.711742
941.034246	2658.510454
941.336524	2660.708397
941.638763	2657.391318
941.940964	2652.677839
942.243126	2643.765079
942.545250	2640.054790
942.847335	2629.750671
943.149381	2623.469394
943.451389	2615.330451
943.753359	2609.245778
944.055290	2603.821497
944.357182	2597.830085
944.659036	2595.869076
944.960851	2593.242635
945.262628	2587.911615
945.564367	2591.115268
945.866067	2587.835998
946.167729	2584.435739
946.469352	2586.963878
946.770937	2585.229721
947.072484	2580.692683
947.373992	2580.692683
947.675462	2578.683783
947.976893	2577.970460
948.278286	2576.289235
948.579641	2571.507700
948.880958	2569.007288
949.182236	2568.810683
949.483476	2569.224058
949.784678	2566.022925
950.085841	2565.082750
950.386967	2569.836558
950.688054	2570.829665
950.989103	2578.245202
951.290114	2579.802919
951.591087	2587.687284
951.892021	2592.577203
952.192917	2602.541043
952.493776	2609.621344
952.794596	2611.330295
953.095378	2612.651077
953.396122	2610.894235
953.696828	2609.762496
953.997496	2609.699482
954.298126	2600.053234
954.598718	2599.042483
954.899272	2590.817840
955.199788	2585.544793
955.500266	2581.554720
955.800706	2567.109294
956.101108	2555.078580
956.401472	2550.939793
956.701798	2541.958977
957.002087	2535.894469
957.302337	2528.226874
957.602550	2526.580937
957.902724	2517.305214
958.202861	2513.040398
958.502960	2507.399347
958.803022	2508.450427
959.103045	2502.272493
959.403031	2498.289982
959.702979	2495.025835
960.002889	2491.209681
960.302762	2490.264465
960.602596	2483.713486
960.902393	2485.548466
961.202153	2484.283136
961.501875	2481.702065
961.801559	2480.968577
962.101205	2477.797692
962.400814	2477.308700
962.700385	2474.437762
962.999918	2475.095633
963.299414	2473.326188
963.598873	2473.616054
963.898293	2472.501959
964.197677	2472.164202
964.497022	2471.085395
964.796331	2470.364510
965.095601	2468.940384
965.394835	2468.438789
965.694030	2466.591207
965.993189	2469.671352
966.292309	2468.416104
966.591393	2466.976855
966.890439	2467.740590
967.189447	2466.036680
967.488419	2464.841926
967.787353	2466.553398
968.086249	2466.838223
968.385108	2468.630353
968.683930	2466.497945
968.982714	2467.077678
969.281462	2468.423666
969.580172	2471.264356
969.878844	2469.252936
970.177480	2471.516414
970.476078	2474.417598
970.774639	2475.934985
971.073162	2479.395737
971.371649	2477.591004
971.670098	2476.111426
971.968510	2477.762403
972.266885	2477.013792
972.565223	2479.698207
972.863524	2483.128712
973.161788	2484.303301
973.460014	2483.322796
973.758204	2483.519401
974.056356	2483.708444
974.354471	2483.864720
974.652550	2483.196767
974.950591	2484.751963
975.248595	2485.334217
975.546563	2483.698362
975.844493	2480.116622
976.142386	2481.238279
976.440243	2482.160810
976.738062	2481.152579
977.035845	2472.486836
977.333590	2476.509677
977.631299	2476.018164
977.928971	2472.552371
978.226606	2471.062710
978.524204	2470.805611
978.821765	2469.235292
979.119290	2470.293934
979.416777	2472.627988
979.714228	2470.452730
980.011642	2470.901393
980.309020	2475.153606
980.606360	2476.320633
980.903664	2480.502271
981.200931	2488.026193
981.498162	2499.580517
981.795356	2516.037364
982.092513	2537.885725
982.389633	2566.489232
982.686717	2592.098293
982.983764	2613.258537
983.280775	2626.604991
983.577749	2625.725310
983.874686	2620.074177
984.171587	2606.667228
984.468451	2597.903182
984.765279	2589.739033
985.062070	2575.359142
985.358824	2565.216340
985.655543	2551.007848
985.952224	2536.605272
986.248869	2521.259999
986.545478	2503.661331
986.842050	2492.240597
987.138586	2479.773824
987.435086	2474.362145
987.731549	2464.920064
988.027975	2467.453244
988.324366	2460.264558
988.620719	2456.859259
988.917037	2457.020576
989.213318	2456.075360
989.509563	2454.247941
989.805772	2454.462190
990.101944	2452.125616
990.398080	2453.600153
990.694180	2448.881633
990.990244	2451.281222
991.286271	2450.824998
991.582262	2453.022941
991.878217	2452.722992
992.174136	2452.420523
992.470019	2453.703497
992.765865	2455.306584
993.061676	2455.540997
993.357450	2458.023766
993.653188	2457.428909
993.948890	2462.563325
994.244556	2465.852678
994.540186	2469.091619
994.835780	2476.030767
995.131337	2485.001500
995.426859	2491.537356
995.722345	2507.928668
996.017795	2514.421674
996.313208	2521.562469
996.608586	2528.534384
996.903928	2528.746113
997.199234	2527.891637
997.494504	2527.168232
997.789738	2522.696728
998.084936	2515.997035
998.380099	2509.723319
998.675225	2503.343739
998.970316	2499.197390
999.265371	2489.888899
999.560390	2482.017137
999.855373	2477.197794
1000.150320	2470.724953
1000.445232	2463.385033
1000.740108	2461.368571
1001.034948	2457.045782
1001.329752	2454.973868
1001.624521	2451.384566
1001.919254	2445.718309
1002.213951	2445.919955
1002.508613	2439.283276
1002.803239	2444.712599
1003.097829	2441.498863
1003.392384	2443.333843
1003.686903	2441.171188
1003.981386	2442.171857
1004.275834	2441.355190
1004.570246	2443.908535
1004.864623	2438.459048
1005.158964	2442.368462
1005.453270	2439.915941
1005.747540	2442.068514
1006.041775	2439.915941
1006.335974	2439.666404
1006.630138	2438.035591
1006.924266	2439.338729
1007.218359	2437.039963
1007.512416	2437.496187
1007.806438	2437.581887
1008.100425	2435.177256
1008.394376	2437.700354
1008.688292	2437.811259
1008.982172	2437.123142
1009.276017	2435.026022
1009.569827	2435.623398
1009.863602	2437.783533
1010.157341	2433.916968
1010.451045	2437.400405
1010.744714	2436.583738
1011.038347	2435.401588
1011.331945	2434.325301
1011.625508	2436.621547
1011.919036	2435.567946
1012.212528	2436.319078
1012.505986	2435.444437
1012.799408	2435.741866
1013.092795	2433.652307
1013.386147	2433.458223
1013.679464	2433.526278
1013.972745	2434.277410
1014.265992	2434.491659
1014.559204	2434.809252
1014.852380	2430.841864
1015.145521	2435.368820
1015.438628	2433.490990
1015.731699	2432.732297
1016.024736	2432.563418
1016.317737	2433.269180
1016.610703	2436.112390
1016.903635	2431.950918
1017.196531	2431.787080
1017.489393	2432.152564
1017.782219	2430.985537
1018.075011	2434.219437
1018.367768	2431.434200
1018.660490	2436.195569
1018.953177	2436.195569
1019.245829	2436.195569
