Dividing Wavelength (nm)	Counts (n)	Blue Motor Position (mm): 0.000000	Red Motor Position (mm): 17.200000	
326.493990	1981.372587
326.888308	1981.372587
327.282561	1981.372587
327.676750	1956.008022
328.070874	1961.298712
328.464933	1965.157716
328.858929	1973.669704
329.252859	1988.228556
329.646726	2000.501245
330.040528	2016.527073
330.434265	2037.034487
330.827938	2055.850594
331.221547	2074.346588
331.615091	2093.243353
332.008571	2116.823350
332.401986	2135.054683
332.795338	2158.531336
333.188625	2175.391475
333.581847	2193.872345
333.975006	2216.497044
334.368100	2233.382388
334.761129	2246.970819
335.154095	2264.105701
335.546996	2279.753442
335.939833	2298.040228
336.332606	2311.094296
336.725315	2319.926397
337.117960	2328.004846
337.510540	2333.421566
337.903056	2344.791888
338.295508	2348.935717
338.687896	2357.750174
339.080220	2366.617564
339.472480	2370.529499
339.864676	2374.189377
340.256807	2378.633154
340.648875	2379.495192
341.040879	2383.535676
341.432818	2381.249513
341.824694	2383.185316
342.216506	2382.124153
342.608253	2378.948226
342.999937	2384.417878
343.391557	2381.365460
343.783113	2381.567106
344.174605	2376.800695
344.566033	2375.273225
344.957397	2376.611652
345.348697	2371.767103
345.739934	2370.219468
346.131106	2366.867101
346.522215	2369.062524
346.913260	2367.628315
347.304241	2364.528006
347.695159	2363.749148
348.086012	2361.899044
348.476802	2360.409383
348.867528	2359.287726
349.258191	2357.624146
349.648789	2356.573065
350.039324	2358.655062
350.429796	2356.784793
350.820203	2352.383866
351.210548	2356.615915
351.600828	2350.032168
351.991045	2355.385873
352.381198	2353.122395
352.771288	2351.572240
353.161314	2352.537621
353.551276	2353.765142
353.941175	2353.898733
354.331010	2352.295646
354.720782	2354.768332
355.110490	2353.268589
355.500135	2355.907633
355.889717	2356.860411
356.279235	2354.425533
356.668689	2355.098528
357.058080	2357.601460
357.447408	2353.573578
357.836672	2350.221211
358.225873	2353.245903
358.615010	2352.588033
359.004084	2360.759743
359.393095	2358.750843
359.782043	2359.398632
360.170927	2362.458612
360.559748	2362.690505
360.948505	2365.223685
361.337199	2362.665299
361.725830	2364.603623
362.114398	2364.656555
362.502903	2364.127234
362.891344	2363.817203
363.279722	2366.761237
363.668037	2368.248377
364.056289	2366.889786
364.444478	2368.611340
364.832603	2369.027236
365.220665	2369.228882
365.608665	2369.785929
365.996601	2371.746938
366.384474	2371.870446
366.772284	2373.410519
367.160031	2373.816332
367.547715	2372.994624
367.935336	2373.561753
368.322893	2374.328009
368.710388	2375.381610
369.097820	2381.186499
369.485189	2379.764893
369.872495	2381.773793
370.259738	2381.766231
370.646918	2385.985677
371.034035	2387.072046
371.421090	2389.476676
371.808081	2393.204609
372.195010	2398.296175
372.581875	2401.683830
372.968678	2406.838410
373.355418	2413.696900
373.742096	2425.828437
374.128710	2436.903852
374.515262	2442.280242
374.901751	2460.647686
375.288177	2477.928762
375.674540	2493.972234
376.060841	2517.416120
376.447079	2539.753472
376.833254	2567.194993
377.219367	2588.514033
377.605417	2623.645834
377.991404	2649.073414
378.377329	2693.664940
378.763191	2723.024620
379.148991	2768.415170
379.534727	2817.395020
379.920402	2860.847246
380.306013	2912.047725
380.691563	2973.456541
381.077049	3026.398738
381.462474	3084.266143
381.847835	3157.652740
382.233134	3225.126064
382.618371	3281.902059
383.003545	3370.596120
383.388657	3449.812812
383.773706	3536.354300
384.158693	3610.686113
384.543618	3706.901575
384.928480	3780.814973
385.313280	3883.543606
385.698017	3989.249041
386.082692	4102.604426
386.467305	4164.033406
386.851856	4287.806336
387.236344	4440.336528
387.620770	4504.202906
388.005133	4623.363180
388.389435	4767.673771
388.773674	4850.331050
389.157851	4982.704188
389.541965	5116.887100
389.926018	5134.599194
390.310008	5312.244415
390.693936	5431.797899
391.077802	5545.236463
391.461606	5680.195713
391.845348	5792.379031
392.229027	5909.361526
392.612645	6136.006762
392.996200	6244.436940
393.379694	6420.988230
393.763125	6635.383462
394.146494	6732.055149
394.529801	6862.449634
394.913047	7099.900583
395.296230	7093.720128
395.679351	7147.010166
396.062410	7403.269660
396.445408	7303.802653
396.828343	7448.451001
397.211217	7579.533604
397.594028	7466.263918
397.976778	7663.342787
398.359466	7824.584092
398.742092	7801.956873
399.124656	7944.873585
399.507158	8129.636915
399.889598	8151.704566
400.271977	8356.188889
400.654294	8388.422027
401.036549	8578.813805
401.418742	8605.615099
401.800874	8902.662569
402.182944	8970.571952
402.564952	9332.630142
402.946898	9160.641096
403.328783	9213.621103
403.710606	9407.496318
404.092367	9652.970263
404.474067	10005.861115
404.855705	9799.990474
405.237282	9758.741233
405.618797	10174.762454
406.000250	10414.928064
406.381642	10767.241704
406.762972	10713.127438
407.144240	10509.588331
407.525447	10754.376679
407.906593	10691.770589
408.287677	10939.266038
408.668700	11085.767009
409.049661	11048.699405
409.430560	11201.259844
409.811399	11156.093626
410.192176	11297.404730
410.572891	11361.349246
410.953545	11808.575210
411.334138	11283.032401
411.714669	11835.973881
412.095139	11144.720783
412.475547	11604.489137
412.855894	11429.256109
413.236180	11712.405118
413.616405	11373.470701
413.996568	11596.289701
414.376670	11528.955009
414.756711	11365.994669
415.136691	11581.874521
415.516609	11686.864112
415.896466	11688.903258
416.276262	11881.366951
416.655997	12200.782020
417.035670	12166.532421
417.415283	12670.597394
417.794834	12658.579283
418.174324	12326.823469
418.553753	12143.091055
418.933121	12471.302938
419.312428	12199.410826
419.691674	12023.484639
420.070859	12289.138323
420.449983	11886.924823
420.829045	12217.541336
421.208047	11894.605021
421.586988	12122.780247
421.965867	12184.829289
422.344686	12047.173021
422.723444	12320.753920
423.102141	11210.543129
423.480777	11923.894124
423.859352	11427.695872
424.237866	12047.236036
424.616319	11683.809173
424.994712	11950.808845
425.373044	11647.535550
425.751314	11907.399469
426.129524	11183.144458
426.507673	11672.300218
426.885762	11310.317646
427.263789	11228.804709
427.641756	11143.301698
428.019662	10988.571043
428.397508	10818.913531
428.775292	10784.948757
429.153016	10578.183311
429.530679	10419.633981
429.908282	10234.358975
430.285824	9907.707329
430.663305	10040.776146
431.040726	9664.222119
431.418086	9397.923167
431.795385	9484.489861
432.172624	9465.983785
432.549802	9080.748890
432.926920	8967.002815
433.303977	8734.134275
433.680974	8638.967373
434.057910	8549.912870
434.434786	8380.023464
434.811601	8157.527098
435.188355	8309.946385
435.565050	8013.788679
435.941683	7808.313768
436.318257	7889.047847
436.694770	7647.863924
437.071222	7627.832899
437.447614	7188.415683
437.823946	7020.033583
438.200218	6880.771708
438.576429	6665.920251
438.952580	6560.844961
439.328670	6397.065434
439.704700	6326.983314
440.080670	6088.191418
440.456580	6049.742537
440.832429	5934.521925
441.208218	5609.798521
441.583947	5542.279827
441.959616	5425.143576
442.335224	5325.933668
442.710773	5217.463161
443.086261	5163.880737
443.461689	4956.233089
443.837057	4845.834340
444.212365	4807.544256
444.587612	4690.710475
444.962800	4537.287999
445.337927	4468.940035
445.712995	4247.310747
446.088002	4318.620389
446.462949	4239.300354
446.837837	4156.895132
447.212664	4063.396852
447.587431	4176.280889
447.962139	4302.700425
448.336786	4376.533164
448.711374	4180.127290
449.085901	3857.170810
449.460369	3753.640633
449.834776	3665.745595
450.209124	3712.406515
450.583412	3632.138743
450.957640	3579.168819
451.331808	3461.639358
451.705917	3338.526820
452.079965	3278.801750
452.453954	3235.949421
452.827883	3186.362112
453.201752	3131.990747
453.575562	3093.695622
453.949311	3081.496029
454.323001	3045.166954
454.696632	3003.680778
455.070202	3005.946777
455.443713	2976.120790
455.817164	2953.017182
456.190556	2931.501538
456.563888	2896.102555
456.937160	2873.432487
457.310373	2829.380364
457.683526	2808.666262
458.056619	2790.286216
458.429653	2769.899789
458.802628	2762.965682
459.175542	2747.736357
459.548398	2749.163003
459.921194	2753.377408
460.293930	2749.203332
460.666607	2760.840836
461.039224	2765.443409
461.411782	2758.526946
461.784280	2736.290417
462.156719	2717.469269
462.529099	2702.618030
462.901419	2683.733867
463.273680	2668.189469
463.645882	2660.612615
464.018024	2653.118940
464.390106	2651.921666
464.762130	2669.043945
465.134094	2690.141174
465.505999	2724.186606
465.877845	2751.308014
466.249631	2755.078797
466.621358	2736.817217
466.993026	2715.127653
467.364634	2697.206351
467.736184	2675.620130
468.107674	2662.808038
468.479105	2654.016265
468.850477	2646.336067
469.221790	2632.230919
469.593043	2619.829681
469.964238	2609.538165
470.335373	2605.538009
470.706449	2613.301386
471.077467	2625.379991
471.448425	2649.058291
471.819324	2661.545229
472.190164	2650.396717
472.560945	2629.042389
472.931667	2607.514142
473.302330	2597.308326
473.672934	2591.405135
474.043479	2592.909919
474.413965	2588.861872
474.784393	2578.835017
475.154761	2582.769638
475.525070	2581.232086
475.895321	2580.932138
476.265513	2577.100861
476.635645	2586.265678
477.005719	2584.574371
477.375734	2586.144691
477.745691	2588.201481
478.115588	2594.916298
478.485427	2600.443923
478.855207	2614.896912
479.224928	2628.535753
479.594591	2635.157309
479.964194	2632.218316
480.333739	2627.668675
480.703226	2626.872172
481.072653	2630.171608
481.442022	2633.922226
481.811333	2634.799387
482.180584	2628.719755
482.549777	2625.737913
482.918912	2618.307252
483.287988	2621.674743
483.657005	2613.624020
484.025964	2608.797115
484.394864	2609.419698
484.763706	2608.507249
485.132489	2603.224120
485.501213	2605.243102
485.869879	2602.021805
486.238487	2602.720004
486.607036	2601.933584
486.975527	2600.249839
487.343959	2599.299582
487.712333	2602.263780
488.080648	2598.840837
488.448905	2603.045159
488.817104	2600.133892
489.185244	2606.765530
489.553326	2613.724843
489.921350	2627.673716
490.289315	2641.791467
490.657222	2644.979997
491.025070	2645.055614
491.392861	2641.773823
491.760593	2632.314098
492.128267	2628.228243
492.495883	2619.620473
492.863440	2613.198043
493.230939	2606.561364
493.598380	2603.244284
493.965763	2595.450661
494.333088	2593.446802
494.700354	2593.136771
495.067563	2592.950248
495.434713	2587.304156
495.801805	2593.837491
496.168839	2590.258272
496.535815	2587.634352
496.902733	2588.821543
497.269593	2585.542273
497.636395	2589.098807
498.003139	2590.573344
498.369825	2588.995463
498.736453	2592.191555
499.103023	2590.094435
499.469535	2590.777511
499.835989	2593.640886
500.202385	2589.746595
500.568723	2590.228025
500.935003	2594.112234
501.301226	2591.778180
501.667390	2597.628439
502.033497	2603.198914
502.399546	2598.646752
502.765537	2597.953593
503.131470	2597.620877
503.497345	2603.622371
503.863163	2595.135588
504.228923	2599.344952
504.594625	2603.662700
504.960269	2605.429625
505.325856	2608.557661
505.691385	2606.294182
506.056856	2612.399020
506.422270	2613.621500
506.787625	2613.170316
507.152924	2616.847838
507.518164	2621.336986
507.883347	2618.110647
508.248472	2620.845473
508.613540	2623.073663
508.978550	2631.157153
509.343503	2631.865435
509.708398	2632.248563
510.073236	2640.795839
510.438016	2645.589977
510.802738	2641.345325
511.167403	2645.332878
511.532010	2649.474186
511.896561	2653.638179
512.261053	2661.346103
512.625488	2655.069867
512.989866	2655.342089
513.354186	2662.225784
513.718449	2660.221926
514.082655	2672.469409
514.446803	2669.918585
514.810894	2671.998061
515.174927	2676.063752
515.538904	2675.489060
515.902822	2682.811336
516.266684	2682.019875
516.630488	2685.989784
516.994235	2685.251255
517.357925	2690.751153
517.721558	2689.445495
518.085133	2696.130065
518.448651	2696.929087
518.812112	2695.663758
519.175516	2699.089222
519.538863	2699.706763
519.902152	2701.632484
520.265385	2705.136086
520.628560	2705.335212
520.991678	2706.187167
521.354739	2708.806046
521.717743	2709.025336
522.080690	2709.451314
522.443580	2714.520194
522.806413	2713.542210
523.169189	2716.546738
523.531908	2716.264433
523.894569	2716.521532
524.257174	2718.293497
524.619722	2722.701987
524.982213	2720.675443
525.344647	2720.937583
525.707025	2721.166955
526.069345	2723.851370
526.431608	2722.598643
526.793815	2724.741133
527.155964	2722.691904
527.518057	2725.015876
527.880093	2720.811554
528.242072	2727.201216
528.603995	2723.581668
528.965860	2724.000084
529.327669	2724.027810
529.689421	2726.286247
530.051117	2726.137533
530.412755	2725.588047
530.774337	2726.694580
531.135862	2725.502347
531.497331	2724.627707
531.858743	2718.734598
532.220098	2723.863972
532.581396	2722.076883
532.942638	2720.004969
533.303824	2721.857593
533.664953	2720.955227
534.026025	2719.515977
534.387040	2723.601832
534.747999	2723.160732
535.108902	2723.347254
535.469748	2716.619834
535.830537	2718.631255
536.191270	2716.534135
536.551947	2715.036912
536.912567	2717.945658
537.273131	2715.465410
537.633638	2708.861499
537.994089	2711.308979
538.354483	2706.779502
538.714821	2708.934595
539.075103	2710.371324
539.435328	2707.006354
539.795497	2704.841178
540.155609	2701.282124
540.515665	2701.428317
540.875665	2696.079653
541.235609	2698.963193
541.595496	2693.617049
541.955328	2696.417410
542.315102	2693.443130
542.674821	2686.771162
543.034483	2684.444670
543.394090	2680.386541
543.753640	2678.604493
544.113134	2679.774041
544.472571	2670.969666
544.831953	2676.484688
545.191278	2668.454130
545.550548	2664.511948
545.909761	2665.048831
546.268918	2660.564724
546.628019	2660.163952
546.987064	2656.037768
547.346053	2648.319762
547.704986	2651.031902
548.063863	2643.293731
548.422684	2639.832979
548.781449	2637.158647
549.140158	2634.461630
549.498811	2633.455919
549.857408	2625.856380
550.215949	2624.132305
550.574434	2619.595267
550.932864	2616.308435
551.291237	2613.384565
551.649555	2613.883640
552.007817	2609.086982
552.366022	2607.562033
552.724173	2602.246136
553.082267	2604.116404
553.440305	2600.761516
553.798288	2595.914447
554.156215	2592.388160
554.514086	2592.683067
554.871902	2590.918663
555.229661	2584.821388
555.587365	2578.502301
555.945014	2580.299473
556.302606	2575.502815
556.660143	2573.730849
557.017625	2571.331260
557.375050	2571.174984
557.732421	2567.520148
558.089735	2565.901937
558.446994	2564.326577
558.804197	2562.922615
559.161345	2564.177863
559.518437	2556.701832
559.875474	2558.660320
560.232455	2551.524567
560.589381	2554.224104
560.946251	2552.961295
561.303065	2550.556665
561.659825	2549.543393
562.016528	2547.055584
562.373177	2546.793444
562.729770	2548.580533
563.086307	2540.050900
563.442789	2540.620551
563.799216	2542.200952
564.155587	2537.673996
564.511904	2538.510828
564.868164	2535.443286
565.224370	2539.806404
565.580520	2536.612833
565.936615	2537.469830
566.292654	2532.022863
566.648638	2532.710980
567.004567	2531.354910
567.360441	2533.106711
567.716260	2527.944569
568.072023	2530.709642
568.427732	2525.998684
568.783385	2526.220495
569.138982	2521.922911
569.494525	2523.957017
569.850013	2523.367202
570.205445	2528.801566
570.560823	2525.824764
570.916145	2523.921729
571.271412	2524.365350
571.626625	2522.132119
571.981782	2527.879034
572.336884	2522.001049
572.691931	2522.268230
573.046923	2522.905936
573.401860	2519.278826
573.756743	2518.721778
574.111570	2518.469721
574.466342	2521.126409
574.821059	2516.428053
575.175722	2519.457787
575.530330	2520.034999
575.884882	2517.053157
576.239380	2519.089783
576.593823	2518.676408
576.948211	2516.160872
577.302544	2518.888137
577.656823	2517.637930
578.011047	2515.019051
578.365216	2514.449401
578.719330	2511.079389
579.073389	2509.299862
579.427394	2513.738598
579.781344	2510.696262
580.135239	2510.373628
580.489080	2509.682990
580.842866	2512.437980
581.196597	2512.385048
581.550273	2509.695592
581.903895	2509.849348
582.257463	2508.712567
582.610975	2507.863133
582.964434	2511.603669
583.317837	2510.502177
583.671186	2510.484533
584.024481	2509.970335
584.377721	2507.296003
584.730906	2508.200890
585.084037	2510.081241
585.437113	2506.053359
585.790135	2507.764831
586.143103	2505.198883
586.496016	2505.392968
586.848874	2498.494149
587.201679	2503.527741
587.554428	2501.748213
587.907124	2502.413646
588.259765	2497.662358
588.612352	2503.701661
588.964884	2503.048831
589.317362	2505.249295
589.669786	2500.939108
590.022155	2501.564211
590.374470	2500.687051
590.726731	2499.756958
591.078937	2500.331649
591.431090	2501.556650
591.783188	2500.780312
592.135232	2500.039262
592.487222	2496.863335
592.839157	2501.148316
593.191038	2499.991371
593.542866	2496.759992
593.894639	2497.984992
594.246358	2496.903665
594.598022	2494.564569
594.949633	2495.318222
595.301190	2494.146153
595.652692	2491.265134
596.004141	2493.805876
596.355535	2492.737151
596.706876	2491.333190
597.058162	2490.148518
597.409395	2492.411997
597.760573	2492.424599
598.111698	2493.415186
598.462768	2489.631800
598.813785	2490.166163
599.164748	2489.455360
599.515657	2493.626915
599.866511	2488.399238
600.217312	2490.526605
600.568060	2487.325472
600.918753	2492.419558
601.269392	2488.119454
601.619978	2488.467294
601.970510	2490.115751
602.320988	2489.561224
602.671412	2488.953765
603.021783	2489.997284
603.372100	2487.111223
603.722363	2488.943683
604.072572	2491.431492
604.422728	2487.988384
604.772830	2486.344968
605.122878	2483.416058
605.472872	2486.859166
605.822813	2483.584936
606.172701	2485.624083
606.522534	2486.085348
606.872314	2487.559886
607.222041	2486.536532
607.571714	2486.844042
607.921333	2485.699700
608.270899	2487.244814
608.620411	2483.451346
608.969870	2488.779845
609.319276	2484.202478
609.668627	2488.570637
610.017926	2488.711790
610.367171	2486.501244
610.716362	2487.101141
611.065500	2485.883702
611.414585	2486.549135
611.763616	2484.615852
612.112594	2488.142139
612.461518	2489.520895
612.810389	2487.990905
613.159207	2486.493682
613.507971	2485.508136
613.856682	2487.360760
614.205340	2483.476551
614.553945	2489.828405
614.902496	2485.172900
615.250994	2486.753301
615.599439	2488.721872
615.947830	2487.005359
616.296169	2482.909422
616.644454	2490.077942
616.992686	2487.131388
617.340864	2490.453508
617.688990	2484.993939
618.037063	2489.357057
618.385082	2487.010400
618.733048	2489.805720
619.080961	2486.476038
619.428821	2487.451501
619.776628	2486.786069
620.124382	2487.015441
620.472083	2486.551655
620.819731	2484.835142
621.167326	2485.334217
621.514868	2487.789258
621.862357	2486.128198
622.209793	2482.410347
622.557176	2485.319093
622.904506	2481.744915
623.251783	2479.942703
623.599007	2479.887250
623.946179	2477.638895
624.293297	2477.626292
624.640363	2480.832466
624.987376	2478.732826
625.334336	2479.408340
625.681243	2478.314410
626.028097	2477.026395
626.374899	2478.949595
626.721647	2476.907928
627.068343	2476.161837
627.414987	2475.806436
627.761577	2475.574543
628.108115	2477.785089
628.454600	2474.964563
628.801032	2478.027064
629.147412	2473.545478
629.493739	2471.619757
629.840014	2473.593369
630.186236	2472.408698
630.532405	2474.674697
630.878521	2473.530355
631.224585	2473.313585
631.570597	2471.619757
631.916556	2473.469861
632.262462	2472.386013
632.608316	2472.338122
632.954117	2474.599079
633.299866	2473.646301
633.645562	2474.594038
633.991206	2470.699747
634.336797	2470.155302
634.682336	2468.680765
635.027823	2469.482308
635.373257	2470.243523
635.718639	2470.109932
636.063968	2466.934005
636.409245	2463.876545
636.754470	2469.646146
637.099642	2464.809159
637.444762	2465.963583
637.789829	2462.601133
638.134845	2466.747482
638.479808	2466.003912
638.824719	2466.064406
639.169577	2465.371247
639.514383	2461.741617
639.859137	2461.177007
640.203839	2462.263376
640.548489	2460.078036
640.893086	2460.239353
641.237632	2458.220371
641.582125	2459.213478
641.926566	2456.289609
642.270955	2462.396967
642.615292	2461.335804
642.959576	2463.715228
643.303809	2457.005453
643.647990	2460.922429
643.992118	2458.686677
644.336195	2460.204065
644.680219	2460.040227
645.024192	2461.585341
645.368112	2461.492079
645.711981	2462.036524
646.055797	2460.607357
646.399562	2463.732872
646.743274	2466.681947
647.086935	2465.842595
647.430544	2460.877059
647.774101	2465.504838
648.117606	2462.966617
648.461059	2465.769498
648.804460	2466.056844
649.147810	2462.248253
649.491108	2461.865125
649.834354	2462.565845
650.177548	2458.747171
650.520690	2460.551904
650.863781	2456.687860
651.206820	2462.427213
651.549807	2458.306070
651.892742	2458.200206
652.235626	2459.599126
652.578458	2459.200875
652.921238	2456.602160
653.263967	2453.363219
653.606644	2457.290278
653.949269	2457.348251
654.291843	2454.419341
654.634365	2455.825822
654.976836	2452.942283
655.319255	2455.230966
655.661622	2454.076542
656.003938	2456.324897
656.346203	2455.830864
656.688416	2451.404731
657.030577	2456.652572
657.372687	2453.688373
657.714746	2452.836418
658.056753	2452.639813
658.398708	2446.981118
658.740612	2451.956737
659.082465	2447.971705
659.424266	2449.945317
659.766016	2448.538835
660.107715	2451.742488
660.449362	2453.721141
660.790958	2451.513115
661.132503	2451.896243
661.473996	2452.899433
661.815438	2453.834567
662.156829	2451.394648
662.498168	2455.157870
662.839456	2452.546552
663.180693	2452.274330
663.521879	2450.600667
663.863013	2451.583692
664.204097	2450.918259
664.545129	2455.183075
664.886110	2454.512602
665.227040	2450.923300
665.567918	2452.566717
665.908746	2454.086624
666.249522	2454.464711
666.590248	2453.726182
666.930922	2451.356840
667.271545	2452.612087
667.612118	2454.295832
667.952639	2453.116202
668.293109	2454.381532
668.633528	2452.554114
668.973896	2453.590071
669.314213	2454.101748
669.654480	2453.416151
669.994695	2454.144598
670.334859	2453.385904
670.674973	2449.968002
671.015035	2453.171655
671.355047	2449.516818
671.695008	2451.916408
672.034918	2452.758280
672.374777	2455.172993
672.714585	2450.187292
673.054342	2451.170317
673.394049	2448.995059
673.733705	2453.884978
674.073310	2452.773404
674.412864	2454.207612
674.752368	2450.724175
675.091820	2449.809205
675.431223	2452.133177
675.770574	2450.807354
676.109875	2448.117898
676.449125	2447.399534
676.788324	2445.269646
677.127473	2445.352825
677.466571	2444.606735
677.805619	2447.142435
678.144616	2447.490275
678.483562	2446.608073
678.822458	2448.541355
679.161303	2446.529935
679.500098	2446.451797
679.838842	2448.140583
680.177535	2447.308793
680.516179	2448.518670
680.854771	2447.089503
681.193314	2448.622014
681.531805	2448.311983
681.870247	2450.353650
682.208638	2450.852724
682.546978	2453.887499
682.885268	2450.961109
683.223508	2451.470266
683.561697	2452.579319
683.899836	2450.797272
684.237925	2450.835080
684.575963	2452.024792
684.913951	2450.409103
685.251889	2452.286932
685.589776	2448.987497
685.927614	2448.513629
686.265401	2449.231993
686.603137	2447.699483
686.940824	2451.306428
687.278460	2451.369442
687.616046	2450.971191
687.953582	2449.607559
688.291068	2450.401541
688.628504	2452.544031
688.965889	2452.143260
689.303224	2453.895061
689.640510	2451.354319
689.977745	2447.964143
690.314930	2451.208126
690.652065	2448.843824
690.989150	2446.726540
691.326185	2446.887857
691.663170	2443.850562
692.000105	2445.115891
692.336990	2443.699327
692.673825	2443.346446
693.010610	2443.480037
693.347345	2437.039963
693.684030	2438.411157
694.020665	2438.065838
694.357251	2434.902513
694.693786	2439.036260
695.030272	2438.874943
695.366707	2439.505087
695.703093	2435.028542
696.039429	2436.949222
696.375716	2440.084820
696.711952	2438.466609
697.048139	2438.375868
697.384276	2435.250353
697.720363	2436.520724
698.056400	2438.854778
698.392388	2433.417894
698.728326	2436.707247
699.064214	2433.740527
699.400053	2433.065013
699.735842	2434.007709
700.071581	2434.968048
700.407270	2434.411001
700.742910	2435.860333
701.078501	2434.075764
701.414042	2434.005188
701.749533	2431.560228
702.084974	2432.719694
702.420366	2433.790939
702.755709	2431.736669
703.091002	2430.284817
703.426246	2430.239446
703.761440	2428.858170
704.096584	2433.203645
704.431679	2429.170722
704.766725	2430.148705
705.101721	2429.362285
705.436668	2431.242636
705.771565	2432.066864
706.106413	2430.935125
706.441212	2429.742892
706.775961	2433.591813
707.110661	2428.522933
707.445311	2430.514189
707.779913	2431.000660
708.114465	2429.450506
708.448967	2433.677513
708.783421	2435.141968
709.117825	2431.857657
709.452180	2435.109201
709.786485	2432.999478
710.120742	2438.295210
710.454949	2437.448296
710.789107	2431.154416
711.123216	2431.978644
711.457275	2437.327308
711.791286	2435.325970
712.125247	2435.174736
712.459159	2439.681527
712.793023	2439.726898
713.126837	2440.016764
713.460602	2439.409305
713.794318	2438.060796
714.127985	2438.685899
714.461602	2436.124993
714.795171	2435.109201
715.128691	2434.872267
715.462162	2435.109201
715.795584	2432.097111
716.128957	2435.474684
716.462281	2429.843716
716.795556	2432.029056
717.128782	2432.765064
717.461960	2432.371854
717.795088	2430.204158
718.128167	2429.558890
718.461198	2430.753644
718.794180	2427.411359
719.127113	2429.450506
719.459997	2427.088725
719.792833	2427.703746
720.125619	2427.960845
720.458357	2425.382294
720.791046	2428.696853
721.123686	2423.506985
721.456278	2424.628642
721.788821	2425.019331
722.121315	2428.482604
722.453761	2424.323652
722.786158	2425.851122
723.118506	2424.273241
723.450805	2424.525298
723.783056	2422.670154
724.115259	2424.747109
724.447412	2426.551842
724.779518	2425.301636
725.111574	2427.149219
725.443582	2426.947573
725.775542	2427.728952
726.107453	2425.692325
726.439315	2427.176945
726.771129	2431.172060
727.102895	2429.659713
727.434612	2429.813469
727.766281	2427.141657
728.097901	2428.197779
728.429473	2426.052768
728.760996	2427.887748
729.092471	2424.641245
729.423897	2429.599220
729.755276	2424.701739
730.086606	2430.068047
730.417887	2429.528643
730.749120	2435.083995
731.080305	2432.911258
731.411442	2431.212389
731.742530	2430.249528
732.073570	2431.958480
732.404562	2432.954107
732.735506	2433.770774
733.066401	2431.850095
733.397249	2433.107863
733.728048	2433.559046
734.058798	2428.439754
734.389501	2425.984712
734.720156	2426.771132
735.050762	2426.703077
735.381320	2424.401790
735.711831	2423.232242
736.042293	2426.161153
736.372707	2424.515216
736.703073	2424.495051
737.033391	2425.339445
737.363661	2426.158632
737.693883	2423.106213
738.024056	2427.454209
738.354182	2425.767943
738.684260	2425.818354
739.014290	2428.585948
739.344272	2429.190886
739.674207	2429.006884
740.004093	2426.884558
740.333931	2427.837336
740.663722	2428.442275
740.993464	2428.404466
741.323159	2426.829106
741.652806	2426.362799
741.982405	2426.960176
742.311956	2430.438572
742.641460	2428.626277
742.970915	2427.481935
743.300323	2425.533529
743.629683	2427.091246
743.958996	2426.410690
744.288260	2423.479259
744.617477	2422.914650
744.946647	2417.150090
745.275768	2422.685277
745.604842	2417.800399
745.933869	2420.540266
746.262847	2415.305028
746.591778	2420.999011
746.920662	2419.751326
747.249498	2422.468507
747.578286	2423.567479
747.907027	2422.425658
748.235720	2421.389701
748.564365	2420.257962
748.892963	2423.784249
749.221514	2423.532191
749.550017	2422.506316
749.878473	2423.146543
750.206881	2423.138981
750.535242	2421.629155
750.863555	2422.841553
751.191821	2421.399783
751.520039	2419.847107
751.848210	2421.853487
752.176334	2423.282654
752.504411	2419.862231
752.832440	2422.639907
753.160421	2422.483631
753.488356	2421.498085
753.816243	2421.656882
754.144082	2419.605132
754.471875	2419.733682
754.799620	2419.751326
755.127318	2422.589495
755.454969	2421.654361
755.782572	2420.497416
756.110129	2423.748961
756.437638	2418.307035
756.765100	2418.876685
757.092515	2419.610173
757.419882	2418.735533
757.747203	2420.283167
758.074477	2421.430030
758.401703	2419.627817
758.728882	2422.261820
759.056014	2421.210740
759.383099	2419.831984
759.710138	2420.459608
760.037129	2420.167221
760.364073	2420.346182
760.690970	2421.435071
761.017820	2422.153435
761.344623	2426.972778
761.671379	2422.995308
761.998088	2420.515060
762.324751	2428.414548
762.651366	2430.935125
762.977935	2440.155396
763.304456	2443.437187
763.630931	2446.492126
763.957359	2445.672939
764.283740	2438.900148
764.610074	2435.366300
764.936362	2434.040476
765.262602	2431.615681
765.588796	2428.722059
765.914943	2424.797521
766.241044	2422.065215
766.567097	2423.355751
766.893104	2423.612849
767.219064	2418.816192
767.544978	2417.006417
767.870845	2417.780234
768.196665	2416.446849
768.522438	2412.471899
768.848165	2417.165214
769.173846	2417.117323
769.499479	2416.482137
769.825066	2417.293763
770.150607	2415.851993
770.476101	2412.575243
770.801548	2414.939544
771.126949	2413.102044
771.452303	2413.462486
771.777611	2412.550037
772.102872	2412.608011
772.428087	2414.011972
772.753256	2415.625141
773.078378	2415.955337
773.403453	2411.428381
773.728482	2408.963256
774.053465	2412.005593
774.378401	2413.086920
774.703291	2412.708834
775.028135	2411.037691
775.352932	2411.123391
775.677683	2412.547517
776.002388	2414.112795
776.327046	2410.649522
776.651658	2410.853689
776.976224	2408.549882
777.300743	2412.126580
777.625216	2410.583987
777.949643	2411.935017
778.274024	2412.028278
778.598359	2408.038205
778.922647	2407.771023
779.246889	2408.779254
779.571086	2410.019378
779.895236	2411.093144
780.219339	2411.078020
780.543397	2411.317475
780.867409	2412.260171
781.191374	2410.122722
781.515294	2413.906108
781.839167	2412.842424
782.162995	2409.066600
782.486776	2409.003586
782.810511	2412.928124
783.134201	2413.170099
783.457844	2410.775551
783.781441	2409.933678
784.104993	2410.410068
784.428498	2408.824625
784.751958	2411.009965
785.075372	2409.018709
785.398739	2409.548030
785.722061	2409.555592
786.045337	2409.439645
786.368568	2411.342681
786.691752	2409.071641
787.014891	2410.851168
787.337983	2410.150448
787.661030	2410.369738
787.984031	2414.785789
788.306987	2415.647826
788.629897	2415.214287
788.952760	2415.794020
789.275579	2416.041036
789.598351	2413.475089
789.921078	2412.484502
790.243759	2412.686148
790.566395	2412.522311
790.888984	2411.415778
791.211529	2411.539286
791.534027	2415.665470
791.856480	2410.888977
792.178888	2409.787485
792.501249	2411.403175
792.823566	2408.691034
793.145836	2410.737742
793.468062	2410.508370
793.790241	2409.364028
794.112375	2411.093144
794.434464	2409.366549
794.756507	2412.013154
795.078505	2409.734553
795.400457	2410.294121
795.722364	2408.486867
796.044226	2410.417629
796.366042	2410.210942
796.687812	2409.656415
797.009538	2411.246899
797.331218	2413.399472
797.652852	2410.336971
797.974442	2413.069276
798.295986	2413.520459
798.617484	2411.998031
798.938938	2411.811508
799.260346	2412.713875
799.581709	2412.204718
799.903026	2414.006931
800.224299	2409.129614
800.545526	2410.213462
800.866708	2410.430232
801.187845	2409.401837
801.508936	2407.657598
801.829983	2409.139697
802.150984	2407.314799
802.471940	2410.155489
802.792851	2407.652556
803.113717	2409.845458
803.434538	2408.282701
803.755314	2410.982238
804.076045	2407.032494
804.396731	2407.259346
804.717372	2408.340674
805.037967	2405.499984
805.358518	2406.762793
805.679024	2409.699265
805.999485	2409.885788
806.319901	2410.911662
806.640272	2407.982752
806.960598	2408.000396
807.280879	2408.391085
807.601115	2410.841086
807.921306	2409.578277
808.241453	2409.374110
808.561554	2407.629871
808.881611	2408.401168
809.201623	2409.167423
809.521590	2409.427042
809.841513	2408.391085
810.161390	2406.908986
810.481223	2410.359656
810.801011	2406.235992
811.120755	2406.727505
811.440453	2409.999213
811.760107	2408.239851
812.079716	2408.703637
812.399281	2403.770868
812.718801	2405.363873
813.038276	2402.629047
813.357707	2408.885118
813.677093	2406.951836
813.996434	2409.212793
814.315731	2406.389747
814.634983	2407.922258
814.954191	2408.219686
815.273354	2408.179357
815.592473	2410.362177
815.911547	2409.185067
816.230577	2408.416291
816.549562	2408.368400
816.868502	2407.307237
817.187399	2413.729667
817.506250	2408.436456
817.825058	2410.732701
818.143821	2410.851168
818.462539	2412.048443
818.781213	2413.938875
819.099843	2414.606828
819.418429	2415.985584
819.736970	2422.327355
820.055466	2420.651172
820.373919	2426.909764
820.692327	2431.741710
821.010691	2445.892229
821.329011	2465.809828
821.647286	2507.638802
821.965517	2545.636499
822.283704	2570.766651
822.601847	2574.976014
822.919945	2559.880279
823.237999	2536.360776
823.556010	2520.130781
823.873976	2500.747544
824.191897	2483.952940
824.509775	2470.223358
824.827609	2459.994857
825.145398	2454.366408
825.463144	2450.618311
825.780845	2451.578650
826.098502	2456.534105
826.416116	2463.884107
826.733685	2473.149748
827.051210	2476.628144
827.368692	2471.400467
827.686129	2464.274796
828.003522	2450.499843
828.320872	2437.334870
828.638177	2431.734148
828.955439	2427.058478
829.272656	2425.818354
829.589830	2417.205543
829.906960	2421.374577
830.224046	2416.557755
830.541088	2415.990625
830.858086	2413.921231
831.175041	2414.637075
831.491952	2410.266395
831.808819	2414.359812
832.125642	2414.526170
832.442421	2417.727302
832.759157	2424.762233
833.075849	2430.481422
833.392497	2436.840837
833.709101	2443.255705
834.025662	2442.318051
834.342179	2435.940991
834.658653	2431.603078
834.975083	2426.882038
835.291469	2429.384971
835.607811	2420.207550
835.924110	2417.354257
836.240366	2415.562127
836.556578	2415.161355
836.872746	2413.596077
837.188871	2408.083575
837.504952	2410.684810
837.820990	2405.762124
838.136984	2411.430901
838.452935	2407.859244
838.768842	2407.488719
839.084706	2407.443348
839.400526	2410.780592
839.716303	2415.446180
840.032037	2420.343661
840.347727	2418.092786
840.663373	2417.548341
840.978977	2412.771848
841.294537	2413.359143
841.610054	2411.524162
841.925527	2409.903432
842.240957	2407.834038
842.556344	2406.382186
842.871687	2404.539644
843.186987	2401.998902
843.502244	2405.835220
843.817458	2406.488050
844.132629	2403.115518
844.447756	2404.766496
844.762840	2398.510424
845.077881	2400.325239
845.392879	2397.469426
845.707833	2401.804818
846.022745	2396.458674
846.337613	2400.534447
846.652438	2402.571073
846.967221	2400.431103
847.281960	2398.538150
847.596656	2402.533265
847.911309	2401.388923
848.225919	2401.978738
848.540485	2402.855898
848.855009	2399.700136
849.169490	2401.101577
849.483928	2400.168963
849.798323	2400.864643
850.112675	2399.808521
850.426984	2404.713564
850.741251	2401.577966
851.055474	2401.890517
851.369654	2402.003943
851.683792	2401.215003
851.997887	2399.687533
852.311938	2401.966135
852.625947	2402.253481
852.939914	2397.582852
853.253837	2402.750034
853.567718	2403.365055
853.881555	2397.915568
854.195350	2398.389436
854.509103	2401.426731
854.822812	2400.652914
855.136479	2401.658624
855.450103	2398.712070
855.763685	2402.840775
856.077224	2399.276679
856.390720	2400.370610
856.704173	2400.058058
857.017584	2402.228275
857.330953	2399.435476
857.644278	2401.487225
857.957561	2401.953532
858.270802	2402.954201
858.584000	2403.102915
858.897155	2400.405898
859.210268	2399.581669
859.523339	2400.975548
859.836367	2401.794736
860.149352	2400.947822
860.462295	2402.974366
860.775195	2396.196534
861.088054	2399.705177
861.400869	2398.785167
861.713642	2396.806514
862.026373	2400.025291
862.339062	2401.335991
862.651708	2400.531927
862.964312	2402.147616
863.276873	2400.859602
863.589392	2400.199210
863.901869	2400.912534
864.214303	2400.060579
864.526696	2403.251629
864.839045	2400.675599
865.151353	2403.445713
865.463619	2402.576114
865.775842	2400.073182
866.088023	2398.943963
866.400162	2402.674417
866.712258	2404.789181
867.024313	2404.080899
867.336325	2398.316339
867.648296	2402.757596
867.960224	2401.255332
868.272110	2401.605692
868.583954	2401.610733
868.895755	2403.014695
869.207515	2400.471433
869.519233	2403.450755
869.830909	2400.415980
870.142542	2401.199879
870.454134	2399.816083
870.765684	2401.504869
871.077191	2403.821279
871.388657	2401.517472
871.700081	2402.820610
872.011463	2403.044942
872.322803	2402.704664
872.634101	2403.977555
872.945357	2402.346742
873.256571	2405.283214
873.567744	2402.964283
873.878874	2404.131310
874.189963	2403.080230
874.501010	2404.090981
874.812015	2403.009654
875.122979	2402.011505
875.433900	2402.717267
875.744780	2407.055180
876.055618	2400.995713
876.366415	2406.747669
876.677169	2404.799263
876.987882	2402.818090
877.298554	2400.894890
877.609183	2401.015877
877.919771	2403.390261
878.230317	2403.801115
878.540822	2408.809501
878.851285	2411.168761
879.161707	2409.301014
879.472087	2412.804616
879.782425	2418.450708
880.092722	2427.519744
880.402977	2439.772268
880.713191	2455.142746
881.023363	2471.849130
881.333494	2480.940851
881.643583	2484.469659
881.953631	2484.910760
882.263637	2480.532518
882.573602	2468.428707
882.883526	2465.025928
883.193408	2459.520988
883.503248	2452.675101
883.813048	2443.984152
884.122806	2441.844182
884.432522	2436.951743
884.742197	2429.732810
885.051831	2427.499579
885.361424	2421.039340
885.670975	2421.397262
885.980485	2415.539442
886.289954	2413.555747
886.599382	2410.611714
886.908768	2410.876374
887.218113	2409.225396
887.527417	2411.231776
887.836680	2406.765313
888.145901	2408.640622
888.455082	2405.152144
888.764221	2405.275652
889.073319	2404.378327
889.382376	2405.295817
889.691392	2404.068296
890.000366	2404.726167
890.309300	2405.053842
890.618193	2404.030487
890.927044	2403.589386
891.235855	2407.670200
891.544625	2403.239026
891.853353	2405.459654
892.162041	2408.504511
892.470687	2407.960067
892.779293	2407.697927
893.087858	2407.203894
893.396381	2407.047618
893.704864	2409.343863
894.013306	2414.289235
894.321707	2424.064033
894.630068	2422.730647
894.938387	2427.552511
895.246665	2427.013108
895.554903	2424.197623
895.863100	2421.989598
896.171256	2417.563465
896.479371	2414.246386
896.787446	2416.668660
897.095480	2412.050963
897.403473	2410.974677
897.711425	2410.067269
898.019336	2409.868143
898.327207	2408.819583
898.635038	2408.204563
898.942827	2406.926630
899.250576	2407.894532
899.558284	2404.388409
899.865952	2406.677093
900.173579	2401.474622
900.481165	2405.278173
900.788711	2402.576114
901.096216	2403.947308
901.403681	2404.360683
901.711105	2403.813718
902.018489	2403.637277
902.325832	2403.314643
902.633135	2405.953688
902.940397	2406.639284
903.247619	2405.628533
903.554800	2419.806778
903.861941	2424.827768
904.169041	2431.262800
904.476101	2432.802873
904.783121	2431.368665
905.090100	2428.215423
905.397039	2423.058322
905.703938	2422.186203
906.010796	2418.964906
906.317614	2415.857034
906.624391	2414.473238
906.931129	2409.815211
907.237826	2412.371076
907.544483	2407.894532
907.851099	2405.000909
908.157675	2403.849006
908.464211	2398.850702
908.770707	2399.964797
909.077163	2397.363561
909.383578	2396.153684
909.689954	2397.040927
909.996289	2394.225443
910.302584	2401.983779
910.608839	2402.014026
910.915054	2401.288100
911.221229	2398.918757
911.527363	2401.724159
911.833458	2398.149981
912.139513	2398.868346
912.445527	2399.531258
912.751502	2402.921433
913.057436	2403.382699
913.363331	2402.850857
913.669186	2403.102915
913.975000	2405.066444
914.280775	2405.870508
914.586510	2411.219173
914.892205	2412.411406
915.197859	2415.791499
915.503475	2425.157963
915.809050	2427.897830
916.114585	2431.721545
916.420081	2431.903027
916.725536	2430.589806
917.030952	2429.203489
917.336328	2425.750299
917.641665	2427.159301
917.946961	2422.667633
918.252218	2421.641758
918.557435	2416.595563
918.862612	2416.446849
919.167750	2414.264030
919.472848	2412.386200
919.777906	2412.955850
920.082925	2411.418298
920.387904	2408.814542
920.692843	2407.191291
920.997743	2405.804973
921.302603	2403.596948
921.607423	2403.395302
921.912204	2402.608882
922.216946	2401.686351
922.521647	2401.580487
922.826310	2401.227606
923.130932	2402.271125
923.435516	2400.738614
923.740059	2401.043604
924.044564	2397.051010
924.349028	2399.193500
924.653454	2394.560680
924.957840	2399.574107
925.262186	2399.712739
925.566493	2394.825340
925.870761	2392.498848
926.174989	2397.396329
926.479178	2400.312636
926.783328	2394.510268
927.087438	2397.257697
927.391509	2398.059241
927.695541	2397.529919
927.999533	2395.984806
928.303486	2397.033366
928.607400	2397.653428
928.911275	2398.248284
929.215110	2396.579662
929.518906	2396.166287
929.822663	2396.922460
930.126381	2398.989333
930.430060	2394.686709
930.733699	2396.103273
931.037299	2398.316339
931.340861	2394.825340
931.644383	2396.546894
931.947866	2397.971020
932.251309	2396.536812
932.554714	2397.479508
932.858080	2397.776936
933.161407	2394.409445
933.464694	2396.897255
933.767943	2396.743499
934.071153	2395.999929
934.374323	2396.504045
934.677455	2396.662841
934.980548	2394.898437
935.283602	2397.156874
935.586617	2393.197048
935.889593	2396.448592
936.192530	2396.065464
936.495428	2396.534292
936.798287	2400.496638
937.101108	2395.372306
937.403890	2400.252143
937.706632	2397.817265
938.009336	2397.625701
938.312002	2398.288613
938.614628	2399.253994
938.917216	2399.374982
939.219765	2398.515465
939.522275	2398.759961
939.824747	2397.396329
940.127179	2394.606050
940.429573	2395.858777
940.731929	2397.837430
941.034246	2394.653941
941.336524	2402.412277
941.638763	2399.536299
941.940964	2399.778274
942.243126	2396.899775
942.545250	2398.452451
942.847335	2397.136709
943.149381	2400.950342
943.451389	2399.080074
943.753359	2396.930022
944.055290	2397.565208
944.357182	2399.238871
944.659036	2398.313819
944.960851	2397.464384
945.262628	2397.517317
945.564367	2398.323901
945.866067	2397.824827
946.167729	2399.886659
946.469352	2396.567059
946.770937	2397.867677
947.072484	2397.943294
947.373992	2396.521689
947.675462	2398.709549
947.976893	2397.421535
948.278286	2396.841802
948.579641	2396.476318
948.880958	2398.391957
949.182236	2396.695608
949.483476	2399.085115
949.784678	2399.652245
950.085841	2395.826009
950.386967	2399.574107
950.688054	2395.331976
950.989103	2397.005639
951.290114	2397.635784
951.591087	2399.080074
951.892021	2397.630743
952.192917	2395.828530
952.493776	2396.930022
952.794596	2398.656617
953.095378	2396.017573
953.396122	2396.582182
953.696828	2397.373644
953.997496	2397.592934
954.298126	2398.344066
954.598718	2396.940104
954.899272	2399.879097
955.199788	2395.808365
955.500266	2398.276010
955.800706	2396.912378
956.101108	2390.295864
956.401472	2394.522871
956.701798	2394.873231
957.002087	2391.039434
957.302337	2396.408263
957.602550	2395.268962
957.902724	2395.916750
958.202861	2394.782491
958.502960	2396.604868
958.803022	2392.917264
959.103045	2395.276524
959.403031	2394.621174
959.702979	2396.153684
960.002889	2394.084291
960.302762	2389.580020
960.602596	2392.710576
960.902393	2391.218395
961.202153	2392.783673
961.501875	2394.051523
961.801559	2395.339538
962.101205	2395.652090
962.400814	2393.285268
962.700385	2394.701832
962.999918	2393.456667
963.299414	2393.890206
963.598873	2394.122099
963.898293	2392.198899
964.197677	2394.021276
964.497022	2393.849877
964.796331	2395.226112
965.095601	2396.388098
965.394835	2396.065464
965.694030	2396.367933
965.993189	2391.369629
966.292309	2393.575134
966.591393	2395.064795
966.890439	2392.783673
967.189447	2394.401883
967.488419	2394.585886
967.787353	2393.582696
968.086249	2393.776780
968.385108	2394.656462
968.683930	2392.642521
968.982714	2395.410114
969.281462	2392.327449
969.580172	2393.522202
969.878844	2396.383057
970.177480	2392.743344
970.476078	2394.611091
970.774639	2394.522871
971.073162	2393.242418
971.371649	2391.299053
971.670098	2389.892571
971.968510	2390.865514
972.266885	2388.959958
972.565223	2395.458005
972.863524	2393.126472
973.161788	2394.963972
973.460014	2392.745864
973.758204	2395.349620
974.056356	2391.457850
974.354471	2396.385577
974.652550	2393.383570
974.950591	2395.430279
975.248595	2396.430948
975.546563	2393.796945
975.844493	2394.527912
976.142386	2394.742161
976.440243	2391.367109
976.738062	2393.638149
977.035845	2394.956410
977.333590	2394.744682
977.631299	2394.285937
977.928971	2394.961452
978.226606	2391.742675
978.524204	2395.715104
978.821765	2391.639331
979.119290	2394.099414
979.416777	2393.507079
979.714228	2394.704353
980.011642	2393.686040
980.309020	2396.846843
980.606360	2394.515309
980.903664	2394.109497
981.200931	2394.230484
981.498162	2395.541184
981.795356	2394.447254
982.092513	2395.011863
982.389633	2397.194683
982.686717	2393.348282
982.983764	2395.576472
983.280775	2400.216854
983.577749	2395.790721
983.874686	2400.365568
984.171587	2394.727038
984.468451	2399.362379
984.765279	2395.548746
985.062070	2395.397511
985.358824	2395.747872
985.655543	2395.261400
985.952224	2396.141082
986.248869	2395.082439
986.545478	2391.296533
986.842050	2392.110679
987.138586	2389.252345
987.435086	2390.046327
987.731549	2390.676471
988.027975	2390.966337
988.324366	2391.775442
988.620719	2392.813920
988.917037	2392.299722
989.213318	2391.316697
989.509563	2391.982130
989.805772	2391.394835
990.101944	2393.749054
990.398080	2389.592623
990.694180	2394.411966
990.990244	2390.184958
991.286271	2391.667057
991.582262	2391.775442
991.878217	2393.000443
992.174136	2391.316697
992.470019	2393.199568
992.765865	2393.393653
993.061676	2394.202758
993.357450	2392.282078
993.653188	2394.258211
993.948890	2392.909702
994.244556	2391.974568
994.540186	2393.665875
994.835780	2392.798797
995.131337	2394.205278
995.426859	2392.887017
995.722345	2396.569580
996.017795	2395.284085
996.313208	2396.567059
996.608586	2391.888868
996.903928	2394.951369
997.199234	2393.194527
997.494504	2397.920609
997.789738	2396.763664
998.084936	2393.766698
998.380099	2395.130330
998.675225	2391.651934
998.970316	2395.684857
999.265371	2393.620505
999.560390	2392.629918
999.855373	2395.223592
1000.150320	2396.360372
1000.445232	2392.332490
1000.740108	2392.718138
1001.034948	2390.396687
1001.329752	2392.818961
1001.624521	2391.329300
1001.919254	2389.625390
1002.213951	2389.809392
1002.508613	2388.801162
1002.803239	2392.425751
1003.097829	2388.773435
1003.392384	2390.101779
1003.686903	2391.452808
1003.981386	2393.083622
1004.275834	2393.073539
1004.570246	2392.811399
1004.864623	2391.919115
1005.158964	2393.610422
1005.453270	2392.529095
1005.747540	2394.379198
1006.041775	2390.555483
1006.335974	2391.319218
1006.630138	2393.764178
1006.924266	2391.382232
1007.218359	2391.967006
1007.512416	2390.822664
1007.806438	2389.438868
1008.100425	2393.522202
1008.394376	2393.232336
1008.688292	2392.254352
1008.982172	2391.329300
1009.276017	2392.463560
1009.569827	2392.574465
1009.863602	2391.810730
1010.157341	2390.076573
1010.451045	2393.136554
1010.744714	2391.349465
1011.038347	2389.973230
1011.331945	2389.385935
1011.625508	2393.270144
1011.919036	2393.343241
1012.212528	2392.057747
1012.505986	2391.946842
1012.799408	2390.363919
1013.092795	2388.912067
1013.386147	2391.936759
1013.679464	2391.490617
1013.972745	2390.184958
1014.265992	2393.033210
1014.559204	2393.804507
1014.852380	2390.706718
1015.145521	2394.248128
1015.438628	2388.881820
1015.731699	2390.840308
1016.024736	2390.285781
1016.317737	2393.295350
1016.610703	2393.275186
1016.903635	2391.092366
1017.196531	2388.561707
1017.489393	2389.630431
1017.782219	2387.072046
1018.075011	2393.529764
1018.367768	2392.186296
1018.660490	2390.419372
1018.953177	2390.419372
1019.245829	2390.419372
