Dividing Wavelength (nm)	Counts (n)	Blue Motor Position (mm): 0.000000	Red Motor Position (mm): 42.000000	
326.493990	1995.124855
326.888308	1995.124855
327.282561	1995.124855
327.676750	1971.822121
328.070874	1973.319344
328.464933	1977.818574
328.858929	1988.803248
329.252859	2001.771616
329.646726	2013.585560
330.040528	2030.503672
330.434265	2050.078473
330.827938	2069.189487
331.221547	2089.422158
331.615091	2107.368666
332.008571	2129.353138
332.401986	2152.106386
332.795338	2171.484581
333.188625	2189.587364
333.581847	2210.591332
333.975006	2225.457695
334.368100	2246.176837
334.761129	2262.880700
335.154095	2275.879315
335.546996	2307.346198
335.939833	2365.783253
336.332606	2379.739688
336.725315	2388.917108
337.117960	2397.968500
337.510540	2402.939077
337.903056	2416.149421
338.295508	2421.856007
338.687896	2429.866401
339.080220	2437.511311
339.472480	2442.721343
339.864676	2443.081786
340.256807	2450.608228
340.648875	2451.591253
341.040879	2453.184258
341.432818	2455.926646
341.824694	2454.399176
342.216506	2456.561831
342.608253	2455.412448
342.999937	2453.199381
343.391557	2454.152159
343.783113	2450.847683
344.174605	2450.968671
344.566033	2445.335181
344.957397	2446.928186
345.348697	2444.329471
345.739934	2443.091868
346.131106	2440.669593
346.522215	2441.708071
346.913260	2438.201949
347.304241	2438.121290
347.695159	2436.921496
348.086012	2434.771443
348.476802	2432.344128
348.867528	2431.560228
349.258191	2430.115938
349.648789	2429.332038
350.039324	2429.458067
350.429796	2431.847574
350.820203	2429.876483
351.210548	2428.560742
351.600828	2426.917326
351.991045	2428.263314
352.381198	2426.183838
352.771288	2427.363468
353.161314	2430.294899
353.551276	2424.737027
353.941175	2426.529157
354.331010	2429.155598
354.720782	2428.044024
355.110490	2429.246339
355.500135	2427.895310
355.889717	2426.627459
356.279235	2430.312543
356.668689	2433.256577
357.058080	2428.056627
357.447408	2428.316246
357.836672	2427.439085
358.225873	2429.642069
358.615010	2427.058478
359.004084	2431.991247
359.393095	2433.541402
359.782043	2434.242122
360.170927	2434.262287
360.559748	2438.053235
360.948505	2437.783533
361.337199	2440.193204
361.725830	2442.237392
362.114398	2443.926179
362.502903	2440.702361
362.891344	2445.161262
363.279722	2443.003648
363.668037	2443.018771
364.056289	2443.850562
364.444478	2447.419698
364.832603	2445.924996
365.220665	2446.449276
365.608665	2447.502877
365.996601	2448.231324
366.384474	2450.893053
366.772284	2450.386417
367.160031	2453.542180
367.547715	2453.680812
367.935336	2452.307097
368.322893	2455.692232
368.710388	2455.175514
369.097820	2461.141719
369.485189	2458.522840
369.872495	2461.043417
370.259738	2462.386884
370.646918	2465.514920
371.034035	2467.740590
371.421090	2470.971969
371.808081	2474.268884
372.195010	2480.028402
372.581875	2483.201808
372.968678	2492.043992
373.355418	2500.187976
373.742096	2512.942096
374.128710	2521.673374
374.515262	2535.400436
374.901751	2547.468958
375.288177	2568.684654
375.674540	2586.119485
376.060841	2608.948350
376.447079	2634.370889
376.833254	2660.264776
377.219367	2683.247396
377.605417	2721.766852
377.991404	2747.431367
378.377329	2790.177831
378.763191	2825.733089
379.148991	2875.237220
379.534727	2924.799324
379.920402	2969.017805
380.306013	3021.912111
380.691563	3087.689087
381.077049	3148.992038
381.462474	3203.688557
381.847835	3277.969959
382.233134	3356.488451
382.618371	3414.113881
383.003545	3503.128055
383.388657	3588.762135
383.773706	3678.809746
384.158693	3758.301180
384.543618	3855.618134
384.928480	3932.518416
385.313280	4043.963204
385.698017	4148.393226
386.082692	4278.177732
386.467305	4341.275334
386.851856	4469.030776
387.236344	4629.813336
387.620770	4696.321279
388.005133	4814.581707
388.389435	4972.689936
388.773674	5057.444335
389.157851	5194.041960
389.541965	5330.889122
389.926018	5355.290827
390.310008	5542.725969
390.693936	5667.842366
391.077802	5789.848371
391.461606	5926.763589
391.845348	6043.977978
392.229027	6167.579508
392.612645	6396.210959
392.996200	6512.427199
393.379694	6694.473347
393.763125	6927.341887
394.146494	7025.251177
394.529801	7161.853843
394.913047	7415.053357
395.296230	7413.057060
395.679351	7471.983107
396.062410	7745.518636
396.445408	7641.381000
396.828343	7801.787995
397.211217	7938.441073
397.594028	7816.876168
397.976778	8027.125051
398.359466	8195.423972
398.742092	8164.196545
399.124656	8322.216553
399.507158	8512.678907
399.889598	8542.661170
400.271977	8751.523735
400.654294	8782.201677
401.036549	8983.114343
401.418742	9018.916618
401.800874	9327.654523
402.182944	9411.647708
402.564952	9784.665366
402.946898	9605.923695
403.328783	9661.593157
403.710606	9860.063384
404.092367	10128.971133
404.474067	10502.843267
404.855705	10289.352922
405.237282	10239.826106
405.618797	10677.821717
406.000250	10935.313773
406.381642	11311.187245
406.762972	11258.640778
407.144240	11049.614375
407.525447	11309.095166
407.906593	11254.063410
408.287677	11515.054027
408.668700	11676.812051
409.049661	11645.002370
409.430560	11804.136474
409.811399	11778.555138
410.192176	11945.377002
410.572891	12020.848116
410.953545	12533.263760
411.334138	11993.663694
411.714669	12604.371756
412.095139	11894.761296
412.475547	12416.561049
412.855894	12252.587437
413.236180	12608.233280
413.616405	12261.386772
413.996568	12560.367524
414.376670	12529.664376
414.756711	12393.016340
415.136691	12695.709902
415.516609	12882.509857
415.896466	12957.282772
416.276262	13248.086773
416.655997	13687.882075
417.035670	13729.789187
417.415283	14387.984919
417.794834	14487.492254
418.174324	14228.744951
418.553753	14125.224857
418.933121	14639.901459
419.312428	14434.091312
419.691674	14349.218446
420.070859	14819.837883
420.449983	14459.057626
420.829045	15029.665830
421.208047	14760.702628
421.586988	15235.428086
421.965867	15489.386293
422.344686	15495.148332
422.723444	16069.129068
423.102141	14723.768615
423.480777	15945.398988
423.859352	15445.258553
424.237866	16580.859115
424.616319	16268.592402
424.994712	16948.623891
425.373044	16738.717807
425.751314	17433.174558
426.129524	16528.378183
426.507673	17658.786357
426.885762	17344.644335
427.263789	17553.070840
427.641756	17725.790853
428.019662	17787.267725
428.397508	17823.203590
428.775292	18151.150812
429.153016	18098.506042
429.530679	18188.041976
429.908282	18208.594760
430.285824	17924.561029
430.663305	18649.874683
431.040726	18235.456548
431.418086	18054.607675
431.795385	18722.351352
432.172624	19138.758221
432.549802	18689.523358
432.926920	18890.025170
433.303977	18773.017468
433.680974	19036.072438
434.057910	19315.493513
434.434786	19351.724286
434.811601	19267.746224
435.188355	20318.781431
435.565050	19961.010742
435.941683	19908.527290
436.318257	20811.909621
436.694770	20614.520721
437.071222	21224.843135
437.447614	20285.923190
437.823946	20307.552261
438.200218	20468.430603
438.576429	20231.501414
438.952580	20502.924699
439.328670	20473.731377
439.704700	20909.460989
440.080670	20460.949531
440.456580	21065.971172
440.832429	21254.863206
441.208218	20216.786286
441.583947	20668.236736
441.959616	20782.242430
442.335224	21028.966582
442.710773	21157.452991
443.086261	21698.792255
443.461689	21055.798123
443.837057	21185.597752
444.212365	21843.047393
444.587612	21837.943225
444.962800	21402.465670
445.337927	21830.676402
445.712995	20544.625123
446.088002	22437.749792
446.462949	22630.185757
446.837837	22824.673473
447.212664	22776.893417
447.587431	25682.503588
447.962139	28682.532051
448.336786	31089.398187
448.711374	29503.262144
449.085901	25749.656799
449.460369	25695.335845
449.834776	25613.767456
450.209124	28153.939344
450.583412	27667.929263
450.957640	28194.374439
451.331808	26826.623701
451.705917	25423.257211
452.079965	25480.582692
452.453954	25838.416394
452.827883	25727.190897
453.201752	25520.884196
453.575562	25681.321438
453.949311	26836.189290
454.323001	26887.934214
454.696632	26658.445767
455.070202	28252.728315
455.443713	28374.870432
455.817164	28979.249325
456.190556	29518.937612
456.563888	28946.431413
456.937160	29407.492824
457.310373	27692.043623
457.683526	28168.593978
458.056619	28151.489343
458.429653	28068.953052
458.802628	28678.655403
459.175542	28784.509552
459.548398	30099.272722
459.921194	31694.497966
460.293930	32373.496018
460.666607	34440.416986
461.039224	36224.866981
461.411782	36625.381612
461.784280	35422.068272
462.156719	34956.086695
462.529099	34386.763986
462.901419	33080.351487
463.273680	32012.521677
463.645882	32098.617022
464.018024	32059.548080
464.390106	32904.032090
464.762130	35639.480634
465.134094	39740.023228
465.505999	45076.006437
465.877845	49718.326876
466.249631	50900.500138
466.621358	49237.476416
466.993026	47137.815674
467.364634	45048.912755
467.736184	43063.819797
468.107674	41771.179730
468.479105	40970.568882
468.850477	40273.324373
469.221790	38820.811674
469.593043	37035.628192
469.964238	36147.903685
470.335373	36065.329585
470.706449	37827.490117
471.077467	40435.644486
471.448425	45038.056630
471.819324	47868.636789
472.190164	46011.977307
472.560945	42420.994543
472.931667	39277.734297
473.302330	38145.140783
473.672934	37323.465474
474.043479	37837.027981
474.413965	37021.490276
474.784393	36631.370503
475.154761	37541.568474
475.525070	37585.691173
475.895321	37101.256453
476.265513	37702.497228
476.635645	38692.932725
477.005719	38514.213738
477.375734	38998.565279
477.745691	39690.352739
478.115588	41062.968191
478.485427	43045.926221
478.855207	46434.095803
479.224928	49042.948371
479.594591	50712.724719
479.964194	49727.368185
480.333739	49897.456716
480.703226	49931.366037
481.072653	50562.218550
481.442022	51035.083822
481.811333	51297.491003
482.180584	50013.191526
482.549777	49496.944604
482.918912	48963.915682
483.287988	48680.030665
483.657005	47831.334771
484.025964	47188.275104
484.394864	47213.586737
484.763706	46791.811039
485.132489	45912.553150
485.501213	45741.688281
485.869879	45894.697383
486.238487	45481.660525
486.607036	45672.006932
486.975527	45133.364685
487.343959	45333.231312
487.712333	45422.242965
488.080648	45323.816957
488.448905	45789.639737
488.817104	45596.969357
489.185244	46570.456494
489.553326	48253.768340
489.921350	50966.587144
490.289315	53803.846831
490.657222	54388.950873
491.025070	54670.587535
491.392861	53797.331140
491.760593	52582.816355
492.128267	50943.370110
492.495883	49426.161763
492.863440	48039.012665
493.230939	46668.701021
493.598380	45564.990798
493.965763	45238.593730
494.333088	44408.597997
494.700354	43915.449642
495.067563	43613.267757
495.434713	43483.488292
495.801805	43555.982605
496.168839	43163.057431
496.535815	42824.438086
496.902733	42854.914381
497.269593	42434.978704
497.636395	42384.209244
498.003139	42788.625729
498.369825	42224.810480
498.736453	42542.491392
499.103023	42068.340626
499.469535	41920.176073
499.835989	42023.315560
500.202385	41699.915459
500.568723	41707.567930
500.935003	41899.010789
501.301226	41703.688762
501.667390	42318.666682
502.033497	42596.139351
502.399546	42008.663447
502.765537	41307.219657
503.131470	41692.870446
503.497345	42060.239492
503.863163	40701.588036
504.228923	41328.770589
504.594625	41753.064344
504.960269	41027.052490
505.325856	41742.619073
505.691385	41087.546337
506.056856	41238.642320
506.422270	41671.193485
506.787625	41233.028995
507.152924	41426.135435
507.518164	41539.856304
507.883347	40727.176933
508.248472	40991.666111
508.613540	41475.450522
508.978550	41788.906948
509.343503	41527.349201
509.708398	41731.982238
510.073236	42251.480704
510.438016	42254.255859
510.802738	41693.200642
511.167403	42338.387676
511.532010	42564.538878
511.896561	42857.921429
512.261053	43741.655863
512.625488	43252.542952
512.989866	43140.649502
513.354186	42976.411230
513.718449	42955.545894
514.082655	43635.453875
514.446803	43312.709124
514.810894	43835.408722
515.174927	43747.659878
515.538904	43633.742403
515.902822	44339.481257
516.266684	43765.465233
516.630488	44202.742479
516.994235	44041.559147
517.357925	44625.755781
517.721558	44792.479341
518.085133	45094.530156
518.448651	45245.149751
518.812112	45004.255694
519.175516	45096.652482
519.538863	45445.195338
519.902152	45379.859464
520.265385	45876.629888
520.628560	45911.428972
520.991678	45692.040478
521.354739	45928.589060
521.717743	46244.523213
522.080690	46139.447923
522.443580	46676.897937
522.806413	46727.075062
523.169189	46670.977102
523.531908	46839.339037
523.894569	46700.243521
524.257174	46877.992085
524.619722	47176.216664
524.982213	47164.652257
525.344647	47078.844257
525.707025	47108.612270
526.069345	47504.849483
526.431608	47411.152077
526.793815	47745.672964
527.155964	47274.826674
527.518057	47449.444682
527.880093	47199.393369
528.242072	47726.589676
528.603995	47430.842824
528.965860	47448.733879
529.327669	47523.471505
529.689421	47426.242771
530.051117	47380.060761
530.412755	47518.062347
530.774337	47590.939788
531.135862	47379.501193
531.497331	47583.405783
531.858743	47476.263620
532.220098	47827.957198
532.581396	47534.120943
532.942638	47195.647791
533.303824	47508.819392
533.664953	47447.760936
534.026025	47160.720157
534.387040	47631.407650
534.747999	47568.862055
535.108902	47738.486799
535.469748	47269.634286
535.830537	47368.062815
536.191270	47568.181499
536.551947	47212.976758
536.912567	47514.886420
537.273131	47651.153850
537.633638	47121.890669
537.994089	47461.079665
538.354483	47054.160247
538.714821	47613.756050
539.075103	47977.376998
539.435328	47735.714165
539.795497	47626.240468
540.155609	47597.037063
540.515665	48058.905058
540.875665	47518.188376
541.235609	47835.632354
541.595496	47807.802665
541.955328	48495.600051
542.315102	47852.162298
542.674821	47619.876011
543.034483	47671.263013
543.394090	47641.973909
543.753640	47582.548787
544.113134	48606.553327
544.472571	47596.724512
544.831953	48860.577069
545.191278	48067.427129
545.550548	47792.364131
545.909761	48243.597812
546.268918	48468.955033
546.628019	48744.519625
546.987064	48323.187549
547.346053	47580.784383
547.704986	48473.166917
548.063863	48018.124644
548.422684	48213.895333
548.781449	48066.766738
549.140158	48465.706009
549.498811	48286.135068
549.857408	47741.594671
550.215949	48565.190660
550.574434	48500.958798
550.932864	48259.210265
551.291237	48985.847222
551.649555	48567.512111
552.007817	48796.251946
552.366022	48455.762333
552.724173	48634.430908
553.082267	49046.207477
553.440305	49338.077682
553.798288	48641.062546
554.156215	48957.175659
554.514086	49159.323408
554.871902	48928.657852
555.229661	48934.571125
555.587365	48743.518956
555.945014	48836.558492
556.302606	48761.591493
556.660143	48995.319550
557.017625	49073.890974
557.375050	48849.037868
557.732421	49206.221262
558.089735	49190.250887
558.446994	49109.640316
558.804197	49586.629252
559.161345	49527.327639
559.518437	48767.088871
559.875474	49064.826979
560.232455	49219.429085
560.589381	49412.107026
560.946251	49097.198748
561.303065	49796.348814
561.659825	49608.001224
562.016528	49271.723495
562.373177	48982.593157
562.729770	49465.502928
563.086307	48964.581114
563.442789	49440.385379
563.799216	49474.012396
564.155587	49274.049987
564.511904	49293.561773
564.868164	49378.474968
565.224370	49638.238064
565.580520	49361.007370
565.936615	49562.835006
566.292654	49279.018044
566.648638	49534.723011
567.004567	49474.564402
567.360441	49517.172234
567.716260	49369.473988
568.072023	49645.807357
568.427732	49619.898347
568.783385	49167.933699
569.138982	49563.883566
569.494525	49499.140027
569.850013	49300.130397
570.205445	49246.943703
570.560823	49203.889728
570.916145	49080.089072
571.271412	49109.307600
571.626625	48859.251246
571.981782	48894.667872
572.336884	48576.896219
572.691931	48897.652235
573.046923	48485.444647
573.401860	48325.629988
573.756743	48313.843770
574.111570	48424.050955
574.466342	48256.296478
574.821059	48346.384418
575.175722	47870.796923
575.530330	47879.044251
575.884882	47593.175540
576.239380	47548.911688
576.593823	47516.933129
576.948211	47407.540090
577.302544	46919.755524
577.656823	46942.672609
578.011047	47137.240983
578.365216	46857.272942
578.719330	46652.183680
579.073389	46489.573701
579.427394	46555.948053
579.781344	46498.879671
580.135239	46136.156049
580.489080	46217.336270
580.842866	45669.317477
581.196597	46102.304701
581.550273	46014.202976
581.903895	45857.604573
582.257463	46249.534120
582.610975	45615.495598
582.964434	45865.967847
583.317837	45502.152815
583.671186	45316.807232
584.024481	45519.015475
584.377721	45042.855809
584.730906	45301.915664
585.084037	45312.527293
585.437113	45002.609757
585.790135	45021.594743
586.143103	44601.192759
586.496016	44696.223550
586.848874	44691.976378
587.201679	44693.629876
587.554428	44135.722859
587.907124	44298.607581
588.259765	44004.536913
588.612352	44241.624899
588.964884	43595.984161
589.317362	43874.633940
589.669786	43762.049851
590.022155	43515.701266
590.374470	43914.799333
590.726731	43388.636462
591.078937	42895.651945
591.431090	42942.433853
591.783188	42584.345572
592.135232	42245.002821
592.487222	42449.343472
592.839157	42496.964732
593.191038	42143.544559
593.542866	41870.495502
593.894639	41234.347257
594.246358	41482.359423
594.598022	41432.338574
594.949633	41020.390606
595.301190	40923.824783
595.652692	40742.804510
596.004141	41011.140088
596.355535	40011.171770
596.706876	39933.401890
597.058162	39744.741748
597.409395	40182.528151
597.760573	40212.848171
598.111698	39744.338456
598.462768	39726.364222
598.813785	39733.983926
599.164748	39153.852983
599.515657	39485.089558
599.866511	38943.470509
600.217312	39481.490174
600.568060	38424.221581
600.918753	39100.147050
601.269392	39018.271150
601.619978	38638.941967
601.970510	38799.162439
602.320988	38931.933828
602.671412	39185.987818
603.021783	38896.207171
603.372100	38522.234214
603.722363	38571.032583
604.072572	38615.089747
604.422728	38573.921165
604.772830	38324.303391
605.122878	38383.816732
605.472872	38259.186807
605.822813	38494.618773
606.172701	38262.579503
606.522534	38451.204357
606.872314	38652.638782
607.222041	38350.673667
607.571714	38652.280860
607.921333	38064.116838
608.270899	38295.525964
608.620411	38572.502080
608.969870	38337.710339
609.319276	38251.925024
609.668627	38249.414530
610.017926	38658.110954
610.367171	38735.969055
610.716362	38744.501208
611.065500	38627.478383
611.414585	38733.887058
611.763616	38957.555493
612.112594	38819.284205
612.461518	38958.087335
612.810389	39147.155810
613.159207	38943.160478
613.507971	38949.950912
613.856682	39319.585956
614.205340	39143.984924
614.553945	39723.752904
614.902496	39143.364862
615.250994	39488.315896
615.599439	39472.383329
615.947830	39582.018343
616.296169	39545.197756
616.644454	39576.072302
616.992686	39648.135597
617.340864	40025.395386
617.688990	39689.599087
618.037063	40134.438064
618.385082	40019.285507
618.733048	40208.003622
619.080961	40143.509620
619.428821	40073.684598
619.776628	40093.173699
620.124382	39861.058812
620.472083	39918.071741
620.819731	39952.177667
621.167326	39613.165112
621.514868	39521.882419
621.862357	39081.429246
622.209793	39051.283146
622.557176	38696.786687
622.904506	38415.553317
623.251783	38040.907366
623.599007	37804.633526
623.946179	37536.761734
624.293297	37425.185876
624.640363	36824.300502
624.987376	36760.655935
625.334336	36475.571123
625.681243	36084.657369
626.028097	35979.188868
626.374899	35762.825066
626.721647	35670.813926
627.068343	35483.088918
627.414987	35198.266247
627.761577	34936.214467
628.108115	35129.232686
628.454600	34582.149027
628.801032	34644.518182
629.147412	34535.639341
629.493739	34441.768015
629.840014	34051.880136
630.186236	34243.534723
630.532405	33828.138605
630.878521	33913.381996
631.224585	33729.699993
631.570597	33406.015067
631.916556	33458.501040
632.262462	33315.639781
632.608316	33251.556633
632.954117	33078.425766
633.299866	32996.958200
633.645562	32865.568086
633.991206	32385.499006
634.336797	31974.602117
634.682336	31924.442637
635.027823	31631.203758
635.373257	31442.107557
635.718639	31179.196261
636.063968	31002.796205
636.409245	30496.888690
636.754470	30460.181529
637.099642	30197.000530
637.444762	29736.798637
637.789829	29771.663257
638.134845	29430.931668
638.479808	29321.047118
638.824719	29183.012763
639.169577	28778.901268
639.514383	28754.759183
639.859137	28436.932077
640.203839	28552.261074
640.548489	28189.857565
640.893086	28169.826540
641.237632	27892.248006
641.582125	27913.982941
641.926566	27776.898845
642.270955	27677.787239
642.615292	27619.698024
642.959576	27525.937603
643.303809	27440.787474
643.647990	27464.763201
643.992118	27369.419859
644.336195	27288.027909
644.680219	27252.621365
645.024192	27410.522907
645.368112	27696.847842
645.711981	27601.905271
646.055797	28158.763728
646.399562	27987.901380
646.743274	28583.138141
647.086935	28818.330653
647.430544	28642.500248
647.774101	28631.762590
648.117606	28741.911802
648.461059	28907.095290
648.804460	28555.157217
649.147810	28040.987251
649.491108	27798.555642
649.834354	27471.505745
650.177548	26806.514538
650.520690	26411.575422
650.863781	26358.721445
651.206820	26182.870875
651.549807	25794.384436
651.892742	25387.409566
652.235626	25170.642471
652.578458	24998.615616
652.921238	24509.139742
653.263967	24644.918180
653.606644	24354.154509
653.949269	24238.994390
654.291843	23889.652511
654.634365	24098.205046
654.976836	23729.316092
655.319255	23651.105111
655.661622	23590.366769
656.003938	23355.610317
656.346203	23192.014792
656.688416	23259.684721
657.030577	23062.699113
657.372687	22895.116036
657.714746	23003.878930
658.056753	23020.411394
658.398708	22566.941962
658.740612	22536.153115
659.082465	22640.268065
659.424266	22445.956790
659.766016	22454.403243
660.107715	22296.375673
660.449362	22307.866983
660.790958	22231.057443
661.132503	22156.254282
661.473996	22112.270214
661.815438	22110.349535
662.156829	22154.555413
662.498168	21946.186880
662.839456	21882.050800
663.180693	21904.844378
663.521879	21928.258017
663.863013	21830.169766
664.204097	21757.642685
664.545129	21951.023867
664.886110	21856.023323
665.227040	21814.290131
665.567918	21803.234881
665.908746	21771.291609
666.249522	21799.872431
666.590248	21732.817523
666.930922	21723.544321
667.271545	21630.025876
667.612118	21611.799584
667.952639	21416.603586
668.293109	21374.076412
668.633528	21239.396946
668.973896	21135.919702
669.314213	21087.607804
669.654480	20860.445850
669.994695	20798.946294
670.334859	20670.122128
670.674973	20539.316788
671.015035	20556.239942
671.355047	20454.958120
671.695008	20354.218222
672.034918	20222.402131
672.374777	20191.819971
672.714585	20020.544249
673.054342	20081.212015
673.394049	19871.285766
673.733705	19961.592996
674.073310	19720.003259
674.412864	19683.253248
674.752368	19391.413290
675.091820	19497.353138
675.431223	19207.698520
675.770574	18988.786415
676.109875	18848.922122
676.449125	18631.905490
676.788324	18518.764353
677.127473	18163.395775
677.466571	18053.745638
677.805619	17812.450809
678.144616	17742.701404
678.483562	17628.294938
678.822458	17381.356538
679.161303	17276.354344
679.500098	17172.420875
679.838842	17045.618212
680.177535	17064.522539
680.516179	17119.826517
680.854771	17181.293306
681.193314	17538.451494
681.531805	18047.280358
681.870247	18356.522379
682.208638	18665.053597
682.546978	18712.725268
682.885268	18704.765286
683.223508	18397.701044
683.561697	18163.582298
683.899836	17999.401999
684.237925	17685.496911
684.575963	17532.770114
684.913951	17240.675578
685.251889	17263.494361
685.589776	17181.593255
685.927614	17108.801514
686.265401	17117.182432
686.603137	17093.932630
686.940824	17256.683762
687.278460	17385.853247
687.616046	17389.498001
687.953582	17616.387733
688.291068	17504.955548
688.628504	17589.498218
688.965889	17504.592584
689.303224	17280.712422
689.640510	17068.817602
689.977745	16687.144282
690.314930	16265.277843
690.652065	15970.319932
690.989150	15587.081334
691.326185	15123.330468
691.663170	14752.659467
692.000105	14370.703843
692.336990	14022.818857
692.673825	13769.359724
693.010610	13490.077281
693.347345	13184.081763
693.684030	12838.656860
694.020665	12661.795539
694.357251	12329.326402
694.693786	12247.344637
695.030272	12108.193668
695.366707	11836.409941
695.703093	11673.623521
696.039429	11625.246088
696.375716	11479.914664
696.711952	11428.383989
697.048139	11318.655714
697.384276	11206.026255
697.720363	11223.912269
698.056400	11111.000505
698.392388	10979.917902
698.728326	10926.418657
699.064214	10815.442696
699.400053	10749.854764
699.735842	10576.988558
700.071581	10425.648078
700.407270	10272.548236
700.742910	10163.172841
701.078501	10021.092961
701.414042	9878.705571
701.749533	9730.936749
702.084974	9561.319566
702.420366	9592.914998
702.755709	9401.094052
703.091002	9252.163244
703.426246	9223.108554
703.761440	9147.314806
704.096584	9019.881999
704.431679	8966.168504
704.766725	8899.806755
705.101721	8844.838014
705.436668	8840.076644
705.771565	8700.484573
706.106413	8780.888457
706.441212	8753.273016
706.775961	8761.510261
707.110661	8754.797965
707.445311	8844.817849
707.779913	8765.185262
708.114465	8819.712903
708.448967	8883.881750
708.783421	9090.201054
709.117825	9168.666613
709.452180	9216.585301
709.786485	9327.336931
710.120742	9573.448582
710.454949	9571.590917
710.789107	9707.071926
711.123216	9938.057596
711.457275	9967.727307
711.791286	10131.158994
712.125247	10152.442745
712.459159	10040.476198
712.793023	10224.556451
713.126837	9836.611936
713.460602	9872.552843
713.794318	9715.881343
714.127985	9546.974962
714.461602	9220.035971
714.795171	9156.739243
715.128691	8798.502248
715.462162	8579.030574
715.795584	8399.081547
716.128957	8282.492261
716.462281	8121.434957
716.795556	8009.246599
717.128782	7821.007394
717.461960	7624.011704
717.795088	7563.865698
718.128167	7408.676297
718.461198	7253.456650
718.794180	7184.982657
719.127113	7047.361678
719.459997	6974.643033
719.792833	6851.366657
720.125619	6815.277037
720.458357	6700.941147
720.791046	6629.664273
721.123686	6562.173305
721.456278	6468.352391
721.788821	6440.220232
722.121315	6353.398960
722.453761	6349.305543
722.786158	6313.563762
723.118506	6298.510877
723.450805	6242.559110
723.783056	6270.655981
724.115259	6224.123611
724.447412	6193.589342
724.779518	6243.239666
725.111574	6239.148770
725.443582	6272.047340
725.775542	6257.523775
726.107453	6370.032247
726.439315	6327.852913
726.771129	6425.679024
727.102895	6511.812178
727.434612	6560.824797
727.766281	6580.881027
728.097901	6635.723740
728.429473	6628.096474
728.760996	6610.303722
729.092471	6608.657785
729.423897	6559.584673
729.755276	6505.825808
730.086606	6510.345202
730.417887	6618.329238
730.749120	6727.475260
731.080305	6749.689105
731.411442	6815.760988
731.742530	6812.751419
732.073570	6817.472459
732.404562	6879.221553
732.735506	6818.853736
733.066401	6730.678914
733.397249	6573.256282
733.728048	6385.281737
734.058798	6159.717829
734.389501	5967.014682
734.720156	5831.793292
735.050762	5690.177198
735.381320	5574.230660
735.711831	5500.435729
736.042293	5403.171707
736.372707	5391.645108
736.703073	5330.740408
737.033391	5361.312486
737.363661	5341.122665
737.693883	5353.014747
738.024056	5391.100664
738.354182	5424.684831
738.684260	5491.601107
739.014290	5539.169435
739.344272	5581.005970
739.674207	5643.796062
740.004093	5664.379093
740.333931	5654.364841
740.663722	5657.155120
740.993464	5640.020238
741.323159	5585.578297
741.652806	5510.462584
741.982405	5442.570845
742.311956	5347.648438
742.641460	5301.163959
742.970915	5219.285538
743.300323	5125.933451
743.629683	5060.547165
743.958996	4985.333150
744.288260	4906.733999
744.617477	4827.519828
744.946647	4795.274088
745.275768	4724.650043
745.604842	4675.619781
745.933869	4630.052791
746.262847	4605.310808
746.591778	4583.533023
746.920662	4558.541503
747.249498	4544.648083
747.578286	4562.526535
747.907027	4583.855657
748.235720	4621.502994
748.564365	4624.149600
748.892963	4596.690435
749.221514	4602.137402
749.550017	4559.554775
749.878473	4544.509452
750.206881	4489.291173
750.535242	4464.188747
750.863555	4436.187658
751.191821	4407.251435
751.520039	4402.888317
751.848210	4377.899317
752.176334	4375.013256
752.504411	4351.198846
752.832440	4320.041994
753.160421	4323.215401
753.488356	4295.310093
753.816243	4271.394860
754.144082	4241.664655
754.471875	4218.918969
754.799620	4205.859860
755.127318	4194.892829
755.454969	4180.545706
755.782572	4166.130526
756.110129	4157.978980
756.437638	4143.331908
756.765100	4137.453923
757.092515	4131.160042
757.419882	4127.928662
757.747203	4128.415134
758.074477	4137.040548
758.401703	4127.127119
758.728882	4152.640398
759.056014	4159.755987
759.383099	4174.221578
759.710138	4189.997869
760.037129	4199.835681
760.364073	4200.455743
760.690970	4190.466696
761.017820	4182.841951
761.344623	4205.007905
761.671379	4250.537086
761.998088	4345.212475
762.324751	4617.848158
762.651366	5129.948730
762.977935	5764.196460
763.304456	6144.186034
763.630931	6213.075922
763.957359	5989.412529
764.283740	5642.361854
764.610074	5304.990194
764.936362	4934.518319
765.262602	4660.196371
765.588796	4401.401176
765.914943	4220.073393
766.241044	4071.785332
766.567097	3954.407106
766.893104	3855.784492
767.219064	3788.101961
767.544978	3716.565467
767.870845	3657.049605
768.196665	3622.920993
768.522438	3581.255857
768.848165	3549.138666
769.173846	3512.902852
769.499479	3492.718072
769.825066	3459.378401
770.150607	3427.793052
770.476101	3412.288983
770.801548	3390.291908
771.126949	3357.103472
771.452303	3342.075792
771.777611	3314.641833
772.102872	3305.658497
772.428087	3281.501287
772.753256	3260.605705
773.078378	3241.469485
773.403453	3223.558265
773.728482	3199.544729
774.053465	3185.424457
774.378401	3171.770492
774.703291	3154.350785
775.028135	3136.139616
775.352932	3127.463791
775.677683	3113.194805
776.002388	3096.977413
776.327046	3093.504058
776.651658	3079.484609
776.976224	3065.528174
777.300743	3061.840570
777.625216	3049.824980
777.949643	3040.382899
778.274024	3037.363248
778.598359	3025.559386
778.922647	3021.836494
779.246889	3017.276770
779.571086	3014.408354
779.895236	3019.152080
780.219339	3018.572347
780.543397	3017.760721
780.867409	3022.869931
781.191374	3021.680218
781.515294	3014.917510
781.839167	3018.113602
782.162995	3013.271574
782.486776	3002.304543
782.810511	2995.619973
783.134201	2982.097078
783.457844	2977.282776
783.781441	2968.080150
784.104993	2962.774336
784.428498	2951.368725
784.751958	2949.621965
785.075372	2947.361008
785.398739	2937.271138
785.722061	2938.481015
786.045337	2936.330963
786.368568	2949.102726
786.691752	2952.003910
787.014891	2987.506236
787.337983	3032.243956
787.661030	3097.471446
787.984031	3155.265754
788.306987	3187.771114
788.629897	3190.516022
788.952760	3171.785615
789.275579	3141.284114
789.598351	3095.550766
789.921078	3056.496947
790.243759	3014.877181
790.566395	2986.245948
790.888984	2957.347533
791.211529	2936.245263
791.534027	2915.538724
791.856480	2893.821433
792.178888	2887.424209
792.501249	2876.615975
792.823566	2864.635673
793.145836	2859.624766
793.468062	2857.457070
793.790241	2848.370390
794.112375	2856.723582
794.434464	2866.337063
794.756507	2870.685058
795.078505	2886.544528
795.400457	2915.221131
795.722364	2950.431070
796.044226	2975.591469
796.366042	2996.272803
796.687812	2985.371308
797.009538	2988.121257
797.331218	2972.929740
797.652852	2961.352730
797.974442	2942.849175
798.295986	2931.733431
798.617484	2914.901018
798.938938	2894.880076
799.260346	2887.192316
799.581709	2870.821169
799.903026	2864.653317
800.224299	2855.554034
800.545526	2836.201045
800.866708	2829.576969
801.187845	2824.404745
801.508936	2815.250009
801.829983	2812.482416
802.150984	2794.475414
802.471940	2792.718572
802.792851	2791.382667
803.113717	2787.299332
803.434538	2781.784310
803.755314	2779.994700
804.076045	2778.192487
804.396731	2776.412960
804.717372	2773.912548
805.037967	2779.160389
805.358518	2780.130811
805.679024	2786.258334
805.999485	2787.427881
806.319901	2790.543314
806.640272	2794.261165
806.960598	2796.978347
807.280879	2795.108079
807.601115	2800.171918
807.921306	2794.321659
808.241453	2793.449540
808.561554	2792.683284
808.881611	2787.304373
809.201623	2786.805299
809.521590	2781.257509
809.841513	2778.222734
810.161390	2776.438166
810.481223	2765.879469
810.801011	2762.249838
811.120755	2761.476021
811.440453	2751.151738
811.760107	2748.842890
812.079716	2742.564133
812.399281	2734.853688
812.718801	2734.518451
813.038276	2726.679457
813.357707	2723.879096
813.677093	2729.207596
813.996434	2721.993704
814.315731	2721.832387
814.634983	2720.506564
814.954191	2721.250134
815.273354	2727.329766
815.592473	2730.901423
815.911547	2739.242012
816.230577	2744.147055
816.549562	2752.245669
816.868502	2758.158942
817.187399	2763.936104
817.506250	2771.205448
817.825058	2772.707712
818.143821	2787.581637
818.462539	2803.317598
818.781213	2828.392297
819.099843	2862.541074
819.418429	2933.437341
819.736970	3001.369409
820.055466	3066.735531
820.373919	3157.990498
820.692327	3305.396357
821.010691	3609.277111
821.329011	4410.147578
821.647286	5778.473008
821.965517	7287.363451
822.283704	8080.432732
822.601847	8104.592462
822.919945	7298.234699
823.237999	6523.212748
823.556010	5829.388662
823.873976	5246.850567
824.191897	4746.006891
824.509775	4375.358575
824.827609	4042.183677
825.145398	3845.187987
825.463144	3750.079058
825.780845	3763.070112
826.098502	3902.475659
826.416116	4162.074918
826.733685	4387.885843
827.051210	4427.965536
827.368692	4256.750308
827.686129	3996.435205
828.003522	3739.969024
828.320872	3508.149044
828.638177	3343.245340
828.955439	3207.217365
829.272656	3099.117383
829.589830	3008.651356
829.906960	2932.421548
830.224046	2877.563712
830.541088	2835.185252
830.858086	2803.015129
831.175041	2781.867489
831.491952	2773.547064
831.808819	2776.392796
832.125642	2794.724952
832.442421	2846.432067
832.759157	2958.028089
833.075849	3136.121972
833.392497	3316.481854
833.709101	3427.152825
834.025662	3398.438413
834.342179	3290.459418
834.658653	3163.515602
834.975083	3055.397976
835.291469	2973.161633
835.607811	2895.989129
835.924110	2845.869978
836.240366	2798.165539
836.556578	2754.630134
836.872746	2720.491441
837.188871	2691.058664
837.504952	2667.904644
837.820990	2652.614825
838.136984	2642.038484
838.452935	2636.538585
838.768842	2637.919861
839.084706	2666.314160
839.400526	2740.401478
839.716303	2829.773574
840.032037	2882.597304
840.347727	2866.417721
840.663373	2807.625264
840.978977	2755.761873
841.294537	2712.760831
841.610054	2676.963598
841.925527	2652.866882
842.240957	2634.322998
842.556344	2613.956736
842.871687	2596.796649
843.186987	2582.565471
843.502244	2568.805642
843.817458	2559.615618
844.132629	2553.205791
844.447756	2548.653629
844.762840	2538.430169
845.077881	2536.869932
845.392879	2533.018491
845.707833	2533.537730
846.022745	2526.275947
846.337613	2527.770650
846.652438	2527.339631
846.967221	2522.732016
847.281960	2524.198992
847.596656	2523.331914
847.911309	2520.612211
848.225919	2519.077180
848.540485	2517.179185
848.855009	2515.555934
849.169490	2515.931500
849.483928	2516.899401
849.798323	2514.666170
850.112675	2512.934534
850.426984	2515.896212
850.741251	2514.393948
851.055474	2511.941427
851.369654	2512.629544
851.683792	2514.177178
851.997887	2514.434277
852.311938	2510.794564
852.625947	2513.234483
852.939914	2510.834893
853.253837	2511.865809
853.567718	2509.272136
853.881555	2510.313134
854.195350	2510.300531
854.509103	2510.832373
854.822812	2509.438494
855.136479	2510.328257
855.450103	2509.655263
855.763685	2510.792043
856.077224	2509.012516
856.390720	2511.580984
856.704173	2513.814215
857.017584	2511.641478
857.330953	2515.172806
857.644278	2515.137518
857.957561	2515.747498
858.270802	2513.352950
858.584000	2515.898732
858.897155	2512.478309
859.210268	2511.472599
859.523339	2510.272805
859.836367	2510.096364
860.149352	2513.012672
860.462295	2507.621158
860.775195	2504.145282
861.088054	2505.511435
861.400869	2506.847341
861.713642	2504.775426
862.026373	2507.391785
862.339062	2509.766169
862.651708	2511.449914
862.964312	2510.287928
863.276873	2513.357991
863.589392	2514.761952
863.901869	2520.342509
864.214303	2518.734381
864.526696	2522.565658
864.839045	2521.985926
865.151353	2525.497089
865.463619	2524.352747
865.775842	2525.066071
866.088023	2524.594723
866.400162	2525.905423
866.712258	2523.462984
867.024313	2525.131606
867.336325	2524.917357
867.648296	2525.726462
867.960224	2524.181348
868.272110	2525.655886
868.583954	2526.923736
868.895755	2526.076822
869.207515	2524.488858
869.519233	2528.673016
869.830909	2529.169570
870.142542	2530.112266
870.454134	2528.360465
870.765684	2529.910619
871.077191	2530.812986
871.388657	2535.226516
871.700081	2535.014788
872.011463	2538.793133
872.322803	2539.554347
872.634101	2542.536189
872.945357	2542.344625
873.256571	2549.079607
873.567744	2548.101623
873.878874	2548.935934
874.189963	2550.133208
874.501010	2553.530946
874.812015	2550.246634
875.122979	2554.012376
875.433900	2553.130174
875.744780	2555.285267
876.055618	2553.276368
876.366415	2555.411296
876.677169	2555.948179
876.987882	2555.862479
877.298554	2558.521688
877.609183	2561.707697
877.919771	2567.192473
878.230317	2574.945767
878.540822	2588.695514
878.851285	2600.096084
879.161707	2625.395114
879.472087	2661.961124
879.782425	2718.676625
880.092722	2833.630056
880.402977	3039.704864
880.713191	3321.417144
881.023363	3606.380968
881.333494	3768.413735
881.643583	3790.478865
881.953631	3718.876836
882.263637	3613.930096
882.573602	3499.753002
882.883526	3400.041500
883.193408	3302.840492
883.503248	3209.437993
883.813048	3123.811475
884.122806	3044.524207
884.432522	2967.034111
884.742197	2897.662793
885.051831	2835.805314
885.361424	2782.180040
885.670975	2740.981210
885.980485	2706.356045
886.289954	2679.436284
886.599382	2656.801503
886.908768	2638.892804
887.218113	2618.249279
887.527417	2607.123452
887.836680	2594.664241
888.145901	2585.547314
888.455082	2574.146744
888.764221	2568.611558
889.073319	2562.904971
889.382376	2561.861453
889.691392	2553.115051
890.000366	2555.249979
890.309300	2554.498847
890.618193	2554.539177
890.927044	2552.812581
891.235855	2551.222097
891.544625	2554.985319
891.853353	2558.612429
892.162041	2566.753892
892.470687	2573.234296
892.779293	2583.961871
893.087858	2602.067175
893.396381	2628.384519
893.704864	2668.260046
894.013306	2719.347099
894.321707	2773.020264
894.630068	2804.739204
894.938387	2807.902528
895.246665	2794.944242
895.554903	2767.966507
895.863100	2739.683113
896.171256	2716.042622
896.479371	2692.631504
896.787446	2671.486384
897.095480	2652.667757
897.403473	2639.112094
897.711425	2620.464866
898.019336	2611.978083
898.327207	2598.712287
898.635038	2589.774321
898.942827	2577.330233
899.250576	2568.775395
899.558284	2559.658468
899.865952	2551.005328
900.173579	2546.765717
900.481165	2541.628782
900.788711	2539.261960
901.096216	2536.446475
901.403681	2532.655528
901.711105	2531.508665
902.018489	2531.859025
902.325832	2535.798687
902.633135	2540.754141
902.940397	2558.352809
903.247619	2601.784870
903.554800	2674.211128
903.861941	2769.788884
904.169041	2835.671724
904.476101	2858.097297
904.783121	2833.589727
905.090100	2795.556742
905.397039	2759.905702
905.703938	2723.503530
906.010796	2689.947089
906.317614	2665.313491
906.624391	2645.022847
906.931129	2625.624487
907.237826	2604.030704
907.544483	2587.601584
907.851099	2568.094839
908.157675	2552.346275
908.464211	2531.894313
908.770707	2522.895854
909.077163	2514.822446
909.383578	2504.893893
909.689954	2502.355672
909.996289	2498.852071
910.302584	2500.873573
910.608839	2495.885352
910.915054	2494.758654
911.221229	2496.712101
911.527363	2495.698829
911.833458	2498.509272
912.139513	2499.590600
912.445527	2498.867194
912.751502	2503.459685
913.057436	2510.287928
913.363331	2517.985770
913.669186	2523.084897
913.975000	2538.052083
914.280775	2556.996739
914.586510	2585.794330
914.892205	2620.777417
915.197859	2671.945129
915.503475	2726.427399
915.809050	2772.647218
916.114585	2799.231743
916.420081	2806.669966
916.725536	2802.468164
917.030952	2782.734567
917.336328	2760.024169
917.641665	2745.271232
917.946961	2720.496482
918.252218	2704.563915
918.557435	2679.917714
918.862612	2660.867193
919.167750	2642.777013
919.472848	2624.414610
919.777906	2606.271497
920.082925	2589.996132
920.387904	2570.610375
920.692843	2562.098387
920.997743	2554.042623
921.302603	2539.483771
921.607423	2534.188038
921.912204	2528.234436
922.216946	2521.323014
922.521647	2516.226407
922.826310	2510.653412
923.130932	2508.344563
923.435516	2499.154540
923.740059	2497.238901
924.044564	2495.759323
924.349028	2491.489465
924.653454	2485.198105
924.957840	2485.533342
925.262186	2480.882878
925.566493	2483.305152
925.870761	2472.794346
926.174989	2479.138638
926.479178	2474.289048
926.783328	2474.581435
927.087438	2474.541106
927.391509	2472.673359
927.695541	2471.435755
927.999533	2470.672021
928.303486	2468.232102
928.607400	2469.381485
928.911275	2468.025415
929.215110	2462.129785
929.518906	2464.920064
929.822663	2466.356793
930.126381	2462.349076
930.430060	2466.051803
930.733699	2465.530044
931.037299	2466.518110
931.340861	2469.053810
931.644383	2466.487863
931.947866	2465.008284
932.251309	2463.624488
932.554714	2465.189766
932.858080	2465.310753
933.161407	2464.466360
933.464694	2464.340331
933.767943	2464.191617
934.071153	2460.130968
934.374323	2462.669189
934.677455	2461.638273
934.980548	2463.858901
935.283602	2460.655248
935.586617	2462.462502
935.889593	2464.930146
936.192530	2460.995526
936.495428	2463.606843
936.798287	2461.925619
937.101108	2463.453088
937.403890	2469.595734
937.706632	2468.617750
938.009336	2472.799388
938.312002	2475.695530
938.614628	2477.003710
938.917216	2482.485965
939.219765	2478.687455
939.522275	2481.704586
939.824747	2485.823208
940.127179	2479.458752
940.429573	2477.767445
940.731929	2480.499750
941.034246	2476.247537
941.336524	2480.194760
941.638763	2482.301963
941.940964	2480.134266
942.243126	2476.217290
942.545250	2476.176961
942.847335	2475.551858
943.149381	2473.588328
943.451389	2473.341312
943.753359	2473.938688
944.055290	2471.395426
944.357182	2468.171608
944.659036	2468.007771
944.960851	2467.281845
945.262628	2467.707822
945.564367	2467.909468
945.866067	2466.281176
946.167729	2467.909468
946.469352	2466.036680
946.770937	2466.429890
947.072484	2464.776391
947.373992	2463.339662
947.675462	2465.835033
947.976893	2464.521813
948.278286	2464.118521
948.579641	2465.386371
948.880958	2465.068778
949.182236	2466.485342
949.483476	2462.961576
949.784678	2463.851339
950.085841	2463.856381
950.386967	2463.369909
950.688054	2464.100877
950.989103	2464.632718
951.290114	2465.293109
951.591087	2465.905610
951.892021	2466.197997
952.192917	2469.517596
952.493776	2466.387040
952.794596	2468.884932
953.095378	2469.341156
953.396122	2469.295786
953.696828	2468.514407
953.997496	2469.752010
954.298126	2466.545836
954.598718	2466.699591
954.899272	2466.739921
955.199788	2461.832357
955.500266	2461.018211
955.800706	2458.618622
956.101108	2451.729885
956.401472	2456.072839
956.701798	2452.912036
957.002087	2453.035544
957.302337	2453.511933
957.602550	2454.633590
957.902724	2450.149483
958.202861	2450.605708
958.502960	2450.522529
958.803022	2447.686880
959.103045	2448.682508
959.403031	2444.757969
959.702979	2446.724019
960.002889	2445.075562
960.302762	2445.854420
960.602596	2444.594132
960.902393	2444.402568
961.202153	2443.674121
961.501875	2442.986004
961.801559	2444.500870
962.101205	2439.510128
962.400814	2443.164965
962.700385	2440.352001
962.999918	2443.013730
963.299414	2440.523400
963.598873	2440.624223
963.898293	2440.659511
964.197677	2438.701023
964.497022	2440.011723
964.796331	2440.561209
965.095601	2437.914603
965.394835	2438.736311
965.694030	2441.030036
965.993189	2441.478699
966.292309	2438.239757
966.591393	2439.396702
966.890439	2438.897628
967.189447	2438.978286
967.488419	2438.327977
967.787353	2437.062648
968.086249	2436.193049
968.385108	2439.517690
968.683930	2438.310333
968.982714	2438.181784
969.281462	2439.368976
969.580172	2436.712288
969.878844	2438.703543
970.177480	2441.577001
970.476078	2438.416198
970.774639	2440.031888
971.073162	2437.229006
971.371649	2434.995775
971.670098	2435.058789
971.968510	2437.599531
972.266885	2437.171033
972.565223	2438.073399
972.863524	2438.706064
973.161788	2438.688420
973.460014	2441.138421
973.758204	2439.603389
974.056356	2439.399223
974.354471	2440.533482
974.652550	2439.321085
974.950591	2442.489450
975.248595	2439.673966
975.546563	2438.469130
975.844493	2438.206990
976.142386	2437.140786
976.440243	2438.418718
976.738062	2437.836465
977.035845	2438.451486
977.333590	2440.233534
977.631299	2437.092895
977.928971	2436.911413
978.226606	2437.203800
978.524204	2436.518203
978.821765	2438.146496
979.119290	2436.213213
979.416777	2436.498039
979.714228	2437.962494
980.011642	2436.182967
980.309020	2439.802515
980.606360	2437.171033
980.903664	2439.237906
981.200931	2439.641198
981.498162	2446.663525
981.795356	2445.834256
982.092513	2451.064453
982.389633	2458.074177
982.686717	2459.495783
982.983764	2463.732872
983.280775	2466.986937
983.577749	2468.395940
983.874686	2467.730507
984.171587	2466.412246
984.468451	2460.740948
984.765279	2461.620629
985.062070	2457.502006
985.358824	2456.352623
985.655543	2451.525718
985.952224	2450.298197
986.248869	2444.579008
986.545478	2438.128852
986.842050	2438.413677
987.138586	2434.892431
987.435086	2434.620209
987.731549	2433.914447
988.027975	2432.729776
988.324366	2432.071906
988.620719	2432.538212
988.917037	2432.782708
989.213318	2432.069385
989.509563	2430.310022
989.805772	2430.935125
990.101944	2429.289189
990.398080	2430.990578
990.694180	2428.757347
990.990244	2429.132913
991.286271	2429.795825
991.582262	2427.978489
991.878217	2429.657193
992.174136	2429.218612
992.470019	2431.076278
992.765865	2428.769950
993.061676	2431.109045
993.357450	2431.900506
993.653188	2430.851946
993.948890	2430.788932
994.244556	2430.897317
994.540186	2435.406629
994.835780	2434.153902
995.131337	2435.376382
995.426859	2437.289500
995.722345	2441.801332
996.017795	2443.890891
996.313208	2446.650923
996.608586	2445.415840
996.903928	2447.152517
997.199234	2447.439863
997.494504	2445.786365
997.789738	2444.546241
998.084936	2443.106991
998.380099	2442.565067
998.675225	2438.736311
998.970316	2439.653801
999.265371	2436.288831
999.560390	2435.855292
999.855373	2435.772112
1000.150320	2431.726587
1000.445232	2433.911927
1000.740108	2428.066709
1001.034948	2428.185176
1001.329752	2429.258942
1001.624521	2428.926226
1001.919254	2424.162335
1002.213951	2425.929260
1002.508613	2425.485638
1002.803239	2426.236770
1003.097829	2424.023703
1003.392384	2426.539239
1003.686903	2424.036306
1003.981386	2424.827767
1004.275834	2426.211564
1004.570246	2426.123344
1004.864623	2421.724937
1005.158964	2423.426327
1005.453270	2424.674012
1005.747540	2424.739547
1006.041775	2424.006059
1006.335974	2425.062181
1006.630138	2424.210226
1006.924266	2424.484969
1007.218359	2421.288877
1007.512416	2423.627973
1007.806438	2425.465473
1008.100425	2421.218301
1008.394376	2425.445309
1008.688292	2424.500092
1008.982172	2419.489186
1009.276017	2424.782397
1009.569827	2425.021852
1009.863602	2424.759712
1010.157341	2424.162335
1010.451045	2420.769639
1010.744714	2421.145205
1011.038347	2423.595205
1011.331945	2421.934145
1011.625508	2420.734351
1011.919036	2420.769639
1012.212528	2423.973292
1012.505986	2421.488003
1012.799408	2420.192427
1013.092795	2421.745102
1013.386147	2421.452715
1013.679464	2423.048240
1013.972745	2421.051943
1014.265992	2422.518919
1014.559204	2422.304670
1014.852380	2419.741243
1015.145521	2421.510688
1015.438628	2420.872982
1015.731699	2423.007911
1016.024736	2421.621594
1016.317737	2421.122519
1016.610703	2422.097983
1016.903635	2419.726120
1017.196531	2416.739236
1017.489393	2419.610173
1017.782219	2416.366191
1018.075011	2421.777869
1018.367768	2421.424989
1018.660490	2420.396593
1018.953177	2420.396593
1019.245829	2420.396593
