Dividing Wavelength (nm)	Counts (n)	Blue Motor Position (mm): 0.000000	Red Motor Position (mm): 37.200000	
326.493990	1992.566469
326.888308	1992.566469
327.282561	1992.566469
327.676750	1967.582511
328.070874	1968.610906
328.464933	1973.117698
328.858929	1984.850983
329.252859	1995.502941
329.646726	2012.113543
330.040528	2026.874042
330.434265	2042.667977
330.827938	2066.305947
331.221547	2082.757753
331.615091	2104.553181
332.008571	2126.532612
332.401986	2147.324851
332.795338	2166.876966
333.188625	2186.650892
333.581847	2207.309541
333.975006	2221.802858
334.368100	2240.835734
334.761129	2259.024218
335.154095	2274.082144
335.546996	2300.510393
335.939833	2341.716785
336.332606	2355.479135
336.725315	2366.804087
337.117960	2375.626106
337.510540	2383.505429
337.903056	2391.031872
338.295508	2398.659138
338.687896	2405.305899
339.080220	2412.227403
339.472480	2420.459608
339.864676	2420.537746
340.256807	2426.115782
340.648875	2429.039652
341.040879	2428.222985
341.432818	2428.827923
341.824694	2429.672316
342.216506	2430.320105
342.608253	2431.230033
342.999937	2427.388674
343.391557	2429.223654
343.783113	2426.088056
344.174605	2425.326842
344.566033	2422.917170
344.957397	2422.745771
345.348697	2422.110586
345.739934	2417.140008
346.131106	2416.777045
346.522215	2415.579771
346.913260	2413.971643
347.304241	2413.217990
347.695159	2412.728998
348.086012	2412.411406
348.476802	2409.326219
348.867528	2407.765982
349.258191	2406.440159
349.648789	2404.895045
350.039324	2408.260015
350.429796	2407.002248
350.820203	2404.358162
351.210548	2404.058214
351.600828	2402.477812
351.991045	2399.490928
352.381198	2402.553429
352.771288	2401.782133
353.161314	2403.672565
353.551276	2402.311454
353.941175	2403.334808
354.331010	2402.024108
354.720782	2402.593758
355.110490	2404.910169
355.500135	2405.535272
355.889717	2402.472771
356.279235	2404.784140
356.668689	2405.429408
357.058080	2406.505694
357.447408	2404.632905
357.836672	2403.130641
358.225873	2407.937382
358.615010	2403.768347
359.004084	2409.603483
359.393095	2410.692372
359.782043	2413.223031
360.170927	2410.163051
360.559748	2412.517270
360.948505	2414.201015
361.337199	2414.823598
361.725830	2416.499781
362.114398	2419.153949
362.502903	2418.397776
362.891344	2417.939031
363.279722	2418.564134
363.668037	2420.502458
364.056289	2420.416758
364.444478	2420.641089
364.832603	2423.973292
365.220665	2424.295926
365.608665	2425.692325
365.996601	2424.064033
366.384474	2427.219795
366.772284	2426.302305
367.160031	2426.738365
367.547715	2428.298602
367.935336	2428.729621
368.322893	2430.136103
368.710388	2429.447985
369.097820	2434.509303
369.485189	2434.458892
369.872495	2437.985179
370.259738	2436.838317
370.646918	2437.874274
371.034035	2440.024326
371.421090	2445.330140
371.808081	2449.673094
372.195010	2453.330451
372.581875	2460.413272
372.968678	2466.460137
373.355418	2473.585807
373.742096	2484.126860
374.128710	2493.626915
374.515262	2505.715602
374.901751	2520.587005
375.288177	2541.049049
375.674540	2558.282233
376.060841	2581.055646
376.447079	2604.948194
376.833254	2633.171094
377.219367	2657.797131
377.605417	2694.569827
377.991404	2721.045967
378.377329	2761.047523
378.763191	2795.158491
379.148991	2845.254957
379.534727	2895.066598
379.920402	2942.423198
380.306013	2993.318687
380.691563	3059.967782
381.077049	3115.564147
381.462474	3173.673527
381.847835	3246.891246
382.233134	3322.352278
382.618371	3383.960219
383.003545	3471.457006
383.388657	3552.075138
383.773706	3646.039725
384.158693	3723.605439
384.543618	3818.033812
384.928480	3899.203951
385.313280	4007.850898
385.698017	4113.687403
386.082692	4237.291454
386.467305	4304.285868
386.851856	4429.820681
387.236344	4591.460238
387.620770	4655.177902
388.005133	4779.331439
388.389435	4930.009007
388.773674	5017.757851
389.157851	5150.834230
389.541965	5286.468995
389.926018	5310.933715
390.310008	5497.607642
390.693936	5619.061641
391.077802	5739.247790
391.461606	5877.776177
391.845348	5995.154403
392.229027	6115.862311
392.612645	6347.715059
392.996200	6464.077492
393.379694	6637.881354
393.763125	6870.558330
394.146494	6967.867723
394.529801	7107.510205
394.913047	7359.898093
395.296230	7359.411621
395.679351	7413.326762
396.062410	7683.739295
396.445408	7583.198523
396.828343	7738.624858
397.211217	7880.266157
397.594028	7755.835357
397.976778	7962.089125
398.359466	8134.725959
398.742092	8106.001465
399.124656	8265.337214
399.507158	8451.038199
399.889598	8476.871592
400.271977	8683.576543
400.654294	8718.458807
401.036549	8922.996063
401.418742	8949.242830
401.800874	9250.499664
402.182944	9343.803860
402.564952	9710.262977
402.946898	9531.869145
403.328783	9594.555893
403.710606	9790.230800
404.092367	10050.568588
404.474067	10427.750239
404.855705	10205.281599
405.237282	10156.465586
405.618797	10598.882289
406.000250	10850.864364
406.381642	11219.299613
406.762972	11173.866214
407.144240	10968.524894
407.525447	11229.485264
407.906593	11162.420274
408.287677	11433.934300
408.668700	11591.538413
409.049661	11559.580018
409.430560	11725.872560
409.811399	11693.452900
410.192176	11861.156965
410.572891	11931.148345
410.953545	12430.509921
411.334138	11902.580126
411.714669	12522.352183
412.095139	11807.224180
412.475547	12325.812718
412.855894	12160.561174
413.236180	12498.066424
413.616405	12178.613546
413.996568	12459.221813
414.376670	12428.538830
414.756711	12303.911425
415.136691	12600.863113
415.516609	12782.828602
415.896466	12855.121269
416.276262	13144.654899
416.655997	13590.981016
417.035670	13620.176859
417.415283	14282.115647
417.794834	14384.670360
418.174324	14121.469197
418.553753	14030.196586
418.933121	14525.242935
419.312428	14323.803468
419.691674	14237.191404
420.070859	14708.027612
420.449983	14361.342421
420.829045	14913.585701
421.208047	14654.011648
421.586988	15119.708399
421.965867	15381.631630
422.344686	15374.584097
422.723444	15951.183712
423.102141	14610.241830
423.480777	15819.972560
423.859352	15327.857642
424.237866	16455.450331
424.616319	16144.247301
424.994712	16820.051783
425.373044	16601.527846
425.751314	17294.671377
426.129524	16410.962148
426.507673	17527.582767
426.885762	17211.388994
427.263789	17423.629133
427.641756	17588.028722
428.019662	17656.369124
428.397508	17690.127211
428.775292	18009.912805
429.153016	17962.737687
429.530679	18047.930667
429.908282	18080.017611
430.285824	17780.583155
430.663305	18498.695520
431.040726	18097.462524
431.418086	17916.379236
431.795385	18582.345906
432.172624	18992.267331
432.549802	18551.254590
432.926920	18737.416840
433.303977	18627.670921
433.680974	18891.305623
434.057910	19179.319345
434.434786	19202.657367
434.811601	19110.177399
435.188355	20181.783034
435.565050	19816.599329
435.941683	19763.997409
436.318257	20654.975981
436.694770	20463.049172
437.071222	21068.433775
437.447614	20127.328490
437.823946	20156.536936
438.200218	20306.949843
438.576429	20086.338868
438.952580	20354.263592
439.328670	20325.249231
439.704700	20741.189794
440.080670	20305.140069
440.456580	20902.826830
440.832429	21083.821898
441.208218	20060.712163
441.583947	20505.074751
441.959616	20616.252358
442.335224	20858.131960
442.710773	20997.083804
443.086261	21539.514479
443.461689	20888.444418
443.837057	21018.511229
444.212365	21672.573214
444.587612	21672.439623
444.962800	21243.646639
445.337927	21673.556239
445.712995	20392.218440
446.088002	22268.016662
446.462949	22457.153193
446.837837	22646.703098
447.212664	22590.779058
447.587431	25477.830222
447.962139	28440.037427
448.336786	30866.054907
448.711374	29291.400092
449.085901	25553.976850
449.460369	25493.394784
449.834776	25413.343782
450.209124	27943.163660
450.583412	27454.431357
450.957640	27994.134767
451.331808	26624.445705
451.705917	25240.724592
452.079965	25277.114161
452.453954	25649.337837
452.827883	25518.204823
453.201752	25318.623021
453.575562	25481.923638
453.949311	26636.584803
454.323001	26684.095158
454.696632	26440.378055
455.070202	28013.772582
455.443713	28160.976794
455.817164	28758.046015
456.190556	29286.200142
456.563888	28730.080214
456.937160	29174.324335
457.310373	27487.491243
457.683526	27951.559702
458.056619	27928.070446
458.429653	27874.195634
458.802628	28445.771740
459.175542	28568.775894
459.548398	29858.489570
459.921194	31453.498044
460.293930	32141.953302
460.666607	34178.728169
461.039224	35962.306044
461.411782	36354.754830
461.784280	35148.444523
462.156719	34691.128690
462.529099	34121.851351
462.901419	32825.316993
463.273680	31746.767169
463.645882	31834.276559
464.018024	31812.168579
464.390106	32651.689573
464.762130	35372.896857
465.134094	39452.155700
465.505999	44775.886383
465.877845	49401.896169
466.249631	50597.940166
466.621358	48904.906456
466.993026	46807.715879
467.364634	44737.301392
467.736184	42733.825866
468.107674	41470.757208
468.479105	40680.848729
468.850477	39978.023663
469.221790	38528.177735
469.593043	36772.137163
469.964238	35871.444287
470.335373	35794.914531
470.706449	37525.613222
471.077467	40122.525817
471.448425	44712.256940
471.819324	47548.652069
472.190164	45706.430451
472.560945	42135.662715
472.931667	38998.257769
473.302330	37875.653301
473.672934	37047.575727
474.043479	37543.758856
474.413965	36742.817812
474.784393	36363.912086
475.154761	37269.550333
475.525070	37298.983110
475.895321	36831.413570
476.265513	37441.496529
476.635645	38413.519211
477.005719	38236.859536
477.375734	38700.844816
477.745691	39403.425386
478.115588	40764.393252
478.485427	42724.000657
478.855207	46106.272089
479.224928	48736.980580
479.594591	50380.847917
479.964194	49389.888141
480.333739	49566.091591
480.703226	49592.860118
481.072653	50227.876624
481.442022	50707.363452
481.811333	50970.612505
482.180584	49674.405823
482.549777	49148.747067
482.918912	48633.697420
483.287988	48333.277418
483.657005	47498.613576
484.025964	46850.971500
484.394864	46881.896458
484.763706	46438.441278
485.132489	45564.229584
485.501213	45389.079734
485.869879	45538.355862
486.238487	45125.913860
486.607036	45311.692982
486.975527	44779.836128
487.343959	44980.690820
487.712333	45055.262088
488.080648	44960.226256
488.448905	45428.239417
488.817104	45231.203399
489.185244	46195.523198
489.553326	47861.722846
489.921350	50572.442010
490.289315	53432.028967
490.657222	54013.803327
491.025070	54302.868130
491.392861	53423.688378
491.760593	52200.686811
492.128267	50536.264169
492.495883	49018.312252
492.863440	47610.217160
493.230939	46253.743483
493.598380	45135.416435
493.965763	44814.796529
494.333088	43970.751100
494.700354	43485.391328
495.067563	43191.610526
495.434713	43051.204309
495.801805	43121.185607
496.168839	42739.146804
496.535815	42396.386151
496.902733	42411.020620
497.269593	42014.622091
497.636395	41923.145313
498.003139	42329.958867
498.369825	41781.945114
498.736453	42080.872934
499.103023	41606.954061
499.469535	41466.416774
499.835989	41568.341343
500.202385	41236.905643
500.568723	41255.227716
500.935003	41421.129569
501.301226	41217.436707
501.667390	41846.081194
502.033497	42096.170316
502.399546	41520.944415
502.765537	40838.024345
503.131470	41226.601524
503.497345	41569.420150
503.863163	40218.937885
504.228923	40839.627432
504.594625	41254.063210
504.960269	40542.040558
505.325856	41221.000802
505.691385	40582.974727
506.056856	40727.633158
506.422270	41145.476756
506.787625	40718.090253
507.152924	40926.191605
507.518164	41019.614268
507.883347	40223.903421
508.248472	40494.502477
508.613540	40939.386825
508.978550	41267.182813
509.343503	41009.352999
509.708398	41202.504809
510.073236	41732.224214
510.438016	41726.285735
510.802738	41175.113699
511.167403	41793.771661
511.532010	42026.728422
511.896561	42336.494723
512.261053	43179.000080
512.625488	42712.509347
512.989866	42601.873664
513.354186	42435.218159
513.718449	42419.600664
514.082655	43095.551339
514.446803	42776.416054
514.810894	43296.804283
515.174927	43186.206409
515.538904	43112.487096
515.902822	43781.112974
516.266684	43198.484139
516.630488	43642.027540
516.994235	43491.276875
517.357925	44058.532712
517.721558	44236.644239
518.085133	44545.752669
518.448651	44653.708979
518.812112	44435.701760
519.175516	44541.548347
519.538863	44854.230955
519.902152	44821.115616
520.265385	45275.379030
520.628560	45317.540720
520.991678	45101.244973
521.354739	45346.948291
521.717743	45646.380227
522.080690	45560.045426
522.443580	46095.244565
522.806413	46133.799310
523.169189	46057.493885
523.531908	46239.224960
523.894569	46091.062928
524.257174	46264.450894
524.619722	46550.128041
524.982213	46533.751853
525.344647	46446.355889
525.707025	46475.524006
526.069345	46851.261366
526.431608	46774.671116
526.793815	47098.136753
527.155964	46607.609798
527.518057	46769.259437
527.880093	46535.559107
528.242072	47036.314562
528.603995	46742.296826
528.965860	46732.214518
529.327669	46815.496900
529.689421	46706.003039
530.051117	46635.613408
530.412755	46788.720812
530.774337	46820.023857
531.135862	46606.911598
531.497331	46807.194120
531.858743	46701.327369
532.220098	47016.969134
532.581396	46718.610965
532.942638	46346.488111
533.303824	46629.422871
533.664953	46570.814416
534.026025	46284.761703
534.387040	46719.735142
534.747999	46648.669996
535.108902	46798.919066
535.469748	46298.639999
535.830537	46388.485964
536.191270	46554.350008
536.551947	46183.313523
536.912567	46463.468086
537.273131	46567.804847
537.633638	46033.051850
537.994089	46335.863879
538.354483	45899.839360
538.714821	46435.933304
539.075103	46750.720594
539.435328	46493.510842
539.795497	46335.717686
540.155609	46287.289842
540.515665	46736.295332
540.875665	46139.692419
541.235609	46439.646114
541.595496	46376.861063
541.955328	46995.609766
542.315102	46331.798189
542.674821	46080.889880
543.034483	46079.564056
543.394090	46000.107910
543.753640	45920.762669
544.113134	46873.840694
544.472571	45849.037132
544.831953	47027.537913
545.191278	46203.304218
545.550548	45885.777061
545.909761	46270.238139
546.268918	46431.192099
546.628019	46669.074066
546.987064	46191.694441
547.346053	45407.714360
547.704986	46233.276399
548.063863	45717.858747
548.422684	45862.348299
548.781449	45664.006621
549.140158	45965.429812
549.498811	45761.164779
549.857408	45143.250388
550.215949	45886.197998
550.574434	45747.231030
550.932864	45448.716584
551.291237	46077.378716
551.649555	45618.464837
552.007817	45772.262879
552.366022	45351.689496
552.724173	45436.761488
553.082267	45758.097237
553.440305	45958.551158
553.798288	45224.133181
554.156215	45428.748574
554.514086	45537.108176
554.871902	45211.293362
555.229661	45140.611344
555.587365	44878.796498
555.945014	44883.502415
556.302606	44695.855546
556.660143	44824.359598
557.017625	44820.732488
557.375050	44526.412282
557.732421	44754.637920
558.089735	44631.376667
558.446994	44455.788238
558.804197	44789.177386
559.161345	44618.012568
559.518437	43812.794106
559.875474	43996.271941
560.232455	44012.297769
560.589381	44081.865692
560.946251	43678.230586
561.303065	44195.374833
561.659825	43897.961879
562.016528	43469.889780
562.373177	43089.406173
562.729770	43410.187395
563.086307	42837.779499
563.442789	43134.106084
563.799216	43057.830906
564.155587	42724.141809
564.511904	42627.928868
564.868164	42556.546129
565.224370	42644.541990
565.580520	42264.093671
565.936615	42303.568426
566.292654	41905.652509
566.648638	41978.910557
567.004567	41799.256437
567.360441	41691.557226
567.716260	41410.883424
568.072023	41496.585560
568.427732	41324.662049
568.783385	40779.284820
569.138982	40958.465072
569.494525	40761.759249
569.850013	40403.406307
570.205445	40192.827228
570.560823	39994.258699
570.916145	39735.166077
571.271412	39586.421791
571.626625	39209.721570
571.981782	39093.543138
572.336884	38656.167590
572.691931	38753.056046
573.046923	38234.767457
573.401860	37937.863660
573.756743	37761.032586
574.111570	37663.531630
574.466342	37348.633434
574.821059	37263.942050
575.175722	36693.467436
575.530330	36532.768055
575.884882	36132.112270
576.239380	35932.941323
576.593823	35701.509512
576.948211	35459.150999
577.302544	34904.861011
577.656823	34727.939196
578.011047	34695.184299
578.365216	34311.071061
578.719330	33963.780931
579.073389	33662.783717
579.427394	33517.817777
579.781344	33294.623211
580.135239	32849.035622
580.489080	32713.894891
580.842866	32142.351553
581.196597	32269.993568
581.550273	32011.896573
581.903895	31718.861862
582.257463	31813.118836
582.610975	31177.169717
582.964434	31153.080563
583.317837	30714.278368
583.671186	30401.293290
584.024481	30338.583857
584.377721	29841.788227
584.730906	29834.609624
585.084037	29649.684978
585.437113	29256.384237
585.790135	29072.404807
586.143103	28616.142575
586.496016	28487.046187
586.848874	28303.454926
587.201679	28121.696124
587.554428	27570.831599
587.907124	27478.452455
588.259765	27125.501109
588.612352	27086.159945
588.964884	26510.046801
589.317362	26483.210218
589.669786	26250.127429
590.022155	25914.373980
590.374470	25955.371164
590.726731	25493.747665
591.078937	25007.626679
591.431090	24864.344484
591.783188	24494.666590
592.135232	24110.535708
592.487222	24062.039808
592.839157	23904.844028
593.191038	23531.798643
593.542866	23211.461043
593.894639	22698.783258
594.246358	22648.792656
594.598022	22455.424077
594.949633	22066.788924
595.301190	21861.331658
595.652692	21584.559709
596.004141	21572.229047
596.355535	20900.644011
596.706876	20692.958555
597.058162	20427.937535
597.409395	20489.812657
597.760573	20337.380768
598.111698	19948.838877
598.462768	19777.989132
598.813785	19627.661924
599.164748	19192.025573
599.515657	19187.029790
599.866511	18786.754613
600.217312	18883.406135
600.568060	18249.085308
600.918753	18403.077434
601.269392	18210.674236
601.619978	17890.384527
601.970510	17808.740519
602.320988	17704.204633
602.671412	17668.548552
603.021783	17384.305612
603.372100	17079.388902
603.722363	16958.363401
604.072572	16827.628637
604.422728	16673.104669
604.772830	16426.509067
605.122878	16306.713607
605.472872	16130.421937
605.822813	16069.784418
606.172701	15853.609659
606.522534	15780.031498
606.872314	15717.692589
607.222041	15470.635722
607.571714	15451.658298
607.921333	15117.689417
608.270899	15055.897474
608.620411	15025.123750
608.969870	14807.482015
609.319276	14662.490869
609.668627	14526.916598
610.017926	14530.828533
610.367171	14435.707002
610.716362	14322.104600
611.065500	14152.394155
611.414585	14075.146034
611.763616	14016.582950
612.112594	13848.974667
612.461518	13772.666721
612.810389	13717.773597
613.159207	13545.315724
613.507971	13429.429679
613.856682	13424.209565
614.205340	13256.641611
614.553945	13316.018841
614.902496	13025.295499
615.250994	13017.269982
615.599439	12894.167526
615.947830	12816.208602
616.296169	12697.378524
616.644454	12605.783279
616.992686	12508.882220
617.340864	12521.384281
617.688990	12325.444713
618.037063	12347.834998
618.385082	12223.250443
618.733048	12174.744460
619.080961	12051.026983
619.428821	11946.418000
619.776628	11847.621467
620.124382	11688.696571
620.472083	11600.501585
620.819731	11505.324600
621.167326	11324.967239
621.514868	11200.060049
621.862357	10990.363173
622.209793	10878.295802
622.557176	10700.668226
622.904506	10535.792248
623.251783	10361.590136
623.599007	10213.095388
623.946179	10060.257685
624.293297	9952.654257
624.640363	9736.824816
624.987376	9633.067788
625.334336	9501.652469
625.681243	9348.136731
626.028097	9245.415660
626.374899	9127.160273
626.721647	9028.711580
627.068343	8925.824150
627.414987	8802.210017
627.761577	8684.499074
628.108115	8655.865321
628.454600	8489.814754
628.801032	8435.055220
629.147412	8355.730144
629.493739	8277.970346
629.840014	8151.591140
630.186236	8127.333107
630.532405	8002.640167
630.878521	7962.131975
631.224585	7881.135756
631.570597	7769.075948
631.916556	7729.175215
632.262462	7652.877351
632.608316	7585.204902
632.954117	7505.516863
633.299866	7442.870444
633.645562	7368.324381
633.991206	7234.227168
634.336797	7109.526666
634.682336	7044.687346
635.027823	6952.509847
635.373257	6863.231013
635.718639	6774.070645
636.063968	6697.046856
636.409245	6571.983391
636.754470	6516.326532
637.099642	6429.361587
637.444762	6325.387788
637.789829	6280.856756
638.134845	6198.353232
638.479808	6136.987266
638.824719	6079.477783
639.169577	5989.740204
639.514383	5946.882834
639.859137	5873.372729
640.203839	5849.644018
640.548489	5768.534373
640.893086	5724.111725
641.237632	5653.170088
641.582125	5622.514831
641.926566	5576.471452
642.270955	5537.773035
642.615292	5489.476261
642.959576	5447.576710
643.303809	5408.046502
643.647990	5384.368203
643.992118	5338.682746
644.336195	5298.494668
644.680219	5269.008959
645.024192	5256.655611
645.368112	5262.563844
645.711981	5233.254575
646.055797	5266.138022
646.399562	5235.318928
646.743274	5282.151247
647.086935	5283.872801
647.430544	5246.427110
647.774101	5223.530189
648.117606	5201.001273
648.461059	5190.465261
648.804460	5127.866733
649.147810	5046.212644
649.491108	4990.601155
649.834354	4927.506074
650.177548	4837.140871
650.520690	4767.930869
650.863781	4737.517588
651.206820	4702.196744
651.549807	4640.240963
651.892742	4576.488011
652.235626	4539.042320
652.578458	4503.547556
652.921238	4435.446609
653.263967	4425.944034
653.606644	4385.103126
653.949269	4355.529197
654.291843	4305.490704
654.634365	4306.627484
654.976836	4259.893467
655.319255	4233.508068
655.661622	4211.999985
656.003938	4178.002443
656.346203	4147.314419
656.688416	4127.031337
657.030577	4096.534877
657.372687	4064.470618
657.714746	4057.286973
658.056753	4039.101011
658.398708	3983.476919
658.740612	3967.950166
659.082465	3960.937921
659.424266	3937.478911
659.766016	3917.518462
660.107715	3898.472983
660.449362	3883.039491
660.790958	3867.779918
661.132503	3849.165458
661.473996	3831.407993
661.815438	3818.926096
662.156829	3804.185762
662.498168	3782.150879
662.839456	3758.517950
663.180693	3747.301382
663.521879	3737.387953
663.863013	3718.965057
664.204097	3698.326573
664.545129	3698.697097
664.886110	3683.205632
665.227040	3671.190042
665.567918	3657.054646
665.908746	3646.304386
666.249522	3637.109321
666.590248	3623.536014
666.930922	3611.157461
667.271545	3596.399483
667.612118	3585.142587
667.952639	3563.349678
668.293109	3552.392731
668.633528	3532.482693
668.973896	3515.892256
669.314213	3499.816017
669.654480	3474.900114
669.994695	3464.235553
670.334859	3444.116308
670.674973	3427.646858
671.015035	3418.560178
671.355047	3406.373189
671.695008	3391.562279
672.034918	3380.507028
672.374777	3367.896582
672.714585	3352.326978
673.054342	3347.550485
673.394049	3336.195286
673.733705	3329.135150
674.073310	3309.401553
674.412864	3300.897127
674.752368	3277.322171
675.091820	3275.560288
675.431223	3250.785537
675.770574	3232.753330
676.109875	3217.617265
676.449125	3200.063968
676.788324	3186.500743
677.127473	3165.020387
677.466571	3150.806853
677.805619	3138.627426
678.144616	3130.201137
678.483562	3121.752163
678.822458	3105.063423
679.161303	3097.904985
679.500098	3086.166658
679.838842	3076.255750
680.177535	3071.025553
680.516179	3067.453895
680.854771	3064.151939
681.193314	3077.737849
681.531805	3091.520364
681.870247	3104.831530
682.208638	3111.586677
682.546978	3109.600462
682.885268	3103.856067
683.223508	3086.879982
683.561697	3078.264650
683.899836	3066.843916
684.237925	3051.339847
684.575963	3045.585370
684.913951	3030.968544
685.251889	3027.376722
685.589776	3019.570495
685.927614	3015.827439
686.265401	3011.333250
686.603137	3009.712519
686.940824	3013.581605
687.278460	3020.616535
687.616046	3020.608973
687.953582	3025.554345
688.291068	3019.268026
688.628504	3024.982174
688.965889	3017.680063
689.303224	3005.301509
689.640510	2995.214161
689.977745	2977.897797
690.314930	2961.524129
690.652065	2946.181378
690.989150	2928.002977
691.326185	2909.905235
691.663170	2892.795558
692.000105	2879.353322
692.336990	2863.130889
692.673825	2854.490351
693.010610	2842.457117
693.347345	2827.852894
693.684030	2812.053918
694.020665	2809.180460
694.357251	2793.386525
694.693786	2792.892492
695.030272	2787.110289
695.366707	2775.780295
695.703093	2771.921292
696.039429	2767.696805
696.375716	2762.486773
696.711952	2760.261103
697.048139	2755.464445
697.384276	2752.951430
697.720363	2752.207860
698.056400	2749.745256
698.392388	2744.300810
698.728326	2742.526324
699.064214	2736.786970
699.400053	2732.570045
699.735842	2726.530743
700.071581	2721.066132
700.407270	2715.639330
700.742910	2712.806202
701.078501	2710.023485
701.414042	2703.338915
701.749533	2697.249201
702.084974	2690.625125
702.420366	2690.468849
702.755709	2684.084227
703.091002	2682.251768
703.426246	2681.152797
703.761440	2679.736232
704.096584	2674.538803
704.431679	2670.432783
704.766725	2670.326919
705.101721	2668.159222
705.436668	2669.555622
705.771565	2661.149498
706.106413	2666.843481
706.441212	2663.596978
706.775961	2665.000940
707.110661	2664.522030
707.445311	2668.169305
707.779913	2666.394819
708.114465	2668.461692
708.448967	2668.018070
708.783421	2675.930161
709.117825	2678.057528
709.452180	2678.576767
709.786485	2681.354443
710.120742	2691.923222
710.454949	2691.865248
710.789107	2693.579241
711.123216	2698.885055
711.457275	2704.831096
711.791286	2705.332691
712.125247	2709.370655
712.459159	2708.110367
712.793023	2715.533466
713.126837	2702.111394
713.460602	2706.177084
713.794318	2698.670806
714.127985	2694.365661
714.461602	2684.537931
714.795171	2683.370904
715.128691	2670.286589
715.462162	2666.626712
715.795584	2659.042296
716.128957	2654.381749
716.462281	2649.038126
716.795556	2648.176089
717.128782	2640.747948
717.461960	2633.259314
717.795088	2636.039511
718.128167	2629.828809
718.461198	2623.436626
718.794180	2625.236318
719.127113	2616.351284
719.459997	2614.634772
719.792833	2609.651591
720.125619	2610.443052
720.458357	2605.948863
720.791046	2603.844182
721.123686	2602.016763
721.456278	2600.849736
721.788821	2596.574838
722.121315	2595.186000
722.453761	2595.566607
722.786158	2593.335897
723.118506	2592.680547
723.450805	2592.065526
723.783056	2593.038468
724.115259	2592.672985
724.447412	2593.746751
724.779518	2590.235587
725.111574	2593.459405
725.443582	2597.671289
725.775542	2593.696339
726.107453	2598.276227
726.439315	2597.089036
726.771129	2605.298555
727.102895	2604.686054
727.434612	2609.472630
727.766281	2609.265943
728.097901	2607.773761
728.429473	2607.221755
728.760996	2609.303751
729.092471	2608.761827
729.423897	2612.179730
729.755276	2608.776951
730.086606	2610.488422
730.417887	2612.472117
730.749120	2618.226594
731.080305	2621.762963
731.411442	2625.163221
731.742530	2624.759929
732.073570	2626.995681
732.404562	2629.692698
732.735506	2627.663634
733.066401	2625.274127
733.397249	2621.160545
733.728048	2611.547065
734.058798	2602.967021
734.389501	2597.764550
734.720156	2592.607450
735.050762	2584.362643
735.381320	2579.666808
735.711831	2581.869792
736.042293	2574.741601
736.372707	2577.829307
736.703073	2571.636250
737.033391	2575.880901
737.363661	2570.935529
737.693883	2572.112639
738.024056	2578.386355
738.354182	2578.779565
738.684260	2581.325347
739.014290	2580.894329
739.344272	2586.021182
739.674207	2585.973291
740.004093	2592.448653
740.333931	2587.641913
740.663722	2588.952613
740.993464	2590.119640
741.323159	2588.309866
741.652806	2584.166038
741.982405	2582.809967
742.311956	2579.177816
742.641460	2577.113463
742.970915	2572.606672
743.300323	2571.101887
743.629683	2567.613409
743.958996	2565.387740
744.288260	2560.502862
744.617477	2556.850546
744.946647	2553.301573
745.275768	2554.080432
745.604842	2549.835780
745.933869	2547.383259
746.262847	2546.586756
746.591778	2549.858465
746.920662	2548.152035
747.249498	2548.842673
747.578286	2547.968032
747.907027	2550.864175
748.235720	2551.317879
748.564365	2554.602191
748.892963	2552.449618
749.221514	2554.670247
749.550017	2549.555996
749.878473	2550.138249
750.206881	2549.845862
750.535242	2550.445760
750.863555	2544.046015
751.191821	2544.608103
751.520039	2546.969884
751.848210	2546.337219
752.176334	2546.107847
752.504411	2549.533311
752.832440	2543.940151
753.160421	2545.777651
753.488356	2545.613814
753.816243	2542.311858
754.144082	2541.369162
754.471875	2539.493853
754.799620	2539.692978
755.127318	2542.994934
755.454969	2539.410674
755.782572	2538.422608
756.110129	2540.003009
756.437638	2538.266332
756.765100	2538.210879
757.092515	2536.383461
757.419882	2537.348842
757.747203	2537.104346
758.074477	2538.898997
758.401703	2535.730632
758.728882	2541.011240
759.056014	2540.229861
759.383099	2539.675334
759.710138	2542.654656
760.037129	2542.256405
760.364073	2545.528114
760.690970	2543.420912
761.017820	2543.383103
761.344623	2543.884698
761.671379	2550.178578
761.998088	2552.852911
762.324751	2573.022567
762.651366	2603.692947
762.977935	2642.330871
763.304456	2660.582368
763.630931	2676.278001
763.957359	2662.757626
764.283740	2644.377579
764.610074	2627.651031
764.936362	2607.171343
765.262602	2585.723754
765.588796	2567.096691
765.914943	2555.955741
766.241044	2548.681356
766.567097	2539.665252
766.893104	2534.924047
767.219064	2526.001205
767.544978	2522.880730
767.870845	2518.016017
768.196665	2516.854031
768.522438	2513.242044
768.848165	2512.402692
769.173846	2510.784482
769.499479	2509.511590
769.825066	2510.532424
770.150607	2508.127794
770.476101	2506.325581
770.801548	2507.346415
771.126949	2502.912720
771.452303	2500.082112
771.777611	2497.755620
772.102872	2500.757627
772.428087	2495.361072
772.753256	2497.170846
773.078378	2495.388798
773.403453	2491.665906
773.728482	2491.759167
774.053465	2492.921153
774.378401	2494.700680
774.703291	2488.401759
775.028135	2490.365288
775.352932	2487.988384
775.677683	2488.999135
776.002388	2486.929742
776.327046	2483.796665
776.651658	2487.103662
776.976224	2484.522591
777.300743	2488.348827
777.625216	2481.820532
777.949643	2484.285657
778.274024	2481.979329
778.598359	2480.018320
778.922647	2479.857003
779.246889	2480.184678
779.571086	2478.001858
779.895236	2480.822384
780.219339	2481.936479
780.543397	2482.803557
780.867409	2481.339102
781.191374	2482.226345
781.515294	2481.376911
781.839167	2485.429998
782.162995	2481.649133
782.486776	2484.247848
782.810511	2481.429843
783.134201	2480.976139
783.457844	2481.989411
783.781441	2480.565285
784.104993	2481.283649
784.428498	2482.843887
784.751958	2479.108392
785.075372	2480.993783
785.398739	2477.800212
785.722061	2478.405151
786.045337	2478.697538
786.368568	2481.709627
786.691752	2482.682570
787.014891	2484.671305
787.337983	2489.036944
787.661030	2493.211019
787.984031	2499.643532
788.306987	2502.411125
788.629897	2504.843482
788.952760	2503.817607
789.275579	2503.404233
789.598351	2501.186125
789.921078	2495.701349
790.243759	2491.033241
790.566395	2487.154073
790.888984	2486.793631
791.211529	2485.157776
791.534027	2483.794144
791.856480	2480.792137
792.178888	2480.159472
792.501249	2478.193422
792.823566	2474.488174
793.145836	2480.305666
793.468062	2476.600418
793.790241	2476.171919
794.112375	2478.014461
794.434464	2477.487661
794.756507	2479.574698
795.078505	2482.193578
795.400457	2482.919504
795.722364	2483.259782
796.044226	2488.550473
796.366042	2487.481748
796.687812	2487.630462
797.009538	2491.050885
797.331218	2492.553149
797.652852	2491.310504
797.974442	2487.728765
798.295986	2487.000318
798.617484	2486.057622
798.938938	2486.148363
799.260346	2484.555358
799.581709	2480.313227
799.903026	2483.607621
800.224299	2478.548823
800.545526	2478.448000
800.866708	2477.132259
801.187845	2478.768114
801.508936	2475.191415
801.829983	2475.317444
802.150984	2473.235447
802.471940	2474.155458
802.792851	2473.825262
803.113717	2475.745942
803.434538	2474.924234
803.755314	2472.050776
804.076045	2472.181846
804.396731	2468.718573
804.717372	2471.798718
805.037967	2473.764768
805.358518	2473.379120
805.679024	2470.498101
805.999485	2474.352063
806.319901	2473.603452
806.640272	2474.422639
806.960598	2474.979687
807.280879	2474.069758
807.601115	2475.251909
807.921306	2472.910293
808.241453	2471.836527
808.561554	2475.357773
808.881611	2476.713843
809.201623	2474.825931
809.521590	2474.170581
809.841513	2476.093782
810.161390	2476.744090
810.481223	2474.054635
810.801011	2474.031950
811.120755	2472.035653
811.440453	2476.421457
811.760107	2471.405508
812.079716	2470.120014
812.399281	2466.734879
812.718801	2467.281845
813.038276	2466.074488
813.357707	2469.169757
813.677093	2469.774695
813.996434	2470.772844
814.315731	2472.083544
814.634983	2470.535909
814.954191	2475.385499
815.273354	2472.181846
815.592473	2473.205200
815.911547	2475.350211
816.230577	2476.260140
816.549562	2475.652681
816.868502	2477.076807
817.187399	2480.426653
817.506250	2481.825573
817.825058	2481.356746
818.143821	2483.474031
818.462539	2487.343116
818.781213	2491.887717
819.099843	2499.857781
819.418429	2511.293638
819.736970	2524.947603
820.055466	2536.549819
820.373919	2551.695966
820.692327	2582.177302
821.010691	2628.094652
821.329011	2728.816906
821.647286	2886.650392
821.965517	3058.160528
822.283704	3159.661640
822.601847	3193.936445
822.919945	3123.151083
823.237999	3041.625543
823.556010	2956.755198
823.873976	2875.874926
824.191897	2808.081489
824.509775	2755.779517
824.827609	2705.390664
825.145398	2676.134328
825.463144	2661.217554
825.780845	2665.399191
826.098502	2685.619259
826.416116	2721.910525
826.733685	2758.131216
827.051210	2767.076743
827.368692	2749.921697
827.686129	2711.689586
828.003522	2666.611588
828.320872	2628.044241
828.638177	2596.474015
828.955439	2570.222206
829.272656	2550.851573
829.589830	2531.680064
829.906960	2521.015503
830.224046	2510.310613
830.541088	2503.996568
830.858086	2498.625219
831.175041	2493.770587
831.491952	2493.016935
831.808819	2494.940135
832.125642	2498.496669
832.442421	2510.640809
832.759157	2530.528161
833.075849	2563.928326
833.392497	2598.213213
833.709101	2623.083745
834.025662	2619.537294
834.342179	2600.698502
834.658653	2576.440469
834.975083	2556.585885
835.291469	2538.677186
835.607811	2520.970133
835.924110	2512.437980
836.240366	2497.173366
836.556578	2487.678353
836.872746	2486.392859
837.188871	2476.547485
837.504952	2473.999182
837.820990	2471.075313
838.136984	2465.184725
838.452935	2468.179170
838.768842	2470.488018
839.084706	2472.869964
839.400526	2487.532160
839.716303	2507.084275
840.032037	2518.951151
840.347727	2515.220697
840.663373	2506.179388
840.978977	2495.502224
841.294537	2485.550986
841.610054	2476.771817
841.925527	2471.745786
842.240957	2465.845116
842.556344	2465.293109
842.871687	2460.745989
843.186987	2457.572582
843.502244	2454.764660
843.817458	2449.786520
844.132629	2448.879112
844.447756	2447.563371
844.762840	2445.622527
845.077881	2445.670418
845.392879	2442.305448
845.707833	2444.352156
846.022745	2440.087340
846.337613	2442.428956
846.652438	2445.158741
846.967221	2440.609100
847.281960	2443.495160
847.596656	2442.340736
847.911309	2441.030036
848.225919	2442.628082
848.540485	2442.446600
848.855009	2443.651436
849.169490	2443.583380
849.483928	2441.062803
849.798323	2438.345622
850.112675	2439.958791
850.426984	2442.169337
850.741251	2441.808894
851.055474	2442.391147
851.369654	2442.849893
851.683792	2441.521548
851.997887	2440.369645
852.311938	2438.834613
852.625947	2439.197577
852.939914	2437.909562
853.253837	2442.234872
853.567718	2441.521548
853.881555	2441.634974
854.195350	2441.534151
854.509103	2441.108174
854.822812	2442.038267
855.136479	2445.433484
855.450103	2439.313523
855.763685	2441.854265
856.077224	2441.866868
856.390720	2441.811415
856.704173	2440.898966
857.017584	2441.511466
857.330953	2440.117587
857.644278	2443.381734
857.957561	2443.832917
858.270802	2442.156734
858.584000	2440.024326
858.897155	2443.457352
859.210268	2442.421394
859.523339	2441.022474
859.836367	2439.631116
860.149352	2441.307299
860.462295	2440.367124
860.775195	2437.493667
861.088054	2436.102308
861.400869	2439.812597
861.713642	2435.341094
862.026373	2442.093719
862.339062	2437.312185
862.651708	2440.929213
862.964312	2440.813266
863.276873	2441.604727
863.589392	2445.491457
863.901869	2445.521704
864.214303	2446.376180
864.526696	2443.066662
864.839045	2443.560695
865.151353	2441.937444
865.463619	2447.026488
865.775842	2446.711416
866.088023	2445.365428
866.400162	2444.405088
866.712258	2445.715788
867.024313	2445.988011
867.336325	2446.350974
867.648296	2445.806529
867.960224	2445.980449
868.272110	2445.262085
868.583954	2446.739143
868.895755	2447.664194
869.207515	2448.261571
869.519233	2446.353494
869.830909	2447.545727
870.142542	2449.141253
870.454134	2444.057249
870.765684	2450.177210
871.077191	2450.305759
871.388657	2450.484720
871.700081	2450.681325
872.011463	2450.356171
872.322803	2449.912549
872.634101	2451.770214
872.945357	2453.302725
873.256571	2456.150977
873.567744	2454.994032
873.878874	2456.612243
874.189963	2453.297684
874.501010	2455.495627
874.812015	2453.421192
875.122979	2457.154167
875.433900	2454.124433
875.744780	2459.231122
876.055618	2455.636779
876.366415	2459.147943
876.677169	2458.366564
876.987882	2460.524178
877.298554	2453.244752
877.609183	2459.589044
877.919771	2460.990485
878.230317	2462.260855
878.540822	2471.627319
878.851285	2475.957670
879.161707	2484.555358
879.472087	2496.197903
879.782425	2517.937879
880.092722	2555.282747
880.402977	2608.492126
880.713191	2673.119718
881.023363	2732.653224
881.333494	2772.848864
881.643583	2787.692542
881.953631	2785.177006
882.263637	2764.155395
882.573602	2740.958525
882.883526	2715.815770
883.193408	2690.768797
883.503248	2664.791732
883.813048	2638.981024
884.122806	2617.120060
884.432522	2590.812799
884.742197	2572.266394
885.051831	2553.704866
885.361424	2536.653163
885.670975	2527.074970
885.980485	2513.915038
886.289954	2500.886176
886.599382	2493.573983
886.908768	2487.900164
887.218113	2481.888588
887.527417	2478.538741
887.836680	2474.891466
888.145901	2469.948615
888.455082	2470.833338
888.764221	2467.397791
889.073319	2463.659776
889.382376	2464.330249
889.691392	2461.418983
890.000366	2461.068622
890.309300	2463.072481
890.618193	2460.619960
890.927044	2459.833540
891.235855	2463.490897
891.544625	2461.313118
891.853353	2464.335290
892.162041	2465.963583
892.470687	2466.245888
892.779293	2471.960035
893.087858	2475.877012
893.396381	2483.905049
893.704864	2500.394664
894.013306	2518.194978
894.321707	2539.120808
894.630068	2550.423074
894.938387	2557.515978
895.246665	2549.233362
895.554903	2542.619368
895.863100	2533.535209
896.171256	2520.365195
896.479371	2515.893691
896.787446	2508.281549
897.095480	2498.847029
897.403473	2497.793428
897.711425	2490.874445
898.019336	2482.874133
898.327207	2479.776344
898.635038	2476.144193
898.942827	2471.327371
899.250576	2471.226547
899.558284	2463.785804
899.865952	2464.184056
900.173579	2462.699436
900.481165	2458.941256
900.788711	2455.427571
901.096216	2455.546038
901.403681	2455.334310
901.711105	2454.971347
902.018489	2456.256841
902.325832	2459.972172
902.633135	2460.718262
902.940397	2468.317802
903.247619	2478.233751
903.554800	2508.788185
903.861941	2541.742207
904.169041	2571.051476
904.476101	2579.266036
904.783121	2573.753534
905.090100	2559.489590
905.397039	2546.659853
905.703938	2528.867101
906.010796	2519.533404
906.317614	2511.248268
906.624391	2499.575476
906.931129	2490.488796
907.237826	2484.331027
907.544483	2474.697382
907.851099	2472.963225
908.157675	2459.914198
908.464211	2458.537963
908.770707	2450.570420
909.077163	2449.899946
909.383578	2443.820315
909.689954	2444.342074
909.996289	2438.701023
910.302584	2444.846189
910.608839	2443.411981
910.915054	2442.610438
911.221229	2443.858123
911.527363	2440.956939
911.833458	2442.693617
912.139513	2441.667742
912.445527	2444.924327
912.751502	2444.954574
913.057436	2448.445573
913.363331	2450.552776
913.669186	2454.298353
913.975000	2458.346399
914.280775	2468.103553
914.586510	2478.848772
914.892205	2492.414517
915.197859	2515.230779
915.503475	2537.903369
915.809050	2558.816596
916.114585	2568.137689
916.420081	2573.456106
916.725536	2571.853019
917.030952	2563.338511
917.336328	2555.857438
917.641665	2547.857127
917.946961	2538.089892
918.252218	2530.024045
918.557435	2520.458456
918.862612	2511.081910
919.167750	2502.590086
919.472848	2497.939622
919.777906	2490.640031
920.082925	2484.313383
920.387904	2474.775520
920.692843	2470.034315
920.997743	2468.932822
921.302603	2461.000567
921.607423	2459.210957
921.912204	2456.950000
922.216946	2453.955554
922.521647	2452.324741
922.826310	2450.424226
923.130932	2447.260902
923.435516	2444.147990
923.740059	2441.208997
924.044564	2441.244285
924.349028	2440.780499
924.653454	2435.020981
924.957840	2436.745055
925.262186	2431.862698
925.566493	2435.661207
925.870761	2431.771957
926.174989	2435.210024
926.479178	2435.794798
926.783328	2434.370672
927.087438	2431.661052
927.391509	2434.068202
927.695541	2434.111052
927.999533	2432.001329
928.303486	2434.726073
928.607400	2432.124838
928.911275	2432.510486
929.215110	2429.095104
929.518906	2428.512851
929.822663	2430.506627
930.126381	2428.318767
930.430060	2428.333890
930.733699	2431.920671
931.037299	2426.897161
931.340861	2431.381267
931.644383	2430.070568
931.947866	2429.977306
932.251309	2429.815989
932.554714	2431.351021
932.858080	2431.691298
933.161407	2430.171391
933.464694	2430.554518
933.767943	2431.197265
934.071153	2428.921184
934.374323	2431.749272
934.677455	2429.274065
934.980548	2426.360278
935.283602	2431.822368
935.586617	2427.325659
935.889593	2427.250042
936.192530	2431.895465
936.495428	2428.830444
936.798287	2429.115269
937.101108	2433.377564
937.403890	2430.514189
937.706632	2433.198603
938.009336	2432.560897
938.312002	2435.174736
938.614628	2437.241609
938.917216	2438.136414
939.219765	2435.971238
939.522275	2437.695313
939.824747	2437.622216
940.127179	2436.072061
940.429573	2434.957966
940.731929	2436.979469
941.034246	2434.554674
941.336524	2439.971394
941.638763	2438.527103
941.940964	2436.679520
942.243126	2435.247832
942.545250	2438.378389
942.847335	2434.753799
943.149381	2437.319747
943.451389	2435.527617
943.753359	2434.796649
944.055290	2433.435538
944.357182	2434.322781
944.659036	2429.145516
944.960851	2434.330342
945.262628	2430.788932
945.564367	2431.953438
945.866067	2433.344797
946.167729	2431.681216
946.469352	2429.432862
946.770937	2431.746751
947.072484	2430.441092
947.373992	2431.260280
947.675462	2428.500248
947.976893	2430.226843
948.278286	2430.703232
948.579641	2427.429003
948.880958	2427.476894
949.182236	2428.870773
949.483476	2431.378747
949.784678	2431.852615
950.085841	2428.638880
950.386967	2430.630136
950.688054	2432.092070
950.989103	2431.403953
951.290114	2428.747265
951.591087	2432.001329
951.892021	2429.619384
952.192917	2433.380085
952.493776	2433.730445
952.794596	2433.506114
953.095378	2431.812286
953.396122	2433.188521
953.696828	2432.417225
953.997496	2433.236412
954.298126	2432.497883
954.598718	2432.429828
954.899272	2431.033428
955.199788	2429.838674
955.500266	2427.797007
955.800706	2427.625608
956.101108	2423.950607
956.401472	2425.006728
956.701798	2422.793662
957.002087	2423.920360
957.302337	2426.662748
957.602550	2426.204002
957.902724	2423.144022
958.202861	2424.200144
958.502960	2422.748292
958.803022	2423.499423
959.103045	2422.657551
959.403031	2422.057653
959.702979	2418.690163
960.002889	2418.551531
960.302762	2419.647982
960.602596	2421.888775
960.902393	2420.862900
961.202153	2416.444329
961.501875	2420.520102
961.801559	2416.469534
962.101205	2420.923394
962.400814	2419.557241
962.700385	2418.770821
962.999918	2419.005235
963.299414	2419.206881
963.598873	2417.913825
963.898293	2413.540624
964.197677	2420.381470
964.497022	2417.944072
964.796331	2419.015317
965.095601	2416.792168
965.394835	2418.632189
965.694030	2417.213105
965.993189	2417.021541
966.292309	2417.147570
966.591393	2416.761921
966.890439	2415.070614
967.189447	2417.356778
967.488419	2414.856365
967.787353	2417.301325
968.086249	2416.661098
968.385108	2419.554721
968.683930	2415.420974
968.982714	2417.525656
969.281462	2418.768301
969.580172	2418.198650
969.878844	2415.123546
970.177480	2415.115985
970.476078	2420.590678
970.774639	2420.847777
971.073162	2420.217632
971.371649	2415.509195
971.670098	2416.436767
971.968510	2417.649164
972.266885	2412.003072
972.565223	2417.109761
972.863524	2418.067580
973.161788	2418.717889
973.460014	2417.586150
973.758204	2418.238979
974.056356	2420.288208
974.354471	2419.811819
974.652550	2418.347364
974.950591	2418.659916
975.248595	2417.344175
975.546563	2419.141346
975.844493	2420.525143
976.142386	2417.883578
976.440243	2418.687642
976.738062	2418.309556
977.035845	2415.667991
977.333590	2418.833836
977.631299	2417.510533
977.928971	2419.179155
978.226606	2416.693866
978.524204	2416.363670
978.821765	2418.329720
979.119290	2416.005748
979.416777	2417.646644
979.714228	2415.917528
980.011642	2417.150090
980.309020	2418.559093
980.606360	2416.756880
980.903664	2419.862231
981.200931	2418.627148
981.498162	2417.737385
981.795356	2423.617891
982.092513	2424.106882
982.389633	2426.292223
982.686717	2429.720207
982.983764	2432.180290
983.280775	2430.887234
983.577749	2433.866556
983.874686	2435.668769
984.171587	2431.638366
984.468451	2428.553180
984.765279	2429.999991
985.062070	2432.606268
985.358824	2429.480752
985.655543	2425.473035
985.952224	2422.886923
986.248869	2421.349371
986.545478	2415.615059
986.842050	2419.925245
987.138586	2414.886612
987.435086	2415.191602
987.731549	2408.691034
988.027975	2415.320151
988.324366	2412.807136
988.620719	2415.801582
988.917037	2416.184709
989.213318	2414.866448
989.509563	2411.015006
989.805772	2410.813360
990.101944	2411.957702
990.398080	2410.533576
990.694180	2414.400141
990.990244	2411.975346
991.286271	2412.507187
991.582262	2408.804460
991.878217	2414.400141
992.174136	2415.554565
992.470019	2410.926786
992.765865	2414.707651
993.061676	2415.763773
993.357450	2414.715213
993.653188	2414.727816
993.948890	2415.448701
994.244556	2414.952147
994.540186	2415.720923
994.835780	2413.775038
995.131337	2415.279822
995.426859	2418.526325
995.722345	2422.372726
996.017795	2420.401634
996.313208	2420.754515
996.608586	2420.515060
996.903928	2421.687129
997.199234	2421.465318
997.494504	2424.661409
997.789738	2421.677046
998.084936	2421.513209
998.380099	2419.249731
998.675225	2419.958013
998.970316	2417.616397
999.265371	2418.322158
999.560390	2417.513053
999.855373	2415.370563
1000.150320	2417.182858
1000.445232	2412.819739
1000.740108	2415.524318
1001.034948	2412.882753
1001.329752	2412.807136
1001.624521	2413.346540
1001.919254	2407.904614
1002.213951	2410.158010
1002.508613	2407.816394
1002.803239	2412.182033
1003.097829	2405.898235
1003.392384	2410.110119
1003.686903	2408.239851
1003.981386	2411.055335
1004.275834	2410.624317
1004.570246	2410.304203
1004.864623	2408.822104
1005.158964	2411.577095
1005.453270	2410.463000
1005.747540	2409.338822
1006.041775	2411.516601
1006.335974	2411.730850
1006.630138	2410.699934
1006.924266	2409.132135
1007.218359	2410.828483
1007.512416	2409.227917
1007.806438	2409.805129
1008.100425	2409.323699
1008.394376	2409.971487
1008.688292	2410.218504
1008.982172	2409.671538
1009.276017	2409.553071
1009.569827	2408.587690
1009.863602	2408.607855
1010.157341	2410.064748
1010.451045	2411.173802
1010.744714	2409.106929
1011.038347	2410.193298
1011.331945	2411.914852
1011.625508	2408.275139
1011.919036	2409.285890
1012.212528	2409.079203
1012.505986	2408.920407
1012.799408	2407.158523
1013.092795	2407.771023
1013.386147	2408.920407
1013.679464	2407.801270
1013.972745	2408.965777
1014.265992	2407.370252
1014.559204	2410.142886
1014.852380	2406.664490
1015.145521	2409.192629
1015.438628	2409.076682
1015.731699	2409.676580
1016.024736	2407.047618
1016.317737	2408.713719
1016.610703	2408.832186
1016.903635	2407.730694
1017.196531	2403.969993
1017.489393	2406.719943
1017.782219	2404.363203
1018.075011	2408.204563
1018.367768	2408.295303
1018.660490	2406.664490
1018.953177	2406.664490
1019.245829	2406.664490
