Dividing Wavelength (nm)	Counts (n)	Blue Motor Position (mm): 0.000000	Red Motor Position (mm): 40.200000	
326.493990	1994.003198
326.888308	1994.003198
327.282561	1994.003198
327.676750	1970.942440
328.070874	1972.981587
328.464933	1976.903604
328.858929	1987.492548
329.252859	2001.287665
329.646726	2014.961795
330.040528	2027.791532
330.434265	2050.474203
330.827938	2068.024981
331.221547	2089.306212
331.615091	2106.922524
332.008571	2126.648559
332.401986	2150.326858
332.795338	2171.658501
333.188625	2189.531912
333.581847	2209.142000
333.975006	2227.852243
334.368100	2245.002248
334.761129	2263.709970
335.154095	2276.146497
335.546996	2306.693368
335.939833	2352.487210
336.332606	2364.026411
336.725315	2374.943030
337.117960	2386.845194
337.510540	2392.980278
337.903056	2403.733059
338.295508	2410.314286
338.687896	2415.725964
339.080220	2425.410021
339.472480	2431.257759
339.864676	2435.257915
340.256807	2436.084664
340.648875	2437.589448
341.040879	2439.830241
341.432818	2439.195056
341.824694	2441.345108
342.216506	2439.610951
342.608253	2443.391817
342.999937	2438.711105
343.391557	2440.788061
343.783113	2437.675148
344.174605	2436.261104
344.566033	2437.541557
344.957397	2433.186001
345.348697	2431.235074
345.739934	2431.834971
346.131106	2429.072419
346.522215	2427.376071
346.913260	2425.079825
347.304241	2425.072263
347.695159	2424.411872
348.086012	2425.205854
348.476802	2420.678898
348.867528	2419.469021
349.258191	2418.599422
349.648789	2417.697055
350.039324	2415.927610
350.429796	2417.278640
350.820203	2416.469534
351.210548	2414.700089
351.600828	2413.868299
351.991045	2414.080028
352.381198	2413.603638
352.771288	2414.949627
353.161314	2415.257137
353.551276	2414.044739
353.941175	2411.864440
354.331010	2416.381314
354.720782	2412.696231
355.110490	2415.809143
355.500135	2416.638413
355.889717	2416.353588
356.279235	2414.258988
356.668689	2416.794689
357.058080	2416.761921
357.447408	2416.479617
357.836672	2413.611200
358.225873	2415.153793
358.615010	2420.946079
359.004084	2424.043868
359.393095	2421.062026
359.782043	2421.198137
360.170927	2423.481779
360.559748	2426.902202
360.948505	2424.358940
361.337199	2426.637542
361.725830	2428.054106
362.114398	2428.588468
362.502903	2428.706935
362.891344	2430.083170
363.279722	2428.573345
363.668037	2431.048551
364.056289	2429.276586
364.444478	2432.888573
364.832603	2433.402770
365.220665	2434.267328
365.608665	2436.016608
365.996601	2434.234561
366.384474	2437.289500
366.772284	2441.123297
367.160031	2438.789243
367.547715	2440.460386
367.935336	2442.489450
368.322893	2441.365273
368.710388	2441.065324
369.097820	2445.985490
369.485189	2445.438525
369.872495	2448.286777
370.259738	2449.655450
370.646918	2450.333485
371.034035	2450.739298
371.421090	2457.136523
371.808081	2459.846143
372.195010	2464.920064
372.581875	2471.949953
372.968678	2478.594194
373.355418	2485.868579
373.742096	2497.826196
374.128710	2508.994872
374.515262	2519.906450
374.901751	2534.820703
375.288177	2553.127653
375.674540	2573.718246
376.060841	2595.589292
376.447079	2619.549897
376.833254	2648.597025
377.219367	2671.443534
377.605417	2707.611292
377.991404	2733.147257
378.377329	2776.942281
378.763191	2811.174237
379.148991	2857.245342
379.534727	2906.615882
379.920402	2956.379632
380.306013	3007.819566
380.691563	3074.403126
381.077049	3130.609471
381.462474	3187.884540
381.847835	3263.852208
382.233134	3337.747962
382.618371	3398.148546
383.003545	3488.382680
383.388657	3572.073395
383.773706	3664.628980
384.158693	3741.284765
384.543618	3836.219774
384.928480	3919.124070
385.313280	4024.930327
385.698017	4133.927635
386.082692	4255.729474
386.467305	4321.342612
386.851856	4446.239719
387.236344	4610.903968
387.620770	4679.420811
388.005133	4798.054284
388.389435	4951.098674
388.773674	5035.185120
389.157851	5173.864742
389.541965	5308.307274
389.926018	5332.280481
390.310008	5518.856105
390.693936	5642.334127
391.077802	5764.153610
391.461606	5902.745012
391.845348	6018.283217
392.229027	6135.008613
392.612645	6367.393203
392.996200	6488.080947
393.379694	6668.592063
393.763125	6897.377268
394.146494	6989.068295
394.529801	7130.956611
394.913047	7385.353399
395.296230	7376.652368
395.679351	7438.570340
396.062410	7713.192237
396.445408	7601.815504
396.828343	7756.553721
397.211217	7904.866988
397.594028	7778.931403
397.976778	7994.314701
398.359466	8165.827358
398.742092	8136.104715
399.124656	8290.459805
399.507158	8474.761869
399.889598	8500.106270
400.271977	8706.934730
400.654294	8749.782017
401.036549	8948.234600
401.418742	8972.117066
401.800874	9287.975601
402.182944	9365.427889
402.564952	9743.897555
402.946898	9561.647241
403.328783	9613.684551
403.710606	9816.336415
404.092367	10079.905583
404.474067	10450.521131
404.855705	10235.271423
405.237282	10192.000679
405.618797	10625.471855
406.000250	10883.785619
406.381642	11256.276477
406.762972	11206.106913
407.144240	10995.555561
407.525447	11260.629513
407.906593	11195.981756
408.287677	11462.615945
408.668700	11619.557146
409.049661	11593.010430
409.430560	11751.428690
409.811399	11728.020092
410.192176	11893.750545
410.572891	11967.399282
410.953545	12473.155562
411.334138	11931.299579
411.714669	12548.969475
412.095139	11835.497492
412.475547	12357.619878
412.855894	12197.782533
413.236180	12536.351467
413.616405	12209.140253
413.996568	12505.592867
414.376670	12473.291673
414.756711	12340.984070
415.136691	12632.214048
415.516609	12820.307060
415.896466	12892.375396
416.276262	13183.870034
416.655997	13627.219351
417.035670	13659.875945
417.415283	14326.553418
417.794834	14420.618828
418.174324	14166.673224
418.553753	14060.272110
418.933121	14571.493001
419.312428	14365.627401
419.691674	14282.710503
420.070859	14745.952212
420.449983	14397.013625
420.829045	14957.199243
421.208047	14697.831878
421.586988	15159.518391
421.965867	15426.114771
422.344686	15418.729481
422.723444	15995.112327
423.102141	14656.814530
423.480777	15879.294338
423.859352	15363.246542
424.237866	16510.575348
424.616319	16204.100921
424.994712	16873.170421
425.373044	16655.049777
425.751314	17353.587342
426.129524	16446.857684
426.507673	17582.707784
426.885762	17267.028209
427.263789	17475.026217
427.641756	17639.990415
428.019662	17700.219601
428.397508	17746.489831
428.775292	18065.942709
429.153016	18014.182662
429.530679	18107.837218
429.908282	18122.630484
430.285824	17829.711719
430.663305	18563.396209
431.040726	18153.822624
431.418086	17968.819839
431.795385	18635.819946
432.172624	19058.558504
432.549802	18608.791799
432.926920	18802.994690
433.303977	18682.463222
433.680974	18943.542059
434.057910	19234.212469
434.434786	19259.796325
434.811601	19171.230813
435.188355	20232.451671
435.565050	19867.333501
435.941683	19820.163425
436.318257	20715.668953
436.694770	20520.195692
437.071222	21130.389556
437.447614	20178.886891
437.823946	20199.432114
438.200218	20369.709688
438.576429	20137.841817
438.952580	20424.829664
439.328670	20379.668487
439.704700	20803.180863
440.080670	20362.442864
440.456580	20969.405349
440.832429	21156.187661
441.208218	20116.633682
441.583947	20577.153168
441.959616	20685.474962
442.335224	20929.532343
442.710773	21059.873896
443.086261	21597.391966
443.461689	20960.235490
443.837057	21094.075604
444.212365	21733.694684
444.587612	21731.932801
444.962800	21300.021862
445.337927	21736.316084
445.712995	20443.602921
446.088002	22344.213703
446.462949	22524.646681
446.837837	22713.826062
447.212664	22675.772912
447.587431	25561.662089
447.962139	28547.129179
448.336786	30950.998349
448.711374	29364.890033
449.085901	25629.074919
449.460369	25572.188019
449.834776	25490.720452
450.209124	28021.057049
450.583412	27543.107773
450.957640	28075.083095
451.331808	26694.011108
451.705917	25312.402237
452.079965	25360.681368
452.453954	25726.152419
452.827883	25593.854898
453.201752	25399.556226
453.575562	25569.059983
453.949311	26716.595477
454.323001	26770.465247
454.696632	26536.699381
455.070202	28122.817780
455.443713	28252.534231
455.817164	28859.685759
456.190556	29382.287054
456.563888	28812.795466
456.937160	29260.828014
457.310373	27565.722389
457.683526	28034.884934
458.056619	28008.068516
458.429653	27952.099105
458.802628	28540.225319
459.175542	28660.597990
459.548398	29959.373141
459.921194	31558.197768
460.293930	32226.143091
460.666607	34282.701967
461.039224	36055.728707
461.411782	36471.097099
461.784280	35267.998007
462.156719	34783.875839
462.529099	34221.930858
462.901419	32921.250151
463.273680	31840.686386
463.645882	31941.199432
464.018024	31919.318304
464.390106	32760.616304
464.762130	35496.168192
465.134094	39576.795708
465.505999	44902.126958
465.877845	49525.142298
466.249631	50696.966072
466.621358	49026.216782
466.993026	46944.520192
467.364634	44855.534094
467.736184	42855.279865
468.107674	41589.630136
468.479105	40798.524384
468.850477	40088.505591
469.221790	38634.107500
469.593043	36872.914869
469.964238	35971.806099
470.335373	35902.402013
470.706449	37649.227356
471.077467	40252.333008
471.448425	44855.312283
471.819324	47674.663271
472.190164	45822.205591
472.560945	42235.679207
472.931667	39104.968914
473.302330	37971.407498
473.672934	37143.481158
474.043479	37654.664240
474.413965	36841.281629
474.784393	36473.899981
475.154761	37377.287353
475.525070	37403.395488
475.895321	36942.044212
476.265513	37543.353043
476.635645	38529.256542
477.005719	38350.409006
477.375734	38826.719907
477.745691	39518.681286
478.115588	40867.910825
478.485427	42863.827141
478.855207	46253.191477
479.224928	48876.892764
479.594591	50506.990189
479.964194	49525.674140
480.333739	49691.603719
480.703226	49735.492004
481.072653	50364.842253
481.442022	50838.148626
481.811333	51100.313832
482.180584	49802.390637
482.549777	49312.803857
482.918912	48754.294423
483.287988	48475.803440
483.657005	47633.313207
484.025964	47004.194851
484.394864	47026.615382
484.763706	46591.498270
485.132489	45720.918727
485.501213	45538.905347
485.869879	45690.394541
486.238487	45288.954857
486.607036	45481.582387
486.975527	44939.348317
487.343959	45128.762112
487.712333	45213.375358
488.080648	45131.965765
488.448905	45584.482419
488.817104	45403.273103
489.185244	46370.617594
489.553326	48058.025377
489.921350	50767.494335
490.289315	53619.466629
490.657222	54186.165418
491.025070	54470.123532
491.392861	53590.069141
491.760593	52370.964385
492.128267	50725.660319
492.495883	49201.926199
492.863440	47810.807192
493.230939	46441.130733
493.598380	45341.866808
493.965763	44988.217263
494.333088	44182.131722
494.700354	43692.310529
495.067563	43386.483890
495.434713	43259.885393
495.801805	43320.401924
496.168839	42924.986420
496.535815	42586.432610
496.902733	42622.418886
497.269593	42205.558313
497.636395	42129.971252
498.003139	42547.857700
498.369825	41990.308606
498.736453	42313.396156
499.103023	41823.743841
499.469535	41693.394726
499.835989	41790.033646
500.202385	41433.233379
500.568723	41465.194295
500.935003	41641.407827
501.301226	41433.724892
501.667390	42075.841863
502.033497	42320.499141
502.399546	41745.091759
502.765537	41056.684393
503.131470	41441.573968
503.497345	41799.778196
503.863163	40442.654210
504.228923	41058.166492
504.594625	41475.584113
504.960269	40763.516091
505.325856	41460.374952
505.691385	40807.222895
506.056856	40947.505603
506.422270	41381.790925
506.787625	40975.231949
507.152924	41174.775942
507.518164	41255.895669
507.883347	40452.234923
508.248472	40721.551006
508.613540	41203.525642
508.978550	41494.380055
509.343503	41240.003432
509.708398	41443.721500
510.073236	41989.814572
510.438016	41969.667601
510.802738	41422.115114
511.167403	42048.904457
511.532010	42280.036320
511.896561	42576.307452
512.261053	43461.468532
512.625488	42979.327538
512.989866	42858.012170
513.354186	42687.346427
513.718449	42683.091693
514.082655	43364.451527
514.446803	43034.669324
514.810894	43547.652099
515.174927	43472.692662
515.538904	43366.089902
515.902822	44047.805136
516.266684	43479.014268
516.630488	43915.530301
516.994235	43769.523362
517.357925	44349.697155
517.721558	44508.160785
518.085133	44818.852138
518.448651	44964.639786
518.812112	44731.312501
519.175516	44821.723075
519.538863	45162.462225
519.902152	45121.301204
520.265385	45575.400781
520.628560	45602.824658
520.991678	45416.717860
521.354739	45649.505742
521.717743	45969.049361
522.080690	45859.870572
522.443580	46418.821107
522.806413	46448.185828
523.169189	46398.389311
523.531908	46572.069663
523.894569	46434.481452
524.257174	46605.719365
524.619722	46889.087664
524.982213	46904.942093
525.344647	46791.410267
525.707025	46827.063828
526.069345	47213.664875
526.431608	47146.985533
526.793815	47465.704923
527.155964	46990.699682
527.518057	47143.320614
527.880093	46932.895291
528.242072	47447.682798
528.603995	47167.089655
528.965860	47171.558638
529.327669	47257.238088
529.689421	47150.910072
530.051117	47101.496682
530.412755	47232.687669
530.774337	47303.657033
531.135862	47103.893750
531.497331	47306.230542
531.858743	47193.822894
532.220098	47541.798620
532.581396	47245.441788
532.942638	46925.757017
533.303824	47217.392808
533.664953	47163.918769
534.026025	46871.657875
534.387040	47361.436218
534.747999	47292.145558
535.108902	47462.937330
535.469748	46962.436453
535.830537	47075.328052
536.191270	47272.389276
536.551947	46923.216276
536.912567	47239.281498
537.273131	47356.538737
537.633638	46833.128336
537.994089	47179.811007
538.354483	46789.045966
538.714821	47336.948813
539.075103	47673.438271
539.435328	47437.295501
539.795497	47330.049994
540.155609	47301.232238
540.515665	47772.723796
540.875665	47223.026298
541.235609	47534.131025
541.595496	47510.220833
541.955328	48191.910861
542.315102	47545.700473
542.674821	47328.141917
543.034483	47383.697953
543.394090	47341.931994
543.753640	47296.526321
544.113134	48295.012540
544.472571	47310.855801
544.831953	48572.575950
545.191278	47751.777801
545.550548	47469.881519
545.909761	47948.637380
546.268918	48150.928801
546.628019	48434.269374
546.987064	47997.196294
547.346053	47261.192874
547.704986	48161.316099
548.063863	47672.868620
548.422684	47880.138181
548.781449	47735.184843
549.140158	48120.497876
549.498811	47959.455696
549.857408	47394.856547
550.215949	48226.026870
550.574434	48149.545004
550.932864	47900.670801
551.291237	48629.828334
551.649555	48213.900374
552.007817	48438.642575
552.366022	48084.957741
552.724173	48254.693391
553.082267	48648.233587
553.440305	48944.600501
553.798288	48243.696114
554.156215	48541.595539
554.514086	48747.796375
554.871902	48496.280607
555.229661	48493.558384
555.587365	48302.334816
555.945014	48376.399448
556.302606	48288.222106
556.660143	48494.062499
557.017625	48574.002597
557.375050	48361.744814
557.732421	48692.222695
558.089735	48667.185805
558.446994	48549.313546
558.804197	49024.596051
559.161345	48951.458991
559.518437	48178.105662
559.875474	48462.482191
560.232455	48594.305844
560.589381	48753.306357
560.946251	48443.477041
561.303065	49122.354106
561.659825	48892.595958
562.016528	48548.955624
562.373177	48255.812528
562.729770	48713.534173
563.086307	48194.665852
563.442789	48618.284092
563.799216	48634.367893
564.155587	48406.974046
564.511904	48411.685004
564.868164	48467.699785
565.224370	48695.456596
565.580520	48393.476357
565.936615	48558.574145
566.292654	48259.048948
566.648638	48463.268611
567.004567	48383.696518
567.360441	48404.798788
567.716260	48216.685612
568.072023	48451.832754
568.427732	48399.316533
568.783385	47915.123789
569.138982	48254.219523
569.494525	48180.548101
569.850013	47916.583203
570.205445	47834.064556
570.560823	47752.743182
570.916145	47574.671984
571.271412	47555.964262
571.626625	47278.138712
571.981782	47272.411962
572.336884	46918.344001
572.691931	47183.342335
573.046923	46738.934376
573.401860	46536.211936
573.756743	46454.663711
574.111570	46509.902154
574.466342	46311.182390
574.821059	46369.369908
575.175722	45833.046592
575.530330	45789.833821
575.884882	45448.512418
576.239380	45359.725096
576.593823	45277.128310
576.948211	45129.407379
577.302544	44592.103558
577.656823	44542.861567
578.011047	44694.612901
578.365216	44358.385584
578.719330	44082.465590
579.073389	43863.876118
579.427394	43865.499369
579.781344	43749.595681
580.135239	43358.379457
580.489080	43362.465312
580.842866	42775.221301
581.196597	43133.758244
581.550273	42979.708145
581.903895	42779.818833
582.257463	43076.783124
582.610975	42383.664799
582.964434	42566.676328
583.317837	42123.959676
583.671186	41894.690520
584.024481	42023.428986
584.377721	41497.225786
584.730906	41675.143229
585.084037	41640.833136
585.437113	41264.543769
585.790135	41202.141846
586.143103	40730.234393
586.496016	40755.886304
586.848874	40689.148989
587.201679	40610.075971
587.554428	40024.656857
587.907124	40086.126166
588.259765	39755.776834
588.612352	39889.793388
588.964884	39235.323070
589.317362	39401.560159
589.669786	39231.574972
590.022155	38912.142258
590.374470	39206.533040
590.726731	38683.720016
591.078937	38161.085953
591.431090	38135.968404
591.783188	37737.631550
592.135232	37361.490897
592.487222	37459.876576
592.839157	37442.693803
593.191038	37043.807464
593.542866	36716.543318
593.894639	36108.494465
594.246358	36230.747487
594.598022	36126.395602
594.949633	35685.539136
595.301190	35533.928955
595.652692	35271.960354
596.004141	35442.663906
596.355535	34511.716546
596.706876	34381.140579
597.058162	34138.396418
597.409395	34433.808033
597.760573	34396.001900
598.111698	33917.452727
598.462768	33833.550283
598.813785	33749.431070
599.164748	33174.411856
599.515657	33387.632499
599.866511	32822.430933
600.217312	33236.239088
600.568060	32253.756012
600.918753	32748.958636
601.269392	32602.850874
601.619978	32220.290312
601.970510	32266.588269
602.320988	32299.398618
602.671412	32411.062697
603.021783	32090.810796
603.372100	31708.252754
603.722363	31681.073373
604.072572	31638.566364
604.422728	31526.854394
604.772830	31249.669071
605.122878	31195.539681
605.472872	31026.461902
605.822813	31125.041665
606.172701	30860.943177
606.522534	30935.637954
606.872314	31005.611690
607.222041	30675.015341
607.571714	30855.322291
607.921333	30301.359977
608.270899	30392.390612
608.620411	30518.996671
608.969870	30235.789689
609.319276	30097.354563
609.668627	30004.869554
610.017926	30224.792412
610.367171	30220.976258
610.716362	30139.155811
611.065500	29950.694795
611.414585	29959.395826
611.763616	30027.201866
612.112594	29816.416100
612.461518	29843.098927
612.810389	29905.843649
613.159207	29667.520580
613.507971	29568.076259
613.856682	29762.518604
614.205340	29540.644820
614.553945	29877.603105
614.902496	29348.024852
615.250994	29525.362562
615.599439	29414.570604
615.947830	29400.354550
616.296169	29276.742937
616.644454	29208.425220
616.992686	29170.493058
617.340864	29345.055613
617.688990	28983.904831
618.037063	29242.238759
618.385082	29042.556135
618.733048	29094.021275
619.080961	28941.894375
619.428821	28791.693196
619.776628	28721.623678
620.124382	28472.963724
620.472083	28411.794363
620.819731	28354.922586
621.167326	28008.300409
621.514868	27865.779428
621.862357	27460.112737
622.209793	27325.397983
622.557176	27001.387902
622.904506	26724.368936
623.251783	26391.098255
623.599007	26126.009180
623.946179	25846.751942
624.293297	25701.145775
624.640363	25197.436203
624.987376	25055.089142
625.334336	24785.873883
625.681243	24448.482059
626.028097	24291.969355
626.374899	24075.000614
626.721647	23915.927005
627.068343	23705.693245
627.414987	23448.642290
627.761577	23180.402494
628.108115	23240.538418
628.454600	22797.622641
628.801032	22758.883895
629.147412	22607.258590
629.493739	22479.987099
629.840014	22163.269047
630.186236	22194.113347
630.532405	21864.878110
630.878521	21840.826765
631.224585	21645.401395
631.570597	21376.400384
631.916556	21333.653920
632.262462	21176.347235
632.608316	21071.574414
632.954117	20886.191023
633.299866	20770.360431
633.645562	20622.674788
633.991206	20252.376832
634.336797	19935.013512
634.682336	19829.534930
635.027823	19591.254711
635.373257	19400.295803
635.718639	19176.551751
636.063968	18999.181274
636.409245	18629.400036
636.754470	18545.018683
637.099642	18314.585020
637.444762	17973.278740
637.789829	17937.259696
638.134845	17671.379159
638.479808	17540.750260
638.824719	17385.868370
639.169577	17104.771111
639.514383	17026.035850
639.859137	16799.982950
640.203839	16797.822815
640.548489	16537.439657
640.893086	16460.620034
641.237632	16261.118892
641.582125	16204.083277
641.926566	16078.586273
642.270955	15971.066023
642.615292	15877.744183
642.959576	15782.983093
643.303809	15678.162381
643.647990	15640.235260
643.992118	15534.151739
644.336195	15435.163642
644.680219	15380.416712
645.024192	15394.882303
645.368112	15501.404404
645.711981	15413.005251
646.055797	15644.064017
646.399562	15519.005593
646.743274	15785.670028
647.086935	15863.107193
647.430544	15732.783283
647.774101	15686.142528
648.117606	15685.613207
648.461059	15702.450661
648.804460	15478.678882
649.147810	15168.796635
649.491108	14989.326517
649.834354	14768.544143
650.177548	14384.902253
650.520690	14137.240447
650.863781	14058.797572
651.206820	13909.783585
651.549807	13683.395448
651.892742	13443.950723
652.235626	13284.743523
652.578458	13160.867249
652.921238	12871.941078
653.263967	12887.843398
653.606644	12707.601984
653.949269	12601.803288
654.291843	12399.426167
654.634365	12444.511726
654.976836	12250.046696
655.319255	12163.790033
655.661622	12095.275711
656.003938	11958.736059
656.346203	11842.265241
656.688416	11833.294508
657.030577	11709.125847
657.372687	11591.646798
657.714746	11598.434712
658.056753	11559.738815
658.398708	11342.487769
658.740612	11283.559201
659.082465	11289.159923
659.424266	11172.610967
659.766016	11134.272992
660.107715	11038.491069
660.449362	11009.537202
660.790958	10942.560432
661.132503	10880.650021
661.473996	10823.052318
661.815438	10785.372213
662.156829	10778.871646
662.498168	10653.369600
662.839456	10600.208112
663.180693	10571.057640
663.521879	10544.180728
663.863013	10471.348658
664.204097	10410.937991
664.545129	10462.569489
664.886110	10394.730681
665.227040	10348.780564
665.567918	10324.663684
665.908746	10273.095201
666.249522	10261.626576
666.590248	10200.240445
666.930922	10170.694243
667.271545	10105.867525
667.612118	10068.452081
667.952639	9952.324061
668.293109	9908.632381
668.633528	9827.928549
668.973896	9752.144883
669.314213	9697.082880
669.654480	9579.722298
669.994695	9527.122899
670.334859	9443.545609
670.674973	9370.776553
671.015035	9347.320064
671.355047	9276.441441
671.695008	9217.742246
672.034918	9144.683324
672.374777	9107.053631
672.714585	9026.266620
673.054342	9018.941823
673.394049	8922.784334
673.733705	8931.445037
674.073310	8820.539652
674.412864	8780.424670
674.752368	8650.924990
675.091820	8648.681676
675.431223	8525.390177
675.770574	8414.749453
676.109875	8332.170312
676.449125	8229.759271
676.788324	8165.754261
677.127473	8013.619800
677.466571	7949.163607
677.805619	7845.772062
678.144616	7791.546891
678.483562	7736.386585
678.822458	7626.015563
679.161303	7570.477171
679.500098	7508.549117
679.838842	7448.854293
680.177535	7431.908455
680.516179	7433.846778
680.854771	7440.622089
681.193314	7551.121661
681.531805	7717.762043
681.870247	7820.127712
682.208638	7908.587360
682.546978	7910.129953
682.885268	7888.480718
683.223508	7766.313395
683.561697	7669.987028
683.899836	7596.451716
684.237925	7479.391083
684.575963	7422.952845
684.913951	7318.353944
685.251889	7310.610732
685.589776	7281.694673
685.927614	7246.497337
686.265401	7235.832776
686.603137	7233.339925
686.940824	7280.925897
687.278460	7322.578431
687.616046	7322.308729
687.953582	7394.059472
688.291068	7359.822475
688.628504	7372.521142
688.965889	7332.683424
689.303224	7244.589260
689.640510	7159.615571
689.977745	7012.585278
690.314930	6856.871597
690.652065	6742.253403
690.989150	6597.133707
691.326185	6431.125990
691.663170	6300.242513
692.000105	6161.593138
692.336990	6030.412233
692.673825	5933.798519
693.010610	5830.260781
693.347345	5731.222273
693.684030	5609.208706
694.020665	5549.680240
694.357251	5440.370381
694.693786	5403.025513
695.030272	5353.425601
695.366707	5264.930665
695.703093	5208.131985
696.039429	5186.114746
696.375716	5134.818485
696.711952	5115.024394
697.048139	5080.976441
697.384276	5040.216192
697.720363	5040.732910
698.056400	5000.900233
698.392388	4962.713492
698.728326	4941.601140
699.064214	4899.136981
699.400053	4869.593298
699.735842	4813.623888
700.071581	4761.246299
700.407270	4708.999781
700.742910	4669.895551
701.078501	4625.253613
701.414042	4574.035490
701.749533	4522.623282
702.084974	4472.854491
702.420366	4474.011436
702.755709	4413.885594
703.091002	4364.709138
703.426246	4347.929657
703.761440	4324.856296
704.096584	4288.572591
704.431679	4263.071915
704.766725	4242.342690
705.101721	4224.008013
705.436668	4220.401068
705.771565	4176.953883
706.106413	4193.768652
706.441212	4179.265253
706.775961	4185.241540
707.110661	4182.123587
707.445311	4201.106052
707.779913	4179.955891
708.114465	4188.674566
708.448967	4205.943039
708.783421	4263.795320
709.117825	4281.396509
709.452180	4299.216988
709.786485	4329.910053
710.120742	4398.729365
710.454949	4403.465529
710.789107	4443.714101
711.123216	4507.076364
711.457275	4526.174775
711.791286	4562.158531
712.125247	4572.926436
712.459159	4539.969892
712.793023	4587.331533
713.126837	4475.763237
713.460602	4481.401767
713.794318	4428.386473
714.127985	4380.883680
714.461602	4284.491777
714.795171	4255.003548
715.128691	4152.083351
715.462162	4086.729832
715.795584	4030.233621
716.128957	3996.183148
716.462281	3942.862863
716.795556	3909.140065
717.128782	3857.390100
717.461960	3802.713745
717.795088	3783.141466
718.128167	3741.211668
718.461198	3697.920760
718.794180	3677.494004
719.127113	3641.812717
719.459997	3620.065180
719.792833	3584.025971
720.125619	3570.344279
720.458357	3538.678272
720.791046	3519.748739
721.123686	3501.114114
721.456278	3477.897080
721.788821	3468.563383
722.121315	3442.530865
722.453761	3439.869136
722.786158	3430.653906
723.118506	3422.625869
723.450805	3410.368303
723.783056	3416.296700
724.115259	3405.586769
724.447412	3391.456415
724.779518	3404.805390
725.111574	3404.845719
725.443582	3414.605393
725.775542	3405.886718
726.107453	3434.684309
726.439315	3424.654933
726.771129	3451.350363
727.102895	3473.652428
727.434612	3485.746156
727.766281	3488.057525
728.097901	3498.074298
728.429473	3496.952641
728.760996	3491.598936
729.092471	3488.344871
729.423897	3475.774754
729.755276	3457.150211
730.086606	3458.014769
730.417887	3482.401351
730.749120	3506.919002
731.080305	3507.685258
731.411442	3520.782175
731.742530	3517.331506
732.073570	3518.858975
732.404562	3532.452447
732.735506	3517.631454
733.066401	3489.322855
733.397249	3451.365487
733.728048	3399.313053
734.058798	3342.574866
734.389501	3289.983029
734.720156	3255.483892
735.050762	3219.086762
735.381320	3188.103830
735.711831	3172.488856
736.042293	3150.214518
736.372707	3146.254692
736.703073	3127.824233
737.033391	3134.773464
737.363661	3130.160808
737.693883	3134.914616
738.024056	3141.241264
738.354182	3151.225269
738.684260	3167.974503
739.014290	3182.276256
739.344272	3191.894778
739.674207	3205.538661
740.004093	3211.404043
740.333931	3207.660987
740.663722	3206.526727
740.993464	3203.312991
741.323159	3185.338757
741.652806	3169.549863
741.982405	3146.390803
742.311956	3120.549848
742.641460	3108.942591
742.970915	3086.040629
743.300323	3061.401990
743.629683	3044.365411
743.958996	3025.755991
744.288260	3011.413908
744.617477	2991.846670
744.946647	2976.410657
745.275768	2962.640745
745.604842	2950.539455
745.933869	2939.648042
746.262847	2930.236208
746.591778	2925.444591
746.920662	2922.172883
747.249498	2918.898653
747.578286	2922.354364
747.907027	2928.088677
748.235720	2938.972528
748.564365	2938.095367
748.892963	2929.338883
749.221514	2927.561876
749.550017	2923.032399
749.878473	2917.923190
750.206881	2901.085736
750.535242	2894.660785
750.863555	2885.541338
751.191821	2883.567726
751.520039	2878.786192
751.848210	2873.356869
752.176334	2872.421735
752.504411	2870.261601
752.832440	2857.668798
753.160421	2862.168028
753.488356	2851.987418
753.816243	2846.628672
754.144082	2841.912672
754.471875	2837.302537
754.799620	2831.560663
755.127318	2831.285920
755.454969	2827.482369
755.782572	2823.230156
756.110129	2823.005825
756.437638	2819.363591
756.765100	2816.467448
757.092515	2814.811429
757.419882	2815.176913
757.747203	2811.834628
758.074477	2817.170689
758.401703	2815.343271
758.728882	2818.771255
759.056014	2820.817964
759.383099	2826.731237
759.710138	2824.044302
760.037129	2827.068995
760.364073	2830.159222
760.690970	2825.591937
761.017820	2822.693273
761.344623	2827.542863
761.671379	2837.221878
761.998088	2856.423633
762.324751	2908.649987
762.651366	3014.715864
762.977935	3147.184784
763.304456	3224.637072
763.630931	3239.760534
763.957359	3199.239739
764.283740	3126.410189
764.610074	3058.823440
764.936362	2981.020792
765.262602	2921.399065
765.588796	2868.880325
765.914943	2830.900272
766.241044	2795.377781
766.567097	2771.898607
766.893104	2750.211563
767.219064	2734.261352
767.544978	2721.829867
767.870845	2708.642208
768.196665	2702.290355
768.522438	2691.794672
768.848165	2683.542303
769.173846	2679.247240
769.499479	2673.419667
769.825066	2666.321722
770.150607	2657.487100
770.476101	2655.616832
770.801548	2649.738846
771.126949	2644.881695
771.452303	2642.562764
771.777611	2633.957514
772.102872	2634.857360
772.428087	2628.077008
772.753256	2622.667850
773.078378	2619.474279
773.403453	2611.904987
773.728482	2609.664194
774.053465	2607.683020
774.378401	2603.808894
774.703291	2602.218410
775.028135	2596.663058
775.352932	2594.999477
775.677683	2591.022007
776.002388	2587.236100
776.327046	2587.553693
776.651658	2582.366346
776.976224	2578.464493
777.300743	2579.933989
777.625216	2577.357959
777.949643	2578.159503
778.274024	2577.867116
778.598359	2572.427711
778.922647	2567.941084
779.246889	2569.085426
779.571086	2565.969993
779.895236	2573.940057
780.219339	2572.755386
780.543397	2571.200190
780.867409	2569.145920
781.191374	2571.704305
781.515294	2569.299675
781.839167	2573.498956
782.162995	2572.974676
782.486776	2568.147771
782.810511	2569.072823
783.134201	2565.105435
783.457844	2562.161401
783.781441	2563.467060
784.104993	2561.516133
784.428498	2559.476987
784.751958	2559.083777
785.075372	2560.006308
785.398739	2555.693601
785.722061	2556.772408
786.045337	2553.309135
786.368568	2559.666030
786.691752	2560.507903
787.014891	2568.306568
787.337983	2577.204204
787.661030	2591.876482
787.984031	2604.370982
788.306987	2611.854575
788.629897	2613.757611
788.952760	2610.846344
789.275579	2603.327463
789.598351	2594.185331
789.921078	2585.380956
790.243759	2578.948443
790.566395	2570.118862
790.888984	2564.434962
791.211529	2562.005125
791.534027	2557.949517
791.856480	2553.553631
792.178888	2551.471634
792.501249	2546.223793
792.823566	2543.199101
793.145836	2544.444266
793.468062	2542.480737
793.790241	2539.662732
794.112375	2544.325799
794.434464	2543.463762
794.756507	2548.663712
795.078505	2548.711603
795.400457	2553.609084
795.722364	2557.657130
796.044226	2566.453944
796.366042	2570.411249
796.687812	2570.905283
797.009538	2571.056517
797.331218	2571.250602
797.652852	2565.564180
797.974442	2563.421690
798.295986	2561.949673
798.617484	2558.456153
798.938938	2555.262582
799.260346	2553.382232
799.581709	2550.617159
799.903026	2547.557178
800.224299	2542.112732
800.545526	2540.633154
800.866708	2540.048380
801.187845	2535.516383
801.508936	2533.189890
801.829983	2536.005374
802.150984	2527.916843
802.471940	2530.868439
802.792851	2526.419620
803.113717	2527.904240
803.434538	2528.799045
803.755314	2528.083201
804.076045	2524.771163
804.396731	2522.908457
804.717372	2522.116996
805.037967	2524.153622
805.358518	2526.636390
805.679024	2528.683098
805.999485	2527.102697
806.319901	2530.878521
806.640272	2525.184538
806.960598	2530.812986
807.280879	2527.702594
807.601115	2532.400949
807.921306	2529.693850
808.241453	2530.444982
808.561554	2530.334076
808.881611	2529.388860
809.201623	2529.330887
809.521590	2528.090763
809.841513	2528.267203
810.161390	2529.779549
810.481223	2521.532222
810.801011	2524.065402
811.120755	2524.511544
811.440453	2523.951976
811.760107	2515.049298
812.079716	2516.980060
812.399281	2515.734895
812.718801	2520.085411
813.038276	2515.424864
813.357707	2517.746315
813.677093	2517.854700
813.996434	2515.419823
814.315731	2514.850172
814.634983	2517.695904
814.954191	2517.713548
815.273354	2520.481141
815.592473	2522.225380
815.911547	2526.764939
816.230577	2523.722603
816.549562	2525.542460
816.868502	2528.070598
817.187399	2533.285672
817.506250	2534.903882
817.825058	2537.830272
818.143821	2540.650798
818.462539	2550.975081
818.781213	2553.936759
819.099843	2566.244736
819.418429	2582.850297
819.736970	2605.157402
820.055466	2625.742954
820.373919	2656.995587
820.692327	2700.483101
821.010691	2783.407561
821.329011	2966.555201
821.647286	3255.504057
821.965517	3572.484249
822.283704	3752.997886
822.601847	3805.030156
822.919945	3670.189372
823.237999	3512.212214
823.556010	3362.051364
823.873976	3219.008624
824.191897	3093.756115
824.509775	2998.644666
824.827609	2913.786923
825.145398	2859.876824
825.463144	2832.402535
825.780845	2836.339677
826.098502	2868.653473
826.416116	2931.809048
826.733685	2994.145436
827.051210	3009.687313
827.368692	2974.880667
827.686129	2903.087074
828.003522	2836.009481
828.320872	2767.233019
828.638177	2718.003631
828.955439	2678.022240
829.272656	2647.001500
829.589830	2620.079218
829.906960	2597.663727
830.224046	2578.953485
830.541088	2567.724314
830.858086	2556.200237
831.175041	2547.935265
831.491952	2549.160265
831.808819	2549.719833
832.125642	2555.980947
832.442421	2576.674883
832.759157	2608.529934
833.075849	2662.480363
833.392497	2713.940461
833.709101	2746.221490
834.025662	2741.210583
834.342179	2713.476675
834.658653	2675.017712
834.975083	2645.037970
835.291469	2618.181223
835.607811	2592.229363
835.924110	2575.744790
836.240366	2558.415824
836.556578	2540.882691
836.872746	2530.409694
837.188871	2520.997859
837.504952	2513.945285
837.820990	2507.737104
838.136984	2504.036897
838.452935	2504.382216
838.768842	2499.583038
839.084706	2511.149965
839.400526	2537.545447
839.716303	2562.811710
840.032037	2584.362643
840.347727	2581.095975
840.663373	2563.681309
840.978977	2543.662887
841.294537	2528.068078
841.610054	2515.245903
841.925527	2509.458658
842.240957	2501.186125
842.556344	2496.210506
842.871687	2490.045175
843.186987	2484.525111
843.502244	2476.877681
843.817458	2479.698207
844.132629	2476.323154
844.447756	2471.927268
844.762840	2464.783953
845.077881	2467.153295
845.392879	2463.964765
845.707833	2468.302678
846.022745	2460.395628
846.337613	2466.276134
846.652438	2464.859570
846.967221	2464.781432
847.281960	2462.396967
847.596656	2465.257821
847.911309	2461.623149
848.225919	2462.094497
848.540485	2463.017028
848.855009	2462.976699
849.169490	2462.313788
849.483928	2463.475773
849.798323	2460.330093
850.112675	2459.578962
850.426984	2461.671040
850.741251	2460.408231
851.055474	2460.763633
851.369654	2460.299847
851.683792	2461.487038
851.997887	2461.721452
852.311938	2461.179528
852.625947	2461.756740
852.939914	2459.168108
853.253837	2460.468725
853.567718	2459.952007
853.881555	2461.469394
854.195350	2457.948148
854.509103	2460.556945
854.822812	2462.742286
855.136479	2461.509723
855.450103	2460.851853
855.763685	2461.300516
856.077224	2459.435289
856.390720	2460.995526
856.704173	2460.314970
857.017584	2461.855043
857.330953	2462.134827
857.644278	2463.962245
857.957561	2465.426700
858.270802	2460.410752
858.584000	2461.489559
858.897155	2462.482666
859.210268	2461.618108
859.523339	2461.164404
859.836367	2460.297326
860.149352	2462.069292
860.462295	2460.703139
860.775195	2458.714404
861.088054	2457.507047
861.400869	2461.106431
861.713642	2453.174176
862.026373	2461.396298
862.339062	2461.174487
862.651708	2462.306226
862.964312	2460.761112
863.276873	2462.233129
863.589392	2465.499797
863.901869	2468.330405
864.214303	2461.615588
864.526696	2467.168419
864.839045	2466.765126
865.151353	2469.202524
865.463619	2465.716566
865.775842	2470.326702
866.088023	2465.141875
866.400162	2469.053810
866.712258	2465.393932
867.024313	2468.892493
867.336325	2467.107925
867.648296	2470.140179
867.960224	2466.923923
868.272110	2468.048100
868.583954	2467.942236
868.895755	2467.269242
869.207515	2471.110601
869.519233	2469.694037
869.830909	2469.641105
870.142542	2471.919706
870.454134	2471.650004
870.765684	2472.315437
871.077191	2471.614716
871.388657	2473.447176
871.700081	2472.980869
872.011463	2473.684110
872.322803	2474.621765
872.634101	2473.868112
872.945357	2476.877681
873.256571	2479.415902
873.567744	2479.337764
873.878874	2481.175265
874.189963	2479.299955
874.501010	2480.809781
874.812015	2477.608648
875.122979	2478.722743
875.433900	2482.349853
875.744780	2481.994452
876.055618	2482.891778
876.366415	2481.712147
876.677169	2481.782724
876.987882	2482.619555
877.298554	2483.292549
877.609183	2487.065853
877.919771	2484.913280
878.230317	2489.253714
878.540822	2499.187307
878.851285	2507.875736
879.161707	2514.073835
879.472087	2532.630322
879.782425	2559.270299
880.092722	2611.156375
880.402977	2686.032633
880.713191	2772.218720
881.023363	2862.200796
881.333494	2912.829104
881.643583	2935.163936
881.953631	2925.711773
882.263637	2896.856208
882.573602	2860.512009
882.883526	2828.263748
883.193408	2792.398459
883.503248	2754.380597
883.813048	2723.700135
884.122806	2694.685774
884.432522	2661.431803
884.742197	2636.120169
885.051831	2606.747886
885.361424	2587.873806
885.670975	2569.445868
885.980485	2551.794268
886.289954	2539.249357
886.599382	2531.743079
886.908768	2524.322500
887.218113	2513.418485
887.527417	2507.021260
887.836680	2499.630929
888.145901	2497.579179
888.455082	2493.616832
888.764221	2493.740341
889.073319	2491.678509
889.382376	2486.783548
889.691392	2484.383959
890.000366	2485.359422
890.309300	2483.005203
890.618193	2484.310862
890.927044	2483.912611
891.235855	2485.067035
891.544625	2484.285657
891.853353	2484.900677
892.162041	2489.485607
892.470687	2496.273520
892.779293	2499.877945
893.087858	2506.307937
893.396381	2516.191119
893.704864	2536.393543
894.013306	2560.034034
894.321707	2587.014290
894.630068	2603.398040
894.938387	2608.575305
895.246665	2601.421907
895.554903	2591.720207
895.863100	2574.837382
896.171256	2563.293140
896.479371	2552.578168
896.787446	2544.640871
897.095480	2530.933974
897.403473	2524.536749
897.711425	2518.883095
898.019336	2515.475275
898.327207	2506.088647
898.635038	2502.121259
898.942827	2496.835609
899.250576	2494.463746
899.558284	2489.891420
899.865952	2486.750781
900.173579	2481.250882
900.481165	2480.351036
900.788711	2478.692496
901.096216	2478.871457
901.403681	2475.103195
901.711105	2476.285345
902.018489	2475.549337
902.325832	2480.648464
902.633135	2483.118629
902.940397	2492.822851
903.247619	2509.872033
903.554800	2545.812939
903.861941	2587.377253
904.169041	2621.155504
904.476101	2635.300982
904.783121	2622.945114
905.090100	2607.136055
905.397039	2591.899168
905.703938	2572.543658
906.010796	2559.126627
906.317614	2541.774975
906.624391	2532.032945
906.931129	2520.274454
907.237826	2512.251458
907.544483	2503.283245
907.851099	2497.170846
908.157675	2488.742037
908.464211	2478.662249
908.770707	2471.208903
909.077163	2468.441310
909.383578	2461.497121
909.689954	2459.717593
909.996289	2457.990998
910.302584	2459.742799
910.608839	2460.604836
910.915054	2457.844805
911.221229	2458.059054
911.527363	2458.679116
911.833458	2460.768674
912.139513	2462.081894
912.445527	2460.466205
912.751502	2465.414097
913.057436	2467.967442
913.363331	2471.360138
913.669186	2475.594707
913.975000	2481.500419
914.280775	2488.792448
914.586510	2505.755931
914.892205	2522.802593
915.197859	2548.777138
915.503475	2578.025912
915.809050	2601.316043
916.114585	2616.555451
916.420081	2619.638117
916.725536	2621.667181
917.030952	2611.342898
917.336328	2601.668924
917.641665	2589.534867
917.946961	2578.761921
918.252218	2571.381672
918.557435	2555.617983
918.862612	2547.133722
919.167750	2536.801877
919.472848	2527.576565
919.777906	2515.523166
920.082925	2508.906652
920.387904	2501.302071
920.692843	2495.968531
920.997743	2488.812613
921.302603	2485.369505
921.607423	2479.904894
921.912204	2475.720736
922.216946	2473.472382
922.521647	2473.086733
922.826310	2468.219499
923.130932	2469.184880
923.435516	2462.402008
923.740059	2461.645835
924.044564	2462.253294
924.349028	2459.463015
924.653454	2453.121243
924.957840	2456.337500
925.262186	2451.916408
925.566493	2451.366922
925.870761	2447.830553
926.174989	2448.163269
926.479178	2449.524380
926.783328	2450.063784
927.087438	2449.330296
927.391509	2450.746860
927.695541	2445.957764
927.999533	2447.946499
928.303486	2446.605552
928.607400	2443.694286
928.911275	2443.008689
929.215110	2447.719647
929.518906	2443.033895
929.822663	2445.360387
930.126381	2445.188988
930.430060	2443.850562
930.733699	2445.685542
931.037299	2445.383072
931.340861	2442.222269
931.644383	2446.958433
931.947866	2446.361056
932.251309	2445.171344
932.554714	2442.930551
932.858080	2444.160593
933.161407	2444.730243
933.464694	2444.420212
933.767943	2443.923658
934.071153	2443.464913
934.374323	2444.100099
934.677455	2443.701847
934.980548	2440.329316
935.283602	2442.998607
935.586617	2442.391148
935.889593	2442.630602
936.192530	2441.254367
936.495428	2442.391148
936.798287	2441.672783
937.101108	2445.297373
937.403890	2446.807198
937.706632	2446.761828
938.009336	2449.486572
938.312002	2452.266768
938.614628	2450.777107
938.917216	2456.972685
939.219765	2452.980091
939.522275	2456.113168
939.824747	2454.600822
940.127179	2454.494958
940.429573	2448.301900
940.731929	2450.767025
941.034246	2449.458845
941.336524	2454.835236
941.638763	2452.818774
941.940964	2451.702159
942.243126	2450.031016
942.545250	2453.365739
942.847335	2450.010852
943.149381	2452.213836
943.451389	2449.481530
943.753359	2447.712085
944.055290	2447.258382
944.357182	2446.988680
944.659036	2448.322065
944.960851	2446.502208
945.262628	2445.436004
945.564367	2444.727722
945.866067	2444.725202
946.167729	2446.333330
946.469352	2445.793926
946.770937	2444.805860
947.072484	2446.066149
947.373992	2443.318720
947.675462	2446.235027
947.976893	2444.334512
948.278286	2442.071034
948.579641	2445.388113
948.880958	2444.112702
949.182236	2441.761003
949.483476	2445.960284
949.784678	2442.776796
950.085841	2445.340223
950.386967	2443.235541
950.688054	2445.010027
950.989103	2443.485078
951.290114	2443.810232
951.591087	2447.328958
951.892021	2444.929368
952.192917	2448.080090
952.493776	2448.006993
952.794596	2449.189143
953.095378	2446.429112
953.396122	2450.298197
953.696828	2446.850048
953.997496	2446.678649
954.298126	2447.916252
954.598718	2446.812239
954.899272	2444.498350
955.199788	2445.544389
955.500266	2441.259408
955.800706	2439.381579
956.101108	2434.975610
956.401472	2438.693461
956.701798	2435.250353
957.002087	2436.588779
957.302337	2437.720518
957.602550	2436.979469
957.902724	2434.095929
958.202861	2434.801690
958.502960	2434.572318
958.803022	2436.797987
959.103045	2433.629622
959.403031	2432.714653
959.702979	2433.241453
960.002889	2432.243305
960.302762	2430.824220
960.602596	2431.018304
960.902393	2432.192893
961.202153	2430.357913
961.501875	2430.373037
961.801559	2430.524271
962.101205	2431.280444
962.400814	2431.025866
962.700385	2427.842377
962.999918	2432.976793
963.299414	2431.351021
963.598873	2431.676175
963.898293	2429.085022
964.197677	2429.483273
964.497022	2429.833633
964.796331	2430.083170
965.095601	2426.642583
965.394835	2427.245001
965.694030	2428.684250
965.993189	2430.675506
966.292309	2427.897830
966.591393	2426.750968
966.890439	2428.545618
967.189447	2430.098294
967.488419	2427.981009
967.787353	2428.931267
968.086249	2426.982861
968.385108	2428.575865
968.683930	2426.695515
968.982714	2429.541246
969.281462	2428.076791
969.580172	2427.141657
969.878844	2428.306164
970.177480	2429.309353
970.476078	2429.493355
970.774639	2428.331369
971.073162	2428.301123
971.371649	2426.574527
971.670098	2425.336924
971.968510	2425.972109
972.266885	2423.421286
972.565223	2431.040990
972.863524	2427.000505
973.161788	2428.114600
973.460014	2428.356575
973.758204	2431.522420
974.056356	2429.558890
974.354471	2430.247008
974.652550	2429.412697
974.950591	2429.614343
975.248595	2427.287851
975.546563	2428.124682
975.844493	2429.810948
976.142386	2429.067378
976.440243	2428.737182
976.738062	2429.823551
977.035845	2427.882707
977.333590	2428.964034
977.631299	2426.014959
977.928971	2428.137285
978.226606	2425.465473
978.524204	2428.011256
978.821765	2426.445978
979.119290	2427.454209
979.416777	2426.060330
979.714228	2427.799528
980.011642	2425.079825
980.309020	2432.507965
980.606360	2426.098138
980.903664	2431.706422
981.200931	2430.736000
981.498162	2432.255908
981.795356	2431.368665
982.092513	2436.976948
982.389633	2439.142124
982.686717	2442.600355
982.983764	2443.525407
983.280775	2444.009358
983.577749	2444.702517
983.874686	2444.132866
984.171587	2445.446087
984.468451	2441.266970
984.765279	2442.726384
985.062070	2441.203956
985.358824	2437.163471
985.655543	2438.363266
985.952224	2435.714139
986.248869	2431.587955
986.545478	2426.645103
986.842050	2426.725762
987.138586	2423.759043
987.435086	2422.760894
987.731549	2421.082190
988.027975	2427.489497
988.324366	2422.728127
988.620719	2425.697367
988.917037	2421.336768
989.213318	2425.062181
989.509563	2424.789959
989.805772	2420.764597
990.101944	2422.178641
990.398080	2424.278282
990.694180	2422.213929
990.990244	2423.416244
991.286271	2422.939855
991.582262	2423.219639
991.878217	2422.344999
992.174136	2422.473549
992.470019	2423.075967
992.765865	2420.867941
993.061676	2422.634866
993.357450	2423.938004
993.653188	2424.114444
993.948890	2424.177459
994.244556	2425.785587
994.540186	2424.482448
994.835780	2427.071081
995.131337	2428.270876
995.426859	2428.386822
995.722345	2430.531833
996.017795	2430.345310
996.313208	2432.722214
996.608586	2430.567121
996.903928	2434.663059
997.199234	2433.110383
997.494504	2434.456371
997.789738	2432.767585
998.084936	2432.087029
998.380099	2429.939497
998.675225	2429.490835
998.970316	2425.835998
999.265371	2427.118972
999.560390	2425.198292
999.855373	2424.628642
1000.150320	2424.094280
1000.445232	2424.835329
1000.740108	2423.123857
1001.034948	2421.649320
1001.329752	2419.799217
1001.624521	2422.632345
1001.919254	2414.851324
1002.213951	2420.567992
1002.508613	2415.128587
1002.803239	2417.485327
1003.097829	2416.033475
1003.392384	2419.035482
1003.686903	2417.565985
1003.981386	2420.225194
1004.275834	2419.431212
1004.570246	2416.794689
1004.864623	2417.923907
1005.158964	2418.382652
1005.453270	2417.571027
1005.747540	2416.877868
1006.041775	2418.909453
1006.335974	2417.835687
1006.630138	2415.100861
1006.924266	2419.728640
1007.218359	2417.719741
1007.512416	2419.169072
1007.806438	2415.952816
1008.100425	2418.390214
1008.394376	2415.047929
1008.688292	2417.593712
1008.982172	2416.403999
1009.276017	2417.629000
1009.569827	2418.843918
1009.863602	2417.560944
1010.157341	2414.979873
1010.451045	2419.050605
1010.744714	2416.348547
1011.038347	2417.324010
1011.331945	2415.859555
1011.625508	2417.807961
1011.919036	2417.324010
1012.212528	2416.066242
1012.505986	2415.340316
1012.799408	2415.854514
1013.092795	2415.622621
1013.386147	2416.333423
1013.679464	2415.327713
1013.972745	2416.598084
1014.265992	2415.015162
1014.559204	2417.228228
1014.852380	2415.158834
1015.145521	2417.714699
1015.438628	2415.725964
1015.731699	2414.778227
1016.024736	2414.425347
1016.317737	2418.455749
1016.610703	2416.867786
1016.903635	2412.590367
1017.196531	2411.292269
1017.489393	2412.640778
1017.782219	2408.885118
1018.075011	2415.597415
1018.367768	2414.521128
1018.660490	2416.320820
1018.953177	2416.320820
1019.245829	2416.320820
