Dividing Wavelength (nm)	Counts (n)	Blue Motor Position (mm): 0.000000	Red Motor Position (mm): 18.000000	
326.493990	1981.730509
326.888308	1981.730509
327.282561	1981.730509
327.676750	1959.982971
328.070874	1960.633280
328.464933	1965.185442
328.858929	1975.431587
329.252859	1987.724441
329.646726	2001.965701
330.040528	2017.414317
330.434265	2036.018695
330.827938	2054.204657
331.221547	2075.407750
331.615091	2095.811821
332.008571	2114.184306
332.401986	2136.894704
332.795338	2157.190389
333.188625	2179.232834
333.581847	2193.925277
333.975006	2213.701724
334.368100	2231.055896
334.761129	2246.098699
335.154095	2262.545463
335.546996	2279.173709
335.939833	2294.778601
336.332606	2307.789819
336.725315	2319.588640
337.117960	2329.166832
337.510540	2335.327122
337.903056	2345.482527
338.295508	2351.239524
338.687896	2359.310412
339.080220	2366.030270
339.472480	2375.076620
339.864676	2373.592000
340.256807	2377.771117
340.648875	2381.642723
341.040879	2379.858155
341.432818	2382.577857
341.824694	2382.703886
342.216506	2381.103320
342.608253	2384.722868
342.999937	2381.809081
343.391557	2382.749256
343.783113	2377.377907
344.174605	2378.199615
344.566033	2375.807588
344.957397	2375.432022
345.348697	2373.995293
345.739934	2371.058821
346.131106	2372.253574
346.522215	2369.037318
346.913260	2368.492873
347.304241	2368.886083
347.695159	2364.260825
348.086012	2363.194621
348.476802	2361.422655
348.867528	2360.016173
349.258191	2358.662623
349.648789	2357.253621
350.039324	2355.617766
350.429796	2358.360154
350.820203	2357.631707
351.210548	2356.061388
351.600828	2357.760257
351.991045	2353.182889
352.381198	2355.297653
352.771288	2357.505678
353.161314	2350.947137
353.551276	2356.063908
353.941175	2355.998373
354.331010	2352.661130
354.720782	2354.317149
355.110490	2354.478466
355.500135	2353.064422
355.889717	2353.946624
356.279235	2355.910153
356.668689	2357.435102
357.058080	2355.204392
357.447408	2355.766480
357.836672	2355.055678
358.225873	2357.505678
358.615010	2355.068281
359.004084	2361.165556
359.393095	2361.901565
359.782043	2361.483149
360.170927	2364.709487
360.559748	2361.979703
360.948505	2362.766123
361.337199	2365.916844
361.725830	2366.632688
362.114398	2364.154960
362.502903	2365.803418
362.891344	2367.083871
363.279722	2367.575383
363.668037	2369.228882
364.056289	2369.589324
364.444478	2369.571680
364.832603	2369.599407
365.220665	2373.133255
365.608665	2372.868595
365.996601	2372.722401
366.384474	2373.844058
366.772284	2375.484954
367.160031	2375.525283
367.547715	2377.387989
367.935336	2377.433360
368.322893	2376.336909
368.710388	2381.587270
369.097820	2379.689276
369.485189	2382.361088
369.872495	2382.532487
370.259738	2383.719678
370.646918	2388.496172
371.034035	2384.881664
371.421090	2391.858621
371.808081	2392.191338
372.195010	2399.858933
372.581875	2404.438821
372.968678	2410.589028
373.355418	2417.659247
373.742096	2426.045206
374.128710	2436.813111
374.515262	2450.673763
374.901751	2461.454271
375.288177	2478.921869
375.674540	2496.792759
376.060841	2518.031140
376.447079	2542.342105
376.833254	2568.609037
377.219367	2592.559559
377.605417	2629.513737
377.991404	2654.278405
378.377329	2690.103365
378.763191	2723.616956
379.148991	2771.979265
379.534727	2819.764363
379.920402	2867.400746
380.306013	2913.444125
380.691563	2977.476861
381.077049	3029.564583
381.462474	3084.629106
381.847835	3159.160045
382.233134	3227.291240
382.618371	3287.916156
383.003545	3369.018239
383.388657	3450.165692
383.773706	3538.794218
384.158693	3611.838017
384.543618	3705.086760
384.928480	3780.998975
385.313280	3883.528483
385.698017	3988.056808
386.082692	4105.550980
386.467305	4168.701515
386.851856	4293.371770
387.236344	4444.301395
387.620770	4507.734234
388.005133	4625.351915
388.389435	4772.102424
388.773674	4854.459755
389.157851	4985.625537
389.541965	5117.260146
389.926018	5137.891068
390.310008	5315.710208
390.693936	5433.126243
391.077802	5551.250560
391.461606	5681.425755
391.845348	5794.604700
392.229027	5913.530560
392.612645	6138.393748
392.996200	6247.900213
393.379694	6419.841367
393.763125	6644.409648
394.146494	6728.135652
394.529801	6868.867023
394.913047	7106.222190
395.296230	7101.728001
395.679351	7156.462329
396.062410	7411.191833
396.445408	7306.194681
396.828343	7456.703370
397.211217	7592.063392
397.594028	7472.197356
397.976778	7672.368973
398.359466	7841.739139
398.742092	7810.310065
399.124656	7957.433620
399.507158	8143.242989
399.889598	8161.315525
400.271977	8366.150209
400.654294	8402.285200
401.036549	8583.660874
401.418742	8616.582129
401.800874	8914.773941
402.182944	8986.365887
402.564952	9351.421043
402.946898	9170.196603
403.328783	9227.431344
403.710606	9415.809181
404.092367	9667.226646
404.474067	10024.445328
404.855705	9819.141818
405.237282	9777.272514
405.618797	10194.216267
406.000250	10432.998080
406.381642	10788.805239
406.762972	10744.934598
407.144240	10548.339680
407.525447	10784.396750
407.906593	10730.537063
408.287677	10975.499331
408.668700	11128.664708
409.049661	11100.769483
409.430560	11255.321178
409.811399	11218.435055
410.192176	11381.861701
410.572891	11443.119282
410.953545	11905.113306
411.334138	11393.978114
411.714669	11964.001544
412.095139	11280.668099
412.475547	11767.381421
412.855894	11603.281781
413.236180	11902.244889
413.616405	11585.350397
413.996568	11830.998262
414.376670	11789.948146
414.756711	11647.041517
415.136691	11883.020449
415.516609	12026.998323
415.896466	12066.594066
416.276262	12301.751290
416.655997	12686.126668
417.035670	12681.408148
417.415283	13246.433274
417.794834	13279.732616
418.174324	12982.324704
418.553753	12822.111793
418.933121	13217.930590
419.312428	12967.745687
419.691674	12818.446874
420.070859	13157.744255
420.449983	12756.702822
420.829045	13160.884893
421.208047	12837.898167
421.586988	13151.243687
421.965867	13270.010751
422.344686	13154.787618
422.723444	13519.769677
423.102141	12288.087243
423.480777	13172.492150
423.859352	12637.265285
424.237866	13410.989139
424.616319	13038.029454
424.994712	13424.746448
425.373044	13112.575516
425.751314	13464.402684
426.129524	12648.854897
426.507673	13305.283704
426.885762	12932.800408
427.263789	12898.540727
427.641756	12842.959485
428.019662	12704.146273
428.397508	12560.191083
428.775292	12570.838000
429.153016	12353.753313
429.530679	12231.331412
429.908282	12053.877756
430.285824	11709.587113
430.663305	11926.671800
431.040726	11512.626711
431.418086	11225.795140
431.795385	11391.243288
432.172624	11416.242370
432.549802	10990.118677
432.926920	10891.468337
433.303977	10635.082814
433.680974	10562.953985
434.057910	10512.547488
434.434786	10325.434981
434.811601	10084.480430
435.188355	10349.118321
435.565050	9997.316359
435.941683	9770.265310
436.318257	9929.180124
436.694770	9651.664604
437.071222	9675.587400
437.447614	9121.662895
437.823946	8928.543853
438.200218	8779.517263
438.576429	8519.441615
438.952580	8414.600739
439.328670	8216.806026
439.704700	8161.065988
440.080670	7852.749019
440.456580	7834.681524
440.832429	7701.811832
441.208218	7249.799293
441.583947	7193.083791
441.959616	7051.019035
442.335224	6943.597087
442.710773	6811.617159
443.086261	6762.478512
443.461689	6474.409337
443.837057	6345.789338
444.212365	6312.734492
444.587612	6163.980125
444.962800	5940.178100
445.337927	5863.053487
445.712995	5517.971383
446.088002	5675.409138
446.462949	5571.876441
446.837837	5460.088854
447.212664	5315.329601
447.587431	5563.067024
447.962139	5814.784439
448.336786	5987.680892
448.711374	5651.118338
449.085901	5084.059107
449.460369	4922.477523
449.834776	4782.956028
450.209124	4902.748967
450.583412	4750.075102
450.957640	4689.006565
451.331808	4466.079180
451.705917	4240.056527
452.079965	4143.717556
452.453954	4073.416145
452.827883	3974.793532
453.201752	3879.430025
453.575562	3803.842964
453.949311	3787.343267
454.323001	3718.352556
454.696632	3635.266779
455.070202	3640.045793
455.443713	3579.990527
455.817164	3537.430586
456.190556	3491.714882
456.563888	3416.780651
456.937160	3366.520347
457.310373	3263.027979
457.683526	3224.349726
458.056619	3178.215607
458.429653	3132.613329
458.802628	3104.871860
459.175542	3066.123031
459.548398	3064.961045
459.921194	3065.707135
460.293930	3054.906463
460.666607	3067.222002
461.039224	3070.251736
461.411782	3042.003630
461.784280	2987.178561
462.156719	2943.892694
462.529099	2910.275759
462.901419	2866.818493
463.273680	2828.914057
463.645882	2808.096612
464.018024	2790.124899
464.390106	2787.979888
464.762130	2806.876653
465.134094	2839.238340
465.505999	2888.601318
465.877845	2923.879313
466.249631	2920.418561
466.621358	2878.942468
466.993026	2844.811336
467.364634	2817.044660
467.736184	2786.326389
468.107674	2760.379570
468.479105	2746.022364
468.850477	2732.938049
469.221790	2709.315202
469.593043	2692.255938
469.964238	2680.668846
470.335373	2672.338339
470.706449	2680.288239
471.077467	2691.741740
471.448425	2717.822150
471.819324	2736.232443
472.190164	2718.187633
472.560945	2688.170083
472.931667	2661.613284
473.302330	2649.532159
473.672934	2638.560088
474.043479	2639.878349
474.413965	2631.525157
474.784393	2620.185082
475.154761	2626.554580
475.525070	2621.253807
475.895321	2620.028806
476.265513	2617.031840
476.635645	2626.110958
477.005719	2621.936883
477.375734	2622.153652
477.745691	2623.645834
478.115588	2629.609519
478.485427	2634.804428
478.855207	2651.157931
479.224928	2665.941115
479.594591	2673.850685
479.964194	2665.346259
480.333739	2665.157215
480.703226	2665.303409
481.072653	2662.979437
481.442022	2665.570590
481.811333	2669.003616
482.180584	2658.651606
482.549777	2652.246820
482.918912	2650.910915
483.287988	2647.820687
483.657005	2639.686786
484.025964	2636.659573
484.394864	2637.788791
484.763706	2632.982051
485.132489	2625.707666
485.501213	2628.997019
485.869879	2627.862759
486.238487	2626.380660
486.607036	2625.339662
486.975527	2621.820936
487.343959	2622.120885
487.712333	2619.174331
488.080648	2621.059722
488.448905	2623.716410
488.817104	2618.392952
489.185244	2625.838736
489.553326	2633.221506
489.921350	2646.998979
490.289315	2662.261072
490.657222	2664.194355
491.025070	2666.538492
491.392861	2662.513130
491.760593	2654.593477
492.128267	2645.814308
492.495883	2638.262660
492.863440	2627.716566
493.230939	2623.207254
493.598380	2618.486213
493.965763	2613.533279
494.333088	2610.614451
494.700354	2607.972887
495.067563	2606.062289
495.434713	2605.711929
495.801805	2606.795777
496.168839	2607.365428
496.535815	2605.936261
496.902733	2609.114708
497.269593	2606.221086
497.636395	2606.717639
498.003139	2607.105808
498.369825	2604.643205
498.736453	2607.965325
499.103023	2605.222937
499.469535	2603.992896
499.835989	2607.307454
500.202385	2604.582711
500.568723	2606.929368
500.935003	2608.310644
501.301226	2605.316199
501.667390	2612.961108
502.033497	2616.991511
502.399546	2611.847013
502.765537	2610.261571
503.131470	2615.285080
503.497345	2616.220214
503.863163	2611.441201
504.228923	2612.827518
504.594625	2620.888323
504.960269	2619.222222
505.325856	2623.245062
505.691385	2623.083745
506.056856	2628.394601
506.422270	2627.227574
506.787625	2630.587503
507.152924	2631.434417
507.518164	2636.115128
507.883347	2634.136475
508.248472	2636.296610
508.613540	2643.371869
508.978550	2643.273567
509.343503	2645.690800
509.708398	2647.414874
510.073236	2651.662047
510.438016	2657.930721
510.802738	2655.072387
511.167403	2661.207471
511.532010	2664.338028
511.896561	2668.650735
512.261053	2676.860254
512.625488	2671.287258
512.989866	2672.207269
513.354186	2674.984945
513.718449	2674.158196
514.082655	2684.608507
514.446803	2684.535411
514.810894	2689.558921
515.174927	2689.798375
515.538904	2690.660413
515.902822	2696.150229
516.266684	2697.448326
516.630488	2697.140816
516.994235	2699.731969
517.357925	2702.933102
517.721558	2706.514842
518.085133	2709.050542
518.448651	2709.247147
518.812112	2711.162785
519.175516	2711.805532
519.538863	2716.032540
519.902152	2717.234855
520.265385	2719.198385
520.628560	2721.968499
520.991678	2717.592777
521.354739	2718.850545
521.717743	2724.584857
522.080690	2724.037892
522.443580	2728.779097
522.806413	2729.230281
523.169189	2729.646176
523.531908	2734.846126
523.894569	2731.254304
524.257174	2733.200189
524.619722	2736.718915
524.982213	2734.299161
525.344647	2736.918040
525.707025	2735.090622
526.069345	2737.298647
526.431608	2741.896180
526.793815	2741.571025
527.155964	2738.987434
527.518057	2740.179667
527.880093	2739.693196
528.242072	2741.155130
528.603995	2742.753176
528.965860	2742.135635
529.327669	2742.054976
529.689421	2740.119173
530.051117	2742.329719
530.412755	2739.879718
530.774337	2742.491036
531.135862	2742.238978
531.497331	2738.790829
531.858743	2738.095150
532.220098	2741.560943
532.581396	2737.419635
532.942638	2738.042218
533.303824	2740.948443
533.664953	2742.165882
534.026025	2738.405181
534.387040	2737.535582
534.747999	2739.627661
535.108902	2738.657238
535.469748	2739.405850
535.830537	2739.184039
536.191270	2738.526168
536.551947	2734.798235
536.912567	2735.655231
537.273131	2735.745972
537.633638	2732.176835
537.994089	2728.698439
538.354483	2730.190621
538.714821	2730.392267
539.075103	2732.799418
539.435328	2730.349417
539.795497	2729.905795
540.155609	2728.274982
540.515665	2729.013511
540.875665	2724.181565
541.235609	2726.278685
541.595496	2724.378170
541.955328	2726.235835
542.315102	2719.349619
542.674821	2715.394834
543.034483	2711.913917
543.394090	2715.029350
543.753640	2710.265460
544.113134	2716.818960
544.472571	2708.773278
544.831953	2712.846531
545.191278	2705.151209
545.550548	2699.316074
545.909761	2702.633153
546.268918	2698.479242
546.628019	2696.498069
546.987064	2691.751822
547.346053	2683.227231
547.704986	2685.047088
548.063863	2681.810667
548.422684	2678.400327
548.781449	2676.512414
549.140158	2673.948988
549.498811	2669.626198
549.857408	2661.414159
550.215949	2665.552946
550.574434	2654.661533
550.932864	2653.991060
551.291237	2651.939310
551.649555	2651.906542
552.007817	2648.324803
552.366022	2645.506798
552.724173	2641.609986
553.082267	2640.362300
553.440305	2638.257618
553.798288	2633.554222
554.156215	2631.091618
554.514086	2628.644138
554.871902	2627.401494
555.229661	2619.219701
555.587365	2617.414968
555.945014	2617.079731
556.302606	2611.153855
556.660143	2609.850717
557.017625	2607.226796
557.375050	2604.116404
557.732421	2604.779316
558.089735	2596.907554
558.446994	2592.602409
558.804197	2594.502924
559.161345	2594.578541
559.518437	2587.772983
559.875474	2586.752150
560.232455	2586.253075
560.589381	2581.642940
560.946251	2581.128742
561.303065	2577.829307
561.659825	2576.528690
562.016528	2573.211610
562.373177	2568.946794
562.729770	2569.851681
563.086307	2569.259346
563.442789	2565.198696
563.799216	2565.803635
564.155587	2561.687533
564.511904	2562.239539
564.868164	2560.228119
565.224370	2559.998746
565.580520	2557.059753
565.936615	2556.127140
566.292654	2555.285267
566.648638	2553.815771
567.004567	2553.248641
567.360441	2551.262427
567.716260	2551.012889
568.072023	2549.656819
568.427732	2546.871582
568.783385	2545.674308
569.138982	2543.246992
569.494525	2546.128011
569.850013	2539.508976
570.205445	2544.779503
570.560823	2542.997455
570.916145	2541.159954
571.271412	2540.063503
571.626625	2539.768596
571.981782	2542.566436
572.336884	2538.281455
572.691931	2537.197607
573.046923	2534.424973
573.401860	2533.273069
573.756743	2535.400436
574.111570	2535.327339
574.466342	2533.600744
574.821059	2533.467153
575.175722	2533.830117
575.530330	2533.668800
575.884882	2528.741072
576.239380	2532.756351
576.593823	2529.898017
576.948211	2527.344672
577.302544	2526.522964
577.656823	2528.148736
578.011047	2527.569003
578.365216	2525.038344
578.719330	2525.388704
579.073389	2524.874507
579.427394	2525.071112
579.781344	2526.283509
580.135239	2522.611029
580.489080	2524.544311
580.842866	2523.969620
581.196597	2522.167407
581.550273	2523.795700
581.903895	2522.663961
582.257463	2523.833508
582.610975	2523.089938
582.964434	2518.913342
583.317837	2518.205060
583.671186	2519.525843
584.024481	2522.769825
584.377721	2519.871162
584.730906	2518.071470
585.084037	2516.183557
585.437113	2520.198837
585.790135	2517.237159
586.143103	2517.892509
586.496016	2518.210101
586.848874	2511.389420
587.201679	2517.060718
587.554428	2512.130470
587.907124	2513.458814
588.259765	2508.939419
588.612352	2517.027951
588.964884	2513.383197
589.317362	2514.288084
589.669786	2515.732374
590.022155	2514.711541
590.374470	2514.477127
590.726731	2510.797085
591.078937	2509.866992
591.431090	2512.808505
591.783188	2510.045953
592.135232	2507.911024
592.487222	2508.989831
592.839157	2511.061745
593.191038	2508.916734
593.542866	2507.013699
593.894639	2503.250477
594.246358	2507.280880
594.598022	2508.241220
594.949633	2505.685355
595.301190	2503.608399
595.652692	2506.766682
596.004141	2503.351300
596.355535	2503.293327
596.706876	2503.265601
597.058162	2499.615805
597.409395	2502.529592
597.760573	2503.736949
598.111698	2499.925836
598.462768	2500.986999
598.813785	2499.424242
599.164748	2500.245950
599.515657	2501.385250
599.866511	2500.558501
600.217312	2500.308964
600.568060	2498.005157
600.918753	2498.993223
601.269392	2497.281751
601.619978	2500.066989
601.970510	2497.405259
602.320988	2501.428100
602.671412	2501.546567
603.021783	2496.129847
603.372100	2497.501041
603.722363	2496.641525
604.072572	2500.692092
604.422728	2498.494149
604.772830	2494.362923
605.122878	2492.848056
605.472872	2493.820999
605.822813	2493.700011
606.172701	2498.058089
606.522534	2494.557007
606.872314	2497.400218
607.222041	2494.443582
607.571714	2499.288130
607.921333	2496.079436
608.270899	2498.080774
608.620411	2496.886021
608.969870	2498.796618
609.319276	2493.914260
609.668627	2495.103973
610.017926	2495.736637
610.367171	2496.336535
610.716362	2492.517861
611.065500	2496.328973
611.414585	2496.515496
611.763616	2496.923829
612.112594	2495.451812
612.461518	2497.175887
612.810389	2496.107162
613.159207	2494.342758
613.507971	2494.521719
613.856682	2499.567914
614.205340	2495.718993
614.553945	2498.199241
614.902496	2495.366113
615.250994	2496.054230
615.599439	2495.129178
615.947830	2497.647235
616.296169	2496.523057
616.644454	2497.256545
616.992686	2494.798983
617.340864	2496.472646
617.688990	2496.545743
618.037063	2497.546412
618.385082	2499.348624
618.733048	2496.139930
619.080961	2497.616988
619.428821	2498.163953
619.776628	2495.028355
620.124382	2496.076915
620.472083	2496.328973
620.819731	2495.280413
621.167326	2495.414004
621.514868	2495.429127
621.862357	2496.258397
622.209793	2490.876965
622.557176	2493.573982
622.904506	2491.179434
623.251783	2484.260451
623.599007	2487.443939
623.946179	2486.624752
624.293297	2489.014259
624.640363	2488.948724
624.987376	2487.159114
625.334336	2487.698518
625.681243	2485.319093
626.028097	2485.684577
626.374899	2484.192395
626.721647	2486.221460
627.068343	2483.211891
627.414987	2481.999493
627.761577	2482.473362
628.108115	2482.541417
628.454600	2481.003865
628.801032	2481.928917
629.147412	2482.024699
629.493739	2480.575367
629.840014	2482.470841
630.186236	2482.218783
630.532405	2483.521922
630.878521	2481.742394
631.224585	2480.998824
631.570597	2480.048567
631.916556	2479.496560
632.262462	2481.712148
632.608316	2481.281129
632.954117	2481.412199
633.299866	2476.582773
633.645562	2479.488999
633.991206	2478.027064
634.336797	2475.912300
634.682336	2475.773668
635.027823	2474.687300
635.373257	2476.282825
635.718639	2473.613534
636.063968	2474.896507
636.409245	2471.995323
636.754470	2476.398771
637.099642	2471.612196
637.444762	2470.309058
637.789829	2472.416260
638.134845	2472.638071
638.479808	2471.423152
638.824719	2469.661269
639.169577	2468.622792
639.514383	2467.203707
639.859137	2469.441979
640.203839	2470.006588
640.548489	2467.846454
640.893086	2467.919551
641.237632	2461.774384
641.582125	2463.926957
641.926566	2461.726493
642.270955	2464.927626
642.615292	2466.467698
642.959576	2466.629015
643.303809	2467.072637
643.647990	2465.625826
643.992118	2464.884776
644.336195	2462.621298
644.680219	2467.904427
645.024192	2469.573049
645.368112	2465.063737
645.711981	2469.789819
646.055797	2466.324025
646.399562	2468.055662
646.743274	2469.104222
647.086935	2468.637915
647.430544	2469.290744
647.774101	2470.571197
648.117606	2470.369551
648.461059	2471.017340
648.804460	2473.134624
649.147810	2468.000209
649.491108	2467.299489
649.834354	2467.758234
650.177548	2466.676906
650.520690	2468.015332
650.863781	2464.042903
651.206820	2468.602627
651.549807	2462.966617
651.892742	2465.214972
652.235626	2464.136165
652.578458	2462.417131
652.921238	2461.683643
653.263967	2460.617439
653.606644	2462.706997
653.949269	2462.147429
654.291843	2460.244394
654.634365	2459.493262
654.976836	2460.693057
655.319255	2460.491410
655.661622	2458.386729
656.003938	2460.130968
656.346203	2460.221709
656.688416	2459.831019
657.030577	2462.984261
657.372687	2460.740948
657.714746	2457.706173
658.056753	2459.402521
658.398708	2452.622169
658.740612	2456.045113
659.082465	2454.928497
659.424266	2457.136522
659.766016	2453.282560
660.107715	2458.888323
660.449362	2456.955041
660.790958	2458.454784
661.132503	2456.723148
661.473996	2456.287088
661.815438	2457.622994
662.156829	2459.213478
662.498168	2454.036213
662.839456	2457.234825
663.180693	2456.435802
663.521879	2459.566359
663.863013	2460.493931
664.204097	2458.437140
664.545129	2457.335648
664.886110	2457.174331
665.227040	2456.647531
665.567918	2459.954527
665.908746	2457.827161
666.249522	2459.021914
666.590248	2456.289609
666.930922	2461.512244
667.271545	2458.621142
667.612118	2460.090639
667.952639	2460.561987
668.293109	2456.171142
668.633528	2457.519650
668.973896	2460.196503
669.314213	2455.404886
669.654480	2455.984619
669.994695	2457.418827
670.334859	2456.634928
670.674973	2454.653754
671.015035	2458.006122
671.355047	2458.104424
671.695008	2457.713735
672.034918	2456.153497
672.374777	2456.899588
672.714585	2455.238528
673.054342	2459.515947
673.394049	2456.702983
673.733705	2455.354475
674.073310	2458.611060
674.412864	2457.118878
674.752368	2453.048147
675.091820	2457.204578
675.431223	2454.217694
675.770574	2453.509412
676.109875	2451.976902
676.449125	2450.714092
676.788324	2449.521860
677.127473	2453.859773
677.466571	2447.596139
677.805619	2453.358178
678.144616	2450.232662
678.483562	2453.441357
678.822458	2449.297528
679.161303	2456.957562
679.500098	2453.189299
679.838842	2452.455811
680.177535	2450.464555
680.516179	2454.119392
680.854771	2452.475976
681.193314	2452.637293
681.531805	2453.834567
681.870247	2457.363374
682.208638	2457.383539
682.546978	2458.232973
682.885268	2457.620473
683.223508	2456.768518
683.561697	2455.888837
683.899836	2455.495627
684.237925	2452.334823
684.575963	2455.427571
684.913951	2452.639813
685.251889	2453.529577
685.589776	2454.671398
685.927614	2453.043106
686.265401	2451.505554
686.603137	2455.339351
686.940824	2457.668364
687.278460	2457.519650
687.616046	2456.035030
687.953582	2457.408745
688.291068	2453.857252
688.628504	2455.808178
688.965889	2459.505865
689.303224	2456.536625
689.640510	2454.978909
689.977745	2456.103086
690.314930	2452.218877
690.652065	2453.408589
690.989150	2452.607046
691.326185	2450.028496
691.663170	2449.796603
692.000105	2449.105964
692.336990	2449.448763
692.673825	2448.493464
693.010610	2447.933896
693.347345	2442.590273
693.684030	2440.934254
694.020665	2440.677155
694.357251	2436.679520
694.693786	2444.863833
695.030272	2440.044490
695.366707	2439.890735
695.703093	2442.345777
696.039429	2440.432659
696.375716	2438.738832
696.711952	2440.687238
697.048139	2442.345777
697.384276	2437.478543
697.720363	2441.413164
698.056400	2438.877463
698.392388	2438.892587
698.728326	2438.806887
699.064214	2441.176229
699.400053	2440.359562
699.735842	2437.891918
700.071581	2438.398554
700.407270	2437.198759
700.742910	2436.004006
701.078501	2437.370158
701.414042	2437.097936
701.749533	2436.029211
702.084974	2435.041145
702.420366	2433.674993
702.755709	2434.020312
703.091002	2435.893100
703.426246	2438.854778
703.761440	2433.372523
704.096584	2432.775147
704.431679	2434.163984
704.766725	2434.247163
705.101721	2434.721032
705.436668	2434.408480
705.771565	2434.748758
706.106413	2434.741197
706.441212	2432.457554
706.775961	2435.467123
707.110661	2434.118614
707.445311	2436.505600
707.779913	2434.610127
708.114465	2433.664910
708.448967	2433.359920
708.783421	2437.483584
709.117825	2434.423604
709.452180	2437.992741
709.786485	2436.777823
710.120742	2442.355859
710.454949	2437.594490
710.789107	2438.917792
711.123216	2436.951742
711.457275	2439.648760
711.791286	2439.991558
712.125247	2440.904007
712.459159	2441.914758
712.793023	2442.819646
713.126837	2441.609769
713.460602	2441.758483
713.794318	2439.681527
714.127985	2443.313679
714.461602	2437.838986
714.795171	2440.246137
715.128691	2436.344283
715.462162	2437.498708
715.795584	2436.581218
716.128957	2433.319591
716.462281	2433.584252
716.795556	2436.465271
717.128782	2431.892945
717.461960	2432.848243
717.795088	2432.245825
718.128167	2431.809766
718.461198	2427.920515
718.794180	2433.417894
719.127113	2430.108376
719.459997	2431.575352
719.792833	2428.790114
720.125619	2430.602409
720.458357	2430.748603
720.791046	2430.758685
721.123686	2428.538057
721.456278	2427.345824
721.788821	2429.319436
722.121315	2426.463622
722.453761	2427.509661
722.786158	2427.595361
723.118506	2427.915474
723.450805	2426.579568
723.783056	2428.981678
724.115259	2430.098294
724.447412	2426.347675
724.779518	2429.871442
725.111574	2428.439754
725.443582	2428.316246
725.775542	2430.559559
726.107453	2428.356575
726.439315	2428.412028
726.771129	2434.574838
727.102895	2430.219282
727.434612	2430.622574
727.766281	2427.784404
728.097901	2428.064188
728.429473	2428.386822
728.760996	2431.040990
729.092471	2428.477563
729.423897	2434.007709
729.755276	2430.494024
730.086606	2432.281113
730.417887	2432.855805
730.749120	2433.770774
731.080305	2431.585434
731.411442	2436.787905
731.742530	2436.208172
732.073570	2435.252874
732.404562	2434.766402
732.735506	2433.312029
733.066401	2433.624581
733.397249	2435.152051
733.728048	2433.415373
734.058798	2430.851946
734.389501	2432.470157
734.720156	2430.841864
735.050762	2430.032759
735.381320	2428.351534
735.711831	2429.102666
736.042293	2429.347162
736.372707	2427.749116
736.703073	2425.541091
737.033391	2428.129723
737.363661	2428.996802
737.693883	2427.595361
738.024056	2430.052923
738.354182	2427.270207
738.684260	2427.628128
739.014290	2430.196596
739.344272	2429.783222
739.674207	2429.538726
740.004093	2429.929415
740.333931	2430.370516
740.663722	2433.856474
740.993464	2432.949066
741.323159	2429.584096
741.652806	2428.958993
741.982405	2427.166863
742.311956	2429.606781
742.641460	2428.424631
742.970915	2427.023190
743.300323	2425.611667
743.629683	2429.798345
743.958996	2427.892789
744.288260	2427.176945
744.617477	2424.782397
744.946647	2422.876841
745.275768	2426.088056
745.604842	2419.665626
745.933869	2419.010276
746.262847	2421.268713
746.591778	2427.131575
746.920662	2424.885741
747.249498	2425.057140
747.578286	2424.847932
747.907027	2422.725606
748.235720	2423.650658
748.564365	2426.876997
748.892963	2424.893303
749.221514	2425.359609
749.550017	2424.605957
749.878473	2423.943045
750.206881	2423.335586
750.535242	2423.582603
750.863555	2424.081677
751.191821	2423.088569
751.520039	2422.907088
751.848210	2422.339958
752.176334	2425.934301
752.504411	2425.052099
752.832440	2424.492531
753.160421	2425.465473
753.488356	2424.613518
753.816243	2422.324835
754.144082	2422.372726
754.471875	2424.893303
754.799620	2421.170410
755.127318	2423.275092
755.454969	2422.702921
755.782572	2425.467994
756.110129	2422.143353
756.437638	2421.598908
756.765100	2422.387849
757.092515	2418.702766
757.419882	2421.782911
757.747203	2424.416913
758.074477	2423.179310
758.401703	2424.517737
758.728882	2422.798703
759.056014	2423.723755
759.383099	2422.584454
759.710138	2423.411203
760.037129	2424.558066
760.364073	2422.798703
760.690970	2422.934814
761.017820	2426.761050
761.344623	2424.505134
761.671379	2425.578899
761.998088	2420.227715
762.324751	2429.311874
762.651366	2433.644746
762.977935	2445.188988
763.304456	2447.049174
763.630931	2452.682663
763.957359	2447.444904
764.283740	2447.669236
764.610074	2440.783019
764.936362	2437.380241
765.262602	2433.395208
765.588796	2429.279106
765.914943	2427.567635
766.241044	2423.116296
766.567097	2422.160997
766.893104	2422.811306
767.219064	2422.992788
767.544978	2422.251738
767.870845	2416.434246
768.196665	2417.056829
768.522438	2418.632189
768.848165	2417.991963
769.173846	2418.281829
769.499479	2415.909966
769.825066	2416.497261
770.150607	2416.635892
770.476101	2418.238979
770.801548	2418.138156
771.126949	2415.299987
771.452303	2414.662281
771.777611	2412.814698
772.102872	2414.342168
772.428087	2414.488361
772.753256	2416.335944
773.078378	2415.511715
773.403453	2416.900553
773.728482	2415.494071
774.053465	2416.277971
774.378401	2414.906777
774.703291	2413.618762
775.028135	2413.669173
775.352932	2411.640109
775.677683	2411.340160
776.002388	2412.464338
776.327046	2414.213618
776.651658	2413.906108
776.976224	2411.488874
777.300743	2414.513567
777.625216	2412.842424
777.949643	2412.804616
778.274024	2413.230593
778.598359	2410.425191
778.922647	2405.875550
779.246889	2409.399316
779.571086	2406.790519
779.895236	2412.940727
780.219339	2411.148597
780.543397	2411.977866
780.867409	2409.278328
781.191374	2412.882753
781.515294	2410.566343
781.839167	2409.732032
782.162995	2410.672207
782.486776	2410.866292
782.810511	2410.034502
783.134201	2412.736560
783.457844	2412.441653
783.781441	2411.506518
784.104993	2412.819739
784.428498	2411.534245
784.751958	2410.962074
785.075372	2411.693041
785.398739	2408.469223
785.722061	2412.582805
786.045337	2409.905952
786.368568	2408.260015
786.691752	2410.150448
787.014891	2413.278484
787.337983	2414.369894
787.661030	2415.242013
787.984031	2415.531880
788.306987	2419.012797
788.629897	2414.868968
788.952760	2417.984401
789.275579	2414.992476
789.598351	2417.502971
789.921078	2414.868968
790.243759	2414.261509
790.566395	2415.229411
790.888984	2415.675553
791.211529	2412.542476
791.534027	2413.331416
791.856480	2410.609193
792.178888	2412.340829
792.501249	2410.936868
792.823566	2413.091961
793.145836	2409.457289
793.468062	2409.653894
793.790241	2412.038360
794.112375	2411.249420
794.434464	2411.960222
794.756507	2412.323185
795.078505	2411.844276
795.400457	2411.148597
795.722364	2410.145407
796.044226	2408.428894
796.366042	2410.405026
796.687812	2409.316137
797.009538	2411.335119
797.331218	2416.507343
797.652852	2411.935017
797.974442	2412.338309
798.295986	2410.745304
798.617484	2414.412744
798.938938	2412.121539
799.260346	2415.010120
799.581709	2410.871333
799.903026	2412.577764
800.224299	2411.521642
800.545526	2410.762948
800.866708	2412.096333
801.187845	2409.174985
801.508936	2410.480644
801.829983	2411.423339
802.150984	2411.178843
802.471940	2411.067938
802.792851	2409.338822
803.113717	2410.863771
803.434538	2410.904101
803.755314	2406.997206
804.076045	2408.544841
804.396731	2408.625499
804.717372	2409.820253
805.037967	2409.691703
805.358518	2410.226065
805.679024	2411.367887
805.999485	2407.544172
806.319901	2410.039543
806.640272	2411.569533
806.960598	2410.258833
807.280879	2411.592218
807.601115	2410.284039
807.921306	2410.762948
808.241453	2408.217166
808.561554	2412.146745
808.881611	2412.204718
809.201623	2405.706671
809.521590	2409.830335
809.841513	2409.467372
810.161390	2410.309244
810.481223	2409.341343
810.801011	2409.658936
811.120755	2411.627506
811.440453	2411.405695
811.760107	2406.823287
812.079716	2409.800088
812.399281	2404.325395
812.718801	2405.976373
813.038276	2404.746331
813.357707	2410.200860
813.677093	2410.563823
813.996434	2410.470561
814.315731	2409.570715
814.634983	2408.673390
814.954191	2407.145920
815.273354	2407.854203
815.592473	2408.872516
815.911547	2411.738412
816.230577	2411.622465
816.549562	2409.779923
816.868502	2409.313617
817.187399	2411.541807
817.506250	2412.797054
817.825058	2411.677918
818.143821	2411.574574
818.462539	2414.563978
818.781213	2416.772004
819.099843	2415.577250
819.418429	2417.376942
819.736970	2422.259300
820.055466	2425.064702
820.373919	2430.080650
820.692327	2436.243460
821.010691	2445.814091
821.329011	2472.116311
821.647286	2513.559637
821.965517	2554.965154
822.283704	2584.198805
822.601847	2588.246852
822.919945	2573.539285
823.237999	2546.884184
823.556010	2525.537418
823.873976	2508.352125
824.191897	2490.128354
824.509775	2477.911117
824.827609	2463.168263
825.145398	2456.067798
825.463144	2455.649382
825.780845	2455.296501
826.098502	2461.691205
826.416116	2472.176805
826.733685	2476.847434
827.051210	2480.953454
827.368692	2477.701910
827.686129	2466.263532
828.003522	2455.843467
828.320872	2443.167485
828.638177	2438.683379
828.955439	2429.347162
829.272656	2426.753488
829.589830	2421.873651
829.906960	2420.779721
830.224046	2419.728640
830.541088	2416.393917
830.858086	2414.455593
831.175041	2414.473238
831.491952	2415.491551
831.808819	2417.661767
832.125642	2418.803589
832.442421	2418.866603
832.759157	2421.389701
833.075849	2433.448141
833.392497	2438.801846
833.709101	2446.048505
834.025662	2442.474327
834.342179	2438.461568
834.658653	2430.428489
834.975083	2429.372368
835.291469	2433.090219
835.607811	2423.232242
835.924110	2417.802920
836.240366	2419.894998
836.556578	2414.286715
836.872746	2413.843093
837.188871	2411.604821
837.504952	2414.092630
837.820990	2410.994841
838.136984	2407.990314
838.452935	2406.525858
838.768842	2407.191291
839.084706	2409.429563
839.400526	2414.039698
839.716303	2417.971798
840.032037	2420.555390
840.347727	2421.631676
840.663373	2417.966757
840.978977	2414.483320
841.294537	2411.937537
841.610054	2411.347722
841.925527	2410.951992
842.240957	2409.391754
842.556344	2407.375293
842.871687	2406.112484
843.186987	2405.610889
843.502244	2403.155847
843.817458	2405.258008
844.132629	2404.159037
844.447756	2403.276835
844.762840	2396.836761
845.077881	2400.657955
845.392879	2399.342214
845.707833	2402.006464
846.022745	2397.328273
846.337613	2401.341032
846.652438	2402.792884
846.967221	2404.443862
847.281960	2400.980589
847.596656	2403.995199
847.911309	2404.159037
848.225919	2401.378840
848.540485	2403.556619
848.855009	2405.021074
849.169490	2400.224416
849.483928	2404.353121
849.798323	2401.434293
850.112675	2403.949829
850.426984	2401.343552
850.741251	2402.056876
851.055474	2401.610733
851.369654	2399.937070
851.683792	2403.977555
851.997887	2402.127452
852.311938	2398.623850
852.625947	2400.978069
852.939914	2400.242060
853.253837	2404.920251
853.567718	2404.458985
853.881555	2399.516134
854.195350	2402.671896
854.509103	2400.110990
854.822812	2401.971176
855.136479	2404.222051
855.450103	2398.581000
855.763685	2400.491597
856.077224	2398.303737
856.390720	2403.012174
856.704173	2400.993192
857.017584	2402.704664
857.330953	2401.096536
857.644278	2402.364386
857.957561	2406.334295
858.270802	2403.037380
858.584000	2403.707853
858.897155	2402.475291
859.210268	2401.961094
859.523339	2400.708367
859.836367	2399.044786
860.149352	2401.121742
860.462295	2401.275497
860.775195	2397.189642
861.088054	2397.905485
861.400869	2401.865312
861.713642	2399.211144
862.026373	2402.883625
862.339062	2401.325908
862.651708	2401.986299
862.964312	2403.823800
863.276873	2399.382543
863.589392	2400.892369
863.901869	2402.356824
864.214303	2402.618964
864.526696	2404.832031
864.839045	2405.789850
865.151353	2402.210631
865.463619	2403.730539
865.775842	2402.969324
866.088023	2401.572925
866.400162	2402.014026
866.712258	2400.458830
867.024313	2400.937739
867.336325	2403.463358
867.648296	2403.027298
867.960224	2402.266083
868.272110	2402.024108
868.583954	2402.689540
868.895755	2403.362534
869.207515	2401.046124
869.519233	2403.085271
869.830909	2404.395971
870.142542	2403.972514
870.454134	2402.351783
870.765684	2400.985630
871.077191	2403.415467
871.388657	2403.695251
871.700081	2404.731208
872.011463	2402.992010
872.322803	2403.458316
872.634101	2404.022926
872.945357	2405.041239
873.256571	2405.636095
873.567744	2404.287586
873.878874	2405.951167
874.189963	2404.769016
874.501010	2404.869839
874.812015	2406.215827
875.122979	2400.796587
875.433900	2406.772875
875.744780	2406.387227
876.055618	2407.297155
876.366415	2406.175498
876.677169	2407.302196
876.987882	2404.290107
877.298554	2400.045455
877.609183	2404.884963
877.919771	2403.665004
878.230317	2403.775909
878.540822	2406.520817
878.851285	2410.407547
879.161707	2415.620100
879.472087	2416.600604
879.782425	2420.053795
880.092722	2427.890268
880.402977	2441.055242
880.713191	2461.713890
881.023363	2477.006230
881.333494	2488.442088
881.643583	2494.320073
881.953631	2494.131030
882.263637	2482.841366
882.573602	2477.046560
882.883526	2470.979531
883.193408	2466.649180
883.503248	2457.247428
883.813048	2449.564709
884.122806	2444.566405
884.432522	2440.747731
884.742197	2432.265990
885.051831	2429.316915
885.361424	2422.962541
885.670975	2420.507499
885.980485	2419.514391
886.289954	2415.844431
886.599382	2415.274781
886.908768	2414.415264
887.218113	2411.143555
887.527417	2411.370407
887.836680	2409.283370
888.145901	2410.251271
888.455082	2405.946126
888.764221	2407.589542
889.073319	2407.513925
889.382376	2408.277659
889.691392	2404.274983
890.000366	2408.340674
890.309300	2404.522000
890.618193	2407.967628
890.927044	2407.476116
891.235855	2403.475960
891.544625	2405.560477
891.853353	2408.350756
892.162041	2406.626682
892.470687	2408.983421
892.779293	2410.057187
893.087858	2410.034502
893.396381	2406.566188
893.704864	2413.137332
894.013306	2414.967271
894.321707	2423.653179
894.630068	2432.205496
894.938387	2432.946546
895.246665	2428.656524
895.554903	2426.332552
895.863100	2421.361974
896.171256	2424.232911
896.479371	2417.487847
896.787446	2416.204874
897.095480	2412.852507
897.403473	2414.367373
897.711425	2411.912331
898.019336	2412.708834
898.327207	2410.964594
898.635038	2407.667680
898.942827	2408.622978
899.250576	2406.616599
899.558284	2405.822618
899.865952	2407.987793
900.173579	2405.414284
900.481165	2408.118863
900.788711	2406.457803
901.096216	2405.489901
901.403681	2403.508728
901.711105	2404.607699
902.018489	2404.648029
902.325832	2404.816907
902.633135	2404.443862
902.940397	2406.417474
903.247619	2411.630027
903.554800	2420.247879
903.861941	2427.610484
904.169041	2435.351176
904.476101	2436.805549
904.783121	2433.700198
905.090100	2431.605599
905.397039	2427.340783
905.703938	2422.589495
906.010796	2421.122519
906.317614	2417.984401
906.624391	2416.890471
906.931129	2413.026426
907.237826	2412.481982
907.544483	2409.482495
907.851099	2408.764131
908.157675	2409.301014
908.464211	2404.106105
908.770707	2400.668038
909.077163	2401.688871
909.383578	2399.783315
909.689954	2400.436145
909.996289	2397.943294
910.302584	2402.906310
910.608839	2398.460012
910.915054	2399.410270
911.221229	2400.826834
911.527363	2400.597462
911.833458	2397.461864
912.139513	2400.726011
912.445527	2398.807852
912.751502	2401.386402
913.057436	2401.136865
913.363331	2401.557801
913.669186	2404.191804
913.975000	2407.284552
914.280775	2407.491239
914.586510	2410.364697
914.892205	2412.328227
915.197859	2421.495565
915.503475	2423.615370
915.809050	2427.970927
916.114585	2432.268511
916.420081	2434.736155
916.725536	2433.642225
917.030952	2431.073757
917.336328	2426.962696
917.641665	2426.156112
917.946961	2424.495051
918.252218	2423.368353
918.557435	2418.405338
918.862612	2418.357447
919.167750	2415.831828
919.472848	2413.036509
919.777906	2411.962743
920.082925	2410.273956
920.387904	2409.694224
920.692843	2405.999058
920.997743	2406.818245
921.302603	2405.303379
921.607423	2405.736918
921.912204	2406.530900
922.216946	2403.549057
922.521647	2402.200548
922.826310	2403.274314
923.130932	2403.133162
923.435516	2402.876063
923.740059	2398.596123
924.044564	2400.163922
924.349028	2398.550753
924.653454	2398.943963
924.957840	2397.451782
925.262186	2395.059754
925.566493	2397.741648
925.870761	2395.087480
926.174989	2398.923798
926.479178	2397.847512
926.783328	2400.605023
927.087438	2397.492111
927.391509	2397.517317
927.695541	2398.941442
927.999533	2398.994375
928.303486	2397.497152
928.607400	2398.454971
928.911275	2397.325753
929.215110	2396.047820
929.518906	2399.059910
929.822663	2394.595968
930.126381	2398.172667
930.430060	2397.265259
930.733699	2397.940773
931.037299	2398.964128
931.340861	2394.558159
931.644383	2396.413304
931.947866	2397.585372
932.251309	2397.570249
932.554714	2394.805176
932.858080	2399.218706
933.161407	2398.036555
933.464694	2395.432799
933.767943	2397.189642
934.071153	2396.748541
934.374323	2395.435320
934.677455	2397.038407
934.980548	2398.439848
935.283602	2395.286606
935.586617	2392.309805
935.889593	2398.921278
936.192530	2397.124107
936.495428	2397.056051
936.798287	2395.533623
937.101108	2396.821637
937.403890	2400.504200
937.706632	2401.787174
938.009336	2398.364230
938.312002	2399.372461
938.614628	2397.650907
938.917216	2398.417162
939.219765	2399.190980
939.522275	2400.184087
939.824747	2400.655435
940.127179	2398.951525
940.429573	2399.501011
940.731929	2396.647717
941.034246	2393.809548
941.336524	2400.516803
941.638763	2397.731566
941.940964	2400.136196
942.243126	2398.177708
942.545250	2399.611916
942.847335	2399.853891
943.149381	2398.618809
943.451389	2399.710218
943.753359	2395.657131
944.055290	2399.775753
944.357182	2398.558315
944.659036	2398.182749
944.960851	2398.356669
945.262628	2395.059754
945.564367	2396.199055
945.866067	2397.013201
946.167729	2397.353479
946.469352	2398.293654
946.770937	2397.716442
947.072484	2396.864487
947.373992	2394.926163
947.675462	2395.304250
947.976893	2397.988664
948.278286	2397.829868
948.579641	2395.526061
948.880958	2397.865156
949.182236	2395.823489
949.483476	2394.744682
949.784678	2398.094529
950.085841	2395.226112
950.386967	2398.593603
950.688054	2396.713252
950.989103	2398.180228
951.290114	2399.357338
951.591087	2398.447409
951.892021	2397.391288
952.192917	2399.450599
952.493776	2398.840619
952.794596	2399.201062
953.095378	2397.030845
953.396122	2395.296688
953.696828	2397.507234
953.997496	2398.737276
954.298126	2396.788870
954.598718	2399.085115
954.899272	2398.707029
955.199788	2399.982441
955.500266	2397.776936
955.800706	2394.114538
956.101108	2390.046327
956.401472	2396.592265
956.701798	2393.234856
957.002087	2398.553274
957.302337	2395.853736
957.602550	2395.334497
957.902724	2396.940104
958.202861	2394.301060
958.502960	2396.662841
958.803022	2394.369116
959.103045	2395.803324
959.403031	2394.028838
959.702979	2393.217212
960.002889	2394.729558
960.302762	2395.833571
960.602596	2395.347100
960.902393	2398.520506
961.202153	2393.560011
961.501875	2396.660320
961.801559	2395.266441
962.101205	2394.011194
962.400814	2394.759805
962.700385	2393.363406
962.999918	2394.119579
963.299414	2394.585886
963.598873	2394.288457
963.898293	2393.355844
964.197677	2394.943808
964.497022	2395.379867
964.796331	2392.455998
965.095601	2394.666544
965.394835	2391.780483
965.694030	2391.604043
965.993189	2394.399363
966.292309	2392.095556
966.591393	2395.057233
966.890439	2392.566903
967.189447	2393.179404
967.488419	2391.336862
967.787353	2394.900958
968.086249	2394.258211
968.385108	2391.788045
968.683930	2394.238046
968.982714	2394.643859
969.281462	2393.416338
969.580172	2392.468601
969.878844	2391.959444
970.177480	2393.345762
970.476078	2393.683519
970.774639	2394.270813
971.073162	2393.325597
971.371649	2393.597819
971.670098	2388.392828
971.968510	2391.684702
972.266885	2388.745709
972.565223	2394.936246
972.863524	2391.036913
973.161788	2397.093860
973.460014	2394.948849
973.758204	2393.358365
974.056356	2396.100752
974.354471	2394.376678
974.652550	2394.825340
974.950591	2397.540002
975.248595	2390.840308
975.546563	2394.061606
975.844493	2397.361041
976.142386	2394.180073
976.440243	2396.219219
976.738062	2394.991698
977.035845	2395.248797
977.333590	2393.441544
977.631299	2394.028838
977.928971	2394.558159
978.226606	2392.526574
978.524204	2394.026318
978.821765	2394.333828
979.119290	2394.890875
979.416777	2396.647718
979.714228	2394.905999
980.011642	2393.023128
980.309020	2398.628891
980.606360	2394.543036
980.903664	2395.246277
981.200931	2393.217212
981.498162	2395.084960
981.795356	2394.091852
982.092513	2398.432286
982.389633	2397.373644
982.686717	2397.222409
982.983764	2396.836761
983.280775	2397.482028
983.577749	2396.841802
983.874686	2396.030176
984.171587	2397.184600
984.468451	2397.623181
984.765279	2398.961607
985.062070	2395.402552
985.358824	2395.488252
985.655543	2396.594785
985.952224	2396.015053
986.248869	2393.265103
986.545478	2390.805020
986.842050	2393.010525
987.138586	2389.320400
987.435086	2389.758981
987.731549	2388.168497
988.027975	2393.769219
988.324366	2391.810730
988.620719	2390.946173
988.917037	2393.842315
989.213318	2393.504558
989.509563	2391.883827
989.805772	2394.606050
990.101944	2391.162942
990.398080	2392.103117
990.694180	2390.021121
990.990244	2394.059085
991.286271	2389.085987
991.582262	2393.103786
991.878217	2394.066647
992.174136	2392.619836
992.470019	2395.014384
992.765865	2395.964641
993.061676	2394.011194
993.357450	2394.956410
993.653188	2393.733931
993.948890	2394.782491
994.244556	2393.789383
994.540186	2392.100597
994.835780	2388.191182
995.131337	2396.867008
995.426859	2393.930536
995.722345	2394.648900
996.017795	2396.549415
996.313208	2396.793911
996.608586	2393.764177
996.903928	2394.565721
997.199234	2394.721997
997.494504	2395.750392
997.789738	2395.649569
998.084936	2394.963972
998.380099	2392.826523
998.675225	2394.109497
998.970316	2395.581513
999.265371	2396.884652
999.560390	2393.948180
999.855373	2396.360372
1000.150320	2394.404404
1000.445232	2392.082953
1000.740108	2394.863149
1001.034948	2392.496327
1001.329752	2392.584547
1001.624521	2391.601523
1001.919254	2387.329145
1002.213951	2388.962478
1002.508613	2390.661347
1002.803239	2390.242932
1003.097829	2388.032386
1003.392384	2393.542367
1003.686903	2391.185627
1003.981386	2393.721328
1004.275834	2393.413817
1004.570246	2391.785525
1004.864623	2392.718138
1005.158964	2391.682181
1005.453270	2392.539177
1005.747540	2393.096225
1006.041775	2393.938097
1006.335974	2391.359547
1006.630138	2390.363919
1006.924266	2390.923487
1007.218359	2393.045813
1007.512416	2394.570762
1007.806438	2391.934239
1008.100425	2391.457850
1008.394376	2391.780483
1008.688292	2393.542367
1008.982172	2390.799979
1009.276017	2391.725031
1009.569827	2390.835267
1009.863602	2390.265617
1010.157341	2393.171842
1010.451045	2392.675288
1010.744714	2391.404918
1011.038347	2393.539846
1011.331945	2389.108672
1011.625508	2392.992881
1011.919036	2390.169835
1012.212528	2392.057747
1012.505986	2391.914074
1012.799408	2394.306102
1013.092795	2391.714948
1013.386147	2392.944990
1013.679464	2390.124464
1013.972745	2389.625390
1014.265992	2395.291647
1014.559204	2391.644372
1014.852380	2391.425082
1015.145521	2392.864332
1015.438628	2391.838457
1015.731699	2390.762170
1016.024736	2391.246121
1016.317737	2394.215361
1016.610703	2390.787376
1016.903635	2391.684702
1017.196531	2389.940462
1017.489393	2389.315359
1017.782219	2384.952241
1018.075011	2396.161246
1018.367768	2389.816954
1018.660490	2391.483055
1018.953177	2391.483055
1019.245829	2391.483055
