Dividing Wavelength (nm)	Counts (n)	Blue Motor Position (mm): 0.000000	Red Motor Position (mm): 17.600000	
326.493990	1982.527011
326.888308	1982.527011
327.282561	1982.527011
327.676750	1956.461725
328.070874	1962.006995
328.464933	1963.640328
328.858929	1976.485188
329.252859	1984.919039
329.646726	2001.489312
330.040528	2017.240397
330.434265	2038.057842
330.827938	2054.509647
331.221547	2073.479509
331.615091	2095.942891
332.008571	2115.479882
332.401986	2139.448048
332.795338	2157.245842
333.188625	2176.450118
333.581847	2193.794207
333.975006	2211.990252
334.368100	2233.500856
334.761129	2248.793196
335.154095	2264.907244
335.546996	2279.468617
335.939833	2295.617953
336.332606	2309.818884
336.725315	2320.901860
337.117960	2329.668427
337.510540	2333.988696
337.903056	2347.100737
338.295508	2354.949813
338.687896	2359.544825
339.080220	2365.193438
339.472480	2370.942874
339.864676	2378.764224
340.256807	2378.277753
340.648875	2381.262116
341.040879	2382.701365
341.432818	2381.771273
341.824694	2384.105327
342.216506	2385.390821
342.608253	2384.135574
342.999937	2382.040974
343.391557	2379.797661
343.783113	2376.757845
344.174605	2378.600387
344.566033	2377.708103
344.957397	2376.289018
345.348697	2376.329347
345.739934	2369.324664
346.131106	2373.287011
346.522215	2369.115456
346.913260	2364.704446
347.304241	2368.477750
347.695159	2363.166894
348.086012	2362.882069
348.476802	2364.102028
348.867528	2362.110773
349.258191	2357.828312
349.648789	2357.964423
350.039324	2355.272447
350.429796	2358.266893
350.820203	2356.928466
351.210548	2354.758250
351.600828	2354.483507
351.991045	2355.345544
352.381198	2353.071984
352.771288	2354.846470
353.161314	2354.241531
353.551276	2354.430575
353.941175	2353.122395
354.331010	2356.240349
354.720782	2352.643486
355.110490	2356.527695
355.500135	2354.896881
355.889717	2355.090966
356.279235	2357.167921
356.668689	2354.735564
357.058080	2355.731192
357.447408	2355.763960
357.836672	2353.676922
358.225873	2357.064578
358.615010	2355.698425
359.004084	2359.759074
359.393095	2358.536594
359.782043	2362.244363
360.170927	2360.815196
360.559748	2362.965248
360.948505	2365.770650
361.337199	2364.901051
361.725830	2362.511544
362.114398	2365.498428
362.502903	2367.532533
362.891344	2367.837523
363.279722	2365.684951
363.668037	2369.430528
364.056289	2367.469519
364.444478	2372.792977
364.832603	2369.034797
365.220665	2370.743748
365.608665	2372.125025
365.996601	2373.004706
366.384474	2374.418750
366.772284	2375.706764
367.160031	2376.016795
367.547715	2374.738863
367.935336	2375.023688
368.322893	2377.950078
368.710388	2374.159130
369.097820	2380.768083
369.485189	2377.052753
369.872495	2380.314379
370.259738	2380.518546
370.646918	2387.505585
371.034035	2389.244783
371.421090	2390.547921
371.808081	2394.548077
372.195010	2400.267266
372.581875	2401.126783
372.968678	2405.689027
373.355418	2419.443815
373.742096	2423.144022
374.128710	2435.288162
374.515262	2447.815429
374.901751	2461.580300
375.288177	2479.005048
375.674540	2495.887872
376.060841	2517.655574
376.447079	2540.189532
376.833254	2565.107956
377.219367	2592.564600
377.605417	2625.904271
377.991404	2652.882006
378.377329	2693.932122
378.763191	2722.891030
379.148991	2769.748555
379.534727	2819.237562
379.920402	2861.643748
380.306013	2913.423960
380.691563	2973.743886
381.077049	3027.331352
381.462474	3084.354363
381.847835	3156.679798
382.233134	3224.637072
382.618371	3285.841721
383.003545	3368.352807
383.388657	3448.111422
383.773706	3540.654404
384.158693	3614.280456
384.543618	3704.428889
384.928480	3780.235240
385.313280	3882.999162
385.698017	3983.048421
386.082692	4104.159622
386.467305	4166.546421
386.851856	4288.837252
387.236344	4443.278041
387.620770	4506.683154
388.005133	4623.491729
388.389435	4769.153349
388.773674	4849.335422
389.157851	4983.024301
389.541965	5110.988950
389.926018	5140.152025
390.310008	5308.609743
390.693936	5428.546355
391.077802	5545.352410
391.461606	5674.050547
391.845348	5786.876611
392.229027	5908.275157
392.612645	6124.613754
392.996200	6242.102886
393.379694	6409.943062
393.763125	6635.837166
394.146494	6726.351083
394.529801	6859.674479
394.913047	7098.012671
395.296230	7095.088802
395.679351	7144.696276
396.062410	7405.026502
396.445408	7295.101622
396.828343	7449.882689
397.211217	7574.263078
397.594028	7461.938608
397.976778	7661.964031
398.359466	7831.127510
398.742092	7801.228427
399.124656	7945.372659
399.507158	8128.167418
399.889598	8147.742219
400.271977	8347.303855
400.654294	8380.872899
401.036549	8578.889422
401.418742	8603.061755
401.800874	8899.191734
402.182944	8975.310637
402.564952	9340.824538
402.946898	9164.994133
403.328783	9215.362821
403.710606	9402.465246
404.092367	9658.437395
404.474067	10010.468729
404.855705	9803.219333
405.237282	9760.198126
405.618797	10173.693729
406.000250	10420.962325
406.381642	10781.959352
406.762972	10720.424508
407.144240	10527.325630
407.525447	10775.567169
407.906593	10697.298215
408.287677	10951.316916
408.668700	11101.865934
409.049661	11072.644886
409.430560	11224.635674
409.811399	11187.121928
410.192176	11335.969557
410.572891	11398.749567
410.953545	11853.133968
411.334138	11337.345792
411.714669	11902.217163
412.095139	11220.673328
412.475547	11692.895852
412.855894	11520.639625
413.236180	11813.139974
413.616405	11484.630663
413.996568	11722.918444
414.376670	11670.412306
414.756711	11521.153823
415.136691	11745.003739
415.516609	11871.912267
415.896466	11893.947150
416.276262	12104.221239
416.655997	12461.359262
417.035670	12430.688882
417.415283	12980.247748
417.794834	13000.800533
418.174324	12676.238445
418.553753	12500.453410
418.933121	12872.130122
419.312428	12604.719595
419.691674	12437.837238
420.070859	12742.436357
420.449983	12333.185405
420.829045	12712.396121
421.208047	12377.285419
421.586988	12656.658603
421.965867	12745.191347
422.344686	12612.137653
422.723444	12937.498764
423.102141	11761.097623
423.480777	12558.275445
423.859352	12040.826208
424.237866	12744.087335
424.616319	12359.966535
424.994712	12699.034543
425.373044	12384.678271
425.751314	12703.939585
426.129524	11918.540419
426.507673	12491.873367
426.885762	12120.796553
427.263789	12059.599465
427.641756	11989.668579
428.019662	11842.073677
428.397508	11686.861591
428.775292	11673.898264
429.153016	11469.545011
429.530679	11318.867443
429.908282	11140.443364
430.285824	10797.024841
430.663305	10970.301901
431.040726	10577.845554
431.418086	10300.992946
431.795385	10427.609087
432.172624	10430.195199
432.549802	10026.713848
432.926920	9913.529862
433.303977	9669.906020
433.680974	9575.439838
434.057910	9507.515331
434.434786	9324.574378
434.811601	9098.965100
435.188355	9298.481366
435.565050	8979.194846
435.941683	8765.891024
436.318257	8880.332778
436.694770	8622.908777
437.071222	8623.017162
437.447614	8127.260011
437.823946	7937.034591
438.200218	7801.049466
438.576429	7549.289202
438.952580	7442.638551
439.328670	7262.387054
439.704700	7194.525561
440.080670	6929.391116
440.456580	6901.173257
440.832429	6772.185254
441.208218	6388.389609
441.583947	6329.841648
441.959616	6197.458427
442.335224	6089.073620
442.710773	5965.840093
443.086261	5913.802783
443.461689	5663.774155
443.837057	5548.520775
444.212365	5512.587430
444.587612	5383.755703
444.962800	5188.146331
445.337927	5122.439931
445.712995	4833.428061
446.088002	4947.403508
446.462949	4854.764744
446.837837	4754.586935
447.212664	4634.181496
447.587431	4810.062313
447.962139	4989.141741
448.336786	5111.944249
448.711374	4844.896686
449.085901	4406.333945
449.460369	4278.765027
449.834776	4166.591792
450.209124	4242.453595
450.583412	4129.151142
450.957640	4073.660641
451.331808	3903.612440
451.705917	3732.997108
452.079965	3655.822084
452.453954	3600.760081
452.827883	3522.654964
453.201752	3455.012762
453.575562	3400.764905
453.949311	3384.872668
454.323001	3329.876200
454.696632	3268.795059
455.070202	3271.948301
455.443713	3229.615212
455.817164	3195.418544
456.190556	3164.256652
456.563888	3110.328909
456.937160	3075.098805
457.310373	3005.465347
457.683526	2977.464258
458.056619	2947.217335
458.429653	2915.387489
458.802628	2898.676064
459.175542	2873.137579
459.548398	2869.954090
459.921194	2872.923330
460.293930	2869.548278
460.666607	2877.283928
461.039224	2880.429608
461.411782	2868.285468
461.784280	2832.848677
462.156719	2807.269863
462.529099	2784.037705
462.901419	2754.065525
463.273680	2730.276320
463.645882	2717.749053
464.018024	2708.846375
464.390106	2705.216744
464.762130	2719.578992
465.134094	2752.774990
465.505999	2789.083900
465.877845	2819.204795
466.249631	2817.740339
466.621358	2797.303502
466.993026	2771.959101
467.364634	2749.536048
467.736184	2720.909856
468.107674	2701.874459
468.479105	2694.673171
468.850477	2681.535924
469.221790	2668.348266
469.593043	2650.399237
469.964238	2640.039666
470.335373	2636.823410
470.706449	2643.202990
471.077467	2652.816471
471.448425	2680.618434
471.819324	2694.595033
472.190164	2678.118022
472.560945	2656.708242
472.931667	2632.193110
473.302330	2621.480658
473.672934	2614.753239
474.043479	2616.699124
474.413965	2606.518514
474.784393	2597.890579
475.154761	2599.899479
475.525070	2600.098604
475.895321	2595.438058
476.265513	2594.311360
476.635645	2602.566249
477.005719	2600.249839
477.375734	2601.681527
477.745691	2602.437700
478.115588	2609.419698
478.485427	2616.557972
478.855207	2633.697895
479.224928	2647.843372
479.594591	2652.002324
479.964194	2648.236582
480.333739	2644.624596
480.703226	2643.545789
481.072653	2645.695841
481.442022	2649.448980
481.811333	2651.346974
482.180584	2639.354069
482.549777	2638.267701
482.918912	2637.148565
483.287988	2630.693367
483.657005	2622.874537
484.025964	2624.396966
484.394864	2621.977212
484.763706	2619.446553
485.132489	2615.070831
485.501213	2615.698455
485.869879	2613.694596
486.238487	2613.929010
486.607036	2614.629730
486.975527	2609.986828
487.343959	2606.594131
487.712333	2610.763165
488.080648	2608.091354
488.448905	2614.082765
488.817104	2611.138731
489.185244	2615.476644
489.553326	2622.120885
489.921350	2636.556229
490.289315	2650.789927
490.657222	2652.655154
491.025070	2654.240597
491.392861	2651.067190
491.760593	2642.782054
492.128267	2635.810138
492.495883	2628.361833
492.863440	2619.857407
493.230939	2615.758949
493.598380	2609.676797
493.965763	2606.261415
494.333088	2601.953749
494.700354	2600.932915
495.067563	2601.767226
495.434713	2597.802359
495.801805	2598.225816
496.168839	2598.094746
496.535815	2599.952411
496.902733	2597.820003
497.269593	2596.471494
497.636395	2599.660024
498.003139	2599.889397
498.369825	2597.106680
498.736453	2600.690940
499.103023	2595.221288
499.469535	2596.849581
499.835989	2599.004674
500.202385	2600.242277
500.568723	2599.455857
500.935003	2599.614654
501.301226	2601.127000
501.667390	2603.577001
502.033497	2607.940119
502.399546	2607.015068
502.765537	2603.370313
503.131470	2607.337701
503.497345	2607.927516
503.863163	2605.565736
504.228923	2606.833586
504.594625	2615.171654
504.960269	2609.147476
505.325856	2617.735081
505.691385	2613.621500
506.056856	2617.535956
506.422270	2620.149794
506.787625	2622.163735
507.152924	2624.465022
507.518164	2628.603809
507.883347	2624.351596
508.248472	2626.728500
508.613540	2632.203193
508.978550	2636.195787
509.343503	2639.470016
509.708398	2642.030922
510.073236	2648.569299
510.438016	2652.105668
510.802738	2649.595173
511.167403	2652.818991
511.532010	2657.499703
511.896561	2663.405414
512.261053	2669.331291
512.625488	2666.649397
512.989866	2668.310457
513.354186	2667.755930
513.718449	2666.016732
514.082655	2679.206911
514.446803	2675.320182
514.810894	2683.333096
515.174927	2684.447191
515.538904	2683.391069
515.902822	2690.978005
516.266684	2688.477593
516.630488	2692.334076
516.994235	2691.620752
517.357925	2695.845239
517.721558	2702.509645
518.085133	2705.055427
518.448651	2704.057279
518.812112	2702.711291
519.175516	2704.604244
519.538863	2708.279245
519.902152	2710.615820
520.265385	2712.954916
520.628560	2714.636140
520.991678	2714.061449
521.354739	2715.535986
521.717743	2717.426419
522.080690	2718.112016
522.443580	2723.546380
522.806413	2723.206102
523.169189	2722.638972
523.531908	2725.056205
523.894569	2724.297512
524.257174	2724.675598
524.619722	2729.215157
524.982213	2727.720455
525.344647	2729.288254
525.707025	2727.619632
526.069345	2734.261352
526.431608	2731.619788
526.793815	2732.244891
527.155964	2732.796897
527.518057	2732.872514
527.880093	2732.738924
528.242072	2734.470560
528.603995	2732.965776
528.965860	2730.341855
529.327669	2731.997874
529.689421	2730.397308
530.051117	2732.454099
530.412755	2733.288410
530.774337	2735.171281
531.135862	2734.246229
531.497331	2732.186917
531.858743	2730.785477
532.220098	2732.607854
532.581396	2728.862277
532.942638	2727.692729
533.303824	2732.012998
533.664953	2732.595251
534.026025	2728.521999
534.387040	2732.454099
534.747999	2730.362020
535.108902	2730.866135
535.469748	2727.886813
535.830537	2727.652400
536.191270	2729.235322
536.551947	2728.436299
536.912567	2724.035372
537.273131	2725.855228
537.633638	2721.509754
537.994089	2724.229456
538.354483	2720.221739
538.714821	2721.724003
539.075103	2722.402038
539.435328	2722.321379
539.795497	2717.428940
540.155609	2713.885008
540.515665	2715.667056
540.875665	2709.819318
541.235609	2709.201777
541.595496	2708.881663
541.955328	2708.120449
542.315102	2705.826724
542.674821	2700.319263
543.034483	2699.860518
543.394090	2697.748275
543.753640	2696.777853
544.113134	2697.856660
544.472571	2691.078828
544.831953	2694.660568
545.191278	2686.740916
545.550548	2682.957530
545.909761	2682.571881
546.268918	2678.528876
546.628019	2679.532066
546.987064	2673.281035
547.346053	2667.448420
547.704986	2668.459171
548.063863	2661.787204
548.422684	2659.465753
548.781449	2656.493992
549.140158	2652.443425
549.498811	2651.853610
549.857408	2644.685090
550.215949	2640.836169
550.574434	2636.697381
550.932864	2636.798204
551.291237	2632.266207
551.649555	2631.610857
552.007817	2631.641104
552.366022	2625.195989
552.724173	2626.007615
553.082267	2620.558127
553.440305	2621.132819
553.798288	2615.522015
554.156215	2611.544544
554.514086	2611.410954
554.871902	2604.789398
555.229661	2601.280755
555.587365	2596.337904
555.945014	2599.723038
556.302606	2591.916812
556.660143	2591.931935
557.017625	2588.725761
557.375050	2587.034454
557.732421	2585.922880
558.089735	2582.978846
558.446994	2580.614545
558.804197	2580.105388
559.161345	2576.790830
559.518437	2570.534758
559.875474	2568.009140
560.232455	2570.461661
560.589381	2567.270611
560.946251	2566.862277
561.303065	2566.955538
561.659825	2563.013356
562.016528	2560.820454
562.373177	2561.982440
562.729770	2557.644527
563.086307	2553.591440
563.442789	2555.749053
563.799216	2552.704197
564.155587	2550.155893
564.511904	2547.899977
564.868164	2551.264947
565.224370	2548.744370
565.580520	2544.421581
565.936615	2548.394010
566.292654	2546.591798
566.648638	2543.816642
567.004567	2542.291693
567.360441	2541.515356
567.716260	2540.023174
568.072023	2540.996117
568.427732	2536.005374
568.783385	2536.978317
569.138982	2534.039324
569.494525	2533.968748
569.850013	2532.572349
570.205445	2535.707946
570.560823	2533.996475
570.916145	2532.312729
571.271412	2531.881711
571.626625	2533.058820
571.981782	2531.070085
572.336884	2533.381454
572.691931	2534.014119
573.046923	2530.361803
573.401860	2526.974147
573.756743	2527.127903
574.111570	2525.698735
574.466342	2525.169414
574.821059	2526.996832
575.175722	2524.231760
575.530330	2524.612367
575.884882	2522.008611
576.239380	2522.573220
576.593823	2522.618590
576.948211	2520.758405
577.302544	2519.140194
577.656823	2519.518281
578.011047	2521.791841
578.365216	2519.540966
578.719330	2519.183044
579.073389	2518.797396
579.427394	2519.392252
579.781344	2518.154649
580.135239	2518.094155
580.489080	2515.417302
580.842866	2517.912673
581.196597	2515.782786
581.550273	2515.495440
581.903895	2515.898732
582.257463	2515.046777
582.610975	2513.080727
582.964434	2512.127949
583.317837	2514.338495
583.671186	2515.724813
584.024481	2513.993176
584.377721	2511.948988
584.730906	2512.243896
585.084037	2514.794720
585.437113	2511.472599
585.790135	2512.420336
586.143103	2510.915552
586.496016	2512.327075
586.848874	2506.265087
587.201679	2508.828514
587.554428	2507.076713
587.907124	2508.455469
588.259765	2504.972031
588.612352	2509.153668
588.964884	2505.874398
589.317362	2508.657115
589.669786	2506.136538
590.022155	2509.410767
590.374470	2507.444717
590.726731	2506.935561
591.078937	2510.355984
591.431090	2505.274501
591.783188	2502.973214
592.135232	2503.457165
592.487222	2503.852895
592.839157	2504.838441
593.191038	2503.323574
593.542866	2505.135869
593.894639	2501.075219
594.246358	2502.133862
594.598022	2501.909530
594.949633	2501.193687
595.301190	2499.134375
595.652692	2500.833244
596.004141	2500.543378
596.355535	2499.262925
596.706876	2494.741010
597.058162	2495.683705
597.409395	2496.260918
597.760573	2499.658655
598.111698	2496.402070
598.462768	2498.005157
598.813785	2496.775115
599.164748	2497.405259
599.515657	2494.322594
599.866511	2496.896103
600.217312	2496.570948
600.568060	2492.946359
600.918753	2493.901658
601.269392	2495.252687
601.619978	2494.965341
601.970510	2495.134220
602.320988	2493.253869
602.671412	2493.362254
603.021783	2492.785042
603.372100	2492.797645
603.722363	2493.374857
604.072572	2496.306288
604.422728	2495.212357
604.772830	2488.268168
605.122878	2490.050216
605.472872	2487.590133
605.822813	2485.326655
606.172701	2491.544918
606.522534	2491.499548
606.872314	2490.546770
607.222041	2491.270175
607.571714	2489.599033
607.921333	2491.870072
608.270899	2492.875783
608.620411	2490.990391
608.969870	2491.325628
609.319276	2491.693632
609.668627	2490.871924
610.017926	2491.169352
610.367171	2492.774960
610.716362	2493.379898
611.065500	2490.014928
611.414585	2489.667088
611.763616	2490.216574
612.112594	2489.679691
612.461518	2488.661378
612.810389	2489.780514
613.159207	2490.753457
613.507971	2489.329331
613.856682	2488.487458
614.205340	2492.031389
614.553945	2494.294868
614.902496	2490.458549
615.250994	2492.144815
615.599439	2492.187665
615.947830	2491.834784
616.296169	2491.091214
616.644454	2489.115082
616.992686	2489.374701
617.340864	2493.125320
617.688990	2490.027531
618.037063	2488.825216
618.385082	2490.125833
618.733048	2493.319404
619.080961	2490.836636
619.428821	2492.742192
619.776628	2494.012563
620.124382	2489.420072
620.472083	2492.848056
620.819731	2489.593992
621.167326	2490.665237
621.514868	2490.166162
621.862357	2489.041985
622.209793	2488.333703
622.557176	2487.945534
622.904506	2486.017293
623.251783	2481.129894
623.599007	2483.539566
623.946179	2482.269195
624.293297	2484.842704
624.640363	2482.269195
624.987376	2484.555358
625.334336	2481.618886
625.681243	2482.092755
626.028097	2481.502940
626.374899	2480.903042
626.721647	2483.035450
627.068343	2479.269708
627.414987	2479.751139
627.761577	2481.951602
628.108115	2481.775162
628.454600	2478.289204
628.801032	2479.768783
629.147412	2479.229379
629.493739	2478.954636
629.840014	2477.951447
630.186236	2476.071096
630.532405	2476.043370
630.878521	2475.060345
631.224585	2477.621251
631.570597	2476.862558
631.916556	2477.442290
632.262462	2478.463124
632.608316	2476.877681
632.954117	2476.751652
633.299866	2475.821559
633.645562	2476.696199
633.991206	2474.576394
634.336797	2470.780405
634.682336	2472.948102
635.027823	2470.480457
635.373257	2474.047073
635.718639	2470.729994
636.063968	2474.077320
636.409245	2469.116825
636.754470	2470.377113
637.099642	2469.005919
637.444762	2466.865949
637.789829	2471.715539
638.134845	2467.985086
638.479808	2466.775209
638.824719	2467.430559
639.169577	2465.862760
639.514383	2464.728500
639.859137	2466.208079
640.203839	2466.132462
640.548489	2464.806638
640.893086	2464.615074
641.237632	2459.221040
641.582125	2459.178190
641.926566	2458.328755
642.270955	2462.616257
642.615292	2463.785804
642.959576	2463.198510
643.303809	2462.734724
643.647990	2462.747327
643.992118	2462.971658
644.336195	2463.042234
644.680219	2463.707667
645.024192	2464.431072
645.368112	2463.528706
645.711981	2462.137347
646.055797	2464.746144
646.399562	2465.714046
646.743274	2465.547688
647.086935	2467.120528
647.430544	2466.361834
647.774101	2468.302678
648.117606	2469.048769
648.461059	2467.261680
648.804460	2469.762092
649.147810	2465.706484
649.491108	2464.786473
649.834354	2465.207410
650.177548	2463.127934
650.520690	2463.017028
650.863781	2461.542491
651.206820	2464.428552
651.549807	2459.699949
651.892742	2461.242542
652.235626	2458.270782
652.578458	2461.784466
652.921238	2459.057202
653.263967	2459.586523
653.606644	2458.941256
653.949269	2459.152984
654.291843	2458.038889
654.634365	2458.721965
654.976836	2458.164918
655.319255	2457.333127
655.661622	2457.756584
656.003938	2455.916563
656.346203	2457.328086
656.688416	2457.431430
657.030577	2457.350772
657.372687	2457.217181
657.714746	2456.829012
658.056753	2455.127623
658.398708	2451.543362
658.740612	2454.058898
659.082465	2451.664350
659.424266	2453.204422
659.766016	2452.337344
660.107715	2454.615946
660.449362	2455.921604
660.790958	2458.681636
661.132503	2454.593260
661.473996	2455.682150
661.815438	2451.306428
662.156829	2455.372119
662.498168	2455.475462
662.839456	2456.307253
663.180693	2454.318518
663.521879	2455.697273
663.863013	2454.966306
664.204097	2452.493620
664.545129	2455.770370
664.886110	2454.472273
665.227040	2456.334979
665.567918	2454.910853
665.908746	2453.532098
666.249522	2456.329938
666.590248	2454.240380
666.930922	2455.689711
667.271545	2454.016048
667.612118	2455.911522
667.952639	2455.001594
668.293109	2453.809361
668.633528	2454.928497
668.973896	2455.876234
669.314213	2456.120730
669.654480	2451.949175
669.994695	2452.652416
670.334859	2456.055195
670.674973	2452.975050
671.015035	2454.028651
671.355047	2455.268775
671.695008	2452.879268
672.034918	2452.604525
672.374777	2455.052005
672.714585	2456.115689
673.054342	2455.598971
673.394049	2451.626541
673.733705	2452.395317
674.073310	2455.641820
674.412864	2455.782973
674.752368	2451.371963
675.091820	2451.419854
675.431223	2456.239197
675.770574	2449.647888
676.109875	2448.306942
676.449125	2450.719134
676.788324	2448.133022
677.127473	2449.789041
677.466571	2447.502878
677.805619	2451.366922
678.144616	2449.569751
678.483562	2449.083279
678.822458	2449.279884
679.161303	2449.511777
679.500098	2446.913063
679.838842	2448.927003
680.177535	2449.542024
680.516179	2450.499843
680.854771	2451.394648
681.193314	2449.320213
681.531805	2450.643516
681.870247	2455.120061
682.208638	2455.359516
682.546978	2456.017386
682.885268	2453.043106
683.223508	2452.672581
683.561697	2454.600822
683.899836	2451.200564
684.237925	2451.117385
684.575963	2451.845832
684.913951	2452.959927
685.251889	2453.199381
685.589776	2453.214505
685.927614	2450.840121
686.265401	2453.816923
686.603137	2452.528908
686.940824	2453.436316
687.278460	2454.371450
687.616046	2456.156018
687.953582	2455.140226
688.291068	2452.105451
688.628504	2456.645010
688.965889	2454.988991
689.303224	2456.337500
689.640510	2451.699638
689.977745	2455.137705
690.314930	2450.938424
690.652065	2453.827005
690.989150	2448.871551
691.326185	2447.044132
691.663170	2447.921293
692.000105	2446.902980
692.336990	2446.189657
692.673825	2445.897270
693.010610	2442.325612
693.347345	2439.789912
693.684030	2438.736311
694.020665	2439.641198
694.357251	2434.640373
694.693786	2442.020623
695.030272	2439.573142
695.366707	2439.374017
695.703093	2439.633636
696.039429	2437.518872
696.375716	2439.353852
696.711952	2440.858637
697.048139	2437.140786
697.384276	2439.981476
697.720363	2440.311672
698.056400	2437.004675
698.392388	2437.554160
698.728326	2438.358224
699.064214	2435.968718
699.400053	2437.944850
699.735842	2435.711619
700.071581	2439.144644
700.407270	2435.855292
700.742910	2435.056269
701.078501	2437.647422
701.414042	2433.785898
701.749533	2432.797832
702.084974	2432.137441
702.420366	2434.779005
702.755709	2431.489652
703.091002	2431.643407
703.426246	2434.723553
703.761440	2429.987388
704.096584	2433.405291
704.431679	2431.756833
704.766725	2435.227668
705.101721	2430.882193
705.436668	2431.005702
705.771565	2433.765733
706.106413	2432.107194
706.441212	2430.357913
706.775961	2432.056782
707.110661	2431.766916
707.445311	2433.743048
707.779913	2433.569128
708.114465	2431.439241
708.448967	2432.664241
708.783421	2434.148861
709.117825	2436.046855
709.452180	2437.236568
709.786485	2435.431835
710.120742	2438.670776
710.454949	2436.646753
710.789107	2438.522062
711.123216	2435.396547
711.457275	2439.361414
711.791286	2438.625406
712.125247	2440.213369
712.459159	2440.747731
712.793023	2443.064142
713.126837	2440.387289
713.460602	2439.338729
713.794318	2440.475509
714.127985	2439.434511
714.461602	2438.443924
714.795171	2436.331681
715.128691	2435.013419
715.462162	2435.699016
715.795584	2434.060641
716.128957	2435.351176
716.462281	2432.679365
716.795556	2433.738007
717.128782	2430.937646
717.461960	2435.479726
717.795088	2430.950249
718.128167	2429.609302
718.461198	2431.088881
718.794180	2431.083839
719.127113	2428.911102
719.459997	2428.008736
719.792833	2427.723910
720.125619	2429.374888
720.458357	2427.610484
720.791046	2426.934970
721.123686	2428.381781
721.456278	2427.204672
721.788821	2427.555032
722.121315	2427.068560
722.453761	2425.072263
722.786158	2425.911616
723.118506	2425.014290
723.450805	2427.532347
723.783056	2428.086873
724.115259	2427.532347
724.447412	2425.634352
724.779518	2429.188366
725.111574	2427.769281
725.443582	2429.652152
725.775542	2429.271545
726.107453	2428.180135
726.439315	2426.894641
726.771129	2433.884200
727.102895	2429.778181
727.434612	2431.313212
727.766281	2427.703746
728.097901	2428.578386
728.429473	2426.332552
728.760996	2429.687440
729.092471	2427.229877
729.423897	2432.414704
729.755276	2430.864549
730.086606	2432.180290
730.417887	2430.090732
730.749120	2433.803542
731.080305	2433.972421
731.411442	2433.422935
731.742530	2433.735486
732.073570	2435.116762
732.404562	2433.546443
732.735506	2433.122986
733.066401	2431.562749
733.397249	2434.622729
733.728048	2431.272883
734.058798	2429.548808
734.389501	2429.468150
734.720156	2427.943201
735.050762	2430.496545
735.381320	2427.386153
735.711831	2425.657037
736.042293	2428.089394
736.372707	2424.797521
736.703073	2427.010587
737.033391	2427.807089
737.363661	2430.521751
737.693883	2428.359096
738.024056	2429.483273
738.354182	2424.903385
738.684260	2428.480083
739.014290	2427.716349
739.344272	2426.609815
739.674207	2428.089394
740.004093	2429.672316
740.333931	2428.565783
740.663722	2431.003181
740.993464	2430.264652
741.323159	2429.379929
741.652806	2426.269537
741.982405	2427.912954
742.311956	2427.164342
742.641460	2428.560742
742.970915	2425.785587
743.300323	2426.229208
743.629683	2426.808941
743.958996	2426.299784
744.288260	2424.628642
744.617477	2423.093611
744.946647	2419.756367
745.275768	2423.935483
745.604842	2418.687642
745.933869	2420.762077
746.262847	2419.716037
746.591778	2424.056471
746.920662	2420.799886
747.249498	2423.953127
747.578286	2423.015473
747.907027	2424.850453
748.235720	2422.750812
748.564365	2424.585792
748.892963	2424.981523
749.221514	2425.583941
749.550017	2423.113775
749.878473	2422.145874
750.206881	2426.559404
750.535242	2420.724268
750.863555	2420.159659
751.191821	2424.810123
751.520039	2422.730647
751.848210	2420.555390
752.176334	2425.112593
752.504411	2421.394742
752.832440	2422.854156
753.160421	2422.665112
753.488356	2422.153435
753.816243	2421.926583
754.144082	2421.218301
754.471875	2421.460277
754.799620	2420.830132
755.127318	2427.741554
755.454969	2421.273754
755.782572	2421.908939
756.110129	2423.111255
756.437638	2420.121850
756.765100	2422.183682
757.092515	2418.380132
757.419882	2422.090421
757.747203	2421.004052
758.074477	2421.538415
758.401703	2423.096131
758.728882	2421.835843
759.056014	2422.362643
759.383099	2423.640576
759.710138	2425.273910
760.037129	2423.302818
760.364073	2424.147212
760.690970	2421.828281
761.017820	2426.221647
761.344623	2424.386667
761.671379	2426.829106
761.998088	2419.932807
762.324751	2426.453540
762.651366	2430.471339
762.977935	2443.608586
763.304456	2444.891560
763.630931	2448.571602
763.957359	2449.302569
764.283740	2444.780654
764.610074	2441.685386
764.936362	2435.441917
765.262602	2430.226843
765.588796	2429.909251
765.914943	2425.571338
766.241044	2423.572520
766.567097	2419.012797
766.893104	2421.493044
767.219064	2420.376429
767.544978	2420.401634
767.870845	2422.342479
768.196665	2418.508681
768.522438	2416.837539
768.848165	2416.411561
769.173846	2416.988773
769.499479	2415.907446
769.825066	2417.381983
770.150607	2415.819226
770.476101	2415.083217
770.801548	2416.656057
771.126949	2414.705131
771.452303	2414.833680
771.777611	2415.393248
772.102872	2414.679925
772.428087	2415.428536
772.753256	2414.188412
773.078378	2414.284194
773.403453	2415.312590
773.728482	2413.601118
774.053465	2413.643968
774.378401	2412.897877
774.703291	2411.251940
775.028135	2410.591549
775.352932	2413.142373
775.677683	2412.368556
776.002388	2411.473751
776.327046	2413.621283
776.651658	2412.597928
776.976224	2410.919224
777.300743	2413.366704
777.625216	2414.780748
777.949643	2412.035840
778.274024	2414.647157
778.598359	2407.960067
778.922647	2406.972001
779.246889	2409.898390
779.571086	2406.762793
779.895236	2411.960222
780.219339	2408.277659
780.543397	2411.032650
780.867409	2408.882598
781.191374	2410.387382
781.515294	2409.147258
781.839167	2412.272774
782.162995	2407.919738
782.486776	2410.647002
782.810511	2413.943916
783.134201	2411.541807
783.457844	2413.018865
783.781441	2409.966446
784.104993	2410.906621
784.428498	2411.191446
784.751958	2409.948802
785.075372	2412.411406
785.398739	2411.289749
785.722061	2410.190777
786.045337	2410.470561
786.368568	2410.372259
786.691752	2414.599266
787.014891	2413.706982
787.337983	2412.093813
787.661030	2413.739750
787.984031	2416.167065
788.306987	2417.155131
788.629897	2415.257137
788.952760	2416.056160
789.275579	2415.869637
789.598351	2416.096489
789.921078	2413.782599
790.243759	2414.846283
790.566395	2412.476941
790.888984	2412.308062
791.211529	2411.224214
791.534027	2412.759245
791.856480	2411.725809
792.178888	2410.924265
792.501249	2411.231776
792.823566	2410.463000
793.145836	2409.953843
793.468062	2409.898390
793.790241	2412.860068
794.112375	2411.607342
794.434464	2408.247413
794.756507	2410.979718
795.078505	2411.980387
795.400457	2411.173802
795.722364	2411.415778
796.044226	2409.842938
796.366042	2410.548699
796.687812	2409.240520
797.009538	2412.565161
797.331218	2411.814029
797.652852	2414.652198
797.974442	2414.024575
798.295986	2411.322516
798.617484	2412.151786
798.938938	2410.974677
799.260346	2414.518608
799.581709	2410.992321
799.903026	2413.354101
800.224299	2412.310583
800.545526	2409.739594
800.866708	2411.352763
801.187845	2410.513411
801.508936	2411.514080
801.829983	2411.466189
802.150984	2411.617424
802.471940	2411.589697
802.792851	2410.727660
803.113717	2410.039543
803.434538	2408.345715
803.755314	2409.114491
804.076045	2411.869482
804.396731	2407.287073
804.717372	2410.173133
805.037967	2409.457289
805.358518	2408.076013
805.679024	2408.693555
805.999485	2408.799419
806.319901	2408.844789
806.640272	2411.491395
806.960598	2409.217835
807.280879	2410.720098
807.601115	2410.425191
807.921306	2408.295303
808.241453	2413.490212
808.561554	2412.005593
808.881611	2410.309244
809.201623	2410.750345
809.521590	2410.392423
809.841513	2409.235479
810.161390	2412.565161
810.481223	2410.722619
810.801011	2409.414440
811.120755	2409.328740
811.440453	2409.036353
811.760107	2409.243040
812.079716	2406.271280
812.399281	2405.021074
812.718801	2405.111815
813.038276	2403.715415
813.357707	2409.210273
813.677093	2410.004255
813.996434	2409.757238
814.315731	2408.133987
814.634983	2410.541138
814.954191	2407.720612
815.273354	2409.563154
815.592473	2406.094840
815.911547	2409.079203
816.230577	2410.470561
816.549562	2410.094995
816.868502	2411.072979
817.187399	2413.160017
817.506250	2409.502660
817.825058	2410.581467
818.143821	2411.128432
818.462539	2413.318813
818.781213	2414.324523
819.099843	2412.461817
819.418429	2416.857703
819.736970	2423.239804
820.055466	2422.803744
820.373919	2424.169897
820.692327	2433.236412
821.010691	2444.205963
821.329011	2468.252267
821.647286	2513.108454
821.965517	2550.067673
822.283704	2575.401992
822.601847	2583.016655
822.919945	2564.452606
823.237999	2542.425284
823.556010	2520.967612
823.873976	2504.432628
824.191897	2484.010914
824.509775	2474.029429
824.827609	2459.778087
825.145398	2456.095524
825.463144	2453.988322
825.780845	2453.027982
826.098502	2457.489403
826.416116	2468.466516
826.733685	2476.161837
827.051210	2474.533544
827.368692	2474.100005
827.686129	2464.534416
828.003522	2451.974381
828.320872	2441.529110
828.638177	2434.756320
828.955439	2426.612336
829.272656	2424.628642
829.589830	2416.978691
829.906960	2419.519433
830.224046	2416.484658
830.541088	2415.279822
830.858086	2413.724626
831.175041	2417.039185
831.491952	2413.548186
831.808819	2414.853845
832.125642	2415.970460
832.442421	2419.373239
832.759157	2422.743250
833.075849	2428.553180
833.392497	2438.925354
833.709101	2445.680500
834.025662	2444.536158
834.342179	2436.901331
834.658653	2431.633325
834.975083	2430.733479
835.291469	2427.774322
835.607811	2421.014135
835.924110	2416.683783
836.240366	2416.570357
836.556578	2412.860068
836.872746	2413.175140
837.188871	2411.221693
837.504952	2409.953843
837.820990	2410.788154
838.136984	2407.362690
838.452935	2406.876219
838.768842	2406.591393
839.084706	2408.234810
839.400526	2413.510377
839.716303	2417.031623
840.032037	2421.281316
840.347727	2420.184865
840.663373	2415.670512
840.978977	2413.102044
841.294537	2410.641961
841.610054	2410.888977
841.925527	2408.804460
842.240957	2409.306055
842.556344	2406.205745
842.871687	2405.890673
843.186987	2404.728687
843.502244	2402.500497
843.817458	2403.733059
844.132629	2402.442524
844.447756	2403.942267
844.762840	2396.834240
845.077881	2400.836916
845.392879	2401.653583
845.707833	2399.364899
846.022745	2400.657955
846.337613	2401.968655
846.652438	2402.049314
846.967221	2400.557132
847.281960	2401.535116
847.596656	2402.770199
847.911309	2401.088974
848.225919	2404.101063
848.540485	2400.292472
848.855009	2402.424880
849.169490	2402.497977
849.483928	2400.456309
849.798323	2402.382030
850.112675	2402.114849
850.426984	2400.849519
850.741251	2404.166598
851.055474	2402.162740
851.369654	2401.278017
851.683792	2399.979920
851.997887	2400.126114
852.311938	2401.101577
852.625947	2399.523696
852.939914	2400.645353
853.253837	2399.556463
853.567718	2402.611403
853.881555	2401.514952
854.195350	2403.460837
854.509103	2404.590055
854.822812	2400.937739
855.136479	2401.086453
855.450103	2400.075702
855.763685	2402.820610
856.077224	2401.091495
856.390720	2400.862122
856.704173	2402.989489
857.017584	2400.567215
857.330953	2402.014026
857.644278	2403.148285
857.957561	2402.616444
858.270802	2401.988820
858.584000	2401.809859
858.897155	2402.366907
859.210268	2402.674417
859.523339	2401.956053
859.836367	2400.456309
860.149352	2401.572925
860.462295	2401.290620
860.775195	2399.732904
861.088054	2398.028994
861.400869	2401.456978
861.713642	2395.150495
862.026373	2403.465878
862.339062	2403.034859
862.651708	2399.269117
862.964312	2402.457647
863.276873	2398.893552
863.589392	2400.892369
863.901869	2403.405384
864.214303	2403.423028
864.526696	2403.110477
864.839045	2401.215003
865.151353	2402.215672
865.463619	2401.431773
865.775842	2403.065106
866.088023	2403.062586
866.400162	2403.637277
866.712258	2405.683986
867.024313	2403.085271
867.336325	2401.933367
867.648296	2404.012843
867.960224	2401.550240
868.272110	2405.648698
868.583954	2404.035528
868.895755	2402.797925
869.207515	2404.786660
869.519233	2403.425549
869.830909	2402.679458
870.142542	2402.651732
870.454134	2402.452606
870.765684	2405.164747
871.077191	2402.555950
871.388657	2404.166598
871.700081	2403.362534
872.011463	2405.378996
872.322803	2402.845816
872.634101	2404.559808
872.945357	2403.077709
873.256571	2406.175498
873.567744	2403.417987
873.878874	2403.639798
874.189963	2406.687175
874.501010	2405.878070
874.812015	2402.868501
875.122979	2407.377813
875.433900	2406.104922
875.744780	2407.748338
876.055618	2403.939747
876.366415	2404.978224
876.677169	2406.568708
876.987882	2404.249778
877.298554	2400.385733
877.609183	2403.410425
877.919771	2404.116187
878.230317	2402.790363
878.540822	2406.225910
878.851285	2410.407547
879.161707	2411.753535
879.472087	2414.604307
879.782425	2418.637231
880.092722	2426.047727
880.402977	2442.859975
880.713191	2460.670371
881.023363	2478.884060
881.333494	2486.443270
881.643583	2491.252531
881.953631	2489.210864
882.263637	2480.978660
882.573602	2473.018678
882.883526	2468.103553
883.193408	2461.159363
883.503248	2454.895730
883.813048	2447.971705
884.122806	2443.033895
884.432522	2437.657504
884.742197	2428.533016
885.051831	2430.940167
885.361424	2424.248035
885.670975	2420.872982
885.980485	2416.467014
886.289954	2414.868968
886.599382	2411.398134
886.908768	2412.865109
887.218113	2408.663308
887.527417	2409.122053
887.836680	2407.156003
888.145901	2409.230437
888.455082	2406.205745
888.764221	2407.844120
889.073319	2404.317833
889.382376	2406.853533
889.691392	2403.173491
890.000366	2404.390930
890.309300	2405.356311
890.618193	2404.990827
890.927044	2406.442679
891.235855	2406.598955
891.544625	2406.556105
891.853353	2406.752710
892.162041	2405.946126
892.470687	2408.711199
892.779293	2406.591393
893.087858	2409.356466
893.396381	2407.647515
893.704864	2413.470048
894.013306	2414.793351
894.321707	2426.602254
894.630068	2427.328180
894.938387	2428.543098
895.246665	2427.887748
895.554903	2425.684764
895.863100	2419.675708
896.171256	2420.603281
896.479371	2417.850811
896.787446	2419.040523
897.095480	2414.712692
897.403473	2413.686818
897.711425	2410.437794
898.019336	2412.875192
898.327207	2411.241858
898.635038	2409.099367
898.942827	2406.578791
899.250576	2408.761610
899.558284	2405.925961
899.865952	2407.002248
900.173579	2404.373286
900.481165	2406.281362
900.788711	2404.774057
901.096216	2404.756413
901.403681	2401.313305
901.711105	2404.153996
902.018489	2404.448903
902.325832	2404.766496
902.633135	2402.014026
902.940397	2407.004768
903.247619	2409.318658
903.554800	2417.278640
903.861941	2422.342479
904.169041	2433.591813
904.476101	2435.026022
904.783121	2432.933943
905.090100	2427.446647
905.397039	2426.304826
905.703938	2422.350040
906.010796	2419.310225
906.317614	2416.020872
906.624391	2414.011972
906.931129	2412.446694
907.237826	2411.493916
907.544483	2408.869995
907.851099	2408.547361
908.157675	2404.895045
908.464211	2402.568553
908.770707	2400.042935
909.077163	2399.206103
909.383578	2399.163253
909.689954	2398.429765
909.996289	2398.707029
910.302584	2400.148799
910.608839	2398.865825
910.915054	2401.988820
911.221229	2401.779612
911.527363	2402.755075
911.833458	2400.219375
912.139513	2399.811042
912.445527	2400.766340
912.751502	2400.446227
913.057436	2398.853222
913.363331	2401.731721
913.669186	2401.482184
913.975000	2405.754562
914.280775	2405.905797
914.586510	2409.053997
914.892205	2413.724626
915.197859	2418.493558
915.503475	2425.183169
915.809050	2430.055444
916.114585	2430.166349
916.420081	2436.651794
916.725536	2429.720207
917.030952	2427.786925
917.336328	2427.358427
917.641665	2427.502100
917.946961	2421.001532
918.252218	2422.770977
918.557435	2419.229566
918.862612	2417.331572
919.167750	2414.165727
919.472848	2414.480799
919.777906	2411.440983
920.082925	2410.929306
920.387904	2408.247413
920.692843	2408.174316
920.997743	2407.014850
921.302603	2404.106105
921.607423	2403.990158
921.912204	2403.571742
922.216946	2401.885476
922.521647	2403.750703
922.826310	2403.105436
923.130932	2403.259191
923.435516	2400.468912
923.740059	2398.369272
924.044564	2397.056051
924.349028	2400.037893
924.653454	2393.791904
924.957840	2397.683675
925.262186	2396.735938
925.566493	2397.955897
925.870761	2393.015566
926.174989	2400.254663
926.479178	2398.139899
926.783328	2397.960938
927.087438	2398.921278
927.391509	2396.766185
927.695541	2398.654097
927.999533	2397.676113
928.303486	2397.582852
928.607400	2396.579662
928.911275	2398.860784
929.215110	2397.101421
929.518906	2396.698129
929.822663	2396.365413
930.126381	2397.759292
930.430060	2396.315001
930.733699	2394.409445
931.037299	2396.950187
931.340861	2394.709394
931.644383	2396.597306
931.947866	2394.164949
932.251309	2398.782646
932.554714	2399.337173
932.858080	2397.965979
933.161407	2397.857594
933.464694	2400.632750
933.767943	2394.500186
934.071153	2398.492780
934.374323	2398.472615
934.677455	2395.616802
934.980548	2398.757440
935.283602	2398.069323
935.586617	2395.001781
935.889593	2397.509755
936.192530	2395.447923
936.495428	2394.966493
936.798287	2397.000598
937.101108	2396.690567
937.403890	2396.569580
937.706632	2399.203583
938.009336	2396.592265
938.312002	2399.165774
938.614628	2397.333314
938.917216	2401.736762
939.219765	2399.445558
939.522275	2398.001267
939.824747	2400.902451
940.127179	2395.102604
940.429573	2394.515309
940.731929	2397.537481
941.034246	2394.353993
941.336524	2400.852040
941.638763	2398.986813
941.940964	2399.649725
942.243126	2397.850033
942.545250	2398.220558
942.847335	2395.082439
943.149381	2399.160733
943.451389	2396.065464
943.753359	2398.901113
944.055290	2396.650238
944.357182	2398.122255
944.659036	2397.434137
944.960851	2396.877090
945.262628	2395.722666
945.564367	2399.193500
945.866067	2397.207286
946.167729	2397.817265
946.469352	2399.027142
946.770937	2398.044117
947.072484	2397.575290
947.373992	2397.207286
947.675462	2393.204609
947.976893	2398.969169
948.278286	2396.642676
948.579641	2400.247101
948.880958	2397.439179
949.182236	2396.599827
949.483476	2395.359703
949.784678	2395.969682
950.085841	2398.311298
950.386967	2396.955228
950.688054	2398.475136
950.989103	2395.601678
951.290114	2398.061761
951.591087	2398.843140
951.892021	2397.597975
952.192917	2395.762995
952.493776	2396.582183
952.794596	2401.018398
953.095378	2398.722152
953.396122	2396.952707
953.696828	2395.692419
953.997496	2398.389436
954.298126	2394.941287
954.598718	2399.828686
954.899272	2398.081926
955.199788	2399.367420
955.500266	2398.593603
955.800706	2395.180742
956.101108	2391.616646
956.401472	2395.069836
956.701798	2393.814589
957.002087	2394.001112
957.302337	2395.878942
957.602550	2394.853067
957.902724	2395.866339
958.202861	2395.737789
958.502960	2391.881307
958.803022	2398.218037
959.103045	2396.022614
959.403031	2394.812737
959.702979	2395.344579
960.002889	2395.699981
960.302762	2394.792573
960.602596	2395.682337
960.902393	2393.091183
961.202153	2396.138561
961.501875	2394.442213
961.801559	2394.265772
962.101205	2394.210320
962.400814	2392.024979
962.700385	2391.677140
962.999918	2394.371637
963.299414	2393.065978
963.598873	2395.032028
963.898293	2393.350803
964.197677	2393.439023
964.497022	2394.049003
964.796331	2393.670916
965.095601	2392.206461
965.394835	2391.878786
965.694030	2394.021276
965.993189	2396.390619
966.292309	2390.792417
966.591393	2392.093035
966.890439	2393.524723
967.189447	2395.001781
967.488419	2393.275186
967.787353	2394.467418
968.086249	2393.197048
968.385108	2393.348282
968.683930	2392.498848
968.982714	2395.624363
969.281462	2395.699981
969.580172	2392.582027
969.878844	2392.282078
970.177480	2390.749568
970.476078	2395.226112
970.774639	2395.762995
971.073162	2390.757129
971.371649	2390.900802
971.670098	2389.322921
971.968510	2391.016749
972.266885	2390.457181
972.565223	2391.281409
972.863524	2394.238046
973.161788	2395.140413
973.460014	2395.679816
973.758204	2392.627397
974.056356	2393.638149
974.354471	2392.748385
974.652550	2394.054044
974.950591	2394.117058
975.248595	2395.463046
975.546563	2394.021276
975.844493	2392.377860
976.142386	2393.502037
976.440243	2393.091183
976.738062	2395.470608
977.035845	2393.118910
977.333590	2394.999260
977.631299	2394.636297
977.928971	2394.885834
978.226606	2393.870042
978.524204	2394.449774
978.821765	2395.062275
979.119290	2391.989691
979.416777	2391.926677
979.714228	2393.302912
980.011642	2395.694939
980.309020	2394.822820
980.606360	2395.722666
980.903664	2395.266441
981.200931	2393.625546
981.498162	2397.734086
981.795356	2396.753582
982.092513	2394.303581
982.389633	2394.638818
982.686717	2396.761143
982.983764	2397.161915
983.280775	2398.724673
983.577749	2398.686864
983.874686	2397.434137
984.171587	2397.570249
984.468451	2398.896072
984.765279	2398.868346
985.062070	2401.192318
985.358824	2395.571431
985.655543	2397.829868
985.952224	2393.290309
986.248869	2393.680998
986.545478	2389.043137
986.842050	2391.994733
987.138586	2390.873076
987.435086	2392.254352
987.731549	2390.210164
988.027975	2395.173180
988.324366	2392.400545
988.620719	2393.219733
988.917037	2391.714948
989.213318	2392.332490
989.509563	2391.447767
989.805772	2390.764691
990.101944	2393.282747
990.398080	2394.774929
990.694180	2391.407438
990.990244	2392.498848
991.286271	2389.262427
991.582262	2391.717469
991.878217	2394.595968
992.174136	2392.269475
992.470019	2392.902140
992.765865	2394.094373
993.061676	2394.210320
993.357450	2394.159908
993.653188	2392.017418
993.948890	2392.839126
994.244556	2390.368960
994.540186	2391.089845
994.835780	2395.359703
995.131337	2392.244270
995.426859	2393.670916
995.722345	2395.468088
996.017795	2396.506565
996.313208	2395.130330
996.608586	2395.891544
996.903928	2395.586555
997.199234	2396.471277
997.494504	2396.052861
997.789738	2395.871380
998.084936	2396.768705
998.380099	2394.396842
998.675225	2395.397511
998.970316	2395.284085
999.265371	2397.308109
999.560390	2390.883158
999.855373	2394.313663
1000.150320	2393.630587
1000.445232	2392.067829
1000.740108	2393.691081
1001.034948	2393.655793
1001.329752	2392.798797
1001.624521	2392.909702
1001.919254	2389.834598
1002.213951	2387.109854
1002.508613	2388.108003
1002.803239	2390.547921
1003.097829	2386.714124
1003.392384	2393.859959
1003.686903	2394.820299
1003.981386	2391.916595
1004.275834	2392.408107
1004.570246	2396.141082
1004.864623	2393.663354
1005.158964	2393.005484
1005.453270	2390.744526
1005.747540	2392.181255
1006.041775	2392.725700
1006.335974	2388.763353
1006.630138	2392.781153
1006.924266	2393.328118
1007.218359	2392.201420
1007.512416	2392.380381
1007.806438	2392.894578
1008.100425	2393.912892
1008.394376	2389.597664
1008.688292	2392.282078
1008.982172	2391.102448
1009.276017	2391.515823
1009.569827	2391.551111
1009.863602	2390.651265
1010.157341	2391.122613
1010.451045	2393.217212
1010.744714	2391.760319
1011.038347	2393.877603
1011.331945	2390.825185
1011.625508	2391.450288
1011.919036	2389.116234
1012.212528	2389.885010
1012.505986	2389.217057
1012.799408	2391.362068
1013.092795	2390.202602
1013.386147	2392.564383
1013.679464	2390.293343
1013.972745	2389.942983
1014.265992	2392.778632
1014.559204	2390.416851
1014.852380	2391.719990
1015.145521	2393.083622
1015.438628	2392.781153
1015.731699	2393.925494
1016.024736	2391.694784
1016.317737	2392.786194
1016.610703	2393.227295
1016.903635	2388.496172
1017.196531	2388.816285
1017.489393	2390.416851
1017.782219	2388.778476
1018.075011	2393.083622
1018.367768	2391.344424
1018.660490	2391.082284
1018.953177	2391.082284
1019.245829	2391.082284
