Dividing Wavelength (nm)	Counts (n)	Blue Motor Position (mm): 0.000000	Red Motor Position (mm): 16.800000	
326.493990	1983.855355
326.888308	1983.855355
327.282561	1983.855355
327.676750	1956.731427
328.070874	1958.989864
328.464933	1966.181070
328.858929	1971.801957
329.252859	1986.229739
329.646726	1999.936636
330.040528	2015.445746
330.434265	2036.114477
330.827938	2055.694318
331.221547	2074.669221
331.615091	2097.445154
332.008571	2118.610439
332.401986	2135.710033
332.795338	2156.272899
333.188625	2176.802998
333.581847	2196.476101
333.975006	2214.813298
334.368100	2230.156050
334.761129	2247.974008
335.154095	2264.564446
335.546996	2279.546755
335.939833	2296.056534
336.332606	2308.180509
336.725315	2320.571665
337.117960	2326.958807
337.510540	2336.637822
337.903056	2345.762311
338.295508	2351.819257
338.687896	2359.050792
339.080220	2365.634539
339.472480	2371.361290
339.864676	2373.823893
340.256807	2376.253730
340.648875	2379.033926
341.040879	2384.614483
341.432818	2382.351005
341.824694	2385.466438
342.216506	2384.879144
342.608253	2384.175903
342.999937	2381.196581
343.391557	2379.159955
343.783113	2377.866899
344.174605	2378.519728
344.566033	2375.406816
344.957397	2374.544778
345.348697	2372.815663
345.739934	2372.039325
346.131106	2368.238295
346.522215	2366.504138
346.913260	2366.063037
347.304241	2364.280989
347.695159	2363.847450
348.086012	2360.981554
348.476802	2362.655217
348.867528	2359.333097
349.258191	2355.564834
349.648789	2356.570544
350.039324	2357.120030
350.429796	2357.223374
350.820203	2354.574248
351.210548	2354.420492
351.600828	2350.332117
351.991045	2352.038547
352.381198	2352.683815
352.771288	2353.785307
353.161314	2352.683815
353.551276	2356.154649
353.941175	2354.080214
354.331010	2354.183558
354.720782	2352.424195
355.110490	2353.407220
355.500135	2354.896881
355.889717	2353.477797
356.279235	2353.382015
356.668689	2356.023579
357.058080	2358.219002
357.447408	2354.478466
357.836672	2351.625173
358.225873	2358.246728
358.615010	2353.024093
359.004084	2358.871831
359.393095	2358.529033
359.782043	2362.186390
360.170927	2360.868128
360.559748	2361.508355
360.948505	2363.542460
361.337199	2362.914837
361.725830	2362.138499
362.114398	2365.276617
362.502903	2363.718901
362.891344	2368.114787
363.279722	2364.643952
363.668037	2368.482791
364.056289	2366.763758
364.444478	2366.862060
364.832603	2367.915661
365.220665	2369.692668
365.608665	2371.573018
365.996601	2372.551002
366.384474	2372.606455
366.772284	2373.150899
367.160031	2374.330529
367.547715	2375.101826
367.935336	2375.043853
368.322893	2374.532176
368.710388	2378.149203
369.097820	2382.096427
369.485189	2378.849924
369.872495	2380.700027
370.259738	2381.597353
370.646918	2384.435522
371.034035	2387.739999
371.421090	2387.704711
371.808081	2390.986502
372.195010	2394.558159
372.581875	2399.710218
372.968678	2408.587690
373.355418	2417.457601
373.742096	2425.072263
374.128710	2433.831268
374.515262	2447.911211
374.901751	2459.100052
375.288177	2478.442959
375.674540	2494.332676
376.060841	2516.962416
376.447079	2540.270191
376.833254	2565.226423
377.219367	2589.199630
377.605417	2623.189610
377.991404	2650.222797
378.377329	2690.388190
378.763191	2724.113510
379.148991	2769.524223
379.534727	2817.321924
379.920402	2864.431506
380.306013	2910.915986
380.691563	2972.690285
381.077049	3024.568799
381.462474	3085.591967
381.847835	3153.244251
382.233134	3223.359140
382.618371	3283.905918
383.003545	3366.250645
383.388657	3448.093778
383.773706	3538.766492
384.158693	3611.676700
384.543618	3696.421017
384.928480	3775.478912
385.313280	3882.348853
385.698017	3985.402640
386.082692	4102.538891
386.467305	4166.591792
386.851856	4290.523518
387.236344	4441.185962
387.620770	4504.470087
388.005133	4622.922079
388.389435	4768.243421
388.773674	4851.745093
389.157851	4983.362058
389.541965	5112.229074
389.926018	5142.183610
390.310008	5315.483356
390.693936	5435.934166
391.077802	5551.721908
391.461606	5683.091856
391.845348	5792.759638
392.229027	5912.018214
392.612645	6134.612883
392.996200	6244.900726
393.379694	6422.566111
393.763125	6637.951930
394.146494	6730.426856
394.529801	6870.427260
394.913047	7103.633557
395.296230	7098.766323
395.679351	7154.140878
396.062410	7411.736278
396.445408	7304.394989
396.828343	7453.051054
397.211217	7582.575940
397.594028	7470.649722
397.976778	7667.431163
398.359466	7827.986871
398.742092	7801.704816
399.124656	7955.901109
399.507158	8131.824775
399.889598	8151.074421
400.271977	8357.812141
400.654294	8391.403869
401.036549	8579.207015
401.418742	8604.367413
401.800874	8898.180983
402.182944	8978.073189
402.564952	9339.390329
402.946898	9163.058330
403.328783	9215.032626
403.710606	9403.443230
404.092367	9649.401126
404.474067	10006.934881
404.855705	9805.124889
405.237282	9758.741233
405.618797	10167.054530
406.000250	10407.449512
406.381642	10761.819943
406.762972	10697.104130
407.144240	10500.499130
407.525447	10738.771787
407.906593	10672.820892
408.287677	10916.848026
408.668700	11050.834334
409.049661	11007.334217
409.430560	11155.062710
409.811399	11111.310536
410.192176	11241.556307
410.572891	11293.641509
410.953545	11725.771737
411.334138	11195.530573
411.714669	11731.465720
412.095139	11043.065916
412.475547	11484.391209
412.855894	11299.915225
413.236180	11547.758513
413.616405	11212.597399
413.996568	11410.412276
414.376670	11330.177271
414.756711	11159.748463
415.136691	11341.419044
415.516609	11428.270563
415.896466	11404.869527
416.276262	11572.291288
416.655997	11869.583253
417.035670	11810.989922
417.415283	12261.656473
417.794834	12230.852503
418.174324	11919.578897
418.553753	11727.624361
418.933121	12013.228412
419.312428	11736.481668
419.691674	11543.813810
420.070859	11770.025506
420.449983	11381.758358
420.829045	11663.730257
421.208047	11337.360916
421.586988	11534.585978
421.965867	11565.142932
422.344686	11414.790518
422.723444	11651.886066
423.102141	10599.910684
423.480777	11240.830381
423.859352	10750.978941
424.237866	11303.310442
424.616319	10941.010277
424.994712	11173.853611
425.373044	10874.343538
425.751314	11081.406411
426.129524	10402.441126
426.507673	10814.537809
426.885762	10469.264141
427.263789	10377.802487
427.641756	10275.759451
428.019662	10119.062745
428.397508	9939.252349
428.775292	9886.194205
429.153016	9671.768726
429.530679	9513.612606
429.908282	9328.413217
430.285824	9021.676649
430.663305	9118.229869
431.040726	8765.777598
431.418086	8508.008278
431.795385	8564.002895
432.172624	8524.618880
432.549802	8179.637599
432.926920	8057.142602
433.303977	7835.755289
433.680974	7734.420535
434.057910	7640.644992
434.434786	7465.238043
434.811601	7260.852022
435.188355	7375.782768
435.565050	7106.774196
435.941683	6920.591782
436.318257	6967.356046
436.694770	6751.400577
437.071222	6714.595112
437.447614	6342.031158
437.823946	6187.068609
438.200218	6063.704013
438.576429	5866.794023
438.952580	5768.839363
439.328670	5618.171877
439.704700	5546.070774
440.080670	5341.679712
440.456580	5297.128515
440.832429	5189.338563
441.208218	4919.195732
441.583947	4858.452348
441.959616	4755.020474
442.335224	4667.506044
442.710773	4567.635745
443.086261	4519.966594
443.461689	4348.196838
443.837057	4258.723919
444.212365	4218.384606
444.587612	4125.768528
444.962800	3995.454701
445.337927	3937.357923
445.712995	3766.109927
446.088002	3810.850168
446.462949	3747.555961
446.837837	3677.524251
447.212664	3599.212447
447.587431	3679.835620
447.962139	3763.085235
448.336786	3811.014005
448.711374	3663.429185
449.085901	3436.262190
449.460369	3352.715147
449.834776	3290.860190
450.209124	3320.822288
450.583412	3260.119233
450.957640	3228.125551
451.331808	3138.995430
451.705917	3055.203891
452.079965	3013.122860
452.453954	2985.416678
452.827883	2948.149948
453.201752	2912.002355
453.575562	2886.884806
453.949311	2878.657643
454.323001	2850.311234
454.696632	2826.033037
455.070202	2827.520178
455.443713	2810.347487
455.817164	2796.048254
456.190556	2784.105761
456.563888	2759.580547
456.937160	2746.670152
457.310373	2717.731409
457.683526	2707.243288
458.056619	2694.418593
458.429653	2682.148424
458.802628	2678.526355
459.175542	2670.684841
459.548398	2673.714574
459.921194	2679.118691
460.293930	2680.021057
460.666607	2686.572037
461.039224	2693.347348
461.411782	2689.626976
461.784280	2673.643998
462.156719	2662.611433
462.529099	2652.582057
462.901419	2636.372227
463.273680	2621.369753
463.645882	2618.962602
464.018024	2614.100409
464.390106	2611.922631
464.762130	2630.204375
465.134094	2650.895791
465.505999	2680.913342
465.877845	2704.463092
466.249631	2707.669266
466.621358	2692.951617
466.993026	2677.737415
467.364634	2661.875424
467.736184	2642.552682
468.107674	2632.699746
468.479105	2623.976030
468.850477	2615.716099
469.221790	2605.563215
469.593043	2596.146340
469.964238	2587.334403
470.335373	2584.997828
470.706449	2593.494693
471.077467	2601.212699
471.448425	2623.618108
471.819324	2635.469860
472.190164	2627.126751
472.560945	2606.261415
472.931667	2590.396904
473.302330	2580.339802
473.672934	2576.445511
474.043479	2577.872157
474.413965	2569.012329
474.784393	2566.663152
475.154761	2568.157854
475.525070	2564.601320
475.895321	2566.469067
476.265513	2565.649880
476.635645	2570.943091
477.005719	2569.871846
477.375734	2571.235478
477.745691	2573.314954
478.115588	2580.375090
478.485427	2589.597881
478.855207	2604.658328
479.224928	2616.298352
479.594591	2622.524177
479.964194	2616.986470
480.333739	2617.379680
480.703226	2616.883126
481.072653	2617.533435
481.442022	2622.438478
481.811333	2622.793879
482.180584	2618.534104
482.549777	2612.356170
482.918912	2612.222579
483.287988	2606.387444
483.657005	2606.286621
484.025964	2603.309819
484.394864	2599.861670
484.763706	2599.148347
485.132489	2596.854622
485.501213	2592.942687
485.869879	2594.870928
486.238487	2594.003849
486.607036	2596.373192
486.975527	2591.286667
487.343959	2592.539394
487.712333	2593.635845
488.080648	2589.728951
488.448905	2595.158274
488.817104	2592.151225
489.185244	2599.690271
489.553326	2605.396857
489.921350	2618.246758
490.289315	2633.047586
490.657222	2634.587658
491.025070	2633.781074
491.392861	2631.963738
491.760593	2626.300002
492.128267	2618.713065
492.495883	2607.277207
492.863440	2603.735797
493.230939	2597.935949
493.598380	2594.119796
493.965763	2590.575865
494.333088	2587.384814
494.700354	2585.035637
495.067563	2584.544124
495.434713	2579.994483
495.801805	2586.994125
496.168839	2587.427664
496.535815	2584.254258
496.902733	2582.691500
497.269593	2581.907601
497.636395	2581.080852
498.003139	2581.794175
498.369825	2581.161510
498.736453	2585.600246
499.103023	2582.525142
499.469535	2582.885585
499.835989	2585.854824
500.202385	2583.984556
500.568723	2583.384659
500.935003	2587.352047
501.301226	2586.185020
501.667390	2591.420258
502.033497	2594.316401
502.399546	2591.470670
502.765537	2588.622418
503.131470	2592.708273
503.497345	2593.371185
503.863163	2589.118971
504.228923	2591.631987
504.594625	2600.277565
504.960269	2595.385126
505.325856	2603.715632
505.691385	2600.184304
506.056856	2604.935592
506.422270	2608.852568
506.787625	2609.480192
507.152924	2609.422218
507.518164	2614.110492
507.883347	2611.839452
508.248472	2616.426902
508.613540	2618.788682
508.978550	2623.466873
509.343503	2625.838736
509.708398	2628.089611
510.073236	2634.292751
510.438016	2635.734521
510.802738	2633.125724
511.167403	2639.976652
511.532010	2643.570995
511.896561	2644.188536
512.261053	2653.272695
512.625488	2650.381593
512.989866	2650.820174
513.354186	2655.508447
513.718449	2653.383601
514.082655	2664.413645
514.446803	2662.455157
514.810894	2668.998575
515.174927	2669.855571
515.538904	2670.727690
515.902822	2675.078206
516.266684	2673.805315
516.630488	2677.513083
516.994235	2678.453259
517.357925	2681.480472
517.721558	2686.496420
518.085133	2685.374763
518.448651	2690.806606
518.812112	2687.086235
519.175516	2690.970444
519.538863	2692.739889
519.902152	2697.458409
520.265385	2698.990919
520.628560	2702.582742
520.991678	2698.416228
521.354739	2699.424459
521.717743	2705.499049
522.080690	2703.669110
522.443580	2707.810418
522.806413	2707.132383
523.169189	2707.823021
523.531908	2713.632951
523.894569	2707.840665
524.257174	2711.306458
524.619722	2713.925338
524.982213	2714.290821
525.344647	2712.375183
525.707025	2713.648074
526.069345	2715.160420
526.431608	2715.019268
526.793815	2718.885833
527.155964	2716.077910
527.518057	2718.858107
527.880093	2716.534135
528.242072	2719.964640
528.603995	2718.772407
528.965860	2719.616800
529.327669	2717.141594
529.689421	2716.650081
530.051117	2717.449104
530.412755	2719.836091
530.774337	2721.078735
531.135862	2716.592108
531.497331	2717.257540
531.858743	2714.280739
532.220098	2714.731922
532.581396	2711.545913
532.942638	2710.625902
533.303824	2711.687065
533.664953	2712.160934
534.026025	2711.331664
534.387040	2713.166644
534.747999	2711.712271
535.108902	2713.532128
535.469748	2707.661704
535.830537	2705.841847
536.191270	2706.666076
536.551947	2703.535520
536.912567	2702.781867
537.273131	2702.431507
537.633638	2696.911443
537.994089	2699.023687
538.354483	2694.458922
538.714821	2695.235260
539.075103	2695.086546
539.435328	2693.924560
539.795497	2690.799044
540.155609	2686.486337
540.515665	2687.479445
540.875665	2681.435101
541.235609	2678.420491
541.595496	2678.259174
541.955328	2678.067610
542.315102	2675.005109
542.674821	2669.250632
543.034483	2667.634942
543.394090	2663.402894
543.753640	2661.882986
544.113134	2659.944662
544.472571	2655.122799
544.831953	2658.397028
545.191278	2652.796306
545.550548	2647.361942
545.909761	2649.058291
546.268918	2644.818680
546.628019	2643.497898
546.987064	2635.883235
547.346053	2631.063892
547.704986	2629.430558
548.063863	2624.228087
548.422684	2623.383694
548.781449	2617.843466
549.140158	2616.293311
549.498811	2613.077055
549.857408	2608.746704
550.215949	2605.633791
550.574434	2600.050713
550.932864	2596.353027
551.291237	2594.785228
551.649555	2591.684919
552.007817	2593.046030
552.366022	2588.272057
552.724173	2585.590164
553.082267	2582.683938
553.440305	2584.546645
553.798288	2579.586149
554.156215	2575.260839
554.514086	2577.599935
554.871902	2571.691702
555.229661	2568.606516
555.587365	2565.521330
555.945014	2565.780950
556.302606	2561.962276
556.660143	2560.369271
557.017625	2559.081256
557.375050	2557.455484
557.732421	2555.837274
558.089735	2552.227807
558.446994	2551.287632
558.804197	2550.846531
559.161345	2549.981973
559.518437	2542.952084
559.875474	2543.488967
560.232455	2541.462423
560.589381	2540.035777
560.946251	2541.419574
561.303065	2540.176929
561.659825	2536.839685
562.016528	2535.324819
562.373177	2533.199972
562.729770	2532.589993
563.086307	2532.499252
563.442789	2532.710980
563.799216	2531.236443
564.155587	2531.985054
564.511904	2529.514889
564.868164	2529.020856
565.224370	2528.975485
565.580520	2526.283509
565.936615	2528.045392
566.292654	2524.128416
566.648638	2524.685463
567.004567	2526.240659
567.360441	2525.378622
567.716260	2524.143539
568.072023	2522.593385
568.427732	2518.310924
568.783385	2520.655061
569.138982	2515.611387
569.494525	2521.282685
569.850013	2515.414782
570.205445	2519.881244
570.560823	2518.106758
570.916145	2519.203209
571.271412	2520.697911
571.626625	2518.870492
571.981782	2514.794720
572.336884	2515.571057
572.691931	2516.289422
573.046923	2516.796058
573.401860	2513.131139
573.756743	2517.090965
574.111570	2513.350429
574.466342	2511.749863
574.821059	2512.964781
575.175722	2511.245747
575.530330	2509.534276
575.884882	2512.765655
576.239380	2511.870850
576.593823	2510.756755
576.948211	2506.764162
577.302544	2509.186436
577.656823	2509.892197
578.011047	2507.822804
578.365216	2510.111488
578.719330	2507.946312
579.073389	2507.263236
579.427394	2506.544871
579.781344	2511.152486
580.135239	2506.723832
580.489080	2504.092350
580.842866	2502.766527
581.196597	2504.409943
581.550273	2504.858605
581.903895	2502.390961
582.257463	2507.575787
582.610975	2505.007319
582.964434	2505.476147
583.317837	2504.846003
583.671186	2501.896928
584.024481	2504.621671
584.377721	2502.753924
584.730906	2504.241064
585.084037	2503.424397
585.437113	2501.281907
585.790135	2499.091525
586.143103	2498.020280
586.496016	2500.775271
586.848874	2494.085660
587.201679	2499.583038
587.554428	2493.379898
587.907124	2496.419714
588.259765	2494.400732
588.612352	2498.983141
588.964884	2493.722697
589.317362	2497.750578
589.669786	2499.336021
590.022155	2494.393170
590.374470	2499.477174
590.726731	2494.443582
591.078937	2496.492811
591.431090	2495.149343
591.783188	2494.572131
592.135232	2493.102635
592.487222	2491.655823
592.839157	2495.146823
593.191038	2491.358395
593.542866	2492.767398
593.894639	2492.089363
594.246358	2491.386122
594.598022	2493.042141
594.949633	2487.759012
595.301190	2489.009218
595.652692	2489.750267
596.004141	2490.067860
596.355535	2486.793631
596.706876	2489.513333
597.058162	2487.776656
597.409395	2487.970740
597.760573	2488.968888
598.111698	2484.797334
598.462768	2489.152891
598.813785	2484.736840
599.164748	2489.737664
599.515657	2484.988898
599.866511	2484.938486
600.217312	2488.742037
600.568060	2483.746253
600.918753	2485.455204
601.269392	2484.600729
601.619978	2484.605770
601.970510	2486.234063
602.320988	2485.790441
602.671412	2485.616521
603.021783	2484.404124
603.372100	2485.414875
603.722363	2484.578043
604.072572	2485.755153
604.422728	2486.846563
604.772830	2479.826756
605.122878	2477.512866
605.472872	2481.054277
605.822813	2477.081848
606.172701	2485.382108
606.522534	2483.138794
606.872314	2483.625265
607.222041	2481.553351
607.571714	2485.556027
607.921333	2480.845069
608.270899	2481.994452
608.620411	2481.162662
608.969870	2480.446818
609.319276	2479.186529
609.668627	2484.111737
610.017926	2484.830101
610.367171	2483.910091
610.716362	2480.877837
611.065500	2482.443115
611.414585	2480.000676
611.763616	2484.588126
612.112594	2482.178454
612.461518	2481.833135
612.810389	2483.262302
613.159207	2483.963023
613.507971	2482.826243
613.856682	2482.092755
614.205340	2480.976139
614.553945	2483.302632
614.902496	2480.154431
615.250994	2484.509988
615.599439	2482.548979
615.947830	2482.690131
616.296169	2482.417909
616.644454	2482.864051
616.992686	2483.690800
617.340864	2483.847076
617.688990	2482.614514
618.037063	2480.822384
618.385082	2482.312045
618.733048	2482.614514
619.080961	2482.024699
619.428821	2481.936479
619.776628	2481.596201
620.124382	2481.263485
620.472083	2482.702734
620.819731	2483.363125
621.167326	2481.195429
621.514868	2481.523104
621.862357	2479.846921
622.209793	2479.282311
622.557176	2479.574698
622.904506	2477.162506
623.251783	2474.861219
623.599007	2473.668987
623.946179	2471.894500
624.293297	2474.316775
624.640363	2475.158648
624.987376	2474.957001
625.334336	2475.390541
625.681243	2475.110757
626.028097	2472.965746
626.374899	2476.522280
626.721647	2474.417598
627.068343	2473.348873
627.414987	2473.366517
627.761577	2471.607155
628.108115	2474.974645
628.454600	2471.685293
628.801032	2471.004737
629.147412	2471.597072
629.493739	2469.875518
629.840014	2472.340643
630.186236	2471.685292
630.532405	2470.762761
630.878521	2469.767133
631.224585	2471.967597
631.570597	2467.896865
631.916556	2470.145220
632.262462	2466.502986
632.608316	2471.554222
632.954117	2468.133800
633.299866	2468.932822
633.645562	2467.821248
633.991206	2465.711525
634.336797	2465.711525
634.682336	2466.727318
635.027823	2466.823100
635.373257	2462.833026
635.718639	2464.854529
636.063968	2465.610702
636.409245	2463.211113
636.754470	2462.190279
637.099642	2460.350258
637.444762	2461.736575
637.789829	2462.505351
638.134845	2461.131637
638.479808	2458.679116
638.824719	2461.363530
639.169577	2459.657099
639.514383	2460.133488
639.859137	2460.083077
640.203839	2460.892182
640.548489	2459.296657
640.893086	2454.547890
641.237632	2453.890019
641.582125	2456.501337
641.926566	2452.269288
642.270955	2456.967644
642.615292	2457.318004
642.959576	2459.347068
643.303809	2456.939917
643.647990	2457.716255
643.992118	2457.507047
644.336195	2454.988991
644.680219	2456.360185
645.024192	2460.050309
645.368112	2459.601647
645.711981	2460.229270
646.055797	2456.869341
646.399562	2458.573251
646.743274	2460.569548
647.086935	2465.716566
647.430544	2458.248097
647.774101	2459.594085
648.117606	2461.287913
648.461059	2459.468056
648.804460	2459.962089
649.147810	2463.594241
649.491108	2459.745320
649.834354	2459.203396
650.177548	2458.575772
650.520690	2457.965792
650.863781	2454.802468
651.206820	2456.609722
651.549807	2453.166614
651.892742	2458.968982
652.235626	2454.436985
652.578458	2453.592591
652.921238	2452.642334
653.263967	2453.774073
653.606644	2452.561675
653.949269	2454.658795
654.291843	2452.861624
654.634365	2452.022272
654.976836	2449.226952
655.319255	2453.763991
655.661622	2451.313990
656.003938	2450.973712
656.346203	2450.756942
656.688416	2453.325410
657.030577	2452.773404
657.372687	2450.719134
657.714746	2449.388269
658.056753	2452.360029
658.398708	2442.827207
658.740612	2449.456325
659.082465	2446.552620
659.424266	2449.685697
659.766016	2444.586570
660.107715	2449.383228
660.449362	2448.826180
660.790958	2451.888681
661.132503	2452.145780
661.473996	2452.596963
661.815438	2450.580502
662.156829	2449.814247
662.498168	2448.632096
662.839456	2449.602518
663.180693	2450.875409
663.521879	2450.099072
663.863013	2451.001438
664.204097	2450.399020
664.545129	2449.784000
664.886110	2450.336006
665.227040	2450.600667
665.567918	2451.140070
665.908746	2451.702159
666.249522	2451.399689
666.590248	2450.237703
666.930922	2451.762652
667.271545	2449.960440
667.612118	2451.737447
667.952639	2450.073866
668.293109	2451.697118
668.633528	2450.101592
668.973896	2452.904474
669.314213	2451.742488
669.654480	2448.359874
669.994695	2448.344750
670.334859	2448.392641
670.674973	2448.168310
671.015035	2447.828032
671.355047	2447.155038
671.695008	2448.148145
672.034918	2448.138063
672.374777	2450.046140
672.714585	2449.632765
673.054342	2449.496654
673.394049	2449.683177
673.733705	2448.259051
674.073310	2451.240893
674.412864	2447.485233
674.752368	2450.073866
675.091820	2446.640840
675.431223	2447.157558
675.770574	2447.578495
676.109875	2444.412650
676.449125	2442.723864
676.788324	2444.092537
677.127473	2448.495985
677.466571	2442.265119
677.805619	2445.511622
678.144616	2445.166303
678.483562	2447.941458
678.822458	2443.374173
679.161303	2444.258895
679.500098	2446.444235
679.838842	2444.447938
680.177535	2444.775613
680.516179	2447.447425
680.854771	2444.747887
681.193314	2448.788372
681.531805	2446.658484
681.870247	2451.145111
682.208638	2448.811057
682.546978	2450.240224
682.885268	2447.646550
683.223508	2448.927003
683.561697	2448.710234
683.899836	2448.748042
684.237925	2445.355346
684.575963	2447.843155
684.913951	2444.243772
685.251889	2448.561520
685.589776	2450.809874
685.927614	2447.938937
686.265401	2446.613114
686.603137	2449.552107
686.940824	2445.549430
687.278460	2449.017744
687.616046	2447.593618
687.953582	2452.400358
688.291068	2449.368104
688.628504	2450.862807
688.965889	2450.845163
689.303224	2449.829370
689.640510	2449.448763
689.977745	2449.267281
690.314930	2445.660336
690.652065	2445.645212
690.989150	2443.122115
691.326185	2445.804009
691.663170	2442.597835
692.000105	2442.786878
692.336990	2440.576332
692.673825	2439.575663
693.010610	2442.996086
693.347345	2436.324119
693.684030	2436.583738
694.020665	2435.943512
694.357251	2433.077616
694.693786	2439.237906
695.030272	2432.611309
695.366707	2435.704057
695.703093	2433.523758
696.039429	2438.358224
696.375716	2432.268511
696.711952	2435.429314
697.048139	2434.753799
697.384276	2434.085847
697.720363	2436.006526
698.056400	2436.402257
698.392388	2433.611978
698.728326	2429.763057
699.064214	2433.357400
699.400053	2434.078285
699.735842	2434.544592
700.071581	2435.177256
700.407270	2435.424273
700.742910	2433.659869
701.078501	2433.649787
701.414042	2433.148192
701.749533	2431.454364
702.084974	2431.698860
702.420366	2430.768767
702.755709	2431.494693
703.091002	2430.423448
703.426246	2431.802204
703.761440	2433.584252
704.096584	2429.684919
704.431679	2429.352203
704.766725	2430.690629
705.101721	2429.571493
705.436668	2426.312387
705.771565	2425.732655
706.106413	2429.793304
706.441212	2430.098294
706.775961	2431.819848
707.110661	2430.146185
707.445311	2430.310022
707.779913	2430.183993
708.114465	2431.053593
708.448967	2432.533171
708.783421	2432.384457
709.117825	2429.319436
709.452180	2432.523089
709.786485	2432.346648
710.120742	2434.045517
710.454949	2434.922678
710.789107	2433.097780
711.123216	2432.560897
711.457275	2435.464602
711.791286	2432.901175
712.125247	2432.870928
712.459159	2435.580549
712.793023	2436.833275
713.126837	2437.077771
713.460602	2436.525765
713.794318	2435.336053
714.127985	2438.383430
714.461602	2432.674323
714.795171	2431.605599
715.128691	2430.302461
715.462162	2433.324632
715.795584	2431.172060
716.128957	2435.101639
716.462281	2429.160639
716.795556	2431.101483
717.128782	2427.877666
717.461960	2428.860691
717.795088	2424.507654
718.128167	2430.078129
718.461198	2427.711308
718.794180	2428.709456
719.127113	2427.945721
719.459997	2427.232398
719.792833	2424.563107
720.125619	2428.001174
720.458357	2425.543611
720.791046	2427.388674
721.123686	2426.745927
721.456278	2425.924218
721.788821	2426.357758
722.121315	2426.483787
722.453761	2425.198292
722.786158	2425.536050
723.118506	2423.968251
723.450805	2425.929260
723.783056	2422.919691
724.115259	2423.766605
724.447412	2424.668971
724.779518	2427.650814
725.111574	2423.196954
725.443582	2429.536205
725.775542	2424.396749
726.107453	2426.098138
726.439315	2424.467325
726.771129	2428.671647
727.102895	2427.897830
727.434612	2430.849426
727.766281	2425.979671
728.097901	2426.330031
728.429473	2419.552200
728.760996	2428.422110
729.092471	2425.190731
729.423897	2426.786256
729.755276	2428.414548
730.086606	2425.490679
730.417887	2429.634508
730.749120	2429.599220
731.080305	2430.355393
731.411442	2429.014446
731.742530	2430.496545
732.073570	2432.944025
732.404562	2430.748603
732.735506	2429.989909
733.066401	2430.569642
733.397249	2427.277768
733.728048	2427.549991
734.058798	2427.960845
734.389501	2424.931111
734.720156	2424.739547
735.050762	2425.344486
735.381320	2425.031934
735.711831	2425.243663
736.042293	2425.730134
736.372707	2424.568148
736.703073	2420.928435
737.033391	2421.369536
737.363661	2424.343817
737.693883	2424.129568
738.024056	2426.186358
738.354182	2425.767943
738.684260	2426.130906
739.014290	2426.614857
739.344272	2427.978489
739.674207	2429.584096
740.004093	2426.869435
740.333931	2426.569486
740.663722	2427.580237
740.993464	2425.283992
741.323159	2428.386822
741.652806	2419.524474
741.982405	2425.422624
742.311956	2428.585948
742.641460	2425.359609
742.970915	2423.640576
743.300323	2425.583941
743.629683	2424.512695
743.958996	2424.447160
744.288260	2422.874320
744.617477	2421.737540
744.946647	2417.918866
745.275768	2421.787952
745.604842	2415.259658
745.933869	2418.695204
746.262847	2416.441808
746.591778	2423.103693
746.920662	2421.568662
747.249498	2421.863569
747.578286	2418.727971
747.907027	2421.384659
748.235720	2420.875503
748.564365	2418.733012
748.892963	2422.924732
749.221514	2422.725606
749.550017	2419.040523
749.878473	2423.401121
750.206881	2423.159146
750.535242	2420.250400
750.863555	2421.341810
751.191821	2422.551687
751.520039	2420.043713
751.848210	2419.670667
752.176334	2421.709814
752.504411	2422.740730
752.832440	2418.982550
753.160421	2421.881213
753.488356	2419.353074
753.816243	2420.510019
754.144082	2420.444484
754.471875	2419.605132
754.799620	2420.021027
755.127318	2422.917170
755.454969	2419.975657
755.782572	2420.273085
756.110129	2418.400296
756.437638	2418.276788
756.765100	2420.096645
757.092515	2418.642272
757.419882	2419.370718
757.747203	2423.302818
758.074477	2419.852149
758.401703	2418.455749
758.728882	2419.032961
759.056014	2421.127561
759.383099	2422.622263
759.710138	2421.099834
760.037129	2420.583116
760.364073	2420.394073
760.690970	2421.094793
761.017820	2421.503127
761.344623	2423.600247
761.671379	2420.701583
761.998088	2420.081521
762.324751	2425.972109
762.651366	2428.195258
762.977935	2439.444593
763.304456	2441.420725
763.630931	2446.623196
763.957359	2445.841817
764.283740	2442.454162
764.610074	2437.781012
764.936362	2434.993254
765.262602	2426.211564
765.588796	2427.101328
765.914943	2420.656213
766.241044	2421.770308
766.567097	2419.595050
766.893104	2416.719072
767.219064	2417.157652
767.544978	2417.172775
767.870845	2414.203536
768.196665	2414.407702
768.522438	2415.000038
768.848165	2415.186561
769.173846	2413.507857
769.499479	2414.105233
769.825066	2414.624472
770.150607	2415.161355
770.476101	2413.893505
770.801548	2413.142373
771.126949	2413.230593
771.452303	2411.904770
771.777611	2414.576581
772.102872	2412.292938
772.428087	2412.711354
772.753256	2412.970974
773.078378	2412.408885
773.403453	2413.906108
773.728482	2412.781930
774.053465	2410.064748
774.378401	2410.901580
774.703291	2408.711199
775.028135	2410.518452
775.352932	2410.384862
775.677683	2414.193453
776.002388	2410.820922
776.327046	2412.572722
776.651658	2408.675911
776.976224	2410.531055
777.300743	2409.948802
777.625216	2410.049625
777.949643	2410.775551
778.274024	2413.896025
778.598359	2408.197001
778.922647	2408.287742
779.246889	2409.399316
779.571086	2405.568039
779.895236	2408.408729
780.219339	2409.686662
780.543397	2408.885118
780.867409	2409.704306
781.191374	2408.491908
781.515294	2409.318658
781.839167	2410.657084
782.162995	2410.523493
782.486776	2410.369738
782.810511	2410.747825
783.134201	2409.671538
783.457844	2409.111970
783.781441	2409.679100
784.104993	2409.628689
784.428498	2406.538461
784.751958	2409.890829
785.075372	2411.624986
785.398739	2409.711868
785.722061	2410.495767
786.045337	2412.290418
786.368568	2410.362177
786.691752	2412.003072
787.014891	2409.394275
787.337983	2411.627506
787.661030	2414.258988
787.984031	2415.615059
788.306987	2413.482651
788.629897	2411.400654
788.952760	2413.654050
789.275579	2414.626993
789.598351	2415.274781
789.921078	2413.477610
790.243759	2412.232445
790.566395	2409.381672
790.888984	2409.968967
791.211529	2408.242371
791.534027	2412.204718
791.856480	2408.638102
792.178888	2410.694893
792.501249	2408.423853
792.823566	2409.122053
793.145836	2407.554254
793.468062	2409.797567
793.790241	2408.118863
794.112375	2411.418298
794.434464	2408.421332
794.756507	2411.498957
795.078505	2412.343350
795.400457	2410.604152
795.722364	2406.656928
796.044226	2410.195818
796.366042	2405.835220
796.687812	2411.872002
797.009538	2413.578433
797.331218	2410.594070
797.652852	2411.783782
797.974442	2411.098185
798.295986	2410.687331
798.617484	2411.884605
798.938938	2411.375448
799.260346	2412.270253
799.581709	2410.528535
799.903026	2412.923083
800.224299	2409.595921
800.545526	2410.334450
800.866708	2409.394275
801.187845	2409.971487
801.508936	2409.802608
801.829983	2410.152969
802.150984	2407.556774
802.471940	2408.658267
802.792851	2410.379821
803.113717	2407.428225
803.434538	2407.776065
803.755314	2407.012330
804.076045	2408.133987
804.396731	2406.561147
804.717372	2407.173647
805.037967	2408.018040
805.358518	2409.643812
805.679024	2409.001065
805.999485	2407.508883
806.319901	2408.738925
806.640272	2408.053328
806.960598	2410.866292
807.280879	2407.486198
807.601115	2409.285890
807.921306	2409.177505
808.241453	2411.514080
808.561554	2407.229099
808.881611	2410.021899
809.201623	2409.590880
809.521590	2409.333781
809.841513	2409.449728
810.161390	2408.096178
810.481223	2409.737073
810.801011	2404.383368
811.120755	2408.330592
811.440453	2408.219686
811.760107	2406.777916
812.079716	2407.599624
812.399281	2404.108625
812.718801	2407.879408
813.038276	2403.425549
813.357707	2407.965108
813.677093	2406.994686
813.996434	2406.651887
814.315731	2407.420663
814.634983	2406.775396
814.954191	2406.767834
815.273354	2407.307237
815.592473	2407.982752
815.911547	2409.437125
816.230577	2409.608524
816.549562	2411.660274
816.868502	2411.367887
817.187399	2412.784451
817.506250	2411.945099
817.825058	2409.928637
818.143821	2411.559451
818.462539	2412.882753
818.781213	2414.405182
819.099843	2416.860224
819.418429	2415.975501
819.736970	2420.971285
820.055466	2423.176790
820.373919	2423.887592
820.692327	2431.048551
821.010691	2442.207145
821.329011	2465.840075
821.647286	2501.458347
821.965517	2539.496373
822.283704	2560.177707
822.601847	2569.836558
822.919945	2553.770401
823.237999	2531.675023
823.556010	2513.173989
823.873976	2496.243273
824.191897	2478.453042
824.509775	2469.764613
824.827609	2455.190637
825.145398	2450.454473
825.463144	2448.831222
825.780845	2448.795933
826.098502	2457.000411
826.416116	2460.342696
826.733685	2470.077164
827.051210	2470.619088
827.368692	2467.561629
827.686129	2458.268262
828.003522	2448.427929
828.320872	2433.798501
828.638177	2432.825558
828.955439	2426.261976
829.272656	2422.534042
829.589830	2418.760739
829.906960	2416.913156
830.224046	2414.637075
830.541088	2413.528021
830.858086	2410.914183
831.175041	2413.122208
831.491952	2411.193967
831.808819	2409.144738
832.125642	2411.864440
832.442421	2416.398958
832.759157	2420.915832
833.075849	2426.788776
833.392497	2434.889911
833.709101	2444.674790
834.025662	2439.467278
834.342179	2432.099632
834.658653	2429.773139
834.975083	2427.043355
835.291469	2430.181473
835.607811	2422.753333
835.924110	2414.994997
836.240366	2412.950809
836.556578	2410.664646
836.872746	2412.391241
837.188871	2406.447721
837.504952	2410.876374
837.820990	2405.265570
838.136984	2408.398647
838.452935	2407.276990
838.768842	2406.515776
839.084706	2407.783626
839.400526	2410.576426
839.716303	2411.924934
840.032037	2419.166552
840.347727	2418.322158
840.663373	2414.727816
840.978977	2413.240675
841.294537	2411.246899
841.610054	2409.611045
841.925527	2409.966446
842.240957	2410.626837
842.556344	2407.012330
842.871687	2406.082237
843.186987	2404.499315
843.502244	2403.995199
843.817458	2403.972514
844.132629	2402.820610
844.447756	2402.482853
844.762840	2396.017573
845.077881	2400.486556
845.392879	2398.308778
845.707833	2400.073182
846.022745	2397.270300
846.337613	2400.771381
846.652438	2402.860940
846.967221	2401.459499
847.281960	2399.390105
847.596656	2401.661145
847.911309	2401.406567
848.225919	2399.314488
848.540485	2400.355486
848.855009	2398.840619
849.169490	2401.560322
849.483928	2400.211813
849.798323	2399.213665
850.112675	2398.961607
850.426984	2401.714077
850.741251	2399.773233
851.055474	2399.448078
851.369654	2401.192318
851.683792	2401.383882
851.997887	2401.212482
852.311938	2401.081412
852.625947	2400.368089
852.939914	2401.399005
853.253837	2402.182904
853.567718	2399.916906
853.881555	2400.355486
854.195350	2400.511762
854.509103	2401.434293
854.822812	2399.964797
855.136479	2399.901782
855.450103	2402.750034
855.763685	2401.278017
856.077224	2397.529919
856.390720	2401.068809
856.704173	2398.833058
857.017584	2400.065620
857.330953	2401.615775
857.644278	2400.118552
857.957561	2402.041752
858.270802	2400.247101
858.584000	2398.765002
858.897155	2400.980589
859.210268	2399.538819
859.523339	2402.954201
859.836367	2400.960425
860.149352	2401.532596
860.462295	2403.019736
860.775195	2397.905485
861.088054	2396.088149
861.400869	2399.367420
861.713642	2394.167470
862.026373	2403.526372
862.339062	2399.876577
862.651708	2400.857081
862.964312	2398.281051
863.276873	2398.477656
863.589392	2401.474622
863.901869	2401.772050
864.214303	2399.843809
864.526696	2401.131824
864.839045	2402.528223
865.151353	2401.255332
865.463619	2400.247101
865.775842	2401.900600
866.088023	2400.862122
866.400162	2402.170302
866.712258	2400.899931
867.024313	2400.736093
867.336325	2398.772564
867.648296	2400.557132
867.960224	2403.314643
868.272110	2402.550909
868.583954	2402.656773
868.895755	2400.342883
869.207515	2400.698285
869.519233	2400.279869
869.830909	2400.292472
870.142542	2404.683317
870.454134	2401.366237
870.765684	2402.772719
871.077191	2404.343039
871.388657	2401.782133
871.700081	2402.588717
872.011463	2404.816907
872.322803	2401.512431
872.634101	2402.762637
872.945357	2402.447565
873.256571	2402.298851
873.567744	2405.031156
873.878874	2403.380178
874.189963	2404.232133
874.501010	2403.586866
874.812015	2406.160375
875.122979	2404.895045
875.433900	2402.757596
875.744780	2405.439490
876.055618	2404.678276
876.366415	2406.251116
876.677169	2403.975035
876.987882	2402.893707
877.298554	2402.545867
877.609183	2402.956722
877.919771	2399.148130
878.230317	2403.821279
878.540822	2408.529717
878.851285	2409.021230
879.161707	2410.576426
879.472087	2415.194122
879.782425	2416.598084
880.092722	2422.450863
880.402977	2435.270518
880.713191	2454.714248
881.023363	2469.144551
881.333494	2481.137456
881.643583	2482.881695
881.953631	2478.541262
882.263637	2474.049594
882.573602	2472.045735
882.883526	2462.003757
883.193408	2456.458487
883.503248	2447.759976
883.813048	2445.988011
884.122806	2437.942329
884.432522	2433.556525
884.742197	2427.829775
885.051831	2425.430185
885.361424	2421.530853
885.670975	2417.210584
885.980485	2416.739236
886.289954	2414.385017
886.599382	2410.977197
886.908768	2411.075500
887.218113	2405.399161
887.527417	2408.975859
887.836680	2404.264901
888.145901	2405.646177
888.455082	2405.646177
888.764221	2405.235323
889.073319	2403.450755
889.382376	2404.557288
889.691392	2407.072824
890.000366	2403.846485
890.309300	2405.227761
890.618193	2406.898904
890.927044	2403.707853
891.235855	2405.691547
891.544625	2405.502504
891.853353	2405.759603
892.162041	2403.095353
892.470687	2409.265726
892.779293	2405.986455
893.087858	2406.810684
893.396381	2405.918399
893.704864	2415.294946
894.013306	2411.272105
894.321707	2421.230904
894.630068	2425.450350
894.938387	2427.774322
895.246665	2424.631163
895.554903	2425.059661
895.863100	2420.452046
896.171256	2418.170924
896.479371	2418.354926
896.787446	2414.236303
897.095480	2414.823598
897.403473	2412.340829
897.711425	2409.144738
898.019336	2410.004255
898.327207	2408.738925
898.635038	2408.209604
898.942827	2405.865467
899.250576	2405.721794
899.558284	2405.074006
899.865952	2406.687175
900.173579	2405.326064
900.481165	2404.753893
900.788711	2403.465878
901.096216	2403.201218
901.403681	2403.377658
901.711105	2401.275497
902.018489	2403.922103
902.325832	2404.557288
902.633135	2403.644839
902.940397	2404.078378
903.247619	2410.029460
903.554800	2416.214956
903.861941	2423.091090
904.169041	2429.785742
904.476101	2430.350352
904.783121	2428.908582
905.090100	2426.284661
905.397039	2423.330545
905.703938	2419.098496
906.010796	2419.474062
906.317614	2413.780079
906.624391	2413.936355
906.931129	2410.430232
907.237826	2408.438976
907.544483	2406.964439
907.851099	2403.085271
908.157675	2402.689540
908.464211	2400.388254
908.770707	2397.446740
909.077163	2401.570404
909.383578	2397.300547
909.689954	2398.051679
909.996289	2398.497821
910.302584	2396.672923
910.608839	2399.380023
910.915054	2399.881618
911.221229	2399.085115
911.527363	2399.811042
911.833458	2399.349776
912.139513	2400.216854
912.445527	2401.459499
912.751502	2400.058058
913.057436	2399.541340
913.363331	2399.251473
913.669186	2403.975035
913.975000	2402.782802
914.280775	2405.900755
914.586510	2410.589028
914.892205	2412.698751
915.197859	2415.310069
915.503475	2417.860893
915.809050	2427.718869
916.114585	2428.769950
916.420081	2432.407142
916.725536	2429.269024
917.030952	2429.208530
917.336328	2426.319949
917.641665	2425.951945
917.946961	2421.878692
918.252218	2420.638569
918.557435	2418.455749
918.862612	2415.491551
919.167750	2413.114647
919.472848	2415.032806
919.777906	2410.029460
920.082925	2408.320509
920.387904	2404.826990
920.692843	2407.498801
920.997743	2404.937895
921.302603	2403.924623
921.607423	2403.501166
921.912204	2402.298851
922.216946	2401.169633
922.521647	2399.334653
922.826310	2402.266083
923.130932	2401.860271
923.435516	2399.148130
923.740059	2395.808365
924.044564	2399.934550
924.349028	2398.979251
924.653454	2393.852398
924.957840	2397.235012
925.262186	2394.537995
925.566493	2395.989847
925.870761	2391.944321
926.174989	2397.260218
926.479178	2397.343397
926.783328	2397.764333
927.087438	2396.284754
927.391509	2397.164436
927.695541	2395.747872
927.999533	2398.535630
928.303486	2396.347769
928.607400	2396.345248
928.911275	2400.363048
929.215110	2397.035886
929.518906	2396.128479
929.822663	2398.540671
930.126381	2394.543036
930.430060	2395.939435
930.733699	2395.430279
931.037299	2397.166956
931.340861	2394.840464
931.644383	2397.136709
931.947866	2398.006308
932.251309	2397.144271
932.554714	2392.876934
932.858080	2397.789539
933.161407	2395.311812
933.464694	2397.333314
933.767943	2396.572100
934.071153	2396.067985
934.374323	2395.551267
934.677455	2396.476318
934.980548	2393.953221
935.283602	2400.045455
935.586617	2396.466236
935.889593	2395.674775
936.192530	2395.072357
936.495428	2398.220557
936.798287	2396.950187
937.101108	2398.346586
937.403890	2395.883983
937.706632	2396.662841
938.009336	2396.640156
938.312002	2396.627553
938.614628	2397.781977
938.917216	2398.908675
939.219765	2398.848181
939.522275	2400.325239
939.824747	2397.958418
940.127179	2396.690567
940.429573	2396.582182
940.731929	2396.463715
941.034246	2395.090001
941.336524	2399.029663
941.638763	2399.183418
941.940964	2400.242060
942.243126	2395.742830
942.545250	2398.296175
942.847335	2397.444220
943.149381	2399.654766
943.451389	2397.033366
943.753359	2396.410783
944.055290	2395.876421
944.357182	2398.429765
944.659036	2397.086298
944.960851	2397.645866
945.262628	2398.303737
945.564367	2397.638304
945.866067	2396.914899
946.167729	2399.395146
946.469352	2396.773746
946.770937	2398.439848
947.072484	2395.064795
947.373992	2399.304406
947.675462	2395.205948
947.976893	2395.967162
948.278286	2394.752244
948.579641	2398.218037
948.880958	2397.235012
949.182236	2396.176370
949.483476	2396.473798
949.784678	2397.809703
950.085841	2397.781977
950.386967	2398.021432
950.688054	2395.306771
950.989103	2397.940773
951.290114	2397.270300
951.591087	2398.112173
951.892021	2396.297357
952.192917	2397.419014
952.493776	2397.683675
952.794596	2397.640825
953.095378	2397.832389
953.396122	2399.309447
953.696828	2396.347769
953.997496	2396.050341
954.298126	2398.891031
954.598718	2400.027811
954.899272	2397.330794
955.199788	2398.553274
955.500266	2395.518499
955.800706	2393.345762
956.101108	2392.340052
956.401472	2394.588406
956.701798	2392.055226
957.002087	2393.509599
957.302337	2395.589075
957.602550	2393.244939
957.902724	2395.566390
958.202861	2394.278375
958.502960	2393.887686
958.803022	2391.339383
959.103045	2395.561349
959.403031	2392.403066
959.702979	2393.640669
960.002889	2392.922305
960.302762	2396.385578
960.602596	2391.863662
960.902393	2392.516492
961.202153	2394.795093
961.501875	2390.681512
961.801559	2394.749723
962.101205	2394.454816
962.400814	2393.053375
962.700385	2395.009342
962.999918	2394.449774
963.299414	2395.329456
963.598873	2393.524723
963.898293	2391.500699
964.197677	2391.246121
964.497022	2392.304763
964.796331	2390.817623
965.095601	2394.273334
965.394835	2390.169835
965.694030	2392.619836
965.993189	2395.427758
966.292309	2392.216543
966.591393	2394.212840
966.890439	2393.247459
967.189447	2392.468601
967.488419	2393.083622
967.787353	2396.199055
968.086249	2393.169321
968.385108	2394.936246
968.683930	2393.068498
968.982714	2395.165618
969.281462	2390.663868
969.580172	2393.176883
969.878844	2391.833416
970.177480	2394.424569
970.476078	2393.580175
970.774639	2395.158057
971.073162	2392.062788
971.371649	2391.546070
971.670098	2389.277551
971.968510	2389.242263
972.266885	2389.166645
972.565223	2394.255690
972.863524	2393.232336
973.161788	2397.356000
973.460014	2392.458519
973.758204	2393.151677
974.056356	2393.620505
974.354471	2394.555639
974.652550	2393.807027
974.950591	2394.606050
975.248595	2391.871224
975.546563	2395.258880
975.844493	2392.458519
976.142386	2395.463046
976.440243	2393.822151
976.738062	2392.763508
977.035845	2394.038920
977.333590	2393.859959
977.631299	2393.542367
977.928971	2392.519012
978.226606	2394.464898
978.524204	2392.559342
978.821765	2395.324415
979.119290	2396.032697
979.416777	2392.080432
979.714228	2393.421379
980.011642	2395.155536
980.309020	2394.260731
980.606360	2393.449105
980.903664	2391.956924
981.200931	2394.805176
981.498162	2394.842984
981.795356	2392.917264
982.092513	2396.897255
982.389633	2395.702501
982.686717	2394.837943
982.983764	2393.091183
983.280775	2394.772408
983.577749	2394.459857
983.874686	2398.946484
984.171587	2395.236194
984.468451	2395.705022
984.765279	2396.907337
985.062070	2396.357851
985.358824	2397.086298
985.655543	2395.818448
985.952224	2393.418858
986.248869	2393.663354
986.545478	2390.767212
986.842050	2394.253169
987.138586	2390.144629
987.435086	2390.472304
987.731549	2389.627911
988.027975	2394.757285
988.324366	2392.483724
988.620719	2394.301060
988.917037	2392.009856
989.213318	2390.837788
989.509563	2393.696122
989.805772	2391.969527
990.101944	2390.994063
990.398080	2391.233518
990.694180	2392.163611
990.990244	2394.033879
991.286271	2391.188148
991.582262	2394.898437
991.878217	2394.351472
992.174136	2393.464229
992.470019	2394.618653
992.765865	2394.800135
993.061676	2391.730072
993.357450	2393.774260
993.653188	2392.057747
993.948890	2394.273334
994.244556	2395.095042
994.540186	2393.736451
994.835780	2391.704866
995.131337	2394.094373
995.426859	2392.370298
995.722345	2395.740310
996.017795	2393.444064
996.313208	2395.521020
996.608586	2395.838612
996.903928	2397.166956
997.199234	2395.251318
997.494504	2396.781308
997.789738	2395.727707
998.084936	2393.572614
998.380099	2395.677295
998.675225	2393.043293
998.970316	2394.197717
999.265371	2396.393139
999.560390	2394.795093
999.855373	2394.651421
1000.150320	2391.205792
1000.445232	2394.016235
1000.740108	2392.324928
1001.034948	2393.449105
1001.329752	2389.917777
1001.624521	2394.248128
1001.919254	2389.007849
1002.213951	2391.157901
1002.508613	2388.342417
1002.803239	2391.140257
1003.097829	2387.467776
1003.392384	2393.396173
1003.686903	2390.174876
1003.981386	2393.328118
1004.275834	2393.310474
1004.570246	2393.076060
1004.864623	2391.478014
1005.158964	2392.841646
1005.453270	2393.045813
1005.747540	2392.531615
1006.041775	2390.920967
1006.335974	2391.583878
1006.630138	2394.396842
1006.924266	2392.115720
1007.218359	2390.487428
1007.512416	2393.983468
1007.806438	2392.950031
1008.100425	2391.475494
1008.394376	2391.165463
1008.688292	2392.506410
1008.982172	2394.333828
1009.276017	2390.409290
1009.569827	2391.054557
1009.863602	2394.222923
1010.157341	2391.334341
1010.451045	2390.900802
1010.744714	2390.747047
1011.038347	2390.905843
1011.331945	2391.906512
1011.625508	2390.459701
1011.919036	2392.324928
1012.212528	2390.731923
1012.505986	2390.757129
1012.799408	2390.847870
1013.092795	2391.835936
1013.386147	2392.980278
1013.679464	2390.709238
1013.972745	2392.087994
1014.265992	2392.040103
1014.559204	2393.156718
1014.852380	2393.252500
1015.145521	2391.387273
1015.438628	2391.175545
1015.731699	2392.309805
1016.024736	2391.271327
1016.317737	2390.797458
1016.610703	2391.046996
1016.903635	2390.668909
1017.196531	2388.486089
1017.489393	2388.952396
1017.782219	2386.076418
1018.075011	2389.557335
1018.367768	2390.956255
1018.660490	2392.168652
1018.953177	2392.168652
1019.245829	2392.168652
