Dividing Wavelength (nm)	Counts (n)	Blue Motor Position (mm): 0.000000	Red Motor Position (mm): 28.600000	
326.493990	1986.499441
326.888308	1986.499441
327.282561	1986.499441
327.676750	1967.877418
328.070874	1964.494804
328.464933	1969.709878
328.858929	1979.819912
329.252859	1993.680564
329.646726	2007.611793
330.040528	2023.955214
330.434265	2041.884077
330.827938	2060.037272
331.221547	2080.801785
331.615091	2100.157295
332.008571	2121.015069
332.401986	2142.296300
332.795338	2164.676503
333.188625	2185.471262
333.581847	2201.668490
333.975006	2220.204812
334.368100	2236.911196
334.761129	2254.797210
335.154095	2269.008223
335.546996	2290.435647
335.939833	2318.898002
336.332606	2331.841164
336.725315	2343.914728
337.117960	2352.613239
337.510540	2358.372757
337.903056	2373.302134
338.295508	2376.135263
338.687896	2384.122971
339.080220	2388.710421
339.472480	2396.617471
339.864676	2397.882800
340.256807	2401.351114
340.648875	2405.512587
341.040879	2408.378483
341.432818	2408.096178
341.824694	2408.441497
342.216506	2404.864798
342.608253	2410.836045
342.999937	2405.613410
343.391557	2405.517628
343.783113	2404.635426
344.174605	2405.005951
344.566033	2401.835065
344.957397	2401.469581
345.348697	2398.230640
345.739934	2396.378016
346.131106	2396.277193
346.522215	2392.594630
346.913260	2391.175545
347.304241	2389.547252
347.695159	2386.686398
348.086012	2388.196223
348.476802	2387.402241
348.867528	2385.506768
349.258191	2385.284957
349.648789	2382.484596
350.039324	2378.980994
350.429796	2382.615666
350.820203	2379.081817
351.210548	2380.117774
351.600828	2379.832949
351.991045	2377.577033
352.381198	2379.817825
352.771288	2379.074255
353.161314	2378.297917
353.551276	2378.068545
353.941175	2378.426467
354.331010	2380.062321
354.720782	2377.745911
355.110490	2381.007538
355.500135	2382.681201
355.889717	2380.432846
356.279235	2380.090048
356.668689	2382.721530
357.058080	2382.673639
357.447408	2380.120295
357.836672	2379.603576
358.225873	2381.483927
358.615010	2380.132898
359.004084	2386.262941
359.393095	2385.670605
359.782043	2386.656151
360.170927	2390.878117
360.559748	2386.898126
360.948505	2391.898951
361.337199	2394.096894
361.725830	2392.017418
362.114398	2394.648900
362.502903	2394.031359
362.891344	2392.158570
363.279722	2391.543549
363.668037	2396.942625
364.056289	2397.292985
364.444478	2398.530588
364.832603	2398.117214
365.220665	2398.777605
365.608665	2400.937739
365.996601	2400.310116
366.384474	2402.157699
366.772284	2404.620302
367.160031	2403.680127
367.547715	2405.779768
367.935336	2406.135169
368.322893	2407.508883
368.710388	2406.442679
369.097820	2409.542989
369.485189	2407.609707
369.872495	2409.205232
370.259738	2411.811508
370.646918	2415.138670
371.034035	2418.433064
371.421090	2421.931625
371.808081	2425.571338
372.195010	2428.452357
372.581875	2434.481577
372.968678	2439.943667
373.355418	2448.594287
373.742096	2458.885803
374.128710	2467.551546
374.515262	2483.373208
374.901751	2495.857625
375.288177	2514.928310
375.674540	2533.888090
376.060841	2552.575647
376.447079	2577.509194
376.833254	2604.444079
377.219367	2628.802934
377.605417	2665.631084
377.991404	2691.018335
378.377329	2732.456619
378.763191	2765.753440
379.148991	2815.547437
379.534727	2865.646424
379.920402	2912.393044
380.306013	2961.362813
380.691563	3026.383615
381.077049	3083.560382
381.462474	3141.440390
381.847835	3212.215669
382.233134	3284.427677
382.618371	3346.673324
383.003545	3434.780091
383.388657	3516.608100
383.773706	3604.999692
384.158693	3684.062628
384.543618	3774.982358
384.928480	3858.121067
385.313280	3960.658137
385.698017	4066.759302
386.082692	4187.628527
386.467305	4251.257971
386.851856	4381.763361
387.236344	4539.034758
387.620770	4602.117237
388.005133	4720.508735
388.389435	4869.258062
388.773674	4955.444148
389.157851	5092.477833
389.541965	5228.200818
389.926018	5242.938632
390.310008	5431.757570
390.693936	5554.789450
391.077802	5672.923849
391.461606	5805.647348
391.845348	5920.890645
392.229027	6043.680550
392.612645	6267.018789
392.996200	6387.953549
393.379694	6560.774385
393.763125	6789.660414
394.146494	6888.086422
394.529801	7026.297216
394.913047	7273.288549
395.296230	7266.961901
395.679351	7323.972310
396.062410	7591.050120
396.445408	7484.535580
396.828343	7639.372100
397.211217	7780.393338
397.594028	7658.377250
397.976778	7864.575566
398.359466	8030.948766
398.742092	8005.972370
399.124656	8156.715473
399.507158	8340.926796
399.889598	8368.373358
400.271977	8576.673835
400.654294	8615.846121
401.036549	8814.472623
401.418742	8838.276952
401.800874	9139.175863
402.182944	9224.641065
402.564952	9594.999515
402.946898	9418.707844
403.328783	9477.974169
403.710606	9669.969034
404.092367	9929.893447
404.474067	10299.846084
404.855705	10083.353732
405.237282	10036.034941
405.618797	10468.054264
406.000250	10722.103212
406.381642	11087.826321
406.762972	11034.143073
407.144240	10831.884419
407.525447	11090.034346
407.906593	11026.150324
408.287677	11288.577670
408.668700	11450.386105
409.049661	11416.438975
409.430560	11590.230234
409.811399	11552.023329
410.192176	11708.823378
410.572891	11784.453288
410.953545	12278.506530
411.334138	11753.465316
411.714669	12355.585772
412.095139	11659.334371
412.475547	12169.700786
412.855894	12014.418124
413.236180	12338.612207
413.616405	12018.982889
413.996568	12301.393368
414.376670	12268.646033
414.756711	12145.052064
415.136691	12428.735435
415.516609	12621.768778
415.896466	12678.159125
416.276262	12986.866783
416.655997	13425.590841
417.035670	13456.951859
417.415283	14107.676600
417.794834	14199.160940
418.174324	13944.257516
418.553753	13838.252133
418.933121	14344.595707
419.312428	14136.849757
419.691674	14058.661461
420.070859	14516.133570
420.449983	14164.082071
420.829045	14727.405807
421.208047	14465.331342
421.586988	14927.126240
421.965867	15178.498336
422.344686	15168.461398
422.723444	15744.022536
423.102141	14416.374177
423.480777	15622.926459
423.859352	15127.539832
424.237866	16240.314050
424.616319	15939.407577
424.994712	16603.514061
425.373044	16389.219652
425.751314	17070.183755
426.129524	16192.826380
426.507673	17295.465358
426.885762	16983.359962
427.263789	17181.121907
427.641756	17350.169439
428.019662	17403.731699
428.397508	17456.373948
428.775292	17761.673787
429.153016	17718.173670
429.530679	17804.011917
429.908282	17817.595306
430.285824	17533.622069
430.663305	18255.979086
431.040726	17848.106890
431.418086	17671.016196
431.795385	18325.486515
432.172624	18742.737778
432.549802	18303.925500
432.926920	18488.832502
433.303977	18373.574082
433.680974	18624.920971
434.057910	18914.414272
434.434786	18942.901832
434.811601	18851.861114
435.188355	19903.987731
435.565050	19551.220388
435.941683	19495.833230
436.318257	20384.444980
436.694770	20196.011691
437.071222	20789.728544
437.447614	19851.569813
437.823946	19884.332272
438.200218	20041.137362
438.576429	19803.729263
438.952580	20074.527445
439.328670	20042.012003
439.704700	20466.905654
440.080670	20020.070380
440.456580	20625.616301
440.832429	20795.901437
441.208218	19790.034969
441.583947	20231.914788
441.959616	20338.666262
442.335224	20579.509908
442.710773	20708.243333
443.086261	21252.680387
443.461689	20610.883529
443.837057	20738.810369
444.212365	21366.663396
444.587612	21370.655990
444.962800	20944.655804
445.337927	21370.557687
445.712995	20102.271435
446.088002	21955.959157
446.462949	22146.267756
446.837837	22322.884581
447.212664	22277.577211
447.587431	25128.430369
447.962139	28059.644561
448.336786	30466.387189
448.711374	28890.933351
449.085901	25198.777150
449.460369	25138.850434
449.834776	25044.238059
450.209124	27546.999544
450.583412	27081.204490
450.957640	27609.340973
451.331808	26257.860559
451.705917	24873.968046
452.079965	24918.103348
452.453954	25276.589881
452.827883	25161.160060
453.201752	24950.631393
453.575562	25121.241684
453.949311	26243.808343
454.323001	26307.576418
454.696632	26058.442595
455.070202	27615.229041
455.443713	27742.434996
455.817164	28335.083125
456.190556	28867.217243
456.563888	28312.455906
456.937160	28754.975952
457.310373	27070.726452
457.683526	27518.312858
458.056619	27501.861053
458.429653	27441.599099
458.802628	28007.231684
459.175542	28119.311658
459.548398	29425.698951
459.921194	30991.609885
460.293930	31649.268733
460.666607	33672.266128
461.039224	35429.882060
461.411782	35817.370351
461.784280	34616.454078
462.156719	34125.501147
462.529099	33562.991556
462.901419	32260.627104
463.273680	31185.722034
463.645882	31265.926792
464.018024	31229.685937
464.390106	32062.295509
464.762130	34734.555710
465.134094	38739.190352
465.505999	43995.001570
465.877845	48565.220907
466.249631	49731.849771
466.621358	48000.636882
466.993026	45875.193159
467.364634	43772.051500
467.736184	41805.993939
468.107674	40517.059120
468.479105	39718.081606
468.850477	38996.697532
469.221790	37549.140287
469.593043	35799.925438
469.964238	34894.403137
470.335373	34773.286895
470.706449	36423.183452
471.077467	38907.085981
471.448425	43366.425138
471.819324	46119.099305
472.190164	44275.894663
472.560945	40732.238252
472.931667	37621.392625
473.302330	36481.065981
473.672934	35622.000433
474.043479	36062.345222
474.413965	35222.259618
474.784393	34800.642717
475.154761	35602.803719
475.525070	35562.240075
475.895321	35063.052418
476.265513	35559.540537
476.635645	36414.462256
477.005719	36167.639802
477.375734	36523.850253
477.745691	37092.769671
478.115588	38286.403996
478.485427	40049.338346
478.855207	43135.721774
479.224928	45533.420572
479.594591	47001.966661
479.964194	45931.916222
480.333739	45952.214428
480.703226	45840.530185
481.072653	46305.075032
481.442022	46612.424100
481.811333	46724.287304
482.180584	45325.412482
482.549777	44667.128530
482.918912	43990.280530
483.287988	43566.175818
483.657005	42624.236222
484.025964	41846.640762
484.394864	41723.371948
484.763706	41147.621767
485.132489	40171.392242
485.501213	39848.070279
485.869879	39793.714037
486.238487	39226.652285
486.607036	39197.000218
486.975527	38519.678349
487.343959	38501.620936
487.712333	38378.737770
488.080648	38093.864687
488.448905	38266.199052
488.817104	37867.111066
489.185244	38458.163669
489.553326	39656.443418
489.921350	41732.836714
490.289315	44098.249442
490.657222	44404.807049
491.025070	44398.251028
491.392861	43269.332515
491.760593	41841.042561
492.128267	40096.122774
492.495883	38515.383286
492.863440	37095.028108
493.230939	35707.725254
493.598380	34575.628294
493.965763	34030.490520
494.333088	33110.391723
494.700354	32446.948150
495.067563	31953.076390
495.434713	31573.848031
495.801805	31325.682109
496.168839	30758.441396
496.535815	30231.497146
496.902733	29960.202411
497.269593	29368.663336
497.636395	29029.948209
498.003139	29016.732824
498.369825	28328.504419
498.736453	28251.891483
499.103023	27620.885215
499.469535	27226.712355
499.835989	26980.835117
500.202385	26467.451571
500.568723	26178.868199
500.935003	25979.087272
501.301226	25544.809512
501.667390	25608.449038
502.033497	25460.649969
502.399546	24794.542147
502.765537	24095.760086
503.131470	23999.824408
503.497345	23880.465008
503.863163	22812.483963
504.228923	22844.782636
504.594625	22738.484866
504.960269	22048.487015
505.325856	22095.878903
505.691385	21447.392433
506.056856	21213.389634
506.422270	21123.788165
506.787625	20596.596899
507.152924	20383.333406
507.518164	20114.281984
507.883347	19434.116904
508.248472	19242.152286
508.613540	19150.874634
508.978550	18974.570361
509.343503	18553.800373
509.708398	18332.324840
510.073236	18251.195031
510.438016	17958.896328
510.802738	17406.615239
511.167403	17355.780243
511.532010	17140.865773
511.896561	16965.680635
512.261053	16986.634191
512.625488	16523.135383
512.989866	16176.301478
513.354186	15831.078222
513.718449	15551.841148
514.082655	15494.717313
514.446803	15117.845693
514.810894	15003.008208
515.174927	14704.224061
515.538904	14409.377055
515.902822	14344.159648
516.266684	13921.766408
516.630488	13780.036888
516.994235	13490.828413
517.357925	13389.463412
517.721558	13184.656454
518.085133	13010.043488
518.448651	12792.283286
518.812112	12481.864156
519.175516	12258.488108
519.538863	12109.247269
519.902152	11879.479038
520.265385	11753.482960
520.628560	11546.220961
520.991678	11276.451174
521.354739	11106.168559
521.717743	10963.002310
522.080690	10736.543597
522.443580	10629.766918
522.806413	10443.650038
523.169189	10227.477800
523.531908	10065.102234
523.894569	9847.092495
524.257174	9690.463845
524.619722	9547.584942
524.982213	9370.088436
525.344647	9168.102004
525.707025	9004.871963
526.069345	8892.202175
526.431608	8720.419816
526.793815	8594.955579
527.155964	8368.592648
527.518057	8231.115342
527.880093	8040.516876
528.242072	7956.808517
528.603995	7765.358097
528.965860	7624.644369
529.327669	7490.726117
529.689421	7345.039292
530.051117	7203.965122
530.412755	7091.590241
530.774337	6967.729091
531.135862	6821.593603
531.497331	6716.732562
531.858743	6588.130206
532.220098	6495.945147
532.581396	6362.412543
532.942638	6220.037755
533.303824	6139.175127
533.664953	6036.441453
534.026025	5909.522843
534.387040	5843.899623
534.747999	5742.101083
535.108902	5664.179968
535.469748	5534.949989
535.830537	5457.233041
536.191270	5386.470364
536.551947	5283.219972
536.912567	5219.784612
537.273131	5149.591586
537.633638	5037.637641
537.994089	4985.242409
538.354483	4893.556423
538.714821	4851.737532
539.075103	4802.888751
539.435328	4725.675918
539.795497	4654.769568
540.155609	4589.048046
540.515665	4556.918252
540.875665	4471.485818
541.235609	4429.049384
541.595496	4372.207854
541.955328	4342.959080
542.315102	4270.784880
542.674821	4210.822876
543.034483	4164.008200
543.394090	4111.401239
543.753640	4065.985484
544.113134	4059.890729
544.472571	3983.993638
544.831953	3985.384996
545.191278	3920.898556
545.550548	3875.374416
545.909761	3853.193339
546.268918	3823.155624
546.628019	3799.132006
546.987064	3750.986466
547.346053	3702.929146
547.704986	3696.390770
548.063863	3654.357629
548.422684	3633.865338
548.781449	3602.340483
549.140158	3586.168461
549.498811	3559.354564
549.857408	3523.663195
550.215949	3514.720188
550.574434	3495.296622
550.932864	3469.286789
551.291237	3461.929225
551.649555	3439.337294
552.007817	3427.084769
552.366022	3404.702046
552.724173	3390.017165
553.082267	3383.307389
553.440305	3373.139382
553.798288	3346.607789
554.156215	3337.677385
554.514086	3327.993329
554.871902	3308.864671
555.229661	3300.937456
555.587365	3281.702934
555.945014	3274.179012
556.302606	3260.935900
556.660143	3254.274016
557.017625	3246.435021
557.375050	3232.133268
557.732421	3226.313256
558.089735	3221.478789
558.446994	3205.861295
558.804197	3208.187787
559.161345	3198.894420
559.518437	3177.225020
559.875474	3173.519772
560.232455	3165.179183
560.589381	3158.708862
560.946251	3153.876916
561.303065	3155.313645
561.659825	3147.157058
562.016528	3131.073257
562.373177	3121.490023
562.729770	3120.660753
563.086307	3110.084413
563.442789	3108.806480
563.799216	3103.094853
564.155587	3092.626897
564.511904	3086.708582
564.868164	3082.516863
565.224370	3084.004003
565.580520	3071.280131
565.936615	3066.319636
566.292654	3058.127761
566.648638	3056.958213
567.004567	3049.323385
567.360441	3045.479506
567.716260	3040.264432
568.072023	3039.987168
568.427732	3028.347144
568.783385	3020.177954
569.138982	3019.711648
569.494525	3016.039167
569.850013	3007.000378
570.205445	3007.620440
570.560823	2999.768843
570.916145	2994.513440
571.271412	2990.563696
571.626625	2986.286277
571.981782	2980.340236
572.336884	2972.312199
572.691931	2972.899493
573.046923	2966.837506
573.401860	2959.865590
573.756743	2957.569344
574.111570	2955.507512
574.466342	2950.834363
574.821059	2948.341512
575.175722	2938.009667
575.530330	2936.459513
575.884882	2928.991043
576.239380	2926.578851
576.593823	2920.312697
576.948211	2919.130546
577.302544	2912.140986
577.656823	2909.249885
578.011047	2907.694689
578.365216	2902.209913
578.719330	2896.778070
579.073389	2891.280692
579.427394	2889.491082
579.781344	2884.192829
580.135239	2882.090668
580.489080	2880.124618
580.842866	2870.672455
581.196597	2873.961808
581.550273	2868.719008
581.903895	2866.261445
582.257463	2870.148175
582.610975	2862.979654
582.964434	2860.794314
583.317837	2855.841380
583.671186	2850.275946
584.024481	2849.015658
584.377721	2842.686489
584.730906	2841.320337
585.084037	2843.538444
585.437113	2836.019563
585.790135	2831.306084
586.143103	2826.847184
586.496016	2829.957576
586.848874	2818.927531
587.201679	2820.223108
587.554428	2812.437046
587.907124	2812.303455
588.259765	2803.859522
588.612352	2809.505615
588.964884	2801.921199
589.317362	2800.832309
589.669786	2800.527320
590.022155	2797.348872
590.374470	2796.809469
590.726731	2791.445681
591.078937	2784.410751
591.431090	2783.014351
591.783188	2781.978394
592.135232	2774.673762
592.487222	2771.109666
592.839157	2772.228802
593.191038	2767.792587
593.542866	2763.376536
593.894639	2759.235228
594.246358	2758.068201
594.598022	2754.357912
594.949633	2751.325658
595.301190	2749.362129
595.652692	2746.324833
596.004141	2744.091602
596.355535	2736.250087
596.706876	2735.040211
597.058162	2729.333624
597.409395	2732.053327
597.760573	2729.925960
598.111698	2724.305073
598.462768	2725.678788
598.813785	2723.662326
599.164748	2716.564382
599.515657	2719.878940
599.866511	2713.237220
600.217312	2716.292159
600.568060	2706.353525
600.918753	2710.114225
601.269392	2710.537682
601.619978	2702.565097
601.970510	2705.672969
602.320988	2703.515355
602.671412	2705.224306
603.021783	2701.035107
603.372100	2696.757688
603.722363	2696.089735
604.072572	2695.242822
604.422728	2695.235260
604.772830	2687.970957
605.122878	2686.992973
605.472872	2686.085566
605.822813	2682.400482
606.172701	2687.295442
606.522534	2685.354598
606.872314	2687.925587
607.222041	2682.642457
607.571714	2684.903415
607.921333	2679.786644
608.270899	2681.243537
608.620411	2680.847807
608.969870	2678.417971
609.319276	2677.071982
609.668627	2677.709688
610.017926	2677.225738
610.367171	2678.952333
610.716362	2678.924607
611.065500	2677.883608
611.414585	2674.669873
611.763616	2675.133659
612.112594	2675.647857
612.461518	2673.643998
612.810389	2677.097188
613.159207	2673.308761
613.507971	2671.619975
613.856682	2675.158865
614.205340	2673.807835
614.553945	2674.044770
614.902496	2671.640139
615.250994	2672.832372
615.599439	2672.625685
615.947830	2671.209121
616.296169	2670.281548
616.644454	2671.672907
616.992686	2670.780622
617.340864	2671.531754
617.688990	2671.289779
618.037063	2672.562670
618.385082	2672.532423
618.733048	2671.350273
619.080961	2673.195335
619.428821	2673.480160
619.776628	2668.885149
620.124382	2672.237516
620.472083	2667.372802
620.819731	2668.040755
621.167326	2664.332987
621.514868	2667.040086
621.862357	2663.528923
622.209793	2660.504230
622.557176	2658.759991
622.904506	2654.502737
623.251783	2650.842859
623.599007	2650.096768
623.946179	2645.264822
624.293297	2648.591984
624.640363	2645.239617
624.987376	2644.196098
625.334336	2643.339102
625.681243	2642.923206
626.028097	2639.621251
626.374899	2639.396919
626.721647	2637.393061
627.068343	2638.096302
627.414987	2637.940026
627.761577	2634.597741
628.108115	2634.761578
628.454600	2633.995323
628.801032	2632.142699
629.147412	2632.425003
629.493739	2628.795373
629.840014	2628.676906
630.186236	2629.826289
630.532405	2629.513737
630.878521	2627.240177
631.224585	2627.028448
631.570597	2624.023921
631.916556	2622.819085
632.262462	2624.487707
632.608316	2627.232615
632.954117	2623.688684
633.299866	2625.632049
633.645562	2621.533591
633.991206	2619.857407
634.336797	2616.999073
634.682336	2614.123094
635.027823	2615.829525
635.373257	2615.700976
635.718639	2610.942126
636.063968	2607.504059
636.409245	2608.928185
636.754470	2608.023298
637.099642	2607.287290
637.444762	2602.664552
637.789829	2603.738317
638.134845	2601.414346
638.479808	2604.370982
638.824719	2603.488780
639.169577	2597.429313
639.514383	2597.943511
639.859137	2597.217585
640.203839	2598.626587
640.548489	2594.306319
640.893086	2594.102152
641.237632	2588.816502
641.582125	2592.065526
641.926566	2589.512181
642.270955	2593.562748
642.615292	2593.608119
642.959576	2589.779362
643.303809	2590.916143
643.647990	2593.852615
643.992118	2592.219281
644.336195	2589.565113
644.680219	2592.040320
645.024192	2591.412696
645.368112	2595.584251
645.711981	2593.961000
646.055797	2597.814962
646.399562	2597.704056
646.743274	2600.572473
647.086935	2601.058944
647.430544	2602.455344
647.774101	2602.099943
648.117606	2602.941815
648.461059	2604.991044
648.804460	2604.048348
649.147810	2601.273193
649.491108	2598.394694
649.834354	2596.862184
650.177548	2594.444950
650.520690	2590.432192
650.863781	2590.371698
651.206820	2588.720720
651.549807	2586.369022
651.892742	2583.772828
652.235626	2581.345512
652.578458	2580.556572
652.921238	2576.937023
653.263967	2580.052456
653.606644	2579.805440
653.949269	2578.779565
654.291843	2576.747980
654.634365	2578.109091
654.976836	2571.974007
655.319255	2575.112125
655.661622	2573.642629
656.003938	2572.072310
656.346203	2572.699933
656.688416	2573.554409
657.030577	2572.871332
657.372687	2572.210941
657.714746	2572.896538
658.056753	2574.232444
658.398708	2567.094170
658.740612	2569.705488
659.082465	2567.308419
659.424266	2567.515107
659.766016	2567.686506
660.107715	2570.892680
660.449362	2568.664490
660.790958	2573.209090
661.132503	2570.907803
661.473996	2572.543657
661.815438	2570.209603
662.156829	2569.140879
662.498168	2568.392267
662.839456	2568.999726
663.180693	2570.323029
663.521879	2571.500139
663.863013	2571.328739
664.204097	2571.338822
664.545129	2570.703636
664.886110	2570.398647
665.227040	2572.755386
665.567918	2572.072310
665.908746	2572.047104
666.249522	2575.918710
666.590248	2572.362176
666.930922	2575.724626
667.271545	2574.126580
667.612118	2576.095150
667.952639	2572.037022
668.293109	2572.417629
668.633528	2572.934347
668.973896	2573.330077
669.314213	2571.200190
669.654480	2571.631209
669.994695	2572.780592
670.334859	2569.889490
670.674973	2567.895714
671.015035	2572.518452
671.355047	2566.280024
671.695008	2571.162381
672.034918	2569.541650
672.374777	2571.777402
672.714585	2567.893193
673.054342	2572.261353
673.394049	2566.340518
673.733705	2569.413101
674.073310	2567.633574
674.412864	2567.472257
674.752368	2567.447051
675.091820	2565.753223
675.431223	2566.983265
675.770574	2565.443192
676.109875	2558.924980
676.449125	2564.366906
676.788324	2558.650237
677.127473	2560.318859
677.466571	2554.382901
677.805619	2559.177038
678.144616	2557.649568
678.483562	2557.130330
678.822458	2554.745864
679.161303	2557.019424
679.500098	2553.583878
679.838842	2554.274516
680.177535	2554.738302
680.516179	2556.790052
680.854771	2558.367933
681.193314	2561.160732
681.531805	2564.601320
681.870247	2565.838923
682.208638	2573.120870
682.546978	2571.936198
682.885268	2574.552557
683.223508	2568.848492
683.561697	2568.808162
683.899836	2569.193811
684.237925	2567.240364
684.575963	2565.118038
684.913951	2564.417318
685.251889	2564.855898
685.589776	2566.267421
685.927614	2567.142061
686.265401	2566.723645
686.603137	2566.068295
686.940824	2565.879252
687.278460	2570.754048
687.616046	2570.849830
687.953582	2574.325705
688.291068	2574.073648
688.628504	2576.271591
688.965889	2573.879563
689.303224	2576.221179
689.640510	2573.153637
689.977745	2568.578790
690.314930	2565.284396
690.652065	2560.162584
690.989150	2559.885320
691.326185	2553.107489
691.663170	2551.927859
692.000105	2549.124977
692.336990	2545.003834
692.673825	2545.475182
693.010610	2543.972918
693.347345	2538.440252
693.684030	2532.108563
694.020665	2534.230888
694.357251	2525.484486
694.693786	2535.511341
695.030272	2528.604961
695.366707	2530.359282
695.703093	2526.901051
696.039429	2527.657224
696.375716	2527.601771
696.711952	2527.064888
697.048139	2525.791997
697.384276	2526.971627
697.720363	2524.229239
698.056400	2524.766122
698.392388	2523.775535
698.728326	2525.121523
699.064214	2522.374094
699.400053	2521.789321
699.735842	2521.612880
700.071581	2519.835873
700.407270	2517.900070
700.742910	2517.305214
701.078501	2517.146418
701.414042	2514.761952
701.749533	2517.234638
702.084974	2513.942765
702.420366	2512.228772
702.755709	2513.211797
703.091002	2510.378669
703.426246	2509.733401
703.761440	2509.415808
704.096584	2508.596621
704.431679	2508.074862
704.766725	2508.402537
705.101721	2506.111332
705.436668	2510.698782
705.771565	2506.779285
706.106413	2510.323216
706.441212	2507.669049
706.775961	2510.192146
707.110661	2508.241220
707.445311	2510.552589
707.779913	2509.478823
708.114465	2513.743639
708.448967	2512.493433
708.783421	2517.353105
709.117825	2515.979391
709.452180	2518.598270
709.786485	2520.589526
710.120742	2525.376102
710.454949	2524.524147
710.789107	2525.345855
711.123216	2525.849970
711.457275	2530.369364
711.791286	2529.172090
712.125247	2535.176105
712.459159	2534.097298
712.793023	2537.028729
713.126837	2528.536905
713.460602	2533.152081
713.794318	2530.507996
714.127985	2528.783922
714.461602	2524.851822
714.795171	2524.322500
715.128691	2520.604649
715.462162	2521.244876
715.795584	2517.884947
716.128957	2513.247085
716.462281	2514.030985
716.795556	2512.989987
717.128782	2510.035870
717.461960	2507.676610
717.795088	2507.638802
718.128167	2507.810201
718.461198	2502.932885
718.794180	2502.879952
719.127113	2499.948522
719.459997	2499.756958
719.792833	2498.388284
720.125619	2496.966679
720.458357	2496.076915
720.791046	2494.632625
721.123686	2493.130361
721.456278	2493.405104
721.788821	2491.310504
722.121315	2492.890906
722.453761	2493.851246
722.786158	2493.508448
723.118506	2490.970227
723.450805	2491.693632
723.783056	2492.285968
724.115259	2494.347800
724.447412	2490.869403
724.779518	2492.384270
725.111574	2494.168839
725.443582	2494.496514
725.775542	2495.240084
726.107453	2496.001298
726.439315	2497.032214
726.771129	2503.134531
727.102895	2499.983810
727.434612	2501.972545
727.766281	2503.563029
728.097901	2503.361383
728.429473	2501.249139
728.760996	2504.843482
729.092471	2498.284941
729.423897	2507.411950
729.755276	2502.411125
730.086606	2503.774757
730.417887	2507.696775
730.749120	2510.454286
731.080305	2509.836745
731.411442	2514.179699
731.742530	2514.262878
732.073570	2519.178003
732.404562	2514.247754
732.735506	2513.753721
733.066401	2516.067611
733.397249	2510.603000
733.728048	2508.150479
734.058798	2504.687206
734.389501	2500.775271
734.720156	2498.632780
735.050762	2495.235043
735.381320	2494.221771
735.711831	2491.633138
736.042293	2491.413848
736.372707	2491.111379
736.703073	2488.517705
737.033391	2490.120792
737.363661	2489.896461
737.693883	2490.014928
738.024056	2495.403921
738.354182	2493.432830
738.684260	2496.369302
739.014290	2496.840650
739.344272	2497.216216
739.674207	2496.991885
740.004093	2499.136896
740.333931	2501.329798
740.663722	2503.356342
740.993464	2501.972545
741.323159	2502.038080
741.652806	2495.908037
741.982405	2499.373830
742.311956	2494.403252
742.641460	2495.098932
742.970915	2492.812768
743.300323	2491.862511
743.629683	2491.640700
743.958996	2491.570124
744.288260	2488.028713
744.617477	2484.633496
744.946647	2480.948413
745.275768	2483.670636
745.604842	2481.394555
745.933869	2479.105871
746.262847	2478.458083
746.591778	2480.275419
746.920662	2479.463793
747.249498	2480.593011
747.578286	2482.874133
747.907027	2484.762046
748.235720	2486.027375
748.564365	2486.400421
748.892963	2483.108547
749.221514	2485.190544
749.550017	2483.088382
749.878473	2483.108547
750.206881	2484.394041
750.535242	2481.376911
750.863555	2481.145018
751.191821	2484.242807
751.520039	2482.609473
751.848210	2482.390183
752.176334	2482.158290
752.504411	2482.226345
752.832440	2480.542600
753.160421	2481.036633
753.488356	2482.264154
753.816243	2480.792137
754.144082	2477.964050
754.471875	2477.084368
754.799620	2477.906076
755.127318	2477.747280
755.454969	2478.377424
755.782572	2479.362970
756.110129	2476.577732
756.437638	2478.372383
756.765100	2477.575881
757.092515	2477.616210
757.419882	2477.540593
757.747203	2478.339616
758.074477	2477.104533
758.401703	2480.988742
758.728882	2477.517907
759.056014	2476.219810
759.383099	2482.029740
759.710138	2480.625779
760.037129	2481.631489
760.364073	2480.461941
760.690970	2481.182826
761.017820	2478.904225
761.344623	2482.201139
761.671379	2485.190544
761.998088	2486.062663
762.324751	2501.153357
762.651366	2516.627179
762.977935	2540.413863
763.304456	2553.853580
763.630931	2561.919426
763.957359	2556.054043
764.283740	2544.517363
764.610074	2531.803573
764.936362	2518.366377
765.262602	2506.393637
765.588796	2500.739983
765.914943	2491.292860
766.241044	2485.054432
766.567097	2480.643423
766.893104	2476.086220
767.219064	2469.941053
767.544978	2473.885756
767.870845	2467.939715
768.196665	2468.214458
768.522438	2466.576083
768.848165	2465.542647
769.173846	2462.845629
769.499479	2465.661114
769.825066	2462.432255
770.150607	2460.488890
770.476101	2460.042748
770.801548	2459.314301
771.126949	2460.246914
771.452303	2457.910340
771.777611	2457.547377
772.102872	2458.248097
772.428087	2456.012345
772.753256	2456.584516
773.078378	2453.360698
773.403453	2455.500668
773.728482	2450.562858
774.053465	2451.651747
774.378401	2453.418672
774.703291	2452.186109
775.028135	2451.699638
775.352932	2448.470779
775.677683	2450.051181
776.002388	2449.317693
776.327046	2448.927003
776.651658	2450.951027
776.976224	2449.012703
777.300743	2446.136725
777.625216	2449.075718
777.949643	2446.661005
778.274024	2449.784000
778.598359	2444.400047
778.922647	2441.917279
779.246889	2444.795778
779.571086	2440.641867
779.895236	2448.584205
780.219339	2447.507919
780.543397	2448.758125
780.867409	2446.545058
781.191374	2448.992538
781.515294	2446.376180
781.839167	2449.930193
782.162995	2447.976746
782.486776	2447.502878
782.810511	2448.687549
783.134201	2445.118412
783.457844	2446.464400
783.781441	2447.699483
784.104993	2450.053701
784.428498	2444.049687
784.751958	2444.737805
785.075372	2445.274687
785.398739	2444.160593
785.722061	2448.884154
786.045337	2443.154882
786.368568	2447.991869
786.691752	2442.280242
787.014891	2448.546396
787.337983	2452.228959
787.661030	2452.586881
787.984031	2460.251956
788.306987	2462.157512
788.629897	2462.500310
788.952760	2459.667182
789.275579	2459.818416
789.598351	2457.217181
789.921078	2457.786831
790.243759	2451.371963
790.566395	2453.579988
790.888984	2449.688218
791.211529	2447.248299
791.534027	2448.337188
791.856480	2446.076231
792.178888	2443.487598
792.501249	2444.193360
792.823566	2446.419029
793.145836	2445.249482
793.468062	2445.665377
793.790241	2445.161262
794.112375	2447.064297
794.434464	2446.025819
794.756507	2444.029522
795.078505	2447.722168
795.400457	2444.110181
795.722364	2445.940120
796.044226	2450.046140
796.366042	2449.179061
796.687812	2452.057560
797.009538	2453.746347
797.331218	2451.177879
797.652852	2451.293825
797.974442	2453.562344
798.295986	2451.276181
798.617484	2448.569082
798.938938	2450.588064
799.260346	2447.460028
799.581709	2447.364246
799.903026	2446.189657
800.224299	2446.887857
800.545526	2446.976077
800.866708	2445.899791
801.187845	2443.074224
801.508936	2442.557506
801.829983	2443.853082
802.150984	2443.217897
802.471940	2444.213525
802.792851	2442.736467
803.113717	2442.071034
803.434538	2441.791250
803.755314	2441.408122
804.076045	2442.333174
804.396731	2440.606579
804.717372	2441.055242
805.037967	2440.162958
805.358518	2441.972732
805.679024	2440.939295
805.999485	2440.452824
806.319901	2441.022474
806.640272	2442.973401
806.960598	2443.046497
807.280879	2442.365942
807.601115	2443.144800
807.921306	2443.399378
808.241453	2447.094544
808.561554	2441.241764
808.881611	2444.284101
809.201623	2444.901642
809.521590	2444.286621
809.841513	2443.606066
810.161390	2441.529110
810.481223	2439.568101
810.801011	2440.808225
811.120755	2443.462393
811.440453	2443.371652
811.760107	2438.214552
812.079716	2441.090530
812.399281	2435.149530
812.718801	2437.554160
813.038276	2438.116249
813.357707	2439.240426
813.677093	2437.289500
813.996434	2437.511311
814.315731	2439.865529
814.634983	2440.220931
814.954191	2438.043152
815.273354	2442.963318
815.592473	2442.310489
815.911547	2444.412650
816.230577	2442.509615
816.549562	2445.725871
816.868502	2445.365428
817.187399	2445.972887
817.506250	2450.217539
817.825058	2446.592949
818.143821	2451.253496
818.462539	2450.204936
818.781213	2455.800617
819.099843	2459.974692
819.418429	2468.249746
819.736970	2474.082361
820.055466	2482.435553
820.373919	2492.308653
820.692327	2510.512259
821.010691	2541.185160
821.329011	2612.381376
821.647286	2719.528580
821.965517	2831.492607
822.283704	2899.396949
822.601847	2922.581216
822.919945	2875.038094
823.237999	2819.391317
823.556010	2764.137751
823.873976	2710.507435
824.191897	2666.851043
824.509775	2630.297637
824.827609	2597.910744
825.145398	2575.149934
825.463144	2563.787173
825.780845	2568.833368
826.098502	2581.685790
826.416116	2609.127311
826.733685	2634.791825
827.051210	2642.348515
827.368692	2628.722276
827.686129	2601.500045
828.003522	2568.956877
828.320872	2541.424615
828.638177	2521.242355
828.955439	2503.696619
829.272656	2490.322438
829.589830	2478.306848
829.906960	2473.507670
830.224046	2465.383850
830.541088	2461.570217
830.858086	2459.828499
831.175041	2456.196347
831.491952	2452.982612
831.808819	2453.154011
832.125642	2458.442181
832.442421	2466.840744
832.759157	2480.207363
833.075849	2501.533964
833.392497	2523.798220
833.709101	2537.227854
834.025662	2536.963194
834.342179	2522.658920
834.658653	2510.787002
834.975083	2497.007008
835.291469	2492.210350
835.607811	2474.533544
835.924110	2465.484673
836.240366	2458.409414
836.556578	2453.716100
836.872746	2450.431788
837.188871	2445.196550
837.504952	2442.686055
837.820990	2439.139603
838.136984	2440.964501
838.452935	2439.225303
838.768842	2438.325457
839.084706	2441.685386
839.400526	2450.227621
839.716303	2464.305043
840.032037	2469.731845
840.347727	2469.895683
840.663373	2461.998715
840.978977	2455.248610
841.294537	2448.710234
841.610054	2445.287290
841.925527	2441.445931
842.240957	2437.851588
842.556344	2434.421083
842.871687	2432.785229
843.186987	2430.088212
843.502244	2426.380443
843.817458	2425.899013
844.132629	2426.680392
844.447756	2423.917839
844.762840	2421.286357
845.077881	2423.063364
845.392879	2418.682601
845.707833	2422.629824
846.022745	2417.339133
846.337613	2419.655544
846.652438	2420.840215
846.967221	2421.147725
847.281960	2420.310894
847.596656	2423.189392
847.911309	2420.696542
848.225919	2421.213260
848.540485	2416.799730
848.855009	2421.780390
849.169490	2420.736871
849.483928	2421.505647
849.798323	2418.538928
850.112675	2422.082859
850.426984	2420.031110
850.741251	2417.843249
851.055474	2418.826274
851.369654	2419.993301
851.683792	2418.806109
851.997887	2421.636717
852.311938	2421.082190
852.625947	2420.764597
852.939914	2417.170255
853.253837	2418.861562
853.567718	2418.594381
853.881555	2418.198650
854.195350	2419.416089
854.509103	2418.276788
854.822812	2417.407189
855.136479	2421.402303
855.450103	2420.210071
855.763685	2416.708989
856.077224	2418.662436
856.390720	2419.040523
856.704173	2417.061870
857.017584	2418.695204
857.330953	2420.255441
857.644278	2419.955492
857.957561	2418.917015
858.270802	2420.588157
858.584000	2422.254258
858.897155	2421.167890
859.210268	2418.060018
859.523339	2419.358116
859.836367	2418.241500
860.149352	2419.579926
860.462295	2420.895667
860.775195	2415.655388
861.088054	2415.857034
861.400869	2419.602612
861.713642	2413.669173
862.026373	2419.653023
862.339062	2420.588157
862.651708	2420.406676
862.964312	2419.116140
863.276873	2422.758374
863.589392	2419.668147
863.901869	2420.507499
864.214303	2420.439443
864.526696	2422.183682
864.839045	2422.017324
865.151353	2423.328024
865.463619	2423.353230
865.775842	2424.051430
866.088023	2420.305853
866.400162	2422.418096
866.712258	2422.493713
867.024313	2423.068405
867.336325	2421.740061
867.648296	2421.704773
867.960224	2421.304001
868.272110	2425.347006
868.583954	2421.528332
868.895755	2424.875658
869.207515	2422.750812
869.519233	2423.552356
869.830909	2422.655030
870.142542	2425.684764
870.454134	2421.359454
870.765684	2425.208375
871.077191	2424.008580
871.388657	2426.282140
871.700081	2424.772315
872.011463	2428.313725
872.322803	2428.772470
872.634101	2424.696698
872.945357	2426.435896
873.256571	2427.262645
873.567744	2426.756009
873.878874	2430.289858
874.189963	2429.798345
874.501010	2429.626946
874.812015	2429.851277
875.122979	2429.032090
875.433900	2426.388005
875.744780	2432.707091
876.055618	2430.451175
876.366415	2431.613161
876.677169	2431.018304
876.987882	2427.184507
877.298554	2427.441606
877.609183	2430.791452
877.919771	2428.830444
878.230317	2436.583738
878.540822	2438.378389
878.851285	2443.739656
879.161707	2449.315172
879.472087	2457.774228
879.782425	2469.169757
880.092722	2495.227481
880.402977	2531.821217
880.713191	2580.866603
881.023363	2624.112141
881.333494	2651.099958
881.643583	2659.052378
881.953631	2655.316883
882.263637	2642.514873
882.573602	2626.448716
882.883526	2609.092023
883.193408	2589.900350
883.503248	2569.128276
883.813048	2555.764177
884.122806	2534.871115
884.432522	2521.564989
884.742197	2505.284583
885.051831	2493.594147
885.361424	2484.169710
885.670975	2473.837865
885.980485	2466.840744
886.289954	2463.226236
886.599382	2453.678291
886.908768	2453.285081
887.218113	2445.491457
887.527417	2445.952723
887.836680	2443.021292
888.145901	2440.518359
888.455082	2436.765220
888.764221	2432.956628
889.073319	2434.247163
889.382376	2433.659869
889.691392	2433.599375
890.000366	2428.616195
890.309300	2432.449992
890.618193	2432.374375
890.927044	2430.249528
891.235855	2434.146340
891.544625	2434.310178
891.853353	2433.102822
892.162041	2436.530806
892.470687	2435.719180
892.779293	2440.180602
893.087858	2441.483740
893.396381	2444.601693
893.704864	2459.654579
894.013306	2467.075157
894.321707	2484.494864
894.630068	2494.902327
894.938387	2497.566576
895.246665	2493.311843
895.554903	2485.654330
895.863100	2478.437918
896.171256	2474.944398
896.479371	2467.304530
896.787446	2461.212295
897.095480	2457.471759
897.403473	2453.413630
897.711425	2451.896243
898.019336	2448.198557
898.327207	2442.696137
898.635038	2442.686055
898.942827	2440.730087
899.250576	2437.597010
899.558284	2435.315888
899.865952	2433.639704
900.173579	2430.370516
900.481165	2432.397060
900.788711	2429.153077
901.096216	2427.872624
901.403681	2428.132244
901.711105	2428.442275
902.018489	2428.414548
902.325832	2430.811617
902.633135	2430.499066
902.940397	2437.576846
903.247619	2446.703855
903.554800	2466.248408
903.861941	2486.120637
904.169041	2506.403719
904.476101	2513.146262
904.783121	2509.806498
905.090100	2497.790908
905.397039	2488.646255
905.703938	2477.618731
906.010796	2469.527679
906.317614	2464.957873
906.624391	2459.727676
906.931129	2453.007817
907.237826	2447.102106
907.544483	2442.837290
907.851099	2440.878801
908.157675	2435.028542
908.464211	2425.641914
908.770707	2424.424475
909.077163	2420.351223
909.383578	2418.312076
909.689954	2416.731674
909.996289	2416.807292
910.302584	2420.683939
910.608839	2419.690832
910.915054	2416.958526
911.221229	2415.378125
911.527363	2420.820050
911.833458	2415.884761
912.139513	2420.303332
912.445527	2420.474731
912.751502	2421.046902
913.057436	2419.164031
913.363331	2423.469177
913.669186	2427.955803
913.975000	2428.953952
914.280775	2435.368820
914.586510	2446.345933
914.892205	2455.369598
915.197859	2468.214458
915.503475	2484.265492
915.809050	2498.438696
916.114585	2505.665190
916.420081	2510.081241
916.725536	2506.617968
917.030952	2503.273162
917.336328	2494.902327
917.641665	2493.480721
917.946961	2482.801037
918.252218	2479.516725
918.557435	2472.932978
918.862612	2470.427525
919.167750	2463.518623
919.472848	2455.208281
919.777906	2452.012190
920.082925	2445.700665
920.387904	2442.315530
920.692843	2439.096753
920.997743	2432.722214
921.302603	2431.666093
921.607423	2432.069385
921.912204	2428.316246
922.216946	2427.330700
922.521647	2426.894641
922.826310	2424.795000
923.130932	2423.625452
923.435516	2418.929617
923.740059	2419.600091
924.044564	2417.979360
924.349028	2418.831315
924.653454	2415.857034
924.957840	2412.877712
925.262186	2412.232445
925.566493	2412.582805
925.870761	2412.229924
926.174989	2413.497774
926.479178	2411.990469
926.783328	2412.376118
927.087438	2412.537434
927.391509	2412.383679
927.695541	2410.278997
927.999533	2412.895356
928.303486	2410.977197
928.607400	2411.481313
928.911275	2412.151786
929.215110	2408.726322
929.518906	2414.291756
929.822663	2411.314955
930.126381	2405.346228
930.430060	2411.251940
930.733699	2408.582649
931.037299	2410.581467
931.340861	2410.077351
931.644383	2413.205387
931.947866	2408.653225
932.251309	2410.873854
932.554714	2410.425191
932.858080	2410.004255
933.161407	2412.224883
933.464694	2408.527197
933.767943	2411.463669
934.071153	2412.328227
934.374323	2408.890160
934.677455	2414.112795
934.980548	2410.236148
935.283602	2410.687331
935.586617	2407.556774
935.889593	2408.640623
936.192530	2407.934861
936.495428	2409.580798
936.798287	2408.191960
937.101108	2413.966602
937.403890	2410.941909
937.706632	2412.779410
938.009336	2412.479461
938.312002	2412.378638
938.614628	2415.178999
938.917216	2417.404668
939.219765	2415.032806
939.522275	2420.837694
939.824747	2414.732857
940.127179	2414.478279
940.429573	2415.209246
940.731929	2415.723444
941.034246	2412.474420
941.336524	2416.056160
941.638763	2415.766293
941.940964	2417.034144
942.243126	2415.143711
942.545250	2414.629513
942.847335	2416.492220
943.149381	2413.434760
943.451389	2414.833680
943.753359	2412.391241
944.055290	2411.335119
944.357182	2411.657753
944.659036	2415.322672
944.960851	2414.536252
945.262628	2412.035840
945.564367	2413.764955
945.866067	2410.581467
946.167729	2412.986097
946.469352	2409.787485
946.770937	2412.892836
947.072484	2410.460479
947.373992	2412.608011
947.675462	2409.079203
947.976893	2410.785633
948.278286	2410.430232
948.579641	2408.907804
948.880958	2411.249420
949.182236	2410.878895
949.483476	2409.739594
949.784678	2415.650347
950.085841	2410.974677
950.386967	2410.581467
950.688054	2410.722619
950.989103	2412.076169
951.290114	2413.424678
951.591087	2414.934503
951.892021	2413.538103
952.192917	2411.597259
952.493776	2411.438463
952.794596	2416.252765
953.095378	2414.042219
953.396122	2416.247724
953.696828	2413.492733
953.997496	2415.541962
954.298126	2413.308731
954.598718	2412.199677
954.899272	2412.600449
955.199788	2413.265881
955.500266	2409.399316
955.800706	2408.159192
956.101108	2406.203225
956.401472	2407.428225
956.701798	2404.413615
957.002087	2407.493760
957.302337	2408.635581
957.602550	2408.151631
957.902724	2406.540982
958.202861	2405.898235
958.502960	2405.376475
958.803022	2406.740108
959.103045	2406.064593
959.403031	2407.047618
959.702979	2407.685324
960.002889	2406.253636
960.302762	2402.737431
960.602596	2404.678276
960.902393	2404.892525
961.202153	2405.318502
961.501875	2406.286404
961.801559	2403.407905
962.101205	2403.720456
962.400814	2404.655590
962.700385	2403.838923
962.999918	2404.146434
963.299414	2398.777605
963.598873	2404.736249
963.898293	2400.544529
964.197677	2404.053172
964.497022	2400.279869
964.796331	2402.699623
965.095601	2403.508728
965.394835	2406.125087
965.694030	2404.529562
965.993189	2403.927144
966.292309	2401.749365
966.591393	2399.763151
966.890439	2404.912689
967.189447	2402.823131
967.488419	2403.571742
967.787353	2402.684499
968.086249	2402.008985
968.385108	2405.298337
968.683930	2402.598800
968.982714	2404.209448
969.281462	2404.642988
969.580172	2404.925292
969.878844	2403.687689
970.177480	2404.025446
970.476078	2403.443193
970.774639	2404.421177
971.073162	2405.678945
971.371649	2402.364386
971.670098	2399.483367
971.968510	2398.583521
972.266885	2398.802811
972.565223	2404.912689
972.863524	2404.559808
973.161788	2403.654921
973.460014	2403.801115
973.758204	2402.649211
974.056356	2402.339180
974.354471	2404.464027
974.652550	2401.537637
974.950591	2406.377144
975.248595	2404.327915
975.546563	2404.310271
975.844493	2404.766496
976.142386	2403.120559
976.440243	2402.611403
976.738062	2405.666342
977.035845	2406.409912
977.333590	2401.703995
977.631299	2406.515776
977.928971	2403.854047
978.226606	2403.231464
978.524204	2403.216341
978.821765	2406.397309
979.119290	2404.670714
979.416777	2403.619633
979.714228	2403.634757
980.011642	2404.612741
980.309020	2405.618451
980.606360	2402.119890
980.903664	2403.821279
981.200931	2403.196176
981.498162	2410.120201
981.795356	2406.384706
982.092513	2409.117012
982.389633	2410.571384
982.686717	2412.865109
982.983764	2416.083886
983.280775	2413.878381
983.577749	2415.955337
983.874686	2414.591705
984.171587	2415.894843
984.468451	2412.323185
984.765279	2412.993659
985.062070	2414.231262
985.358824	2407.904614
985.655543	2410.042063
985.952224	2410.503329
986.248869	2405.573080
986.545478	2405.066444
986.842050	2402.979407
987.138586	2396.919940
987.435086	2401.252812
987.731549	2397.872718
988.027975	2403.481002
988.324366	2401.719118
988.620719	2400.509241
988.917037	2402.712226
989.213318	2404.380848
989.509563	2402.674417
989.805772	2400.148799
990.101944	2400.879766
990.398080	2400.899931
990.694180	2400.567215
990.990244	2401.456978
991.286271	2401.661145
991.582262	2404.232133
991.878217	2402.485374
992.174136	2401.830024
992.470019	2400.126114
992.765865	2402.404715
993.061676	2400.426062
993.357450	2405.111815
993.653188	2402.404715
993.948890	2405.056362
994.244556	2401.424211
994.540186	2404.088461
994.835780	2404.330436
995.131337	2404.746331
995.426859	2406.341856
995.722345	2409.384193
996.017795	2407.032494
996.313208	2408.333112
996.608586	2407.622309
996.903928	2408.678431
997.199234	2406.586352
997.494504	2407.818914
997.789738	2405.129459
998.084936	2408.063410
998.380099	2405.537792
998.675225	2407.380334
998.970316	2406.906466
999.265371	2406.868657
999.560390	2404.748852
999.855373	2404.161557
1000.150320	2404.136352
1000.445232	2402.238357
1000.740108	2400.509241
1001.034948	2403.148285
1001.329752	2400.148799
1001.624521	2403.344890
1001.919254	2395.818448
1002.213951	2398.064282
1002.508613	2401.094015
1002.803239	2399.145609
1003.097829	2396.672923
1003.392384	2399.314488
1003.686903	2402.198028
1003.981386	2398.606206
1004.275834	2399.695095
1004.570246	2402.850857
1004.864623	2400.388254
1005.158964	2397.166956
1005.453270	2402.011505
1005.747540	2397.950856
1006.041775	2400.153840
1006.335974	2400.932698
1006.630138	2399.785836
1006.924266	2399.679972
1007.218359	2397.343397
1007.512416	2399.594272
1007.806438	2401.179715
1008.100425	2399.798439
1008.394376	2402.296330
1008.688292	2400.206772
1008.982172	2402.964283
1009.276017	2401.272976
1009.569827	2400.531927
1009.863602	2398.414642
1010.157341	2400.998233
1010.451045	2399.006978
1010.744714	2398.129817
1011.038347	2400.736093
1011.331945	2401.880435
1011.625508	2397.585372
1011.919036	2399.611916
1012.212528	2396.940104
1012.505986	2398.129817
1012.799408	2399.417832
1013.092795	2398.621329
1013.386147	2399.054868
1013.679464	2398.409601
1013.972745	2397.139230
1014.265992	2399.485887
1014.559204	2401.746845
1014.852380	2398.177708
1015.145521	2398.228119
1015.438628	2395.722666
1015.731699	2400.466392
1016.024736	2399.259035
1016.317737	2399.495969
1016.610703	2402.263563
1016.903635	2395.326935
1017.196531	2396.123438
1017.489393	2398.908675
1017.782219	2397.406411
1018.075011	2400.098387
1018.367768	2399.024622
1018.660490	2398.248284
1018.953177	2398.248284
1019.245829	2398.248284
