Dividing Wavelength (nm)	Counts (n)	Blue Motor Position (mm): 0.000000	Red Motor Position (mm): 20.000000	
326.493990	1982.111116
326.888308	1982.111116
327.282561	1982.111116
327.676750	1962.143106
328.070874	1958.369802
328.464933	1966.639815
328.858929	1975.774386
329.252859	1987.542959
329.646726	2002.978972
330.040528	2017.106806
330.434265	2036.908458
330.827938	2057.594833
331.221547	2076.731053
331.615091	2098.294589
332.008571	2118.441560
332.401986	2138.550723
332.795338	2159.327838
333.188625	2179.144614
333.581847	2197.880063
333.975006	2213.104347
334.368100	2231.922974
334.761129	2249.360326
335.154095	2266.651483
335.546996	2279.995418
335.939833	2301.127934
336.332606	2313.037660
336.725315	2325.847232
337.117960	2333.290496
337.510540	2339.770899
337.903056	2349.898577
338.295508	2352.734226
338.687896	2362.849302
339.080220	2370.564788
339.472480	2375.381610
339.864676	2378.933103
340.256807	2380.790768
340.648875	2381.446118
341.040879	2384.400234
341.432818	2386.598177
341.824694	2385.542056
342.216506	2387.152704
342.608253	2388.672612
342.999937	2386.751933
343.391557	2383.749925
343.783113	2385.600029
344.174605	2381.728423
344.566033	2382.161962
344.957397	2380.415202
345.348697	2377.662732
345.739934	2375.608462
346.131106	2375.179964
346.522215	2372.482947
346.913260	2370.421115
347.304241	2371.878008
347.695159	2364.873325
348.086012	2367.041021
348.476802	2365.044724
348.867528	2363.139168
349.258191	2362.582120
349.648789	2361.198324
350.039324	2363.398787
350.429796	2361.389888
350.820203	2358.997860
351.210548	2361.243694
351.600828	2358.443333
351.991045	2357.258662
352.381198	2356.409228
352.771288	2359.368385
353.161314	2355.458970
353.551276	2355.375791
353.941175	2357.931656
354.331010	2357.561131
354.720782	2358.410566
355.110490	2357.543487
355.500135	2358.977695
355.889717	2359.960720
356.279235	2360.114476
356.668689	2360.386698
357.058080	2359.181862
357.447408	2360.797552
357.836672	2358.511389
358.225873	2363.660927
358.615010	2357.840915
359.004084	2360.472398
359.393095	2363.260156
359.782043	2366.128572
360.170927	2364.626308
360.559748	2365.374920
360.948505	2368.092102
361.337199	2366.844416
361.725830	2367.310723
362.114398	2369.790970
362.502903	2366.892307
362.891344	2373.541589
363.279722	2372.452700
363.668037	2372.301465
364.056289	2371.409181
364.444478	2373.655015
364.832603	2375.835314
365.220665	2375.802546
365.608665	2373.191229
365.996601	2374.224665
366.384474	2378.744060
366.772284	2380.329503
367.160031	2378.197094
367.547715	2379.369163
367.935336	2378.943185
368.322893	2380.180788
368.710388	2382.867723
369.097820	2386.010883
369.485189	2383.777652
369.872495	2385.821840
370.259738	2385.978115
370.646918	2388.952396
371.034035	2390.890720
371.421090	2393.005484
371.808081	2397.739127
372.195010	2402.573594
372.581875	2408.875036
372.968678	2413.893505
373.355418	2419.748805
373.742096	2426.214085
374.128710	2442.171857
374.515262	2451.913887
374.901751	2465.131793
375.288177	2482.788434
375.674540	2501.360045
376.060841	2520.284536
376.447079	2542.813453
376.833254	2571.686661
377.219367	2597.333532
377.605417	2631.663789
377.991404	2656.125988
378.377329	2698.388502
378.763191	2729.731876
379.148991	2777.370779
379.534727	2823.164621
379.920402	2869.550798
380.306013	2920.612645
380.691563	2982.202943
381.077049	3037.179246
381.462474	3090.164293
381.847835	3165.118689
382.233134	3235.853639
382.618371	3297.995943
383.003545	3379.939899
383.388657	3456.542752
383.773706	3551.442473
384.158693	3622.928555
384.543618	3714.677555
384.928480	3795.625883
385.313280	3895.362591
385.698017	4002.252697
386.082692	4120.618989
386.467305	4182.312630
386.851856	4306.098163
387.236344	4459.921411
387.620770	4523.785268
388.005133	4636.437412
388.389435	4787.611534
388.773674	4865.537690
389.157851	5002.513402
389.541965	5129.454697
389.926018	5156.790354
390.310008	5332.378783
390.693936	5452.711126
391.077802	5571.211008
391.461606	5697.958219
391.845348	5813.980375
392.229027	5927.663435
392.612645	6152.995450
392.996200	6267.568274
393.379694	6444.570748
393.763125	6662.278018
394.146494	6753.540546
394.529801	6890.697740
394.913047	7126.903524
395.296230	7120.312215
395.679351	7174.466810
396.062410	7430.393588
396.445408	7321.245046
396.828343	7477.513253
397.211217	7607.028057
397.594028	7491.328535
397.976778	7696.296809
398.359466	7855.413269
398.742092	7827.114752
399.124656	7977.144531
399.507158	8160.763519
399.889598	8178.349584
400.271977	8382.304587
400.654294	8412.654853
401.036549	8610.505018
401.418742	8637.180284
401.800874	8934.973844
402.182944	9015.176082
402.564952	9373.279486
402.946898	9199.026962
403.328783	9251.780117
403.710606	9446.408984
404.092367	9704.153098
404.474067	10051.438187
404.855705	9850.407054
405.237282	9801.341503
405.618797	10220.629392
406.000250	10469.115427
406.381642	10819.226082
406.762972	10770.427713
407.144240	10577.646428
407.525447	10823.997534
407.906593	10758.137380
408.287677	11015.513489
408.668700	11160.728967
409.049661	11143.173149
409.430560	11298.281891
409.811399	11268.602098
410.192176	11430.816346
410.572891	11498.783703
410.953545	11967.764766
411.334138	11455.792743
411.714669	12046.595809
412.095139	11368.167407
412.475547	11858.661594
412.855894	11702.630320
413.236180	12016.638752
413.616405	11712.309336
413.996568	11982.827733
414.376670	11956.706995
414.756711	11830.524393
415.136691	12104.012031
415.516609	12269.276177
415.896466	12343.489524
416.276262	12621.698202
416.655997	13062.705902
417.035670	13098.775357
417.415283	13718.786869
417.794834	13798.328715
418.174324	13552.695973
418.553753	13437.256071
418.933121	13912.909101
419.312428	13714.136405
419.691674	13621.492600
420.070859	14046.625707
420.449983	13707.343450
420.829045	14221.563827
421.208047	13953.049288
421.586988	14377.590059
421.965867	14604.230254
422.344686	14581.335854
422.723444	15099.916829
423.102141	13804.811639
423.480777	14914.162913
423.859352	14414.521552
424.237866	15413.758903
424.616319	15091.324183
424.994712	15666.986143
425.373044	15422.527990
425.751314	15992.211143
426.129524	15121.412309
426.507673	16068.652679
426.885762	15721.178547
427.263789	15825.467417
427.641756	15890.717592
428.019662	15860.163159
428.397508	15814.155068
428.775292	15977.405274
429.153016	15842.887124
429.530679	15803.556042
429.908282	15719.719133
430.285824	15371.438417
430.663305	15842.211610
431.040726	15398.204423
431.418086	15133.833713
431.795385	15532.833478
432.172624	15733.163890
432.549802	15249.235806
432.926920	15251.174130
433.303977	15019.225600
433.680974	15073.990175
434.057910	15135.981244
434.434786	15002.015101
434.811601	14780.058138
435.188355	15380.908224
435.565050	14960.876765
435.941683	14759.008801
436.318257	15205.642428
436.694770	14889.022679
437.071222	15105.520072
437.447614	14287.124033
437.823946	14109.365387
438.200218	14004.645498
438.576429	13683.813864
438.952580	13667.672090
439.328670	13451.436837
439.704700	13512.676773
440.080670	13049.246021
440.456580	13196.087271
440.832429	13094.644132
441.208218	12301.237093
441.583947	12345.211078
441.959616	12200.469468
442.335224	12125.232768
442.710773	11987.737817
443.086261	12056.960421
443.461689	11536.778879
443.837057	11387.414532
444.212365	11492.114256
444.587612	11283.700353
444.962800	10885.068593
445.337927	10864.863648
445.712995	10126.074990
446.088002	10696.262258
446.462949	10569.875489
446.837837	10428.957595
447.212664	10199.320435
447.587431	11035.002590
447.962139	11899.134497
448.336786	12548.125082
448.711374	11758.254412
449.085901	10244.607640
449.460369	9959.134660
449.834776	9696.241007
450.209124	10232.972657
450.583412	9901.277337
450.957640	9830.839815
451.331808	9240.009023
451.705917	8627.541598
452.079965	8428.403418
452.453954	8314.904360
452.827883	8092.914629
453.201752	7854.475614
453.575562	7705.338119
453.949311	7769.713653
454.323001	7593.565656
454.696632	7362.665686
455.070202	7497.380440
455.443713	7350.042637
455.817164	7273.482633
456.190556	7186.255548
456.563888	6921.388284
456.937160	6809.441901
457.310373	6387.630915
457.683526	6284.009998
458.056619	6119.537312
458.429653	5954.016067
458.802628	5885.799173
459.175542	5756.312095
459.548398	5777.069046
459.921194	5833.555175
460.293930	5792.298372
460.666607	5890.031222
461.039224	5940.432678
461.411782	5819.838196
461.784280	5542.466349
462.156719	5331.698228
462.529099	5132.292867
462.901419	4884.832707
463.273680	4675.705480
463.645882	4562.960075
464.018024	4450.451603
464.390106	4406.775046
464.762130	4493.240917
465.134094	4684.217469
465.505999	4931.342392
465.877845	5096.067135
466.249631	5017.261298
466.621358	4763.865179
466.993026	4514.191952
467.364634	4292.976039
467.736184	4107.816979
468.107674	3963.004794
468.479105	3859.862786
468.850477	3752.907145
469.221790	3634.228302
469.593043	3510.810773
469.964238	3426.550407
470.335373	3370.949001
470.706449	3367.407590
471.077467	3386.788306
471.448425	3457.992084
471.819324	3482.797081
472.190164	3399.194586
472.560945	3276.835700
472.931667	3173.809638
473.302330	3111.478292
473.672934	3067.093453
474.043479	3045.875236
474.413965	3003.050634
474.784393	2973.857312
475.154761	2964.132927
475.525070	2942.655091
475.895321	2919.934610
476.265513	2909.166706
476.635645	2910.462282
477.005719	2890.050650
477.375734	2882.257026
477.745691	2879.141593
478.115588	2875.935419
478.485427	2888.994528
478.855207	2915.150555
479.224928	2938.123093
479.594591	2940.467230
479.964194	2917.610638
480.333739	2909.673342
480.703226	2899.351579
481.072653	2892.745147
481.442022	2890.902605
481.811333	2883.368601
482.180584	2865.689274
482.549777	2851.364836
482.918912	2838.582990
483.287988	2830.007987
483.657005	2812.260605
484.025964	2802.531178
484.394864	2797.540436
484.763706	2788.680608
485.132489	2775.089657
485.501213	2770.431631
485.869879	2764.160436
486.238487	2756.018972
486.607036	2753.858838
486.975527	2746.975142
487.343959	2741.576067
487.712333	2739.042887
488.080648	2734.372258
488.448905	2731.471074
488.817104	2727.269272
489.185244	2731.617267
489.553326	2738.246384
489.921350	2753.616862
490.289315	2770.083792
490.657222	2775.200563
491.025070	2774.827517
491.392861	2762.300250
491.760593	2750.614855
492.128267	2738.160685
492.495883	2722.316338
492.863440	2713.438866
493.230939	2702.691126
493.598380	2690.360464
493.965763	2684.101872
494.333088	2679.015347
494.700354	2672.691220
495.067563	2673.076868
495.434713	2667.561846
495.801805	2668.948163
496.168839	2665.500014
496.535815	2662.866011
496.902733	2662.896258
497.269593	2659.165804
497.636395	2655.503406
498.003139	2661.777122
498.369825	2654.467449
498.736453	2658.228149
499.103023	2655.929383
499.469535	2656.325114
499.835989	2653.199598
500.202385	2653.232366
500.568723	2652.430822
500.935003	2656.730927
501.301226	2652.826553
501.667390	2661.678819
502.033497	2662.855929
502.399546	2659.024652
502.765537	2654.918632
503.131470	2657.706390
503.497345	2660.836947
503.863163	2656.670433
504.228923	2661.910712
504.594625	2662.588747
504.960269	2659.387615
505.325856	2664.080929
505.691385	2661.913233
506.056856	2664.930363
506.422270	2672.749193
506.787625	2666.228461
507.152924	2673.157527
507.518164	2673.195335
507.883347	2671.340191
508.248472	2673.127280
508.613540	2677.732374
508.978550	2684.522808
509.343503	2684.900894
509.708398	2686.856862
510.073236	2694.486648
510.438016	2694.781556
510.802738	2692.475228
511.167403	2698.391022
511.532010	2702.060982
511.896561	2705.010057
512.261053	2714.918445
512.625488	2710.020964
512.989866	2709.080789
513.354186	2710.071376
513.718449	2710.305789
514.082655	2722.190309
514.446803	2721.640824
514.810894	2727.032338
515.174927	2727.566700
515.538904	2725.976216
515.902822	2732.819582
516.266684	2733.757237
516.630488	2734.528533
516.994235	2736.393760
517.357925	2740.222517
517.721558	2743.128742
518.085133	2746.846593
518.448651	2748.477406
518.812112	2749.568816
519.175516	2750.143507
519.538863	2753.296749
519.902152	2753.460587
520.265385	2758.103489
520.628560	2760.994591
520.991678	2756.470156
521.354739	2759.751947
521.717743	2763.830240
522.080690	2761.884355
522.443580	2766.257556
522.806413	2769.131013
523.169189	2764.833430
523.531908	2770.895417
523.894569	2769.710746
524.257174	2769.347783
524.619722	2774.255346
524.982213	2776.622168
525.344647	2774.930861
525.707025	2776.259205
526.069345	2776.357507
526.431608	2778.620986
526.793815	2779.553599
527.155964	2779.137704
527.518057	2778.028650
527.880093	2776.002106
528.242072	2783.452932
528.603995	2780.135852
528.965860	2777.514452
529.327669	2779.112498
529.689421	2778.389092
530.051117	2776.334822
530.412755	2778.005965
530.774337	2778.515121
531.135862	2780.055194
531.497331	2778.890687
531.858743	2774.862805
532.220098	2780.864299
532.581396	2775.737446
532.942638	2773.889863
533.303824	2775.661828
533.664953	2777.466561
534.026025	2776.221396
534.387040	2777.161572
534.747999	2778.258022
535.108902	2778.474792
535.469748	2774.698968
535.830537	2775.782816
536.191270	2779.606531
536.551947	2777.751387
536.912567	2778.593259
537.273131	2778.905811
537.633638	2773.307609
537.994089	2775.760131
538.354483	2772.475819
538.714821	2774.464554
539.075103	2776.773403
539.435328	2777.542179
539.795497	2773.327774
540.155609	2776.574277
540.515665	2780.919752
540.875665	2774.172167
541.235609	2774.167126
541.595496	2775.679472
541.955328	2781.796912
542.315102	2776.044956
542.674821	2772.911879
543.034483	2770.129162
543.394090	2771.538164
543.753640	2770.976076
544.113134	2775.011519
544.472571	2771.714605
544.831953	2778.736932
545.191278	2768.006836
545.550548	2765.377874
545.909761	2768.505910
546.268918	2767.974069
546.628019	2769.647732
546.987064	2764.684716
547.346053	2756.734816
547.704986	2761.339910
548.063863	2756.444950
548.422684	2758.090887
548.781449	2754.559558
549.140158	2757.700197
549.498811	2750.440936
549.857408	2747.602766
550.215949	2746.055132
550.574434	2743.738722
550.932864	2737.873339
551.291237	2740.668659
551.649555	2740.023391
552.007817	2738.291755
552.366022	2736.121538
552.724173	2735.221692
553.082267	2735.166239
553.440305	2731.947463
553.798288	2725.381360
554.156215	2726.152656
554.514086	2724.622666
554.871902	2720.509085
555.229661	2715.243599
555.587365	2710.119267
555.945014	2708.211190
556.302606	2706.444265
556.660143	2703.399408
557.017625	2701.483770
557.375050	2696.666947
557.732421	2695.202492
558.089735	2689.717717
558.446994	2687.986081
558.804197	2689.223684
559.161345	2685.042047
559.518437	2676.540141
559.875474	2675.768844
560.232455	2671.352793
560.589381	2670.715087
560.946251	2670.944460
561.303065	2665.701660
561.659825	2660.962975
562.016528	2656.506595
562.373177	2655.135402
562.729770	2653.670946
563.086307	2646.726757
563.442789	2645.274905
563.799216	2642.998824
564.155587	2642.116622
564.511904	2638.444141
564.868164	2634.479274
565.224370	2636.460447
565.580520	2628.931484
565.936615	2631.623460
566.292654	2624.717079
566.648638	2624.439816
567.004567	2622.440998
567.360441	2620.429578
567.716260	2613.727364
568.072023	2614.803650
568.427732	2608.179574
568.783385	2608.469440
569.138982	2606.563884
569.494525	2605.185129
569.850013	2599.491145
570.205445	2602.389809
570.560823	2600.658173
570.916145	2596.431165
571.271412	2597.343614
571.626625	2592.579723
571.981782	2590.863211
572.336884	2591.445464
572.691931	2589.151739
573.046923	2584.085379
573.401860	2582.295770
573.756743	2582.832652
574.111570	2581.199319
574.466342	2581.322827
574.821059	2580.473393
575.175722	2577.700758
575.530330	2574.169430
575.884882	2577.567167
576.239380	2572.077351
576.593823	2572.203380
576.948211	2573.098184
577.302544	2568.019222
577.656823	2569.466033
578.011047	2568.719942
578.365216	2565.397822
578.719330	2564.545867
579.073389	2563.971175
579.427394	2565.969993
579.781344	2561.624518
580.135239	2560.185269
580.489080	2559.121585
580.842866	2558.861966
581.196597	2558.556976
581.550273	2557.581513
581.903895	2555.605381
582.257463	2557.760474
582.610975	2553.646892
582.964434	2555.880123
583.317837	2550.228990
583.671186	2556.084290
584.024481	2551.940462
584.377721	2552.063970
584.730906	2551.481717
585.084037	2553.742674
585.437113	2552.356357
585.790135	2548.114226
586.143103	2549.492982
586.496016	2549.573640
586.848874	2544.250182
587.201679	2546.662374
587.554428	2543.310006
587.907124	2547.053063
588.259765	2541.636343
588.612352	2547.834442
588.964884	2542.324461
589.317362	2549.182951
589.669786	2546.241437
590.022155	2543.887218
590.374470	2548.562889
590.726731	2541.374203
591.078937	2540.499563
591.431090	2540.733977
591.783188	2543.017619
592.135232	2537.908410
592.487222	2539.844213
592.839157	2538.974614
593.191038	2540.232382
593.542866	2537.419418
593.894639	2534.848430
594.246358	2535.050076
594.598022	2534.215765
594.949633	2534.861033
595.301190	2535.894469
595.652692	2533.396577
596.004141	2532.650487
596.355535	2532.078316
596.706876	2529.731658
597.058162	2528.814168
597.409395	2530.835671
597.760573	2531.712832
598.111698	2529.262831
598.462768	2532.133768
598.813785	2527.185876
599.164748	2527.211082
599.515657	2528.042872
599.866511	2526.580937
600.217312	2525.494569
600.568060	2525.870135
600.918753	2528.758716
601.269392	2527.019518
601.619978	2525.595392
601.970510	2524.272089
602.320988	2523.785618
602.671412	2529.305681
603.021783	2525.676050
603.372100	2524.682943
603.722363	2525.756709
604.072572	2526.318797
604.422728	2526.162522
604.772830	2522.855525
605.122878	2519.228414
605.472872	2522.648837
605.822813	2522.124557
606.172701	2521.189423
606.522534	2521.998528
606.872314	2521.832170
607.222041	2520.902077
607.571714	2525.154291
607.921333	2520.403003
608.270899	2524.256965
608.620411	2525.411390
608.969870	2522.323683
609.319276	2521.844773
609.668627	2524.100690
610.017926	2523.982223
610.367171	2523.495751
610.716362	2519.772859
611.065500	2523.026924
611.414585	2522.522808
611.763616	2525.434075
612.112594	2522.671523
612.461518	2523.074815
612.810389	2524.511544
613.159207	2520.939886
613.507971	2524.206554
613.856682	2521.312932
614.205340	2521.539783
614.553945	2524.090607
614.902496	2523.838550
615.250994	2521.479290
615.599439	2522.777387
615.947830	2524.118334
616.296169	2525.441637
616.644454	2524.640093
616.992686	2524.990453
617.340864	2525.512213
617.688990	2521.791841
618.037063	2526.956503
618.385082	2521.108765
618.733048	2525.338293
619.080961	2524.877027
619.428821	2527.589168
619.776628	2524.808972
620.124382	2522.792510
620.472083	2521.302849
620.819731	2524.929959
621.167326	2520.655061
621.514868	2522.732016
621.862357	2517.753877
622.209793	2521.020545
622.557176	2518.444515
622.904506	2516.211284
623.251783	2512.816067
623.599007	2515.911335
623.946179	2511.351612
624.293297	2513.955368
624.640363	2511.664163
624.987376	2513.751201
625.334336	2509.869512
625.681243	2510.313134
626.028097	2509.569564
626.374899	2509.478823
626.721647	2506.822135
627.068343	2507.588390
627.414987	2507.923627
627.761577	2506.408760
628.108115	2506.345746
628.454600	2504.576301
628.801032	2504.944305
629.147412	2506.156702
629.493739	2502.663183
629.840014	2502.617813
630.186236	2505.002278
630.532405	2503.552947
630.878521	2504.563698
631.224585	2508.198370
631.570597	2503.840292
631.916556	2504.152844
632.262462	2500.636639
632.608316	2500.790394
632.954117	2503.857936
633.299866	2503.744510
633.645562	2502.940446
633.991206	2498.050527
634.336797	2499.946001
634.682336	2500.729900
635.027823	2497.143119
635.373257	2498.395846
635.718639	2495.993736
636.063968	2493.344610
636.409245	2491.199599
636.754470	2493.347131
637.099642	2491.784373
637.444762	2489.052067
637.789829	2491.872593
638.134845	2493.720176
638.479808	2492.593478
638.824719	2490.430823
639.169577	2488.595843
639.514383	2487.055771
639.859137	2487.295225
640.203839	2488.343785
640.548489	2487.005359
640.893086	2484.671305
641.237632	2482.085193
641.582125	2484.250368
641.926566	2478.929431
642.270955	2487.857314
642.615292	2483.090903
642.959576	2485.861017
643.303809	2484.479741
643.647990	2486.113075
643.992118	2483.940337
644.336195	2485.440081
644.680219	2485.261120
645.024192	2486.740698
645.368112	2485.982005
645.711981	2486.881851
646.055797	2485.644247
646.399562	2487.234732
646.743274	2489.283961
647.086935	2490.498879
647.430544	2490.148518
647.774101	2489.372181
648.117606	2491.691112
648.461059	2491.088694
648.804460	2491.779332
649.147810	2487.988384
649.491108	2489.523415
649.834354	2485.863538
650.177548	2486.130719
650.520690	2482.768269
650.863781	2482.138125
651.206820	2484.782210
651.549807	2485.238435
651.892742	2481.823053
652.235626	2478.367342
652.578458	2479.494040
652.921238	2478.768114
653.263967	2481.666777
653.606644	2476.595376
653.949269	2476.665953
654.291843	2477.522949
654.634365	2476.179481
654.976836	2477.701910
655.319255	2478.253916
655.661622	2476.575212
656.003938	2475.773668
656.346203	2476.716364
656.688416	2477.280973
657.030577	2473.958853
657.372687	2477.230562
657.714746	2475.380458
658.056753	2474.420118
658.398708	2467.549026
658.740612	2470.636732
659.082465	2470.356948
659.424266	2469.189921
659.766016	2468.398460
660.107715	2477.170068
660.449362	2472.191928
660.790958	2477.321302
661.132503	2471.758389
661.473996	2473.951291
661.815438	2471.496249
662.156829	2474.659573
662.498168	2473.469861
662.839456	2473.976497
663.180693	2475.834162
663.521879	2476.237454
663.863013	2472.585138
664.204097	2476.113946
664.545129	2474.556230
664.886110	2474.485653
665.227040	2474.223513
665.567918	2474.941878
665.908746	2470.949284
666.249522	2474.944398
666.590248	2474.969604
666.930922	2473.066569
667.271545	2476.194605
667.612118	2477.144862
667.952639	2475.249388
668.293109	2474.410036
668.633528	2473.787454
668.973896	2475.821559
669.314213	2473.288379
669.654480	2472.743935
669.994695	2472.028091
670.334859	2474.536065
670.674973	2472.025570
671.015035	2473.921044
671.355047	2471.360138
671.695008	2472.668317
672.034918	2473.469861
672.374777	2474.964563
672.714585	2471.163533
673.054342	2473.343832
673.394049	2472.774182
673.733705	2474.198308
674.073310	2472.658235
674.412864	2470.084726
674.752368	2472.575056
675.091820	2473.187556
675.431223	2471.586990
675.770574	2470.528348
676.109875	2466.566001
676.449125	2466.548357
676.788324	2465.535085
677.127473	2466.540795
677.466571	2464.199179
677.805619	2467.148254
678.144616	2465.651031
678.483562	2467.455764
678.822458	2467.256639
679.161303	2469.099181
679.500098	2466.815538
679.838842	2468.123717
680.177535	2464.935188
680.516179	2466.863429
680.854771	2466.679427
681.193314	2471.092957
681.531805	2470.301496
681.870247	2471.428194
682.208638	2474.430201
682.546978	2472.428863
682.885268	2476.537403
683.223508	2472.645632
683.561697	2474.871302
683.899836	2471.130766
684.237925	2468.590024
684.575963	2473.623616
684.913951	2469.328553
685.251889	2470.699747
685.589776	2471.463482
685.927614	2469.671352
686.265401	2467.329736
686.603137	2470.714870
686.940824	2471.168574
687.278460	2472.040694
687.616046	2471.345015
687.953582	2473.842906
688.291068	2469.114304
688.628504	2476.585294
688.965889	2473.719398
689.303224	2471.924747
689.640510	2470.437607
689.977745	2473.820221
690.314930	2468.368213
690.652065	2468.895014
690.989150	2469.608337
691.326185	2466.644139
691.663170	2461.814713
692.000105	2463.195989
692.336990	2461.678602
692.673825	2460.372943
693.010610	2459.536112
693.347345	2454.361367
693.684030	2451.913887
694.020665	2453.274999
694.357251	2451.084617
694.693786	2455.397324
695.030272	2451.876078
695.366707	2452.851542
695.703093	2452.977571
696.039429	2451.117385
696.375716	2451.838270
696.711952	2453.385904
697.048139	2450.562858
697.384276	2455.606532
697.720363	2452.917077
698.056400	2448.906839
698.392388	2450.512446
698.728326	2449.748712
699.064214	2451.475307
699.400053	2450.701490
699.735842	2451.472786
700.071581	2448.624534
700.407270	2446.804678
700.742910	2446.106478
701.078501	2449.985646
701.414042	2445.499019
701.749533	2446.577826
702.084974	2443.906014
702.420366	2446.237548
702.755709	2442.491971
703.091002	2444.142948
703.426246	2443.706889
703.761440	2445.342743
704.096584	2444.379883
704.431679	2441.430808
704.766725	2442.118925
705.101721	2444.556323
705.436668	2446.323247
705.771565	2444.311827
706.106413	2444.720161
706.441212	2443.782506
706.775961	2444.442897
707.110661	2443.623710
707.445311	2445.370469
707.779913	2444.752928
708.114465	2446.933227
708.448967	2446.658484
708.783421	2446.613114
709.117825	2446.963474
709.452180	2448.594287
709.786485	2446.797116
710.120742	2452.589402
710.454949	2448.609411
710.789107	2448.911880
711.123216	2446.398865
711.457275	2450.968671
711.791286	2449.847014
712.125247	2454.424382
712.459159	2454.245421
712.793023	2454.358847
713.126837	2453.499330
713.460602	2455.644341
713.794318	2451.321552
714.127985	2453.131326
714.461602	2450.840121
714.795171	2451.624021
715.128691	2448.622014
715.462162	2449.030347
715.795584	2447.603701
716.128957	2445.589760
716.462281	2443.507763
716.795556	2443.492640
717.128782	2445.506581
717.461960	2442.368462
717.795088	2444.137907
718.128167	2444.563885
718.461198	2440.730087
718.794180	2442.126487
719.127113	2439.467278
719.459997	2439.999120
719.792833	2438.305292
720.125619	2437.090374
720.458357	2436.452668
720.791046	2437.092895
721.123686	2437.259253
721.456278	2438.960642
721.788821	2435.809921
722.121315	2437.327308
722.453761	2437.380241
722.786158	2435.809921
723.118506	2433.261618
723.450805	2437.012236
723.783056	2437.561722
724.115259	2436.009047
724.447412	2435.630960
724.779518	2437.196238
725.111574	2439.096753
725.443582	2437.539037
725.775542	2436.424942
726.107453	2438.310333
726.439315	2437.357555
726.771129	2443.502722
727.102895	2439.600869
727.434612	2439.855447
727.766281	2441.085489
728.097901	2439.986517
728.429473	2441.619851
728.760996	2441.771086
729.092471	2436.019129
729.423897	2442.945674
729.755276	2440.425098
730.086606	2438.829572
730.417887	2442.169337
730.749120	2442.746549
731.080305	2444.105140
731.411442	2444.052208
731.742530	2443.653957
732.073570	2447.175203
732.404562	2446.207301
732.735506	2447.286108
733.066401	2445.710747
733.397249	2445.045315
733.728048	2444.687393
734.058798	2442.968360
734.389501	2438.879984
734.720156	2438.827052
735.050762	2436.987031
735.381320	2437.486105
735.711831	2438.259922
736.042293	2435.462082
736.372707	2433.470826
736.703073	2433.475867
737.033391	2437.165992
737.363661	2434.930240
737.693883	2435.361258
738.024056	2438.201949
738.354182	2434.960487
738.684260	2439.033739
739.014290	2435.981320
739.344272	2439.772268
739.674207	2440.430139
740.004093	2440.344439
740.333931	2441.115736
740.663722	2440.561209
740.993464	2440.162958
741.323159	2437.528955
741.652806	2439.510128
741.982405	2439.285797
742.311956	2435.888059
742.641460	2440.067176
742.970915	2437.062648
743.300323	2434.668100
743.629683	2436.079623
743.958996	2435.144489
744.288260	2433.687595
744.617477	2433.790939
744.946647	2426.544280
745.275768	2430.579724
745.604842	2424.941193
745.933869	2429.551329
746.262847	2427.257604
746.591778	2430.282296
746.920662	2430.173911
747.249498	2431.562749
747.578286	2430.453695
747.907027	2432.875970
748.235720	2431.782039
748.564365	2430.806576
748.892963	2431.976124
749.221514	2431.661052
749.550017	2430.937646
749.878473	2434.103491
750.206881	2432.049220
750.535242	2431.434200
750.863555	2430.723397
751.191821	2433.886721
751.520039	2430.670465
751.848210	2431.943356
752.176334	2430.904878
752.504411	2429.899168
752.832440	2429.884045
753.160421	2430.615012
753.488356	2430.819179
753.816243	2432.702050
754.144082	2429.596699
754.471875	2430.199117
754.799620	2429.180804
755.127318	2431.605599
755.454969	2430.085691
755.782572	2428.868252
756.110129	2431.915630
756.437638	2430.456216
756.765100	2428.706935
757.092515	2430.244487
757.419882	2427.920515
757.747203	2430.856988
758.074477	2428.296081
758.401703	2431.724066
758.728882	2429.425300
759.056014	2429.745413
759.383099	2429.500917
759.710138	2429.967224
760.037129	2430.972934
760.364073	2432.409663
760.690970	2430.741041
761.017820	2432.855805
761.344623	2434.146340
761.671379	2433.193562
761.998088	2432.056782
762.324751	2438.227154
762.651366	2443.772424
762.977935	2457.481842
763.304456	2458.790021
763.630931	2465.126751
763.957359	2464.322687
764.283740	2456.032510
764.610074	2452.002107
764.936362	2449.877261
765.262602	2440.606579
765.588796	2438.842175
765.914943	2433.990065
766.241044	2432.162646
766.567097	2431.182142
766.893104	2426.506472
767.219064	2427.539908
767.544978	2429.175763
767.870845	2424.031265
768.196665	2424.530339
768.522438	2425.841039
768.848165	2423.128899
769.173846	2424.424475
769.499479	2426.204002
769.825066	2420.613363
770.150607	2421.561100
770.476101	2421.049423
770.801548	2422.370205
771.126949	2422.244176
771.452303	2421.059505
771.777611	2421.384659
772.102872	2422.740730
772.428087	2418.488517
772.753256	2418.954823
773.078378	2418.864082
773.403453	2418.160842
773.728482	2418.702766
774.053465	2419.458939
774.378401	2419.592529
774.703291	2417.717220
775.028135	2418.816192
775.352932	2416.870306
775.677683	2418.884247
776.002388	2416.512384
776.327046	2419.496747
776.651658	2418.528846
776.976224	2416.482137
777.300743	2414.727816
777.625216	2418.365008
777.949643	2416.303176
778.274024	2416.267888
778.598359	2415.136149
778.922647	2411.796385
779.246889	2415.118505
779.571086	2411.657753
779.895236	2417.298804
780.219339	2419.365677
780.543397	2415.095820
780.867409	2415.489030
781.191374	2414.934503
781.515294	2415.786458
781.839167	2415.703279
782.162995	2417.155131
782.486776	2416.618248
782.810511	2416.202353
783.134201	2416.668660
783.457844	2414.894174
783.781441	2417.407189
784.104993	2413.452404
784.428498	2414.818557
784.751958	2415.708320
785.075372	2414.286715
785.398739	2414.120357
785.722061	2414.216139
786.045337	2417.374422
786.368568	2418.700245
786.691752	2416.769483
787.014891	2418.183527
787.337983	2419.781572
787.661030	2417.883578
787.984031	2420.066398
788.306987	2423.040678
788.629897	2421.195616
788.952760	2421.803075
789.275579	2423.063364
789.598351	2422.551687
789.921078	2419.204360
790.243759	2420.830132
790.566395	2416.305697
790.888984	2418.760739
791.211529	2418.044895
791.534027	2415.650347
791.856480	2416.189750
792.178888	2416.283012
792.501249	2415.461304
792.823566	2416.290573
793.145836	2416.308217
793.468062	2416.469534
793.790241	2414.619431
794.112375	2416.741757
794.434464	2415.662950
794.756507	2417.444998
795.078505	2415.637744
795.400457	2418.425502
795.722364	2414.228742
796.044226	2416.691345
796.366042	2412.900398
796.687812	2416.426685
797.009538	2419.332910
797.331218	2420.867941
797.652852	2419.960533
797.974442	2417.434915
798.295986	2417.533218
798.617484	2417.515574
798.938938	2418.639751
799.260346	2417.129926
799.581709	2413.303690
799.903026	2417.818043
800.224299	2413.422157
800.545526	2415.483989
800.866708	2415.310069
801.187845	2414.294277
801.508936	2416.179668
801.829983	2414.972312
802.150984	2415.766293
802.471940	2416.038516
802.792851	2413.018865
803.113717	2414.899215
803.434538	2415.115985
803.755314	2417.490368
804.076045	2413.694379
804.396731	2417.427354
804.717372	2411.803947
805.037967	2415.577250
805.358518	2414.175809
805.679024	2414.344688
805.999485	2414.400141
806.319901	2417.399627
806.640272	2414.574061
806.960598	2414.395100
807.280879	2415.667991
807.601115	2413.651529
807.921306	2413.722106
808.241453	2419.073290
808.561554	2415.882240
808.881611	2414.647157
809.201623	2416.940882
809.521590	2415.922569
809.841513	2411.221693
810.161390	2415.902405
810.481223	2415.665470
810.801011	2415.221849
811.120755	2414.526170
811.440453	2414.533731
811.760107	2412.640778
812.079716	2412.315624
812.399281	2412.424008
812.718801	2410.629358
813.038276	2408.867474
813.357707	2410.460479
813.677093	2415.133629
813.996434	2412.913000
814.315731	2412.552558
814.634983	2412.605490
814.954191	2414.710172
815.273354	2413.414595
815.592473	2415.935172
815.911547	2413.686818
816.230577	2417.112282
816.549562	2414.662281
816.868502	2416.434246
817.187399	2416.976170
817.506250	2417.097158
817.825058	2417.079514
818.143821	2415.499112
818.462539	2419.766449
818.781213	2415.453742
819.099843	2421.314083
819.418429	2421.994639
819.736970	2427.693663
820.055466	2432.649118
820.373919	2435.414191
820.692327	2445.355346
821.010691	2458.558128
821.329011	2489.982160
821.647286	2539.619882
821.965517	2592.804055
822.283704	2621.803292
822.601847	2629.957359
822.919945	2607.436004
823.237999	2580.256623
823.556010	2556.366595
823.873976	2531.274252
824.191897	2509.244409
824.509775	2492.769918
824.827609	2479.879688
825.145398	2473.663945
825.463144	2466.669344
825.780845	2472.098667
826.098502	2474.578915
826.416116	2487.874958
826.733685	2494.897285
827.051210	2498.887359
827.368692	2495.159425
827.686129	2484.192395
828.003522	2469.240333
828.320872	2453.587550
828.638177	2444.047167
828.955439	2440.326795
829.272656	2435.502411
829.589830	2429.150557
829.906960	2426.561924
830.224046	2427.665937
830.541088	2422.839032
830.858086	2419.406007
831.175041	2420.865421
831.491952	2419.206881
831.808819	2422.702921
832.125642	2420.847777
832.442421	2426.335072
832.759157	2433.609458
833.075849	2439.638678
833.392497	2451.193002
833.709101	2457.706173
834.025662	2455.863631
834.342179	2452.511264
834.658653	2441.811415
834.975083	2437.599531
835.291469	2432.923861
835.607811	2429.853798
835.924110	2422.670154
836.240366	2423.799372
836.556578	2415.277302
836.872746	2419.826943
837.188871	2415.209246
837.504952	2415.368042
837.820990	2411.796385
838.136984	2415.786458
838.452935	2412.487023
838.768842	2413.074317
839.084706	2412.214801
839.400526	2419.305183
839.716303	2423.527150
840.032037	2428.119641
840.347727	2427.688622
840.663373	2420.439443
840.978977	2421.223342
841.294537	2416.439287
841.610054	2415.635223
841.925527	2415.186561
842.240957	2415.093299
842.556344	2409.384193
842.871687	2409.825294
843.186987	2411.153638
843.502244	2409.159861
843.817458	2405.643657
844.132629	2405.124418
844.447756	2406.067113
844.762840	2402.008985
845.077881	2404.406053
845.392879	2402.868501
845.707833	2404.159037
846.022745	2400.196690
846.337613	2407.576939
846.652438	2407.224058
846.967221	2404.464027
847.281960	2407.418143
847.596656	2406.256157
847.911309	2406.006620
848.225919	2407.017371
848.540485	2404.327915
848.855009	2405.197514
849.169490	2403.556619
849.483928	2405.931002
849.798323	2401.431773
850.112675	2405.540313
850.426984	2405.066444
850.741251	2403.725498
851.055474	2403.385220
851.369654	2404.189284
851.683792	2400.869684
851.997887	2404.108625
852.311938	2404.148954
852.625947	2404.254819
852.939914	2404.922772
853.253837	2404.620302
853.567718	2402.261042
853.881555	2403.034859
854.195350	2404.637946
854.509103	2402.810528
854.822812	2404.554767
855.136479	2407.561816
855.450103	2405.016033
855.763685	2401.275497
856.077224	2403.221382
856.390720	2405.749521
856.704173	2404.106105
857.017584	2405.560477
857.330953	2403.150806
857.644278	2403.975035
857.957561	2411.887126
858.270802	2405.542833
858.584000	2403.382699
858.897155	2406.704819
859.210268	2404.111146
859.523339	2405.071486
859.836367	2406.185581
860.149352	2406.493091
860.462295	2405.903276
860.775195	2400.388254
861.088054	2399.632081
861.400869	2405.502504
861.713642	2399.541340
862.026373	2403.042421
862.339062	2401.073851
862.651708	2404.572411
862.964312	2402.951680
863.276873	2403.624674
863.589392	2407.597104
863.901869	2403.541495
864.214303	2407.672721
864.526696	2403.854047
864.839045	2405.507545
865.151353	2409.537948
865.463619	2404.209448
865.775842	2403.380178
866.088023	2403.682648
866.400162	2405.704150
866.712258	2407.614748
867.024313	2405.983934
867.336325	2404.534603
867.648296	2406.561147
867.960224	2406.858575
868.272110	2404.537123
868.583954	2405.835220
868.895755	2404.592576
869.207515	2403.846485
869.519233	2408.244892
869.830909	2405.326064
870.142542	2407.050138
870.454134	2407.292114
870.765684	2407.171126
871.077191	2406.162895
871.388657	2408.338153
871.700081	2402.598800
872.011463	2405.361352
872.322803	2406.624161
872.634101	2407.161044
872.945357	2408.570046
873.256571	2410.959553
873.567744	2407.710530
873.878874	2409.568195
874.189963	2409.802608
874.501010	2411.451066
874.812015	2408.837228
875.122979	2405.978893
875.433900	2408.749007
875.744780	2408.862433
876.055618	2408.774213
876.366415	2409.091806
876.677169	2407.607186
876.987882	2408.847310
877.298554	2405.326064
877.609183	2408.401168
877.919771	2408.663308
878.230317	2409.457289
878.540822	2410.145407
878.851285	2415.121026
879.161707	2415.998187
879.472087	2419.194278
879.782425	2425.644434
880.092722	2440.906528
880.402977	2454.487396
880.713191	2475.846765
881.023363	2496.946514
881.333494	2507.863133
881.643583	2512.611900
881.953631	2508.833555
882.263637	2500.639160
882.573602	2494.549446
882.883526	2487.559886
883.193408	2482.455718
883.503248	2470.835858
883.813048	2462.328911
884.122806	2455.742643
884.432522	2448.490944
884.742197	2443.157403
885.051831	2435.968718
885.361424	2431.686257
885.670975	2429.195927
885.980485	2425.074784
886.289954	2421.467838
886.599382	2419.499268
886.908768	2415.877199
887.218113	2416.875347
887.527417	2413.681776
887.836680	2415.441139
888.145901	2412.686148
888.455082	2412.499626
888.764221	2411.168761
889.073319	2409.389234
889.382376	2409.182547
889.691392	2411.945099
890.000366	2410.094995
890.309300	2408.501991
890.618193	2411.839235
890.927044	2407.428225
891.235855	2410.934347
891.544625	2409.001065
891.853353	2409.331261
892.162041	2411.347722
892.470687	2412.940727
892.779293	2410.397465
893.087858	2410.972156
893.396381	2413.681776
893.704864	2417.815523
894.013306	2420.963723
894.321707	2433.183480
894.630068	2435.177256
894.938387	2437.105498
895.246665	2435.676331
895.554903	2434.521906
895.863100	2431.630805
896.171256	2430.335228
896.479371	2422.597057
896.787446	2422.939855
897.095480	2421.014135
897.403473	2420.263003
897.711425	2419.285019
898.019336	2416.585481
898.327207	2414.415264
898.635038	2414.034657
898.942827	2413.437280
899.250576	2411.735891
899.558284	2408.554923
899.865952	2412.360994
900.173579	2408.567526
900.481165	2409.835376
900.788711	2406.576270
901.096216	2407.733215
901.403681	2405.033677
901.711105	2406.263718
902.018489	2408.307906
902.325832	2405.618451
902.633135	2409.732032
902.940397	2412.315624
903.247619	2414.216139
903.554800	2423.464135
903.861941	2434.700867
904.169041	2442.040787
904.476101	2445.131015
904.783121	2442.885181
905.090100	2437.554160
905.397039	2433.554005
905.703938	2429.944539
906.010796	2429.052254
906.317614	2422.612180
906.624391	2423.229722
906.931129	2418.823753
907.237826	2414.485840
907.544483	2414.463155
907.851099	2413.192784
908.157675	2410.662125
908.464211	2404.912689
908.770707	2401.091495
909.077163	2405.396640
909.383578	2401.797256
909.689954	2401.484705
909.996289	2400.398336
910.302584	2405.068965
910.608839	2403.987638
910.915054	2404.703481
911.221229	2403.612072
911.527363	2404.577452
911.833458	2402.709705
912.139513	2404.143913
912.445527	2404.156516
912.751502	2404.451424
913.057436	2404.683317
913.363331	2408.184398
913.669186	2408.204563
913.975000	2405.860426
914.280775	2409.666497
914.586510	2414.919380
914.892205	2420.900709
915.197859	2424.137129
915.503475	2431.552667
915.809050	2440.465427
916.114585	2442.857454
916.420081	2443.895932
916.725536	2443.323761
917.030952	2440.604058
917.336328	2436.442586
917.641665	2436.828234
917.946961	2433.455702
918.252218	2430.420928
918.557435	2425.825916
918.862612	2424.490010
919.167750	2420.557910
919.472848	2420.426840
919.777906	2418.407858
920.082925	2415.922569
920.387904	2412.572723
920.692843	2409.154820
920.997743	2411.032650
921.302603	2411.274625
921.607423	2406.372103
921.912204	2407.854203
922.216946	2408.368400
922.521647	2405.310940
922.826310	2404.330436
923.130932	2405.384037
923.435516	2404.423697
923.740059	2401.368758
924.044564	2401.940929
924.349028	2401.769530
924.653454	2399.095198
924.957840	2399.914385
925.262186	2398.487739
925.566493	2402.107287
925.870761	2399.611916
926.174989	2399.811042
926.479178	2402.616444
926.783328	2401.729201
927.087438	2398.454971
927.391509	2400.161402
927.695541	2398.167625
927.999533	2397.918088
928.303486	2400.118552
928.607400	2400.559653
928.911275	2399.269118
929.215110	2397.645866
929.518906	2397.829868
929.822663	2400.582338
930.126381	2398.500342
930.430060	2396.899775
930.733699	2397.734086
931.037299	2402.384551
931.340861	2398.762482
931.644383	2399.992523
931.947866	2402.089643
932.251309	2399.077554
932.554714	2398.727193
932.858080	2401.608213
933.161407	2397.194683
933.464694	2399.175856
933.767943	2399.100239
934.071153	2399.811042
934.374323	2397.514796
934.677455	2398.840619
934.980548	2399.531258
935.283602	2398.880949
935.586617	2399.110321
935.889593	2397.681154
936.192530	2398.260887
936.495428	2399.576628
936.798287	2398.301216
937.101108	2400.952863
937.403890	2400.864643
937.706632	2401.184756
938.009336	2401.119221
938.312002	2401.797256
938.614628	2400.191649
938.917216	2401.456978
939.219765	2403.768347
939.522275	2401.966135
939.824747	2403.791033
940.127179	2401.600651
940.429573	2399.354817
940.731929	2401.646022
941.034246	2396.562018
941.336524	2403.700292
941.638763	2401.749365
941.940964	2402.129972
942.243126	2402.732390
942.545250	2400.582338
942.847335	2401.313305
943.149381	2402.550909
943.451389	2402.845816
943.753359	2401.550240
944.055290	2400.363048
944.357182	2400.486556
944.659036	2399.382543
944.960851	2399.624519
945.262628	2398.349107
945.564367	2399.604354
945.866067	2402.881104
946.167729	2400.859602
946.469352	2397.794580
946.770937	2400.557132
947.072484	2402.981927
947.373992	2398.391957
947.675462	2399.697616
947.976893	2399.770712
948.278286	2396.435989
948.579641	2399.596793
948.880958	2399.639642
949.182236	2399.848850
949.483476	2400.834396
949.784678	2398.666700
950.085841	2399.463202
950.386967	2400.930178
950.688054	2399.816083
950.989103	2398.767523
951.290114	2399.271638
951.591087	2400.277348
951.892021	2399.639642
952.192917	2399.095198
952.493776	2401.272976
952.794596	2401.439334
953.095378	2399.886659
953.396122	2401.267935
953.696828	2400.582338
953.997496	2401.492266
954.298126	2400.352966
954.598718	2400.365568
954.899272	2400.148799
955.199788	2403.047462
955.500266	2400.738614
955.800706	2396.060423
956.101108	2396.194014
956.401472	2396.579662
956.701798	2393.093704
957.002087	2395.188303
957.302337	2397.708880
957.602550	2397.416493
957.902724	2396.136040
958.202861	2399.006978
958.502960	2395.253838
958.803022	2397.643345
959.103045	2399.899262
959.403031	2397.043448
959.702979	2395.621843
960.002889	2397.078736
960.302762	2392.445916
960.602596	2396.309960
960.902393	2398.013870
961.202153	2395.551267
961.501875	2395.624363
961.801559	2398.170146
962.101205	2393.680998
962.400814	2396.710732
962.700385	2394.878272
962.999918	2397.834909
963.299414	2396.259549
963.598873	2395.110166
963.898293	2394.608571
964.197677	2395.210989
964.497022	2394.301060
964.796331	2394.112017
965.095601	2394.593447
965.394835	2395.364744
965.694030	2394.215361
965.993189	2393.953221
966.292309	2393.489435
966.591393	2396.662841
966.890439	2393.953221
967.189447	2398.512944
967.488419	2394.560680
967.787353	2396.317522
968.086249	2392.642521
968.385108	2395.848695
968.683930	2394.200237
968.982714	2397.565208
969.281462	2397.683675
969.580172	2395.621843
969.878844	2396.456154
970.177480	2395.894065
970.476078	2395.042110
970.774639	2396.211658
971.073162	2394.419527
971.371649	2393.345762
971.670098	2389.821995
971.968510	2392.975237
972.266885	2394.071688
972.565223	2395.742830
972.863524	2394.517830
973.161788	2395.029507
973.460014	2395.878942
973.758204	2397.842471
974.056356	2393.746533
974.354471	2397.587893
974.652550	2394.212840
974.950591	2397.161915
975.248595	2396.796432
975.546563	2396.471277
975.844493	2393.786863
976.142386	2396.060423
976.440243	2394.830382
976.738062	2396.025135
977.035845	2397.179559
977.333590	2397.101421
977.631299	2399.556463
977.928971	2396.698129
978.226606	2394.036400
978.524204	2395.775598
978.821765	2398.041597
979.119290	2395.921791
979.416777	2394.921122
979.714228	2392.380381
980.011642	2395.253838
980.309020	2398.144940
980.606360	2395.190824
980.903664	2395.687378
981.200931	2395.253838
981.498162	2396.965310
981.795356	2397.965979
982.092513	2396.201575
982.389633	2399.526216
982.686717	2401.741803
982.983764	2400.942781
983.280775	2400.904972
983.577749	2400.360527
983.874686	2400.010167
984.171587	2399.264076
984.468451	2402.908831
984.765279	2398.848181
985.062070	2400.471433
985.358824	2399.052348
985.655543	2397.446740
985.952224	2398.240722
986.248869	2397.502193
986.545478	2392.115720
986.842050	2395.165618
987.138586	2392.251831
987.435086	2393.529764
987.731549	2388.097921
988.027975	2397.300547
988.324366	2395.092522
988.620719	2395.531102
988.917037	2395.505896
989.213318	2394.185114
989.509563	2393.083622
989.805772	2395.432799
990.101944	2392.627397
990.398080	2395.631925
990.694180	2393.784342
990.990244	2391.783004
991.286271	2395.039589
991.582262	2394.853067
991.878217	2392.037582
992.174136	2395.727707
992.470019	2395.165618
992.765865	2392.786194
993.061676	2394.046482
993.357450	2395.480690
993.653188	2391.495658
993.948890	2398.124776
994.244556	2396.801473
994.540186	2397.555125
994.835780	2394.905999
995.131337	2395.699981
995.426859	2396.725855
995.722345	2400.481515
996.017795	2395.029507
996.313208	2397.832389
996.608586	2397.229971
996.903928	2397.434138
997.199234	2397.502193
997.494504	2397.217368
997.789738	2397.111504
998.084936	2397.663510
998.380099	2394.439692
998.675225	2397.771895
998.970316	2396.831720
999.265371	2397.121586
999.560390	2395.397511
999.855373	2395.851215
1000.150320	2394.689229
1000.445232	2393.388612
1000.740108	2394.346431
1001.034948	2394.684188
1001.329752	2396.375495
1001.624521	2392.957593
1001.919254	2389.882489
1002.213951	2391.573796
1002.508613	2387.843342
1002.803239	2392.216543
1003.097829	2388.821326
1003.392384	2394.346431
1003.686903	2394.202758
1003.981386	2394.132182
1004.275834	2394.558159
1004.570246	2395.485732
1004.864623	2394.830382
1005.158964	2392.506410
1005.453270	2393.605381
1005.747540	2392.329969
1006.041775	2393.857439
1006.335974	2395.407594
1006.630138	2390.815103
1006.924266	2393.638149
1007.218359	2393.325597
1007.512416	2394.684188
1007.806438	2393.421379
1008.100425	2393.249980
1008.394376	2393.134033
1008.688292	2393.189486
1008.982172	2391.243601
1009.276017	2394.648900
1009.569827	2394.527912
1009.863602	2394.331307
1010.157341	2392.345093
1010.451045	2390.618498
1010.744714	2390.908364
1011.038347	2392.982799
1011.331945	2393.491955
1011.625508	2395.455485
1011.919036	2394.674106
1012.212528	2395.687378
1012.505986	2393.615463
1012.799408	2393.386091
1013.092795	2392.912222
1013.386147	2393.300391
1013.679464	2393.832233
1013.972745	2392.549259
1014.265992	2395.077398
1014.559204	2392.813920
1014.852380	2392.730741
1015.145521	2394.316184
1015.438628	2394.482542
1015.731699	2395.236194
1016.024736	2395.306771
1016.317737	2392.009856
1016.610703	2394.280896
1016.903635	2388.032386
1017.196531	2390.777294
1017.489393	2390.684033
1017.782219	2387.374515
1018.075011	2395.621843
1018.367768	2391.046996
1018.660490	2393.794424
1018.953177	2393.794424
1019.245829	2393.794424
