Dividing Wavelength (nm)	Counts (n)	Blue Motor Position (mm): 0.000000	Red Motor Position (mm): 30.400000	
326.493990	1991.709473
326.888308	1991.709473
327.282561	1991.709473
327.676750	1965.545885
328.070874	1966.231482
328.464933	1974.783799
328.858929	1982.791672
329.252859	1996.889259
329.646726	2008.461227
330.040528	2024.182066
330.434265	2042.141176
330.827938	2063.424928
331.221547	2083.360171
331.615091	2105.347163
332.008571	2121.037754
332.401986	2144.292597
332.795338	2163.978303
333.188625	2185.882116
333.581847	2203.352235
333.975006	2222.100286
334.368100	2238.915055
334.761129	2256.871645
335.154095	2268.199118
335.546996	2291.779115
335.939833	2323.306491
336.332606	2335.712770
336.725315	2345.311127
337.117960	2355.769001
337.510540	2361.135309
337.903056	2373.539068
338.295508	2378.796992
338.687896	2388.586912
339.080220	2393.794424
339.472480	2398.172667
339.864676	2400.163922
340.256807	2405.920920
340.648875	2404.143913
341.040879	2409.792526
341.432818	2408.620458
341.824694	2410.125242
342.216506	2408.444017
342.608253	2411.403175
342.999937	2410.266395
343.391557	2408.393606
343.783113	2407.324881
344.174605	2406.190622
344.566033	2405.983934
344.957397	2404.784140
345.348697	2401.656104
345.739934	2399.621998
346.131106	2398.949004
346.522215	2398.422204
346.913260	2393.202089
347.304241	2394.757285
347.695159	2394.744682
348.086012	2391.682181
348.476802	2389.539691
348.867528	2388.546583
349.258191	2386.777138
349.648789	2387.808054
350.039324	2384.760677
350.429796	2385.078269
350.820203	2382.754298
351.210548	2383.689432
351.600828	2382.595501
351.991045	2381.073073
352.381198	2381.143649
352.771288	2381.015099
353.161314	2383.805378
353.551276	2383.467621
353.941175	2385.607591
354.331010	2383.533156
354.720782	2382.547610
355.110490	2383.888557
355.500135	2382.945861
355.889717	2383.192878
356.279235	2382.527446
356.668689	2384.785883
357.058080	2385.579864
357.447408	2383.253372
357.836672	2382.030892
358.225873	2386.363764
358.615010	2382.726571
359.004084	2390.237890
359.393095	2390.855432
359.782043	2393.915412
360.170927	2393.527243
360.559748	2391.334341
360.948505	2394.916081
361.337199	2394.666544
361.725830	2393.706204
362.114398	2398.454971
362.502903	2396.872049
362.891344	2399.644683
363.279722	2398.023953
363.668037	2397.724004
364.056289	2398.880949
364.444478	2402.286248
364.832603	2403.475960
365.220665	2400.935219
365.608665	2402.757596
365.996601	2405.149623
366.384474	2406.956877
366.772284	2406.220869
367.160031	2408.499470
367.547715	2406.465365
367.935336	2407.987793
368.322893	2409.835376
368.710388	2412.199677
369.097820	2414.208577
369.485189	2411.509039
369.872495	2416.295615
370.259738	2417.099679
370.646918	2419.395924
371.034035	2419.937848
371.421090	2423.822057
371.808081	2427.827254
372.195010	2432.084508
372.581875	2441.130859
372.968678	2443.464913
373.355418	2450.671243
373.742096	2461.199693
374.128710	2471.801239
374.515262	2481.513022
374.901751	2497.894251
375.288177	2518.207581
375.674540	2536.937988
376.060841	2559.204764
376.447079	2583.442632
376.833254	2610.884153
377.219367	2634.363327
377.605417	2670.178205
377.991404	2695.454550
378.377329	2736.718915
378.763191	2772.707712
379.148991	2820.235711
379.534727	2869.220603
379.920402	2918.089548
380.306013	2967.074440
380.691563	3030.966024
381.077049	3088.253696
381.462474	3146.098416
381.847835	3219.210270
382.233134	3289.241979
382.618371	3353.829242
383.003545	3436.065585
383.388657	3520.736805
383.773706	3612.216103
384.158693	3686.673946
384.543618	3781.939150
384.928480	3861.385214
385.313280	3971.993171
385.698017	4073.816917
386.082692	4195.366698
386.467305	4254.975822
386.851856	4388.173188
387.236344	4543.639853
387.620770	4606.639152
388.005133	4731.213625
388.389435	4877.114700
388.773674	4966.509481
389.157851	5097.191312
389.541965	5229.274584
389.926018	5252.037914
390.310008	5436.080359
390.693936	5567.145318
391.077802	5677.009704
391.461606	5812.888965
391.845348	5928.023878
392.229027	6052.542898
392.612645	6277.091014
392.996200	6394.905300
393.379694	6565.538275
393.763125	6800.168699
394.146494	6886.478294
394.529801	7027.030704
394.913047	7277.356760
395.296230	7276.204857
395.679351	7333.300965
396.062410	7595.937519
396.445408	7492.238463
396.828343	7648.032803
397.211217	7787.400542
397.594028	7671.612800
397.976778	7874.317596
398.359466	8045.517701
398.742092	8008.555961
399.124656	8166.016401
399.507158	8356.940021
399.889598	8374.795788
400.271977	8586.932583
400.654294	8624.146381
401.036549	8819.985125
401.418742	8844.568312
401.800874	9150.009303
402.182944	9232.497703
402.564952	9604.819682
402.946898	9417.439994
403.328783	9480.376279
403.710606	9677.034211
404.092367	9937.198079
404.474067	10307.848915
404.855705	10088.720040
405.237282	10045.439214
405.618797	10475.275717
406.000250	10727.681249
406.381642	11100.320821
406.762972	11045.757892
407.144240	10845.344300
407.525447	11099.418454
407.906593	11034.087621
408.287677	11297.820625
408.668700	11453.556991
409.049661	11428.250399
409.430560	11588.841396
409.811399	11558.208824
410.192176	11722.079092
410.572891	11798.644137
410.953545	12289.859208
411.334138	11761.039649
411.714669	12373.426416
412.095139	11672.685867
412.475547	12180.188907
412.855894	12022.010102
413.236180	12345.064884
413.616405	12029.788602
413.996568	12312.529277
414.376670	12283.245215
414.756711	12159.026143
415.136691	12442.303701
415.516609	12628.012247
415.896466	12692.370137
416.276262	12992.243174
416.655997	13433.064351
417.035670	13460.039566
417.415283	14117.882416
417.794834	14208.905490
418.174324	13960.263179
418.553753	13859.533364
418.933121	14356.651627
419.312428	14165.342359
419.691674	14076.280294
420.070859	14522.031720
420.449983	14183.548486
420.829045	14737.886366
421.208047	14480.636285
421.586988	14936.454895
421.965867	15193.430233
422.344686	15192.074163
422.723444	15761.192706
423.102141	14440.181026
423.480777	15638.753161
423.859352	15140.916534
424.237866	16256.052532
424.616319	15957.076821
424.994712	16616.353880
425.373044	16411.735966
425.751314	17087.308554
426.129524	16207.775922
426.507673	17313.500086
426.885762	17000.041140
427.263789	17191.660439
427.641756	17371.034775
428.019662	17429.444104
428.397508	17479.596023
428.775292	17775.357999
429.153016	17732.687152
429.530679	17815.551118
429.908282	17835.173810
430.285824	17559.921768
430.663305	18266.666332
431.040726	17861.634826
431.418086	17685.915327
431.795385	18347.957458
432.172624	18764.810470
432.549802	18322.847471
432.926920	18506.983177
433.303977	18390.116628
433.680974	18642.154156
434.057910	18926.573535
434.434786	18972.208580
434.811601	18871.708137
435.188355	19923.370967
435.565050	19558.746830
435.941683	19509.366208
436.318257	20399.258411
436.694770	20208.836386
437.071222	20799.863784
437.447614	19865.213696
437.823946	19904.791795
438.200218	20056.253262
438.576429	19823.883796
438.952580	20100.504511
439.328670	20064.987061
439.704700	20490.228553
440.080670	20045.813033
440.456580	20631.161570
440.832429	20820.169551
441.208218	19809.866868
441.583947	20256.863459
441.959616	20355.710403
442.335224	20593.985581
442.710773	20723.205478
443.086261	21266.052047
443.461689	20625.608739
443.837057	20753.497771
444.212365	21398.914177
444.587612	21391.523846
444.962800	20953.855910
445.337927	21398.057181
445.712995	20123.242635
446.088002	21973.933391
446.462949	22180.139268
446.837837	22351.278880
447.212664	22290.464920
447.587431	25137.978314
447.962139	28071.902127
448.336786	30481.256072
448.711374	28926.697817
449.085901	25238.050259
449.460369	25168.888149
449.834776	25073.834673
450.209124	27569.982164
450.583412	27105.686854
450.957640	27633.256207
451.331808	26280.144980
451.705917	24912.177472
452.079965	24942.827687
452.453954	25301.432687
452.827883	25192.079978
453.201752	24983.204809
453.575562	25150.876107
453.949311	26279.361080
454.323001	26334.675141
454.696632	26094.365858
455.070202	27650.197004
455.443713	27801.471949
455.817164	28377.665751
456.190556	28906.790300
456.563888	28353.581639
456.937160	28788.003072
457.310373	27115.935520
457.683526	27566.087873
458.056619	27550.258650
458.429653	27476.980438
458.802628	28050.978817
459.175542	28171.714452
459.548398	29469.352822
459.921194	31045.953523
460.293930	31701.719418
460.666607	33720.890577
461.039224	35498.144324
461.411782	35878.000308
461.784280	34704.192841
462.156719	34221.565374
462.529099	33648.010616
462.901419	32357.560931
463.273680	31287.966717
463.645882	31373.961239
464.018024	31343.852948
464.390106	32168.111849
464.762130	34862.217890
465.134094	38883.747959
465.505999	44188.516343
465.877845	48787.697108
466.249631	49968.254680
466.621358	48272.337430
466.993026	46159.186561
467.364634	44084.313172
467.736184	42097.266767
468.107674	40851.035563
468.479105	40055.806146
468.850477	39354.448056
469.221790	37911.871471
469.593043	36176.628179
469.964238	35286.171367
470.335373	35177.894944
470.706449	36885.583289
471.077467	39426.723078
471.448425	43972.361748
471.819324	46801.810168
472.190164	44965.395959
472.560945	41407.392425
472.931667	38291.898854
473.302330	37169.947216
473.672934	36340.362336
474.043479	36840.215425
474.413965	36022.081526
474.784393	35642.724617
475.154761	36516.527978
475.525070	36533.446090
475.895321	36050.697636
476.265513	36625.598382
476.635645	37557.432985
477.005719	37365.498614
477.375734	37805.891294
477.745691	38447.473903
478.115588	39760.079459
478.485427	41680.570031
478.855207	44946.607579
479.224928	47485.425917
479.594591	49098.940467
479.964194	48071.268488
480.333739	48198.343374
480.703226	48182.536836
481.072653	48733.222400
481.442022	49158.867183
481.811333	49382.240710
482.180584	48030.014206
482.549777	47447.329918
482.918912	46855.344701
483.287988	46499.658530
483.657005	45615.591380
484.025964	44921.346357
484.394864	44869.551022
484.763706	44354.640006
485.132489	43425.867904
485.501213	43173.835417
485.869879	43228.549581
486.238487	42743.063780
486.607036	42833.799508
486.975527	42216.303533
487.343959	42283.751650
487.712333	42257.527568
488.080648	42062.976838
488.448905	42375.326731
488.817104	42086.302257
489.185244	42860.111811
489.553326	44279.259633
489.921350	46715.177939
490.289315	49415.227501
490.657222	49877.387882
491.025070	50018.562875
491.392861	48936.746383
491.760593	47534.617497
492.128267	45731.371560
492.495883	44123.283812
492.863440	42648.592557
493.230939	41201.642772
493.598380	40016.238130
493.965763	39522.094148
494.333088	38584.739481
494.700354	37972.319947
495.067563	37504.629419
495.434713	37208.995993
495.801805	37066.391833
496.168839	36516.066712
496.535815	36043.647582
496.902733	35855.456268
497.269593	35304.372453
497.636395	35024.338877
498.003139	35140.393801
498.369825	34451.535251
498.736453	34494.430429
499.103023	33869.534039
499.469535	33556.561565
499.835989	33394.821185
500.202385	32885.389903
500.568723	32672.451565
500.935003	32561.339493
501.301226	32157.096928
501.667390	32401.711356
502.033497	32367.857488
502.399546	31660.155105
502.765537	30891.361499
503.131470	30921.384091
503.497345	30934.816246
503.863163	29663.512863
504.228923	29860.490908
504.594625	29898.518852
504.960269	29103.654920
505.325856	29332.309055
505.691385	28605.420041
506.056856	28432.707590
506.422270	28463.529204
506.787625	27875.808804
507.152924	27726.935969
507.518164	27519.162293
507.883347	26705.293210
508.248472	26606.337880
508.613540	26622.421682
508.978550	26533.228547
509.343503	26067.037762
509.708398	25913.385914
510.073236	25945.661901
510.438016	25648.685008
510.802738	25034.117942
511.167403	25101.800474
511.532010	24936.049856
511.896561	24823.276724
512.261053	25019.002042
512.625488	24435.579226
512.989866	24056.731473
513.354186	23681.047044
513.718449	23370.927862
514.082655	23435.119395
514.446803	22961.485347
514.810894	22928.614503
515.174927	22595.560592
515.538904	22237.721848
515.902822	22271.631170
516.266684	21701.461546
516.630488	21624.064711
516.994235	21245.786609
517.357925	21222.801468
517.721558	21008.068479
518.085133	20854.961075
518.448651	20618.241093
518.812112	20230.780529
519.175516	19980.575461
519.538863	19846.253916
519.902152	19545.733092
520.265385	19452.585171
520.628560	19178.253141
520.991678	18814.365012
521.354739	18625.104973
521.717743	18468.065469
522.080690	18153.757089
522.443580	18094.392461
522.806413	17827.226431
523.169189	17537.483593
523.531908	17336.921287
523.894569	17025.690531
524.257174	16826.907752
524.619722	16657.487174
524.982213	16409.570790
525.344647	16127.399765
525.707025	15898.486010
526.069345	15777.793225
526.431608	15499.299722
526.793815	15365.681419
527.155964	14987.121012
527.518057	14807.935719
527.880093	14507.493032
528.242072	14431.381692
528.603995	14129.580414
528.965860	13917.756170
529.327669	13730.358838
529.689421	13492.365965
530.051117	13271.442438
530.412755	13095.576745
530.774337	12908.648240
531.135862	12646.059578
531.497331	12489.017553
531.858743	12279.240018
532.220098	12161.617296
532.581396	11917.864904
532.942638	11665.028354
533.303824	11545.716845
533.664953	11360.991324
534.026025	11127.772424
534.387040	11059.225334
534.747999	10880.135823
535.108902	10749.748900
535.469748	10494.331278
535.830537	10355.651657
536.191270	10232.622297
536.551947	10024.261326
536.912567	9923.554196
537.273131	9797.346389
537.633638	9563.600688
537.994089	9480.588008
538.354483	9283.017627
538.714821	9236.036593
539.075103	9154.374942
539.435328	8983.716761
539.795497	8831.920057
540.155609	8700.514820
540.515665	8639.257239
540.875665	8443.662991
541.235609	8367.914613
541.595496	8240.640602
541.955328	8202.668110
542.315102	8009.788523
542.674821	7870.461113
543.034483	7759.966582
543.394090	7641.045763
543.753640	7527.231633
544.113134	7539.025412
544.472571	7319.762946
544.831953	7349.498192
545.191278	7165.911972
545.550548	7032.575973
545.909761	6985.733572
546.268918	6911.048878
546.628019	6846.053281
546.987064	6709.090172
547.346053	6546.676798
547.704986	6543.702517
548.063863	6415.881541
548.422684	6349.129102
548.781449	6243.476600
549.140158	6188.535585
549.498811	6109.896106
549.857408	5977.717052
550.215949	5961.171985
550.574434	5879.147371
550.932864	5787.973062
551.291237	5761.285194
551.649555	5665.906563
552.007817	5611.411690
552.366022	5514.835785
552.724173	5458.553823
553.082267	5412.447430
553.440305	5368.675091
553.798288	5258.830869
554.156215	5213.654569
554.514086	5164.450387
554.871902	5091.404068
555.229661	5031.512639
555.587365	4958.920024
555.945014	4905.693001
556.302606	4844.841233
556.660143	4801.567968
557.017625	4755.834621
557.375050	4692.028737
557.732421	4654.678828
558.089735	4601.114047
558.446994	4550.745359
558.804197	4523.114795
559.161345	4469.360971
559.518437	4391.202922
559.875474	4354.977190
560.232455	4315.134431
560.589381	4278.321405
560.946251	4225.963981
561.303065	4208.468657
561.659825	4159.665246
562.016528	4107.194397
562.373177	4059.114392
562.729770	4036.235115
563.086307	3984.936333
563.442789	3963.292139
563.799216	3934.136626
564.155587	3889.298083
564.511904	3855.789534
564.868164	3833.192562
565.224370	3804.831030
565.580520	3765.625977
565.936615	3749.073348
566.292654	3708.968448
566.648638	3687.543545
567.004567	3657.914163
567.360441	3635.634783
567.716260	3608.795680
568.072023	3589.984615
568.427732	3562.371695
568.783385	3531.716438
569.138982	3519.768903
569.494525	3500.201665
569.850013	3471.172180
570.205445	3456.441929
570.560823	3435.629525
570.916145	3415.316196
571.271412	3397.379770
571.626625	3376.897562
571.981782	3363.893906
572.336884	3340.596213
572.691931	3331.648165
573.046923	3313.568067
573.401860	3297.834626
573.756743	3281.430711
574.111570	3272.470060
574.466342	3258.742998
574.821059	3249.779827
575.175722	3229.141343
575.530330	3215.298335
575.884882	3201.117569
576.239380	3192.401414
576.593823	3182.182995
576.948211	3172.163702
577.302544	3155.422030
577.656823	3147.162099
578.011047	3140.129690
578.365216	3128.792135
578.719330	3115.145731
579.073389	3109.393775
579.427394	3104.299689
579.781344	3095.321394
580.135239	3079.106522
580.489080	3072.553022
580.842866	3063.584810
581.196597	3062.639593
581.550273	3055.813871
581.903895	3046.316337
582.257463	3046.946481
582.610975	3033.219419
582.964434	3034.593134
583.317837	3023.462266
583.671186	3014.978004
584.024481	3013.853827
584.377721	3000.409070
584.730906	2998.153153
585.084037	2992.633090
585.437113	2982.669249
585.790135	2980.650267
586.143103	2968.062506
586.496016	2965.998153
586.848874	2956.833336
587.201679	2957.813840
587.554428	2947.056018
587.907124	2947.865123
588.259765	2933.938936
588.612352	2936.393978
588.964884	2927.617329
589.317362	2928.247473
589.669786	2920.176586
590.022155	2916.660381
590.374470	2914.699372
590.726731	2907.427508
591.078937	2896.573903
591.431090	2893.846639
591.783188	2889.397821
592.135232	2880.787530
592.487222	2879.318034
592.839157	2879.035729
593.191038	2871.083309
593.542866	2864.923019
593.894639	2856.302646
594.246358	2856.101000
594.598022	2850.094465
594.949633	2843.810667
595.301190	2839.094667
595.652692	2837.216837
596.004141	2836.082578
596.355535	2823.928356
596.706876	2819.635813
597.058162	2814.430822
597.409395	2819.043478
597.760573	2816.021306
598.111698	2808.227682
598.462768	2805.487815
598.813785	2802.884059
599.164748	2795.942390
599.515657	2795.110600
599.866511	2787.448046
600.217312	2791.019703
600.568060	2781.761624
600.918753	2785.686163
601.269392	2783.218518
601.619978	2776.286931
601.970510	2777.837086
602.320988	2774.673762
602.671412	2775.981942
603.021783	2771.477671
603.372100	2766.008019
603.722363	2761.463418
604.072572	2759.555342
604.422728	2760.442585
604.772830	2754.143663
605.122878	2750.297263
605.472872	2749.036974
605.822813	2746.271901
606.172701	2745.054463
606.522534	2745.719895
606.872314	2746.934813
607.222041	2741.392064
607.571714	2741.792836
607.921333	2736.139182
608.270899	2734.901579
608.620411	2739.612537
608.969870	2733.971486
609.319276	2732.869994
609.668627	2733.691702
610.017926	2730.011660
610.367171	2731.098028
610.716362	2731.813872
611.065500	2725.943448
611.414585	2727.491083
611.763616	2725.887996
612.112594	2722.903633
612.461518	2722.984291
612.810389	2725.391442
613.159207	2718.757284
613.507971	2718.994218
613.856682	2720.650237
614.205340	2715.946840
614.553945	2721.292984
614.902496	2714.462221
615.250994	2715.140256
615.599439	2714.563044
615.947830	2715.233517
616.296169	2714.522714
616.644454	2711.636654
616.992686	2712.634802
617.340864	2715.399875
617.688990	2709.486602
618.037063	2712.844010
618.385082	2711.009030
618.733048	2710.230172
619.080961	2709.395861
619.428821	2708.377548
619.776628	2706.958463
620.124382	2703.908565
620.472083	2705.448637
620.819731	2706.734132
621.167326	2700.866229
621.514868	2700.246167
621.862357	2695.164684
622.209793	2693.690146
622.557176	2690.375587
622.904506	2685.185720
623.251783	2682.977694
623.599007	2682.720595
623.946179	2676.260357
624.293297	2677.792867
624.640363	2676.225069
624.987376	2672.643329
625.334336	2671.899759
625.681243	2668.975889
626.028097	2666.946825
626.374899	2669.691733
626.721647	2665.464726
627.068343	2663.428100
627.414987	2661.749395
627.761577	2660.128664
628.108115	2660.141267
628.454600	2655.606749
628.801032	2655.052222
629.147412	2655.538694
629.493739	2654.061636
629.840014	2652.093065
630.186236	2650.734474
630.532405	2650.631131
630.878521	2649.665750
631.224585	2649.174237
631.570597	2647.288846
631.916556	2647.747591
632.262462	2644.243989
632.608316	2642.454379
632.954117	2643.888587
633.299866	2643.122332
633.645562	2640.183339
633.991206	2637.733338
634.336797	2634.484315
634.682336	2636.321815
635.027823	2637.594707
635.373257	2631.000877
635.718639	2629.359982
636.063968	2630.400980
636.409245	2624.696915
636.754470	2626.521812
637.099642	2622.929990
637.444762	2622.912346
637.789829	2621.994856
638.134845	2619.522170
638.479808	2617.788013
638.824719	2618.720627
639.169577	2615.476644
639.514383	2615.746346
639.859137	2613.772734
640.203839	2617.130143
640.548489	2610.342229
640.893086	2610.226282
641.237632	2604.146651
641.582125	2606.584049
641.926566	2603.355190
642.270955	2608.419029
642.615292	2607.700664
642.959576	2605.767382
643.303809	2608.661004
643.647990	2605.333843
643.992118	2607.967846
644.336195	2605.444748
644.680219	2605.888370
645.024192	2606.236209
645.368112	2609.180243
645.711981	2606.452979
646.055797	2608.350973
646.399562	2610.251488
646.743274	2616.588219
647.086935	2619.938065
647.430544	2617.420009
647.774101	2614.488578
648.117606	2617.457818
648.461059	2619.224742
648.804460	2618.715586
649.147810	2614.274329
649.491108	2613.712240
649.834354	2610.453134
650.177548	2601.152206
650.520690	2604.822166
650.863781	2602.198245
651.206820	2605.215376
651.549807	2599.750765
651.892742	2599.203800
652.235626	2596.718511
652.578458	2595.339755
652.921238	2590.497727
653.263967	2595.417893
653.606644	2591.165680
653.949269	2588.650144
654.291843	2587.349526
654.634365	2593.721545
654.976836	2587.261306
655.319255	2587.107551
655.661622	2586.822726
656.003938	2587.316759
656.346203	2586.028744
656.688416	2586.845411
657.030577	2583.493044
657.372687	2582.935996
657.714746	2586.217787
658.056753	2582.197467
658.398708	2578.320820
658.740612	2581.862230
659.082465	2582.250399
659.424266	2579.447518
659.766016	2578.527507
660.107715	2583.183013
660.449362	2583.304000
660.790958	2583.722416
661.132503	2583.525811
661.473996	2584.425657
661.815438	2583.160327
662.156829	2581.282498
662.498168	2583.387179
662.839456	2581.337950
663.180693	2579.908783
663.521879	2584.110585
663.863013	2584.639906
664.204097	2582.641089
664.545129	2586.099320
664.886110	2584.339958
665.227040	2585.353229
665.567918	2585.779207
665.908746	2584.586974
666.249522	2584.740729
666.590248	2585.075966
666.930922	2587.672160
667.271545	2588.806420
667.612118	2587.160483
667.952639	2583.051943
668.293109	2585.070925
668.633528	2583.238465
668.973896	2588.065370
669.314213	2582.782241
669.654480	2583.636717
669.994695	2585.254927
670.334859	2583.049422
670.674973	2580.165882
671.015035	2583.871130
671.355047	2581.388362
671.695008	2583.051943
672.034918	2581.647981
672.374777	2584.400451
672.714585	2579.417271
673.054342	2581.184195
673.394049	2582.714185
673.733705	2583.135122
674.073310	2582.348702
674.412864	2579.109760
674.752368	2578.164544
675.091820	2580.377611
675.431223	2575.749831
675.770574	2575.843093
676.109875	2569.909655
676.449125	2571.666497
676.788324	2570.847309
677.127473	2571.200190
677.466571	2565.551577
677.805619	2571.185067
678.144616	2570.139027
678.483562	2569.534089
678.822458	2568.339335
679.161303	2568.127607
679.500098	2566.446382
679.838842	2565.521330
680.177535	2563.986299
680.516179	2567.752041
680.854771	2567.467216
681.193314	2570.214644
681.531805	2576.805953
681.870247	2579.215625
682.208638	2584.125708
682.546978	2584.670153
682.885268	2585.791810
683.223508	2582.625965
683.561697	2584.082859
683.899836	2580.375090
684.237925	2576.669842
684.575963	2577.229410
684.913951	2574.431570
685.251889	2577.042887
685.589776	2577.700758
685.927614	2579.402147
686.265401	2574.292938
686.603137	2574.204718
686.940824	2579.530697
687.278460	2581.469020
687.616046	2581.779051
687.953582	2585.234762
688.291068	2586.237952
688.628504	2587.188209
688.965889	2587.775504
689.303224	2585.176789
689.640510	2583.941706
689.977745	2578.192270
690.314930	2577.468865
690.652065	2574.590366
690.989150	2569.609706
691.326185	2564.956721
691.663170	2564.039231
692.000105	2561.816082
692.336990	2553.949362
692.673825	2552.678991
693.010610	2552.747046
693.347345	2546.997610
693.684030	2538.354552
694.020665	2542.251364
694.357251	2535.763399
694.693786	2544.439225
695.030272	2538.888914
695.366707	2537.190046
695.703093	2534.465302
696.039429	2535.755837
696.375716	2536.713657
696.711952	2535.597041
697.048139	2534.283820
697.384276	2532.332894
697.720363	2533.235260
698.056400	2535.493697
698.392388	2532.043028
698.728326	2532.796680
699.064214	2529.398942
699.400053	2530.442461
699.735842	2529.648479
700.071581	2529.013294
700.407270	2525.471883
700.742910	2527.145547
701.078501	2526.154960
701.414042	2520.939886
701.749533	2521.113806
702.084974	2521.348220
702.420366	2519.356964
702.755709	2516.937210
703.091002	2515.941582
703.426246	2518.376459
703.761440	2516.637261
704.096584	2516.526356
704.431679	2513.993176
704.766725	2516.065090
705.101721	2514.772034
705.436668	2515.495440
705.771565	2513.148783
706.106413	2517.073321
706.441212	2512.304390
706.775961	2519.167921
707.110661	2518.154649
707.445311	2520.614732
707.779913	2515.954185
708.114465	2520.292098
708.448967	2520.899557
708.783421	2522.265710
709.117825	2522.626152
709.452180	2526.961544
709.786485	2528.299971
710.120742	2534.009077
710.454949	2534.246012
710.789107	2532.229550
711.123216	2534.336753
711.457275	2537.091743
711.791286	2542.261446
712.125247	2539.745911
712.459159	2542.153062
712.793023	2546.715306
713.126837	2543.491488
713.460602	2543.637681
713.794318	2538.175591
714.127985	2538.856147
714.461602	2532.219468
714.795171	2533.439427
715.128691	2528.418438
715.462162	2527.241328
715.795584	2521.708662
716.128957	2522.739578
716.462281	2518.746984
716.795556	2520.856707
717.128782	2518.489885
717.461960	2514.996366
717.795088	2512.551406
718.128167	2509.771210
718.461198	2507.595952
718.794180	2507.603514
719.127113	2506.895232
719.459997	2505.912207
719.792833	2505.478667
720.125619	2504.886332
720.458357	2502.277535
720.791046	2504.311640
721.123686	2501.788543
721.456278	2499.089005
721.788821	2500.382061
722.121315	2499.023470
722.453761	2500.434993
722.786158	2497.591782
723.118506	2499.237719
723.450805	2497.581700
723.783056	2498.421052
724.115259	2501.707884
724.447412	2498.758809
724.779518	2500.886176
725.111574	2502.043121
725.443582	2503.898266
725.775542	2504.359531
726.107453	2502.441372
726.439315	2505.798781
726.771129	2511.800274
727.102895	2510.073679
727.434612	2508.324399
727.766281	2510.030829
728.097901	2509.186436
728.429473	2511.722136
728.760996	2509.685510
729.092471	2508.571415
729.423897	2510.668535
729.755276	2514.598115
730.086606	2512.543844
730.417887	2513.486540
730.749120	2518.590708
731.080305	2519.495596
731.411442	2519.195647
731.742530	2520.569361
732.073570	2526.384332
732.404562	2526.003725
732.735506	2525.192099
733.066401	2522.190092
733.397249	2520.158507
733.728048	2519.639268
734.058798	2511.467558
734.389501	2508.125273
734.720156	2506.814573
735.050762	2499.736793
735.381320	2502.453975
735.711831	2498.093377
736.042293	2497.722852
736.372707	2498.244612
736.703073	2495.436689
737.033391	2497.410301
737.363661	2497.075064
737.693883	2495.537512
738.024056	2499.782163
738.354182	2500.694612
738.684260	2502.043121
739.014290	2500.142606
739.344272	2505.551764
739.674207	2506.151661
740.004093	2511.134842
740.333931	2506.219717
740.663722	2508.611744
740.993464	2507.971518
741.323159	2506.804491
741.652806	2506.935561
741.982405	2507.485047
742.311956	2501.975065
742.641460	2501.803666
742.970915	2501.339880
743.300323	2497.269148
743.629683	2498.789056
743.958996	2496.409632
744.288260	2494.453664
744.617477	2491.197078
744.946647	2491.464260
745.275768	2488.699187
745.604842	2486.171048
745.933869	2484.681387
746.262847	2485.099803
746.591778	2489.087356
746.920662	2488.006028
747.249498	2487.882520
747.578286	2488.618528
747.907027	2489.276399
748.235720	2488.200113
748.564365	2489.684732
748.892963	2487.464104
749.221514	2490.740854
749.550017	2489.392345
749.878473	2492.986688
750.206881	2489.820843
750.535242	2489.132726
750.863555	2486.942345
751.191821	2489.115082
751.520039	2487.937973
751.848210	2486.917139
752.176334	2488.026193
752.504411	2488.079125
752.832440	2487.043168
753.160421	2487.121306
753.488356	2485.465287
753.816243	2486.279433
754.144082	2483.264823
754.471875	2486.377735
754.799620	2482.178454
755.127318	2486.357571
755.454969	2481.150059
755.782572	2485.301449
756.110129	2484.499906
756.437638	2482.420430
756.765100	2484.411685
757.092515	2484.651140
757.419882	2483.703403
757.747203	2482.317086
758.074477	2486.665081
758.401703	2485.505616
758.728882	2487.547283
759.056014	2486.166007
759.383099	2486.957468
759.710138	2490.950062
760.037129	2489.276399
760.364073	2489.117602
760.690970	2489.606594
761.017820	2490.060298
761.344623	2489.977119
761.671379	2493.838643
761.998088	2492.757316
762.324751	2502.648059
762.651366	2524.756040
762.977935	2552.126984
763.304456	2563.424210
763.630931	2573.267063
763.957359	2564.331618
764.283740	2555.023127
764.610074	2540.572660
764.936362	2524.904754
765.262602	2515.805471
765.588796	2505.652587
765.914943	2498.136227
766.241044	2491.045844
766.567097	2489.679691
766.893104	2480.993783
767.219064	2479.778865
767.544978	2474.987248
767.870845	2474.679738
768.196665	2472.466671
768.522438	2472.925416
768.848165	2472.789305
769.173846	2471.062710
769.499479	2469.930971
769.825066	2468.395940
770.150607	2463.309415
770.476101	2465.935857
770.801548	2466.293778
771.126949	2463.667337
771.452303	2464.778912
771.777611	2464.315126
772.102872	2461.802110
772.428087	2461.673561
772.753256	2461.585341
773.078378	2458.989147
773.403453	2459.122737
773.728482	2458.663992
774.053465	2457.287757
774.378401	2458.323714
774.703291	2458.043930
775.028135	2454.202571
775.352932	2453.436316
775.677683	2457.179372
776.002388	2452.133177
776.327046	2452.256686
776.651658	2453.726182
776.976224	2453.486727
777.300743	2454.144598
777.625216	2450.245265
777.949643	2452.203753
778.274024	2454.139557
778.598359	2448.027157
778.922647	2448.551438
779.246889	2449.239555
779.571086	2447.414657
779.895236	2453.002776
780.219339	2451.613938
780.543397	2453.685853
780.867409	2451.117385
781.191374	2453.249793
781.515294	2450.310800
781.839167	2456.019907
782.162995	2452.349947
782.486776	2451.782817
782.810511	2452.377673
783.134201	2451.737447
783.457844	2450.000769
783.781441	2451.397169
784.104993	2450.729216
784.428498	2452.070163
784.751958	2450.078907
785.075372	2448.662343
785.398739	2449.784000
785.722061	2449.899946
786.045337	2448.385079
786.368568	2448.589246
786.691752	2448.687549
787.014891	2454.815071
787.337983	2458.303550
787.661030	2460.289764
787.984031	2463.995012
788.306987	2465.772019
788.629897	2468.332925
788.952760	2464.889817
789.275579	2466.946608
789.598351	2463.808490
789.921078	2460.498972
790.243759	2455.210802
790.566395	2456.334979
790.888984	2455.195678
791.211529	2452.410441
791.534027	2451.772735
791.856480	2449.171499
792.178888	2450.661160
792.501249	2454.384053
792.823566	2448.490944
793.145836	2445.791406
793.468062	2449.088320
793.790241	2447.044132
794.112375	2449.710903
794.434464	2449.441201
794.756507	2448.541355
795.078505	2451.059412
795.400457	2449.252158
795.722364	2452.337344
796.044226	2456.581996
796.366042	2451.871037
796.687812	2455.326748
797.009538	2456.952520
797.331218	2455.394804
797.652852	2455.765329
797.974442	2454.880606
798.295986	2456.188786
798.617484	2452.057560
798.938938	2453.716100
799.260346	2455.021758
799.581709	2452.133177
799.903026	2454.351285
800.224299	2451.503033
800.545526	2451.434978
800.866708	2447.681838
801.187845	2446.640840
801.508936	2447.505398
801.829983	2446.799637
802.150984	2447.306273
802.471940	2445.667898
802.792851	2446.774431
803.113717	2445.410799
803.434538	2444.437856
803.755314	2444.717640
804.076045	2445.330140
804.396731	2444.369800
804.717372	2445.186467
805.037967	2446.315686
805.358518	2443.132197
805.679024	2444.841148
805.999485	2446.406427
806.319901	2448.188474
806.640272	2445.408278
806.960598	2447.470110
807.280879	2448.357353
807.601115	2448.904318
807.921306	2446.724019
808.241453	2448.743001
808.561554	2446.877774
808.881611	2448.085131
809.201623	2446.194698
809.521590	2447.961622
809.841513	2446.804678
810.161390	2445.327620
810.481223	2444.752928
810.801011	2446.295521
811.120755	2444.505912
811.440453	2445.456169
811.760107	2444.415171
812.079716	2445.924996
812.399281	2439.341249
812.718801	2443.157403
813.038276	2438.244798
813.357707	2445.988011
813.677093	2442.063473
813.996434	2447.107147
814.315731	2445.965326
814.634983	2442.991045
814.954191	2444.183278
815.273354	2446.953392
815.592473	2446.784513
815.911547	2447.822991
816.230577	2446.867692
816.549562	2447.943978
816.868502	2449.229473
817.187399	2448.942127
817.506250	2452.140739
817.825058	2451.518157
818.143821	2454.225256
818.462539	2455.084773
818.781213	2459.210957
819.099843	2466.165229
819.418429	2475.342650
819.736970	2482.801037
820.055466	2489.742706
820.373919	2499.472133
820.692327	2519.029289
821.010691	2555.512119
821.329011	2627.527522
821.647286	2744.656212
821.965517	2863.753471
822.283704	2935.262238
822.601847	2958.443984
822.919945	2906.588155
823.237999	2848.564475
823.556010	2787.763118
823.873976	2733.071640
824.191897	2684.714372
824.509775	2648.216418
824.827609	2611.715943
825.145398	2589.202150
825.463144	2580.294432
825.780845	2579.487847
826.098502	2597.820003
826.416116	2626.156329
826.733685	2651.639361
827.051210	2658.351658
827.368692	2643.951602
827.686129	2617.238527
828.003522	2582.409196
828.320872	2551.942982
828.638177	2533.915816
828.955439	2511.860768
829.272656	2498.897441
829.589830	2484.812457
829.906960	2481.119812
830.224046	2471.425673
830.541088	2467.823769
830.858086	2465.618264
831.175041	2461.250104
831.491952	2458.326235
831.808819	2462.023921
832.125642	2464.637759
832.442421	2470.656897
832.759157	2486.362612
833.075849	2509.801457
833.392497	2535.319778
833.709101	2550.458363
834.025662	2549.283774
834.342179	2533.149561
834.658653	2517.164062
834.975083	2502.597648
835.291469	2493.775629
835.607811	2480.250213
835.924110	2473.782413
836.240366	2465.640949
836.556578	2457.706173
836.872746	2451.513115
837.188871	2447.558330
837.504952	2446.713937
837.820990	2444.188319
838.136984	2441.932403
838.452935	2443.815273
838.768842	2443.003648
839.084706	2444.142948
839.400526	2455.909002
839.716303	2467.493573
840.032037	2477.732157
840.347727	2475.735860
840.663373	2469.729325
840.978977	2459.180710
841.294537	2455.881275
841.610054	2448.566561
841.925527	2444.334512
842.240957	2441.519028
842.556344	2438.408636
842.871687	2436.540888
843.186987	2433.758172
843.502244	2428.953952
843.817458	2427.040834
844.132629	2428.142326
844.447756	2423.764084
844.762840	2423.257448
845.077881	2423.922880
845.392879	2422.985226
845.707833	2423.585123
846.022745	2420.537746
846.337613	2424.598395
846.652438	2424.331214
846.967221	2425.651996
847.281960	2423.600247
847.596656	2425.583941
847.911309	2420.580595
848.225919	2422.080339
848.540485	2422.385328
848.855009	2422.208888
849.169490	2424.890782
849.483928	2423.106213
849.798323	2422.516398
850.112675	2421.873651
850.426984	2422.624783
850.741251	2424.852973
851.055474	2422.576892
851.369654	2423.068405
851.683792	2423.925401
851.997887	2423.968251
852.311938	2423.128899
852.625947	2423.539753
852.939914	2422.372726
853.253837	2423.932963
853.567718	2421.281316
853.881555	2423.169228
854.195350	2419.027920
854.509103	2420.507499
854.822812	2424.366502
855.136479	2425.089908
855.450103	2422.105544
855.763685	2422.420617
856.077224	2421.792993
856.390720	2421.493044
856.704173	2421.886254
857.017584	2421.601429
857.330953	2421.883734
857.644278	2422.644948
857.957561	2423.194434
858.270802	2425.379774
858.584000	2422.188723
858.897155	2423.620411
859.210268	2422.889444
859.523339	2420.230235
859.836367	2422.987746
860.149352	2422.770977
860.462295	2425.616708
860.775195	2420.958682
861.088054	2417.324010
861.400869	2421.248548
861.713642	2417.649164
862.026373	2424.404311
862.339062	2420.983888
862.651708	2421.941707
862.964312	2421.205698
863.276873	2422.952458
863.589392	2424.295926
863.901869	2425.687284
864.214303	2424.404311
864.526696	2423.280133
864.839045	2425.546132
865.151353	2423.058323
865.463619	2425.866245
865.775842	2425.094949
866.088023	2426.604774
866.400162	2426.839188
866.712258	2423.421286
867.024313	2424.737027
867.336325	2426.214085
867.648296	2426.229208
867.960224	2425.992274
868.272110	2424.358940
868.583954	2424.298446
868.895755	2425.755340
869.207515	2426.098138
869.519233	2425.720052
869.830909	2427.933118
870.142542	2427.640731
870.454134	2428.389343
870.765684	2429.453026
871.077191	2425.833478
871.388657	2430.494024
871.700081	2429.090063
872.011463	2430.849426
872.322803	2428.273396
872.634101	2430.080650
872.945357	2429.319436
873.256571	2430.425969
873.567744	2429.488314
873.878874	2431.693819
874.189963	2433.153233
874.501010	2433.758172
874.812015	2431.973603
875.122979	2432.744900
875.433900	2431.212389
875.744780	2435.199942
876.055618	2431.328335
876.366415	2435.194900
876.677169	2434.302616
876.987882	2436.475353
877.298554	2432.848243
877.609183	2431.734148
877.919771	2435.641042
878.230317	2437.808739
878.540822	2441.773606
878.851285	2445.372990
879.161707	2453.748867
879.472087	2463.155660
879.782425	2475.556899
880.092722	2504.752741
880.402977	2545.326468
880.713191	2593.981164
881.023363	2640.173257
881.333494	2669.719460
881.643583	2680.172292
881.953631	2675.758762
882.263637	2662.555980
882.573602	2643.172743
882.883526	2627.454426
883.193408	2604.708740
883.503248	2583.117478
883.813048	2563.976217
884.122806	2546.808567
884.432522	2528.892306
884.742197	2514.318331
885.051831	2502.917761
885.361424	2490.725731
885.670975	2480.466983
885.980485	2471.632360
886.289954	2468.529530
886.599382	2462.505351
886.908768	2457.368416
887.218113	2453.781635
887.527417	2449.443722
887.836680	2445.488937
888.145901	2445.012548
888.455082	2441.221600
888.764221	2438.920313
889.073319	2441.133380
889.382376	2436.568615
889.691392	2436.445107
890.000366	2436.132555
890.309300	2433.470826
890.618193	2435.638522
890.927044	2435.010898
891.235855	2436.014088
891.544625	2436.790426
891.853353	2437.234047
892.162041	2437.700354
892.470687	2443.316199
892.779293	2444.309307
893.087858	2446.214863
893.396381	2454.386573
893.704864	2462.071812
894.013306	2476.121508
894.321707	2493.505927
894.630068	2501.196207
894.938387	2505.874398
895.246665	2502.509428
895.554903	2495.088849
895.863100	2487.963178
896.171256	2479.219297
896.479371	2473.547999
896.787446	2471.218986
897.095480	2464.173973
897.403473	2460.466205
897.711425	2455.392283
898.019336	2452.851542
898.327207	2451.324072
898.635038	2444.813422
898.942827	2444.488268
899.250576	2439.240426
899.558284	2438.937957
899.865952	2436.561053
900.173579	2435.325970
900.481165	2433.160795
900.788711	2434.290013
901.096216	2432.916299
901.403681	2430.889755
901.711105	2432.608788
902.018489	2431.933274
902.325832	2432.838161
902.633135	2431.797163
902.940397	2442.050870
903.247619	2448.261571
903.554800	2473.061528
903.861941	2497.284272
904.169041	2514.895543
904.476101	2521.290246
904.783121	2518.429392
905.090100	2507.144769
905.397039	2495.277893
905.703938	2485.309011
906.010796	2479.027733
906.317614	2469.976341
906.624391	2463.962245
906.931129	2458.023766
907.237826	2450.948506
907.544483	2447.860799
907.851099	2443.926179
908.157675	2435.817483
908.464211	2434.340425
908.770707	2427.935639
909.077163	2426.289702
909.383578	2421.437592
909.689954	2424.679053
909.996289	2418.365008
910.302584	2421.142684
910.608839	2419.358116
910.915054	2420.152097
911.221229	2420.817530
911.527363	2422.937335
911.833458	2420.623445
912.139513	2423.922880
912.445527	2425.455391
912.751502	2425.563776
913.057436	2426.917326
913.363331	2425.629311
913.669186	2428.069229
913.975000	2435.348656
914.280775	2442.822166
914.586510	2446.257713
914.892205	2461.552573
915.197859	2476.441621
915.503475	2491.242449
915.809050	2505.216527
916.114585	2514.000738
916.420081	2519.724968
916.725536	2518.101717
917.030952	2512.271622
917.336328	2503.197545
917.641665	2498.892400
917.946961	2492.555669
918.252218	2488.323621
918.557435	2479.529328
918.862612	2475.836683
919.167750	2467.954839
919.472848	2463.374950
919.777906	2457.058385
920.082925	2448.894236
920.387904	2446.038422
920.692843	2439.956270
920.997743	2437.183636
921.302603	2435.860333
921.607423	2437.982658
921.912204	2429.886565
922.216946	2430.378078
922.521647	2431.340938
922.826310	2427.691143
923.130932	2426.388005
923.435516	2422.597057
923.740059	2421.286357
924.044564	2422.216450
924.349028	2424.389187
924.653454	2418.811150
924.957840	2418.748136
925.262186	2414.556417
925.566493	2414.755542
925.870761	2411.246899
926.174989	2415.178999
926.479178	2417.414751
926.783328	2417.233269
927.087438	2413.079358
927.391509	2415.158834
927.695541	2413.860737
927.999533	2416.678742
928.303486	2413.359143
928.607400	2415.340316
928.911275	2414.442991
929.215110	2412.577764
929.518906	2414.896694
929.822663	2413.540624
930.126381	2413.268402
930.430060	2413.651529
930.733699	2412.113978
931.037299	2413.969122
931.340861	2415.337795
931.644383	2412.303021
931.947866	2412.829821
932.251309	2414.548855
932.554714	2412.373597
932.858080	2415.889802
933.161407	2410.203380
933.464694	2409.916034
933.767943	2414.579102
934.071153	2411.912331
934.374323	2413.180182
934.677455	2413.270922
934.980548	2411.637588
935.283602	2413.233114
935.586617	2411.287228
935.889593	2411.380490
936.192530	2408.854872
936.495428	2414.324523
936.798287	2411.113308
937.101108	2415.363001
937.403890	2414.994997
937.706632	2413.517939
938.009336	2415.088258
938.312002	2418.622107
938.614628	2418.170924
938.917216	2419.131264
939.219765	2418.186047
939.522275	2421.029258
939.824747	2420.439443
940.127179	2416.807292
940.429573	2416.472055
940.731929	2417.031623
941.034246	2414.619431
941.336524	2419.826943
941.638763	2418.838877
941.940964	2421.298960
942.243126	2416.903074
942.545250	2417.777714
942.847335	2417.220666
943.149381	2418.864082
943.451389	2417.555903
943.753359	2417.006417
944.055290	2414.480799
944.357182	2415.962898
944.659036	2414.755542
944.960851	2416.772004
945.262628	2412.161868
945.564367	2415.181520
945.866067	2411.065417
946.167729	2414.894174
946.469352	2414.014493
946.770937	2415.219328
947.072484	2412.665984
947.373992	2413.603638
947.675462	2412.746642
947.976893	2414.347209
948.278286	2414.080027
948.579641	2415.055491
948.880958	2413.049112
949.182236	2411.917372
949.483476	2412.671025
949.784678	2411.940058
950.085841	2414.556417
950.386967	2416.056160
950.688054	2411.912331
950.989103	2414.102713
951.290114	2417.296284
951.591087	2415.945254
951.892021	2415.907446
952.192917	2415.184040
952.493776	2414.712692
952.794596	2414.364853
953.095378	2417.039185
953.396122	2415.851993
953.696828	2417.172775
953.997496	2416.187230
954.298126	2413.591036
954.598718	2414.851324
954.899272	2417.119843
955.199788	2415.216808
955.500266	2412.214801
955.800706	2411.254461
956.101108	2411.304872
956.401472	2409.056518
956.701798	2406.256157
957.002087	2406.881260
957.302337	2410.556261
957.602550	2409.142217
957.902724	2407.972670
958.202861	2406.349418
958.502960	2409.772362
958.803022	2408.703637
959.103045	2409.457289
959.403031	2409.520304
959.702979	2406.399830
960.002889	2409.313617
960.302762	2405.275652
960.602596	2408.592732
960.902393	2408.675911
961.202153	2407.697927
961.501875	2405.265570
961.801559	2405.056362
962.101205	2406.646846
962.400814	2405.948646
962.700385	2405.174829
962.999918	2402.339180
963.299414	2401.910682
963.598873	2406.225910
963.898293	2404.441341
964.197677	2405.741959
964.497022	2405.373955
964.796331	2406.291445
965.095601	2403.228944
965.394835	2407.685324
965.694030	2403.922103
965.993189	2405.835220
966.292309	2406.102402
966.591393	2407.496281
966.890439	2406.087278
967.189447	2405.956208
967.488419	2404.617782
967.787353	2405.585683
968.086249	2404.569891
968.385108	2403.869170
968.683930	2406.200704
968.982714	2406.014181
969.281462	2406.155334
969.580172	2404.869839
969.878844	2406.687175
970.177480	2404.557288
970.476078	2405.951167
970.774639	2404.751372
971.073162	2406.344377
971.371649	2403.415467
971.670098	2401.920764
971.968510	2404.002761
972.266885	2403.178532
972.565223	2404.706002
972.863524	2405.779768
973.161788	2407.524007
973.460014	2406.208266
973.758204	2402.901269
974.056356	2406.223389
974.354471	2406.750190
974.652550	2406.561147
974.950591	2404.683317
975.248595	2406.097360
975.546563	2404.592576
975.844493	2406.321692
976.142386	2405.129459
976.440243	2404.799263
976.738062	2405.018553
977.035845	2405.857906
977.333590	2406.127607
977.631299	2404.577453
977.928971	2404.645508
978.226606	2404.073337
978.524204	2405.988976
978.821765	2405.149623
979.119290	2403.947308
979.416777	2406.795560
979.714228	2403.823800
980.011642	2404.741290
980.309020	2405.169788
980.606360	2403.632236
980.903664	2407.561816
981.200931	2405.280693
981.498162	2408.721281
981.795356	2409.346384
982.092513	2411.992990
982.389633	2411.975346
982.686717	2416.396438
982.983764	2415.993145
983.280775	2416.817374
983.577749	2416.192271
983.874686	2417.790317
984.171587	2414.644637
984.468451	2418.707807
984.765279	2413.540624
985.062070	2413.018865
985.358824	2410.689852
985.655543	2410.906621
985.952224	2411.773700
986.248869	2410.543658
986.545478	2404.758934
986.842050	2405.126938
987.138586	2401.978738
987.435086	2402.641649
987.731549	2402.145096
988.027975	2405.973852
988.324366	2402.830693
988.620719	2403.291958
988.917037	2402.475291
989.213318	2401.562842
989.509563	2405.888153
989.805772	2401.769530
990.101944	2405.202556
990.398080	2403.186094
990.694180	2402.261042
990.990244	2402.437483
991.286271	2403.571742
991.582262	2404.184242
991.878217	2398.351627
992.174136	2402.540826
992.470019	2403.637277
992.765865	2405.426887
993.061676	2399.717780
993.357450	2406.140210
993.653188	2401.736762
993.948890	2404.428738
994.244556	2405.353790
994.540186	2404.219531
994.835780	2406.115004
995.131337	2405.923441
995.426859	2408.673390
995.722345	2410.480644
996.017795	2409.716909
996.313208	2409.197670
996.608586	2410.765469
996.903928	2410.992321
997.199234	2409.149779
997.494504	2410.299162
997.789738	2409.437125
998.084936	2408.660787
998.380099	2407.062741
998.675225	2408.469223
998.970316	2407.148441
999.265371	2408.328071
999.560390	2404.464027
999.855373	2406.301527
1000.150320	2408.481826
1000.445232	2406.266239
1000.740108	2404.010323
1001.034948	2405.943605
1001.329752	2400.826834
1001.624521	2405.119377
1001.919254	2398.149981
1002.213951	2403.138203
1002.508613	2399.853891
1002.803239	2399.800959
1003.097829	2397.797101
1003.392384	2401.938408
1003.686903	2402.243398
1003.981386	2403.876732
1004.275834	2402.434962
1004.570246	2401.388923
1004.864623	2399.180897
1005.158964	2403.163409
1005.453270	2399.569066
1005.747540	2400.829355
1006.041775	2400.040414
1006.335974	2404.287586
1006.630138	2402.954201
1006.924266	2403.780950
1007.218359	2401.472102
1007.512416	2400.761299
1007.806438	2404.292627
1008.100425	2400.284910
1008.394376	2401.217523
1008.688292	2401.744324
1008.982172	2400.216854
1009.276017	2400.836916
1009.569827	2399.490928
1009.863602	2403.236506
1010.157341	2400.705846
1010.451045	2401.525034
1010.744714	2400.110990
1011.038347	2403.347411
1011.331945	2401.099056
1011.625508	2399.606875
1011.919036	2399.624519
1012.212528	2403.329767
1012.505986	2402.621485
1012.799408	2400.557132
1013.092795	2401.628377
1013.386147	2402.175343
1013.679464	2402.208110
1013.972745	2401.081412
1014.265992	2401.144427
1014.559204	2403.826321
1014.852380	2401.467061
1015.145521	2402.550909
1015.438628	2397.368603
1015.731699	2402.082081
1016.024736	2401.877915
1016.317737	2400.864643
1016.610703	2401.419170
1016.903635	2399.153171
1017.196531	2397.603016
1017.489393	2399.543860
1017.782219	2395.458005
1018.075011	2400.587379
1018.367768	2399.778274
1018.660490	2403.997720
1018.953177	2403.997720
1019.245829	2403.997720
