Dividing Wavelength (nm)	Counts (n)	Blue Motor Position (mm): 0.000000	Red Motor Position (mm): 46.400000	
326.493990	1999.840854
326.888308	1999.840854
327.282561	1999.840854
327.676750	1975.330764
328.070874	1976.812863
328.464933	1984.026755
328.858929	1992.568990
329.252859	2003.972080
329.646726	2021.628721
330.040528	2034.294620
330.434265	2055.389328
330.827938	2071.757955
331.221547	2093.240832
331.615091	2113.203801
332.008571	2134.880763
332.401986	2155.148722
332.795338	2175.958605
333.188625	2194.550380
333.581847	2212.741384
333.975006	2233.042111
334.368100	2248.825963
334.761129	2269.071237
335.154095	2281.855603
335.546996	2322.716676
335.939833	2409.336302
336.332606	2424.734506
336.725315	2433.891762
337.117960	2443.598504
337.510540	2450.769545
337.903056	2463.624487
338.295508	2466.419807
338.687896	2477.984214
339.080220	2481.772641
339.472480	2485.445122
339.864676	2491.434013
340.256807	2494.990547
340.648875	2495.973572
341.040879	2495.998777
341.432818	2498.736124
341.824694	2497.329642
342.216506	2496.855774
342.608253	2501.811228
342.999937	2495.126658
343.391557	2497.841319
343.783113	2495.204796
344.174605	2495.459374
344.566033	2492.497696
344.957397	2491.219764
345.348697	2490.493838
345.739934	2489.263796
346.131106	2484.479741
346.522215	2486.372694
346.913260	2482.717858
347.304241	2482.992601
347.695159	2479.486478
348.086012	2476.945737
348.476802	2475.337608
348.867528	2477.212918
349.258191	2472.804429
349.648789	2474.352063
350.039324	2472.817032
350.429796	2472.701085
350.820203	2471.995323
351.210548	2470.422483
351.600828	2469.167236
351.991045	2471.806280
352.381198	2473.605972
352.771288	2472.171764
353.161314	2469.499952
353.551276	2472.522124
353.941175	2469.313430
354.331010	2470.132617
354.720782	2472.030612
355.110490	2476.484471
355.500135	2473.505149
355.889717	2470.044397
356.279235	2473.739563
356.668689	2472.817032
357.058080	2472.819552
357.447408	2471.324850
357.836672	2474.210911
358.225873	2473.358956
358.615010	2472.847278
359.004084	2473.883236
359.393095	2475.254429
359.782043	2477.485140
360.170927	2479.995635
360.559748	2479.000007
360.948505	2479.922538
361.337199	2482.924545
361.725830	2485.755153
362.114398	2486.740698
362.502903	2485.833291
362.891344	2486.334886
363.279722	2485.079638
363.668037	2488.321100
364.056289	2486.176089
364.444478	2488.817654
364.832603	2492.399394
365.220665	2491.078611
365.608665	2492.333859
365.996601	2493.919302
366.384474	2493.916781
366.772284	2495.537512
367.160031	2496.712101
367.547715	2494.176400
367.935336	2499.933398
368.322893	2499.187307
368.710388	2497.571617
369.097820	2500.951711
369.485189	2504.941784
369.872495	2506.239882
370.259738	2503.351300
370.646918	2510.673576
371.034035	2512.616941
371.421090	2513.010151
371.808081	2515.286232
372.195010	2523.972140
372.581875	2528.090763
372.968678	2536.408667
373.355418	2541.381765
373.742096	2552.318548
374.128710	2563.262893
374.515262	2576.410222
374.901751	2594.938983
375.288177	2613.966819
375.674540	2631.099180
376.060841	2649.038126
376.447079	2676.580470
376.833254	2699.351362
377.219367	2726.576113
377.605417	2764.367123
377.991404	2790.165228
378.377329	2829.692915
378.763191	2862.518388
379.148991	2915.752973
379.534727	2968.715335
379.920402	3012.991790
380.306013	3063.070612
380.691563	3129.076960
381.077049	3188.169365
381.462474	3245.620875
381.847835	3319.304900
382.233134	3396.366498
382.618371	3456.678863
383.003545	3545.299827
383.388657	3631.009525
383.773706	3720.714337
384.158693	3798.698466
384.543618	3898.725041
384.928480	3978.914675
385.313280	4082.946447
385.698017	4192.152962
386.082692	4314.093433
386.467305	4377.881673
386.851856	4516.092467
387.236344	4676.118855
387.620770	4736.348041
388.005133	4862.790261
388.389435	5012.711656
388.773674	5097.150983
389.157851	5239.203137
389.541965	5372.924784
389.926018	5399.564761
390.310008	5582.220888
390.693936	5707.299477
391.077802	5827.135266
391.461606	5966.699610
391.845348	6080.501138
392.229027	6206.764397
392.612645	6436.081445
392.996200	6553.454630
393.379694	6735.750314
393.763125	6966.095757
394.146494	7068.537044
394.529801	7204.295317
394.913047	7464.040769
395.296230	7456.078267
395.679351	7519.546394
396.062410	7789.812734
396.445408	7676.948861
396.828343	7840.244437
397.211217	7981.147207
397.594028	7858.775718
397.976778	8073.133142
398.359466	8244.398782
398.742092	8212.601704
399.124656	8369.137093
399.507158	8555.392604
399.889598	8576.121828
400.271977	8798.270355
400.654294	8831.289913
401.036549	9035.779277
401.418742	9064.229029
401.800874	9373.161019
402.182944	9455.543555
402.564952	9838.620836
402.946898	9648.702927
403.328783	9709.247184
403.710606	9912.534234
404.092367	10182.140182
404.474067	10551.928982
404.855705	10329.719961
405.237282	10284.170616
405.618797	10722.415764
406.000250	10971.282406
406.381642	11350.180570
406.762972	11294.460696
407.144240	11101.747467
407.525447	11354.510921
407.906593	11297.296345
408.287677	11559.585059
408.668700	11722.008516
409.049661	11694.322499
409.430560	11856.945081
409.811399	11830.703354
410.192176	11993.744352
410.572891	12069.039026
410.953545	12577.663723
411.334138	12036.074921
411.714669	12665.226044
412.095139	11939.569592
412.475547	12470.713123
412.855894	12302.661219
413.236180	12645.447077
413.616405	12316.499186
413.996568	12609.135646
414.376670	12579.009711
414.756711	12446.702107
415.136691	12741.975091
415.516609	12929.011981
415.896466	12998.998320
416.276262	13300.950832
416.655997	13746.283843
417.035670	13771.597997
417.415283	14441.176653
417.794834	14537.273649
418.174324	14288.512871
418.553753	14174.335778
418.933121	14692.505899
419.312428	14487.421678
419.691674	14395.095466
420.070859	14860.903123
420.449983	14515.014434
420.829045	15083.777575
421.208047	14808.207942
421.586988	15281.915086
421.965867	15556.688218
422.344686	15540.387647
422.723444	16123.626462
423.102141	14777.436738
423.480777	15991.840618
423.859352	15495.685215
424.237866	16631.086652
424.616319	16320.324723
424.994712	17002.077766
425.373044	16787.720343
425.751314	17494.086820
426.129524	16587.273984
426.507673	17716.968834
426.885762	17393.782982
427.263789	17607.238038
427.641756	17776.761960
428.019662	17834.798244
428.397508	17868.024489
428.775292	18210.127271
429.153016	18160.449220
429.530679	18239.948217
429.908282	18273.366025
430.285824	17971.753791
430.663305	18698.524338
431.040726	18290.097615
431.418086	18106.261858
431.795385	18780.947203
432.172624	19204.608293
432.549802	18750.564169
432.926920	18939.456204
433.303977	18817.336772
433.680974	19087.991281
434.057910	19377.277895
434.434786	19400.641122
434.811601	19321.999122
435.188355	20378.456090
435.565050	20014.875471
435.941683	19958.996802
436.318257	20858.706652
436.694770	20670.265801
437.071222	21284.293462
437.447614	20339.833289
437.823946	20364.111486
438.200218	20515.315855
438.576429	20289.237749
438.952580	20560.136754
439.328670	20522.738954
439.704700	20961.571396
440.080670	20512.071872
440.456580	21122.883278
440.832429	21299.971451
441.208218	20263.860580
441.583947	20729.965665
441.959616	20835.998774
442.335224	21077.530538
442.710773	21213.233358
443.086261	21763.929004
443.461689	21114.484716
443.837057	21242.792163
444.212365	21905.207341
444.587612	21897.118809
444.962800	21463.362809
445.337927	21898.961351
445.712995	20597.315263
446.088002	22499.592147
446.462949	22705.240977
446.837837	22890.233679
447.212664	22835.332993
447.587431	25769.755879
447.962139	28748.495549
448.336786	31166.679076
448.711374	29552.110925
449.085901	25799.982638
449.460369	25756.530412
449.834776	25683.398393
450.209124	28222.693120
450.583412	27736.183966
450.957640	28266.261293
451.331808	26886.716775
451.705917	25490.123075
452.079965	25549.265892
452.453954	25905.698154
452.827883	25784.690297
453.201752	25590.762150
453.575562	25752.391625
453.949311	26907.065393
454.323001	26971.559394
454.696632	26719.095889
455.070202	28320.703233
455.443713	28444.367778
455.817164	29072.644262
456.190556	29587.406563
456.563888	29033.746719
456.937160	29464.372162
457.310373	27764.933666
457.683526	28229.687721
458.056619	28220.918634
458.429653	28155.280291
458.802628	28745.765764
459.175542	28870.695639
459.548398	30171.109164
459.921194	31781.233538
460.293930	32456.632207
460.666607	34518.443965
461.039224	36290.643956
461.411782	36691.718156
461.784280	35504.327300
462.156719	35019.088516
462.529099	34466.943538
462.901419	33158.746471
463.273680	32082.041709
463.645882	32172.951357
464.018024	32150.608963
464.390106	32999.410721
464.762130	35746.708497
465.134094	39859.445642
465.505999	45203.915633
465.877845	49786.904212
466.249631	50979.376551
466.621358	49284.911153
466.993026	47206.448463
467.364634	45137.344676
467.736184	43133.465858
468.107674	41872.138918
468.479105	41071.270971
468.850477	40374.379343
469.221790	38901.089529
469.593043	37123.820658
469.964238	36232.179174
470.335373	36155.573800
470.706449	37925.253214
471.077467	40579.561866
471.448425	45151.593497
471.819324	47971.645206
472.190164	46075.705053
472.560945	42502.583098
472.931667	39361.029282
473.302330	38235.498425
473.672934	37417.356964
474.043479	37929.739841
474.413965	37104.044211
474.784393	36729.589824
475.154761	37637.299986
475.525070	37663.357710
475.895321	37194.921092
476.265513	37810.516553
476.635645	38798.121441
477.005719	38617.892629
477.375734	39103.005384
477.745691	39800.675871
478.115588	41165.134735
478.485427	43155.541070
478.855207	46559.159268
479.224928	49159.061268
479.594591	50803.200827
479.964194	49810.912707
480.333739	49997.120327
480.703226	50050.339788
481.072653	50669.516989
481.442022	51148.653456
481.811333	51392.272257
482.180584	50111.766248
482.549777	49598.538978
482.918912	49061.640970
483.287988	48770.509294
483.657005	47946.880538
484.025964	47292.387534
484.394864	47327.932709
484.763706	46898.948161
485.132489	46020.290169
485.501213	45846.282141
485.869879	46013.343459
486.238487	45580.265494
486.607036	45774.929650
486.975527	45243.115645
487.343959	45436.869873
487.712333	45523.991094
488.080648	45443.665348
488.448905	45904.124341
488.817104	45717.120218
489.185244	46687.537292
489.553326	48400.518849
489.921350	51093.830908
490.289315	53919.952166
490.657222	54484.639535
491.025070	54765.537668
491.392861	53906.240227
491.760593	52676.559132
492.128267	51050.096378
492.495883	49535.481705
492.863440	48142.154673
493.230939	46777.847043
493.598380	45678.802408
493.965763	45356.889447
494.333088	44524.370615
494.700354	44028.560532
495.067563	43719.799941
495.434713	43602.305768
495.801805	43672.655070
496.168839	43275.732260
496.535815	42933.919344
496.902733	42967.410250
497.269593	42562.903024
497.636395	42471.746360
498.003139	42894.752099
498.369825	42330.712519
498.736453	42654.979699
499.103023	42168.170596
499.469535	42039.482541
499.835989	42143.289981
500.202385	41786.703963
500.568723	41823.461537
500.935003	42014.722914
501.301226	41811.755977
501.667390	42435.077007
502.033497	42697.416132
502.399546	42123.720222
502.765537	41435.194388
503.131470	41809.404279
503.497345	42172.460618
503.863163	40837.852945
504.228923	41456.768006
504.594625	41883.942780
504.960269	41163.488799
505.325856	41857.824562
505.691385	41200.967257
506.056856	41353.925947
506.422270	41779.958900
506.787625	41355.652542
507.152924	41562.912021
507.518164	41669.298011
507.883347	40863.691379
508.248472	41124.681996
508.613540	41622.959725
508.978550	41919.384612
509.343503	41670.931345
509.708398	41866.578526
510.073236	42420.442537
510.438016	42405.583736
510.802738	41863.193391
511.167403	42494.015657
511.532010	42730.334867
511.896561	43036.224520
512.261053	43909.884208
512.625488	43428.741362
512.989866	43314.912108
513.354186	43143.301149
513.718449	43136.745128
514.082655	43833.097353
514.446803	43488.108510
514.810894	44020.371177
515.174927	43960.152074
515.538904	43834.468547
515.902822	44538.311926
516.266684	43970.252026
516.630488	44418.216518
516.994235	44262.696922
517.357925	44853.656264
517.721558	45008.056724
518.085133	45321.271174
518.448651	45456.825280
518.812112	45226.704169
519.175516	45329.261403
519.538863	45665.503844
519.902152	45621.413912
520.265385	46103.222191
520.628560	46149.762123
520.991678	45912.507779
521.354739	46174.695670
521.717743	46495.870102
522.080690	46392.866727
522.443580	46922.447500
522.806413	46982.659041
523.169189	46930.467976
523.531908	47110.976571
523.894569	46960.190619
524.257174	47130.072462
524.619722	47449.137171
524.982213	47433.577650
525.344647	47351.469857
525.707025	47386.624343
526.069345	47799.527611
526.431608	47714.561483
526.793815	48035.932520
527.155964	47561.839727
527.518057	47713.916215
527.880093	47505.885440
528.242072	48035.206594
528.603995	47718.937205
528.965860	47736.800533
529.327669	47822.074171
529.689421	47716.958552
530.051117	47665.175819
530.412755	47824.990479
530.774337	47891.904234
531.135862	47669.178496
531.497331	47886.182525
531.858743	47775.493910
532.220098	48133.531779
532.581396	47837.802571
532.942638	47492.440683
533.303824	47790.471178
533.664953	47756.007329
534.026025	47474.474011
534.387040	47952.899675
534.747999	47884.733193
535.108902	48053.213596
535.469748	47557.262360
535.830537	47675.361471
536.191270	47865.203763
536.551947	47515.072943
536.912567	47839.511522
537.273131	47959.453175
537.633638	47425.443748
537.994089	47777.081873
538.354483	47359.278604
538.714821	47933.471068
539.075103	48296.139238
539.435328	48040.283036
539.795497	47926.516797
540.155609	47909.707069
540.515665	48379.378770
540.875665	47828.867126
541.235609	48166.258950
541.595496	48128.054566
541.955328	48802.563471
542.315102	48163.201490
542.674821	47950.013615
543.034483	47993.992641
543.394090	47957.814800
543.753640	47925.758103
544.113134	48940.862485
544.472571	47933.161037
544.831953	49198.283965
545.191278	48394.053569
545.550548	48098.775544
545.909761	48581.695397
546.268918	48789.612747
546.628019	49081.818188
546.987064	48659.883693
547.346053	47911.161442
547.704986	48814.458073
548.063863	48357.784987
548.422684	48541.071259
548.781449	48398.472140
549.140158	48815.557045
549.498811	48651.154936
549.857408	48084.640149
550.215949	48918.386501
550.574434	48848.390080
550.932864	48616.655799
551.291237	49337.747487
551.649555	48935.692782
552.007817	49178.754535
552.366022	48827.307974
552.724173	49005.497639
553.082267	49408.046377
553.440305	49714.283870
553.798288	49002.989665
554.156215	49316.594805
554.514086	49532.409122
554.871902	49292.261155
555.229661	49308.357560
555.587365	49128.380806
555.945014	49223.890506
556.302606	49126.510537
556.660143	49380.657788
557.017625	49461.114603
557.375050	49250.016286
557.732421	49597.634091
558.089735	49572.776161
558.446994	49493.272124
558.804197	49988.991467
559.161345	49931.108938
559.518437	49162.945477
559.875474	49464.285489
560.232455	49613.017172
560.589381	49825.227063
560.946251	49507.836017
561.303065	50195.439320
561.659825	49997.742910
562.016528	49663.098515
562.373177	49390.543491
562.729770	49875.194980
563.086307	49392.020549
563.442789	49846.425115
563.799216	49893.501931
564.155587	49673.052273
564.511904	49700.183763
564.868164	49802.120935
565.224370	50044.968439
565.580520	49766.643815
565.936615	49993.969606
566.292654	49715.581967
566.648638	49972.133848
567.004567	49906.210679
567.360441	49948.090065
567.716260	49807.177212
568.072023	50082.144428
568.427732	50080.990004
568.783385	49625.713318
569.138982	50019.929028
569.494525	49982.755559
569.850013	49761.063257
570.205445	49724.247711
570.560823	49691.225632
570.916145	49583.019786
571.271412	49595.073185
571.626625	49371.374503
571.981782	49411.895298
572.336884	49108.322054
572.691931	49430.368606
573.046923	49013.107261
573.401860	48864.098315
573.756743	48858.185042
574.111570	48980.065018
574.466342	48817.341613
574.821059	48939.967681
575.175722	48465.552254
575.530330	48484.290223
575.884882	48175.915280
576.239380	48153.479625
576.593823	48131.119587
576.948211	48058.451354
577.302544	47580.403776
577.656823	47577.129547
578.011047	47817.000250
578.365216	47540.843322
578.719330	47334.544183
579.073389	47173.136519
579.427394	47258.407636
579.781344	47229.363028
580.135239	46887.209834
580.489080	46969.718399
580.842866	46446.723894
581.196597	46904.306908
581.550273	46834.958275
581.903895	46718.976448
582.257463	47126.163047
582.610975	46496.674167
582.964434	46781.033052
583.317837	46425.596418
583.671186	46251.341373
584.024481	46499.870258
584.377721	46018.477874
584.730906	46325.698393
585.084037	46353.276025
585.437113	46075.528613
585.790135	46103.418796
586.143103	45705.593620
586.496016	45827.017372
586.848874	45852.775148
587.201679	45871.636625
587.554428	45343.961407
587.907124	45519.212080
588.259765	45269.191014
588.612352	45562.870993
588.964884	44913.996355
589.317362	45212.949381
589.669786	45168.864490
590.022155	44910.414615
590.374470	45355.747625
590.726731	44881.296910
591.078937	44388.007404
591.431090	44484.235469
591.783188	44153.291281
592.135232	43819.997915
592.487222	44063.319287
592.839157	44165.385009
593.191038	43815.430629
593.542866	43576.696707
593.894639	42963.072337
594.246358	43245.959206
594.598022	43238.644491
594.949633	42825.592510
595.301190	42767.321813
595.652692	42605.941875
596.004141	42933.790795
596.355535	41940.007973
596.706876	41888.116855
597.058162	41731.420150
597.409395	42210.896895
597.760573	42279.570013
598.111698	41847.780063
598.462768	41862.759852
598.813785	41919.556011
599.164748	41341.315501
599.515657	41735.427867
599.866511	41194.996010
600.217312	41828.081754
600.568060	40776.512185
600.918753	41535.437732
601.269392	41475.816006
601.619978	41128.765331
601.970510	41363.441125
602.320988	41533.086034
602.671412	41846.408869
603.021783	41589.040321
603.372100	41240.673905
603.722363	41349.464526
604.072572	41432.905704
604.422728	41450.035545
604.772830	41257.609662
605.122878	41339.551097
605.472872	41278.956428
605.822813	41566.360170
606.172701	41384.324105
606.522534	41648.430155
606.872314	41907.994125
607.222041	41643.865390
607.571714	42039.094372
607.921333	41460.805970
608.270899	41770.050512
608.620411	42124.655356
608.969870	41919.024170
609.319276	41898.186560
609.668627	41946.339662
610.017926	42460.063486
610.367171	42629.100936
610.716362	42715.236611
611.065500	42639.389931
611.414585	42834.575846
611.763616	43130.680620
612.112594	43042.770459
612.461518	43265.904531
612.810389	43563.743462
613.159207	43423.468315
613.507971	43500.328267
613.856682	43982.552441
614.205340	43856.357237
614.553945	44583.677270
614.902496	44014.916649
615.250994	44475.756248
615.599439	44556.518053
615.947830	44759.220329
616.296169	44809.578935
616.644454	44929.981854
616.992686	45116.441532
617.340864	45618.636237
617.688990	45320.948540
618.037063	45926.113854
618.385082	45898.158135
618.733048	46205.076184
619.080961	46192.619493
619.428821	46208.504169
619.776628	46339.186000
620.124382	46173.054775
620.472083	46311.560477
620.819731	46439.699046
621.167326	46112.452544
621.514868	46087.105622
621.862357	45661.551579
622.209793	45685.996134
622.557176	45358.250558
622.904506	45108.433659
623.251783	44774.638698
623.599007	44544.328543
623.946179	44318.232793
624.293297	44273.585814
624.640363	43658.338193
624.987376	43652.361905
625.334336	43381.034402
625.681243	43014.126623
626.028097	42974.430057
626.374899	42807.956033
626.721647	42783.198927
627.068343	42647.150787
627.414987	42405.021647
627.761577	42175.240814
628.108115	42513.351002
628.454600	41937.205091
628.801032	42139.133549
629.147412	42082.980137
629.493739	42079.015269
629.840014	41707.845194
630.186236	42042.945813
630.532405	41645.624753
630.878521	41864.718340
631.224585	41723.329098
631.570597	41438.198916
631.916556	41595.712288
632.262462	41534.915973
632.608316	41530.930941
632.954117	41433.238420
633.299866	41428.507297
633.645562	41346.654082
633.991206	40857.755421
634.336797	40409.604406
634.682336	40432.607191
635.027823	40177.708808
635.373257	39985.368624
635.718639	39742.836192
636.063968	39602.823185
636.409245	39015.967343
636.754470	39063.530629
637.099642	38807.263573
637.444762	38306.167840
637.789829	38452.840211
638.134845	38094.141950
638.479808	38040.821666
638.824719	37932.290665
639.169577	37525.116669
639.514383	37571.628875
639.859137	37266.160157
640.203839	37518.051492
640.548489	37136.801629
640.893086	37197.166926
641.237632	36933.194466
641.582125	37047.232928
641.926566	36992.072623
642.270955	36929.416122
642.615292	36955.529298
642.959576	36911.270488
643.303809	36906.524242
643.647990	37052.206026
643.992118	37010.344285
644.336195	36992.546491
644.680219	37068.617503
645.024192	37370.532207
645.368112	37879.940803
645.711981	37887.391628
646.055797	38766.473077
646.399562	38677.325312
646.743274	39634.811827
647.086935	40099.669226
647.430544	39977.784208
647.774101	40098.439184
648.117606	40345.400270
648.461059	40668.424806
648.804460	40302.671450
649.147810	39671.029997
649.491108	39431.935632
649.834354	39065.179086
650.177548	38198.743372
650.520690	37736.668690
650.863781	37749.828622
651.206820	37585.076153
651.549807	37138.457648
651.892742	36632.910576
652.235626	36428.731242
652.578458	36289.030787
652.921238	35666.329820
653.263967	35984.169528
653.606644	35660.678686
653.949269	35596.575374
654.291843	35175.775139
654.634365	35588.698571
654.976836	35156.757386
655.319255	35145.515613
655.661622	35139.740971
656.003938	34912.508441
656.346203	34753.558340
656.688416	34987.185573
657.030577	34789.048063
657.372687	34624.484637
657.714746	34892.328702
658.056753	35018.271849
658.398708	34451.116835
658.740612	34496.577961
659.082465	34764.893374
659.424266	34577.667441
659.766016	34690.165830
660.107715	34567.698559
660.449362	34689.959143
660.790958	34663.404865
661.132503	34689.134914
661.473996	34689.485274
661.815438	34827.043239
662.156829	35027.325761
662.498168	34780.087412
662.839456	34794.046367
663.180693	34934.855876
663.521879	35094.108447
663.863013	35039.353954
664.204097	35031.527563
664.545129	35502.817474
664.886110	35436.745591
665.227040	35508.105644
665.567918	35601.714830
665.908746	35668.091703
666.249522	35845.815061
666.590248	35824.254046
666.930922	35942.295184
667.271545	35907.460811
667.612118	35983.186503
667.952639	35753.047748
668.293109	35798.148431
668.633528	35693.909972
668.973896	35638.905943
669.314213	35675.381211
669.654480	35395.912245
669.994695	35420.908806
670.334859	35299.074200
670.674973	35199.881937
671.015035	35364.342019
671.355047	35302.056043
671.695008	35228.976956
672.034918	35118.404287
672.374777	35177.466446
672.714585	34995.253940
673.054342	35223.474537
673.394049	34967.774611
673.733705	35276.207526
674.073310	34921.612765
674.412864	34997.751832
674.752368	34574.781380
675.091820	34893.001696
675.431223	34468.458404
675.770574	34172.464536
676.109875	34014.061400
676.449125	33742.696088
676.788324	33668.056764
677.127473	33110.137145
677.466571	33039.074519
677.805619	32660.592250
678.144616	32668.169105
678.483562	32571.837696
678.822458	32218.394838
679.161303	32134.575573
679.500098	32049.221277
679.838842	31901.482701
680.177535	32069.285069
680.516179	32312.346822
680.854771	32537.961142
681.193314	33394.745567
681.531805	34494.591746
681.870247	35251.601654
682.208638	35979.430844
682.546978	36209.441050
682.885268	36313.036761
683.223508	35798.874357
683.561697	35459.501360
683.899836	35254.792705
684.237925	34739.135598
684.575963	34583.999130
684.913951	34100.469297
685.251889	34258.849748
685.589776	34206.704053
685.927614	34169.402035
686.265401	34294.513391
686.603137	34357.003534
686.940824	34847.086867
687.278460	35202.331937
687.616046	35313.597764
687.953582	35891.248460
688.291068	35770.512826
688.628504	36070.085913
688.965889	36002.262230
689.303224	35639.851159
689.640510	35322.649156
689.977745	34605.580310
690.314930	33809.894669
690.652065	33296.591781
690.989150	32580.939499
691.326185	31658.678047
691.663170	30976.234366
692.000105	30192.816373
692.336990	29515.476860
692.673825	29032.972902
693.010610	28492.243617
693.347345	27903.330983
693.684030	27211.480509
694.020665	26923.343278
694.357251	26245.786996
694.693786	26180.816605
695.030272	25904.911734
695.366707	25364.588262
695.703093	25058.081067
696.039429	25031.771285
696.375716	24765.331181
696.711952	24706.473189
697.048139	24526.141034
697.384276	24332.853113
697.720363	24451.368119
698.056400	24235.117743
698.392388	24026.726525
698.728326	23970.540345
699.064214	23779.062198
699.400053	23720.088260
699.735842	23370.849725
700.071581	23072.824271
700.407270	22765.366818
700.742910	22588.911310
701.078501	22303.277013
701.414042	22009.644925
701.749533	21716.637940
702.084974	21358.602591
702.420366	21561.970299
702.755709	21103.283272
703.091002	20807.987603
703.426246	20817.412040
703.761440	20708.757531
704.096584	20428.189593
704.431679	20380.389372
704.766725	20270.905593
705.101721	20199.956394
705.436668	20280.544279
705.771565	19950.010945
706.106413	20299.463729
706.441212	20262.985940
706.775961	20378.940040
707.110661	20437.694688
707.445311	20783.777462
707.779913	20593.625139
708.114465	20824.648617
708.448967	21086.808781
708.783421	21776.501642
709.117825	22034.633924
709.452180	22227.584088
709.786485	22612.725721
710.120742	23401.058839
710.454949	23387.228433
710.789107	23837.524460
711.123216	24528.328895
711.457275	24626.028977
711.791286	25177.417782
712.125247	25254.630614
712.459159	24976.225332
712.793023	25665.638408
713.126837	24555.717483
713.460602	24837.084444
713.794318	24497.109029
714.127985	24124.751762
714.461602	23245.791301
714.795171	23223.774061
715.128691	22201.717927
715.462162	21660.164414
715.795584	21245.910117
716.128957	20975.384158
716.462281	20570.385419
716.795556	20331.515386
717.128782	19825.191976
717.461960	19260.802035
717.795088	19188.801755
718.128167	18775.747253
718.461198	18306.882137
718.794180	18154.195669
719.127113	17776.071322
719.459997	17564.894867
719.792833	17203.741564
720.125619	17170.341399
720.458357	16843.253694
720.791046	16669.769946
721.123686	16508.543763
721.456278	16259.477996
721.788821	16211.012343
722.121315	15941.817248
722.453761	16003.097514
722.786158	15920.692293
723.118506	15923.182623
723.450805	15776.041424
723.783056	15926.771924
724.115259	15810.464943
724.447412	15734.920732
724.779518	15973.427803
725.111574	15984.137735
725.443582	16159.859755
725.775542	16139.347300
726.107453	16601.648834
726.439315	16480.832541
726.771129	16845.575145
727.102895	17206.325155
727.434612	17396.885812
727.766281	17512.056013
728.097901	17776.603164
728.429473	17815.195717
728.760996	17795.857851
729.092471	17890.230771
729.423897	17777.815561
729.755276	17655.222261
730.086606	17754.565760
730.417887	18263.331609
730.749120	18750.065095
731.080305	18910.945958
731.411442	19246.613708
731.742530	19330.863991
732.073570	19432.070196
732.404562	19718.049812
732.735506	19551.248114
733.066401	19286.713566
733.397249	18780.627090
733.728048	18156.428900
734.058798	17325.727405
734.389501	16647.588869
734.720156	16201.038420
735.050762	15663.575803
735.381320	15293.582837
735.711831	15049.235589
736.042293	14682.688252
736.372707	14681.367470
736.703073	14457.157111
737.033391	14625.957627
737.363661	14573.680862
737.693883	14659.667823
738.024056	14805.969669
738.354182	14968.632580
738.684260	15221.305293
739.014290	15430.051913
739.344272	15599.144815
739.674207	15872.095570
740.004093	15989.209135
740.333931	15973.707587
740.663722	16023.055442
740.993464	16031.708583
741.323159	15860.909249
741.652806	15613.940602
741.982405	15403.399332
742.311956	15085.499129
742.641460	14976.942922
742.970915	14683.353684
743.300323	14353.526112
743.629683	14149.719823
743.958996	13876.154048
744.288260	13606.475002
744.617477	13316.200323
744.946647	13239.332809
745.275768	12955.319242
745.604842	12770.560954
745.933869	12591.720980
746.262847	12539.645861
746.591778	12468.764717
746.920662	12358.648273
747.249498	12348.076974
747.578286	12455.587141
747.907027	12575.604411
748.235720	12786.969910
748.564365	12800.238227
748.892963	12702.830532
749.221514	12750.504723
749.550017	12598.967639
749.878473	12564.992783
750.206881	12350.073271
750.535242	12260.925506
750.863555	12165.927482
751.191821	12071.360477
751.520039	12089.314547
751.848210	11988.836789
752.176334	12014.544153
752.504411	11924.829258
752.832440	11770.635486
753.160421	11819.358238
753.488356	11690.975173
753.816243	11608.701021
754.144082	11462.762138
754.471875	11403.715103
754.799620	11340.660351
755.127318	11313.589355
755.454969	11262.769483
755.782572	11220.542258
756.110129	11223.289686
756.437638	11142.152315
756.765100	11135.054371
757.092515	11124.326795
757.419882	11139.465380
757.747203	11137.111161
758.074477	11200.680111
758.401703	11146.679271
758.728882	11301.793055
759.056014	11334.394197
759.383099	11440.477718
759.710138	11533.088755
760.037129	11607.453336
760.364073	11618.601848
760.690970	11601.751791
761.017820	11598.038981
761.344623	11777.249480
761.671379	12084.709453
761.998088	12685.748582
762.324751	14179.616386
762.651366	16872.731841
762.977935	20311.411264
763.304456	22405.239391
763.630931	22898.370101
763.957359	21832.879386
764.283740	20059.850125
764.610074	18286.392367
764.936362	16267.879079
765.262602	14820.977184
765.588796	13406.318510
765.914943	12409.332034
766.241044	11583.964079
766.567097	10966.374842
766.893104	10432.236866
767.219064	10076.772505
767.544978	9697.753353
767.870845	9392.040140
768.196665	9214.697389
768.522438	9019.377883
768.848165	8856.808233
769.173846	8685.575361
769.499479	8572.895490
769.825066	8424.882172
770.150607	8236.887463
770.476101	8177.474944
770.801548	8069.700116
771.126949	7938.126001
771.452303	7846.361877
771.777611	7683.809871
772.102872	7656.796848
772.428087	7547.202164
772.753256	7426.527023
773.078378	7343.708427
773.403453	7206.851182
773.728482	7100.278670
774.053465	7044.296656
774.378401	6957.092256
774.703291	6858.308326
775.028135	6764.704182
775.352932	6729.539613
775.677683	6650.852243
776.002388	6556.512089
776.327046	6558.982255
776.651658	6474.144677
776.976224	6400.218676
777.300743	6382.141098
777.625216	6317.687426
777.949643	6267.986690
778.274024	6277.504389
778.598359	6206.567792
778.922647	6211.508123
779.246889	6168.504560
779.571086	6173.344068
779.895236	6180.094173
780.219339	6162.606410
780.543397	6164.325444
780.867409	6206.426640
781.191374	6202.587801
781.515294	6173.225601
781.839167	6217.633125
782.162995	6191.640936
782.486776	6146.094111
782.810511	6111.473987
783.134201	6034.581267
783.457844	6025.907962
783.781441	5978.642103
784.104993	5936.278767
784.428498	5914.742958
784.751958	5893.456686
785.075372	5869.997676
785.398739	5829.124001
785.722061	5851.471436
786.045337	5847.665365
786.368568	5947.003822
786.691752	5968.285053
787.014891	6194.532038
787.337983	6443.572599
787.661030	6846.602767
787.984031	7230.615182
788.306987	7469.558312
788.629897	7553.047382
788.952760	7472.739280
789.275579	7314.202554
789.598351	7046.212295
789.921078	6808.746222
790.243759	6545.648403
790.566395	6357.121852
790.888984	6172.517319
791.211529	6045.018976
791.534027	5890.868053
791.856480	5760.198825
792.178888	5696.791192
792.501249	5632.355163
792.823566	5535.229773
793.145836	5527.998238
793.468062	5502.195092
793.790241	5466.037416
794.112375	5505.736502
794.434464	5589.651549
794.756507	5607.464466
795.078505	5714.460436
795.400457	5910.087452
795.722364	6122.267097
796.044226	6305.094624
796.366042	6443.363391
796.687812	6399.263377
797.009538	6434.712771
797.331218	6347.145408
797.652852	6286.631398
797.974442	6174.092679
798.295986	6109.190344
798.617484	5990.859340
798.938938	5890.827724
799.260346	5830.386810
799.581709	5696.002251
799.903026	5646.760261
800.224299	5582.543522
800.545526	5473.228622
800.866708	5414.731072
801.187845	5365.269792
801.508936	5293.269512
801.829983	5269.303866
802.150984	5164.339482
802.471940	5132.620542
802.792851	5119.548830
803.113717	5099.633751
803.434538	5075.930246
803.755314	5042.852715
804.076045	5027.860323
804.396731	4989.020754
804.717372	4999.803782
805.037967	5001.492568
805.358518	5021.894118
805.679024	5076.096604
805.999485	5079.958128
806.319901	5094.078400
806.640272	5106.835040
806.960598	5150.410773
807.280879	5141.422396
807.601115	5171.775183
807.921306	5137.455008
808.241453	5137.071880
808.561554	5146.609743
808.881611	5115.475577
809.201623	5116.761072
809.521590	5074.332200
809.841513	5056.385693
810.161390	5071.912446
810.481223	4991.380014
810.801011	4981.355679
811.120755	4958.824242
811.440453	4910.754320
811.760107	4884.497470
812.079716	4860.809088
812.399281	4813.631450
812.718801	4806.241118
813.038276	4774.053351
813.357707	4742.929267
813.677093	4767.361219
813.996434	4705.133216
814.315731	4724.284559
814.634983	4721.131318
814.954191	4726.802616
815.273354	4781.584835
815.592473	4815.158919
815.911547	4879.141244
816.230577	4931.367598
816.549562	5009.573538
816.868502	5059.511208
817.187399	5107.003918
817.506250	5182.538047
817.825058	5208.018559
818.143821	5346.919992
818.462539	5498.262992
818.781213	5704.667995
819.099843	6025.297982
819.418429	6588.858653
819.736970	7137.152189
820.055466	7775.185826
820.373919	8615.034495
820.692327	9948.790212
821.010691	12426.648398
821.329011	18211.740440
821.647286	27092.368126
821.965517	36722.247384
822.283704	41783.323870
822.601847	43089.615381
822.919945	38740.727904
823.237999	34007.689381
823.556010	29234.188037
823.873976	24903.579784
824.191897	21031.237622
824.509775	18190.945681
824.827609	15645.120138
825.145398	14191.304301
825.463144	13492.166839
825.780845	13739.594232
826.098502	14858.402710
826.416116	16994.931931
826.733685	18988.604933
827.051210	19371.009220
827.368692	18029.767389
827.686129	15772.610919
828.003522	13592.332045
828.320872	11621.213165
828.638177	10155.747222
828.955439	9038.355307
829.272656	8081.277126
829.589830	7324.582289
829.906960	6665.138873
830.224046	6182.448392
830.541088	5815.301157
830.858086	5579.501186
831.175041	5393.996807
831.491952	5337.674515
831.808819	5359.036405
832.125642	5573.575310
832.442421	6062.829373
832.759157	7047.306225
833.075849	8606.512424
833.392497	10213.856602
833.709101	11178.768736
834.025662	10939.613877
834.342179	10021.987766
834.658653	8885.840238
834.975083	7915.082886
835.291469	7119.266176
835.607811	6468.228883
835.924110	6004.604046
836.240366	5568.894598
836.556578	5165.561961
836.872746	4849.567315
837.188871	4602.449953
837.504952	4408.337804
837.820990	4259.638889
838.136984	4156.935462
838.452935	4110.181280
838.768842	4138.948625
839.084706	4391.139907
839.400526	5041.098393
839.716303	5830.883364
840.032037	6323.515000
840.347727	6187.325708
840.663373	5665.672149
840.978977	5159.570550
841.294537	4769.423051
841.610054	4480.073423
841.925527	4267.432513
842.240957	4080.188935
842.556344	3915.847320
842.871687	3771.703088
843.186987	3639.450937
843.502244	3531.038403
843.817458	3457.629121
844.132629	3392.570510
844.447756	3350.262626
844.762840	3304.725883
845.077881	3272.260853
845.392879	3243.813621
845.707833	3220.626834
846.022745	3195.131199
846.337613	3185.064014
846.652438	3166.240346
846.967221	3154.048315
847.281960	3135.895120
847.596656	3131.169039
847.911309	3115.874178
848.225919	3105.151644
848.540485	3093.463728
848.855009	3091.422061
849.169490	3075.696182
849.483928	3072.179977
849.798323	3066.324677
850.112675	3057.767318
850.426984	3057.537946
850.741251	3051.753222
851.055474	3046.686862
851.369654	3047.574105
851.683792	3045.179557
851.997887	3048.771379
852.311938	3045.522355
852.625947	3048.852038
852.939914	3040.788712
853.253837	3046.490257
853.567718	3040.776109
853.881555	3038.457178
854.195350	3039.898948
854.509103	3035.550953
854.822812	3038.366437
855.136479	3031.959131
855.450103	3033.809234
855.763685	3031.323946
856.077224	3032.793442
856.390720	3038.505069
856.704173	3049.139383
857.017584	3047.279198
857.330953	3051.720454
857.644278	3059.493913
857.957561	3064.950962
858.270802	3059.836712
858.584000	3060.408883
858.897155	3054.099879
859.210268	3045.068652
859.523339	3034.948535
859.836367	3032.407794
860.149352	3028.503420
860.462295	3022.418747
860.775195	3015.656039
861.088054	3013.397603
861.400869	3014.239475
861.713642	3011.907942
862.026373	3015.411543
862.339062	3019.870444
862.651708	3026.885210
862.964312	3041.688558
863.276873	3047.465720
863.589392	3075.280287
863.901869	3094.071187
864.214303	3112.264712
864.526696	3127.214253
864.839045	3144.059269
865.151353	3154.567554
865.463619	3151.857934
865.775842	3155.865651
866.088023	3159.807834
866.400162	3155.038902
866.712258	3154.859941
867.024313	3152.944303
867.336325	3155.553100
867.648296	3153.332472
867.960224	3152.689724
868.272110	3153.309786
868.583954	3155.306083
868.895755	3162.404028
869.207515	3160.506033
869.519233	3174.374248
869.830909	3175.727797
870.142542	3187.627441
870.454134	3192.144315
870.765684	3200.159750
871.077191	3220.752863
871.388657	3228.879203
871.700081	3243.775813
872.011463	3264.351282
872.322803	3279.943571
872.634101	3290.713996
872.945357	3312.176709
873.256571	3333.780573
873.567744	3346.935464
873.878874	3352.112729
874.189963	3364.027497
874.501010	3364.768546
874.812015	3362.144626
875.122979	3378.218345
875.433900	3378.215824
875.744780	3378.238509
876.055618	3383.211608
876.366415	3380.474261
876.677169	3388.461969
876.987882	3400.626273
877.298554	3419.893563
877.609183	3453.092082
877.919771	3491.861076
878.230317	3555.893812
878.540822	3637.373982
878.851285	3767.221502
879.161707	3958.800471
879.472087	4282.213176
879.782425	4829.329603
880.092722	5874.086052
880.402977	7625.040100
880.713191	9801.893510
881.023363	11950.529061
881.333494	13188.432279
881.643583	13569.692223
881.953631	13160.647959
882.263637	12361.335208
882.573602	11437.034609
882.883526	10579.196583
883.193408	9726.250996
883.503248	8904.522755
883.813048	8164.786360
884.122806	7480.147256
884.432522	6801.789430
884.742197	6214.537857
885.051831	5705.361153
885.361424	5268.416623
885.670975	4915.480401
885.980485	4630.226711
886.289954	4393.864651
886.599382	4201.330383
886.908768	4041.775343
887.218113	3900.035741
887.527417	3785.972073
887.836680	3675.280938
888.145901	3597.226232
888.455082	3526.040099
888.764221	3465.415183
889.073319	3413.405598
889.382376	3383.982904
889.691392	3366.026314
890.000366	3359.331662
890.309300	3350.479396
890.618193	3353.819160
890.927044	3349.561906
891.235855	3354.829911
891.544625	3367.861294
891.853353	3392.961199
892.162041	3444.247378
892.470687	3523.779141
892.779293	3624.551807
893.087858	3770.367182
893.396381	4012.254346
893.704864	4371.781877
894.013306	4852.198797
894.321707	5329.616231
894.630068	5622.774451
894.938387	5644.285054
895.246665	5487.185056
895.554903	5220.697061
895.863100	4939.423362
896.171256	4711.167477
896.479371	4507.005788
896.787446	4320.326819
897.095480	4156.123836
897.403473	4025.247920
897.711425	3904.499683
898.019336	3798.433806
898.327207	3696.403373
898.635038	3609.541771
898.942827	3521.107330
899.250576	3445.598407
899.558284	3377.578118
899.865952	3332.361489
900.173579	3280.568674
900.481165	3241.224989
900.788711	3207.136707
901.096216	3180.521935
901.403681	3156.957061
901.711105	3143.078765
902.018489	3144.296203
902.325832	3169.660769
902.633135	3220.498285
902.940397	3365.991026
903.247619	3719.176785
903.554800	4371.660889
903.861941	5206.566707
904.169041	5808.740095
904.476101	5980.419110
904.783121	5741.425568
905.090100	5392.829780
905.397039	5040.937077
905.703938	4733.464501
906.010796	4462.310917
906.317614	4237.553594
906.624391	4033.149929
906.931129	3868.155484
907.237826	3711.211762
907.544483	3562.152404
907.851099	3414.998603
908.157675	3277.909465
908.464211	3158.232473
908.770707	3069.225861
909.077163	3002.339832
909.383578	2954.889971
909.689954	2911.634350
909.996289	2888.838253
910.302584	2870.130531
910.608839	2858.707276
910.915054	2846.033815
911.221229	2844.254288
911.527363	2845.738908
911.833458	2854.392048
912.139513	2864.466794
912.445527	2877.024309
912.751502	2904.453227
913.057436	2942.425718
913.363331	2991.181238
913.669186	3066.594378
913.975000	3164.488545
914.280775	3324.824964
914.586510	3555.911456
914.892205	3879.571177
915.197859	4307.723935
915.503475	4799.218791
915.809050	5212.205237
916.114585	5451.350014
916.420081	5498.134442
916.725536	5434.867962
917.030952	5236.274226
917.336328	5059.251588
917.641665	4880.023446
917.946961	4688.131925
918.252218	4522.325854
918.557435	4328.939631
918.862612	4165.165145
919.167750	4017.209800
919.472848	3856.812888
919.777906	3711.420970
920.082925	3579.108325
920.387904	3447.713171
920.692843	3355.502905
920.997743	3272.969135
921.302603	3193.114737
921.607423	3141.163126
921.912204	3083.981318
922.216946	3041.718805
922.521647	3001.729852
922.826310	2967.298771
923.130932	2931.476332
923.435516	2900.805952
923.740059	2876.986500
924.044564	2850.525483
924.349028	2831.696774
924.653454	2806.312044
924.957840	2781.222221
925.262186	2767.129675
925.566493	2751.610483
925.870761	2726.545866
926.174989	2719.760473
926.479178	2708.359904
926.783328	2693.352389
927.087438	2684.011131
927.391509	2675.423525
927.695541	2664.088491
927.999533	2655.110196
928.303486	2648.198774
928.607400	2643.021509
928.911275	2637.249388
929.215110	2630.050620
929.518906	2628.311422
929.822663	2628.475259
930.126381	2627.852677
930.430060	2629.390229
930.733699	2632.026752
931.037299	2636.422638
931.340861	2635.109418
931.644383	2636.213431
931.947866	2633.816362
932.251309	2635.147227
932.554714	2631.320991
932.858080	2634.721249
933.161407	2628.928963
933.464694	2625.516102
933.767943	2621.271451
934.071153	2620.812706
934.374323	2615.466562
934.677455	2614.896912
934.980548	2610.170830
935.283602	2608.413988
935.586617	2607.385592
935.889593	2608.408947
936.192530	2608.645881
936.495428	2613.150152
936.798287	2619.438991
937.101108	2632.238481
937.403890	2648.392858
937.706632	2669.835406
938.009336	2695.467153
938.312002	2718.898436
938.614628	2737.467526
938.917216	2752.901019
939.219765	2755.910587
939.522275	2771.659152
939.824747	2771.462547
940.127179	2764.838471
940.429573	2761.937287
940.731929	2762.708583
941.034246	2751.423961
941.336524	2752.583426
941.638763	2749.384814
941.940964	2744.409195
942.243126	2730.878738
942.545250	2722.759960
942.847335	2712.140769
943.149381	2703.003678
943.451389	2688.729651
943.753359	2681.485513
944.055290	2673.586025
944.357182	2666.372133
944.659036	2660.577327
944.960851	2656.189003
945.262628	2653.865031
945.564367	2653.980977
945.866067	2652.458549
946.167729	2650.585760
946.469352	2652.009886
946.770937	2649.448980
947.072484	2641.315078
947.373992	2642.615696
947.675462	2641.519245
947.976893	2635.195117
948.278286	2632.576238
948.579641	2627.850156
948.880958	2626.161370
949.182236	2628.969292
949.483476	2624.948972
949.784678	2625.621966
950.085841	2624.875876
950.386967	2627.101545
950.688054	2630.153964
950.989103	2637.718215
951.290114	2644.879174
951.591087	2654.505257
951.892021	2662.470280
952.192917	2671.531754
952.493776	2683.380987
952.794596	2686.014989
953.095378	2688.512881
953.396122	2686.819053
953.696828	2682.534073
953.997496	2676.759431
954.298126	2671.897238
954.598718	2664.990857
954.899272	2655.440391
955.199788	2648.760862
955.500266	2638.192083
955.800706	2626.322687
956.101108	2611.557147
956.401472	2603.634974
956.701798	2590.830443
957.002087	2580.304514
957.302337	2572.526013
957.602550	2565.107956
957.902724	2555.847356
958.202861	2545.996941
958.502960	2540.146682
958.803022	2533.346166
959.103045	2526.258303
959.403031	2521.512057
959.702979	2520.120699
960.002889	2514.325892
960.302762	2510.340860
960.602596	2506.433966
960.902393	2505.740807
961.202153	2503.734428
961.501875	2501.420538
961.801559	2497.879128
962.101205	2494.861997
962.400814	2494.791421
962.700385	2492.296050
962.999918	2492.306132
963.299414	2488.699187
963.598873	2488.164824
963.898293	2485.641727
964.197677	2486.748260
964.497022	2483.884885
964.796331	2485.281284
965.095601	2483.441263
965.394835	2483.456387
965.694030	2479.862044
965.993189	2483.733650
966.292309	2481.092086
966.591393	2479.531848
966.890439	2478.921869
967.189447	2480.474544
967.488419	2478.110243
967.787353	2481.384473
968.086249	2478.480768
968.385108	2481.717189
968.683930	2479.037815
968.982714	2482.329689
969.281462	2482.614514
969.580172	2486.559217
969.878844	2486.097951
970.177480	2487.806903
970.476078	2486.160966
970.774639	2494.161277
971.073162	2495.280413
971.371649	2493.931904
971.670098	2495.522388
971.968510	2497.236381
972.266885	2496.036586
972.565223	2502.232164
972.863524	2497.609426
973.161788	2503.575632
973.460014	2504.140241
973.758204	2505.365241
974.056356	2505.660149
974.354471	2505.254336
974.652550	2506.570077
974.950591	2503.106804
975.248595	2506.358349
975.546563	2505.410612
975.844493	2502.060765
976.142386	2502.806856
976.440243	2500.969355
976.738062	2496.621360
977.035845	2494.630104
977.333590	2494.819148
977.631299	2490.761019
977.928971	2491.139105
978.226606	2490.884527
978.524204	2489.437716
978.821765	2487.091059
979.119290	2486.896974
979.416777	2484.517550
979.714228	2485.750112
980.011642	2489.072232
980.309020	2491.834784
980.606360	2493.407624
980.903664	2504.651918
981.200931	2511.361694
981.498162	2527.500948
981.795356	2552.673950
982.092513	2583.067066
982.389633	2625.495937
982.686717	2659.579179
982.983764	2688.170083
983.280775	2703.389326
983.577749	2702.527289
983.874686	2694.456402
984.171587	2680.484844
984.468451	2663.400373
984.765279	2652.244300
985.062070	2636.672176
985.358824	2621.394959
985.655543	2599.581886
985.952224	2583.500605
986.248869	2562.554611
986.545478	2537.220293
986.842050	2522.555576
987.138586	2504.520848
987.435086	2493.584065
987.731549	2483.753815
988.027975	2481.507981
988.324366	2476.854996
988.620719	2471.128245
988.917037	2469.484829
989.213318	2467.768316
989.509563	2464.685650
989.805772	2463.836216
990.101944	2461.673561
990.398080	2462.028962
990.694180	2459.788169
990.990244	2461.260186
991.286271	2460.715742
991.582262	2459.089970
991.878217	2460.539301
992.174136	2466.049282
992.470019	2466.492904
992.765865	2463.042234
993.061676	2466.684468
993.357450	2468.958028
993.653188	2468.602627
993.948890	2477.233082
994.244556	2482.153248
994.540186	2488.207674
994.835780	2496.477687
995.131337	2510.698782
995.426859	2520.370236
995.722345	2538.188194
996.017795	2553.561193
996.313208	2566.247256
996.608586	2572.949470
996.903928	2575.893504
997.199234	2576.306879
997.494504	2574.804615
997.789738	2565.768347
998.084936	2555.902809
998.380099	2545.671787
998.675225	2538.543595
998.970316	2529.971113
999.265371	2516.667508
999.560390	2506.340705
999.855373	2497.629591
1000.150320	2487.995946
1000.445232	2482.770790
1000.740108	2478.818525
1001.034948	2469.631022
1001.329752	2466.119859
1001.624521	2461.179528
1001.919254	2453.973198
1002.213951	2456.312294
1002.508613	2451.893722
1002.803239	2454.757098
1003.097829	2447.220573
1003.392384	2454.618466
1003.686903	2449.640327
1003.981386	2448.841304
1004.275834	2445.930038
1004.570246	2447.754935
1004.864623	2446.245110
1005.158964	2446.116560
1005.453270	2447.243258
1005.747540	2446.928186
1006.041775	2444.672270
1006.335974	2443.631271
1006.630138	2446.746704
1006.924266	2442.960798
1007.218359	2442.880139
1007.512416	2443.623710
1007.806438	2445.861982
1008.100425	2442.791919
1008.394376	2441.062803
1008.688292	2443.374172
1008.982172	2441.153544
1009.276017	2442.068514
1009.569827	2440.727567
1009.863602	2442.078596
1010.157341	2440.362083
1010.451045	2439.976435
1010.744714	2438.776640
1011.038347	2440.205807
1011.331945	2437.171033
1011.625508	2440.926692
1011.919036	2438.474171
1012.212528	2442.224789
1012.505986	2438.080961
1012.799408	2438.695982
1013.092795	2440.120108
1013.386147	2437.334870
1013.679464	2435.734304
1013.972745	2437.113059
1014.265992	2440.107505
1014.559204	2437.808739
1014.852380	2438.864860
1015.145521	2437.566763
1015.438628	2436.399736
1015.731699	2437.370158
1016.024736	2436.556012
1016.317737	2440.263781
1016.610703	2439.179932
1016.903635	2438.219593
1017.196531	2436.006526
1017.489393	2435.981320
1017.782219	2434.688264
1018.075011	2441.463575
1018.367768	2438.741352
1018.660490	2438.781681
1018.953177	2438.781681
1019.245829	2438.781681
