Dividing Wavelength (nm)	Counts (n)	Blue Motor Position (mm): 0.000000	Red Motor Position (mm): 43.400000	
326.493990	1996.677530
326.888308	1996.677530
327.282561	1996.677530
327.676750	1968.875567
328.070874	1973.334467
328.464933	1978.917545
328.858929	1987.868114
329.252859	2001.756493
329.646726	2017.802485
330.040528	2030.440658
330.434265	2050.436395
330.827938	2069.713767
331.221547	2089.701942
331.615091	2110.216918
332.008571	2133.179373
332.401986	2151.682929
332.795338	2171.431649
333.188625	2192.170956
333.581847	2210.548482
333.975006	2227.721173
334.368100	2247.734553
334.761129	2263.856163
335.154095	2279.375356
335.546996	2312.820891
335.939833	2377.282125
336.332606	2389.688405
336.725315	2407.977711
337.117960	2410.490726
337.510540	2418.980029
337.903056	2428.560742
338.295508	2434.395877
338.687896	2443.381734
339.080220	2452.458332
339.472480	2455.452777
339.864676	2458.578293
340.256807	2462.349076
340.648875	2463.921916
341.040879	2469.867957
341.432818	2466.218161
341.824694	2466.646659
342.216506	2466.767647
342.608253	2470.210755
342.999937	2463.682461
343.391557	2464.829323
343.783113	2464.602471
344.174605	2464.957873
344.566033	2461.323201
344.957397	2459.873869
345.348697	2455.636779
345.739934	2458.185083
346.131106	2456.496296
346.522215	2454.860442
346.913260	2451.608897
347.304241	2452.236521
347.695159	2449.852055
348.086012	2447.671756
348.476802	2448.097734
348.867528	2447.686880
349.258191	2443.628751
349.648789	2446.131684
350.039324	2445.420881
350.429796	2443.106991
350.820203	2442.060952
351.210548	2440.593976
351.600828	2437.791095
351.991045	2440.349480
352.381198	2437.536516
352.771288	2442.933072
353.161314	2440.440221
353.551276	2439.600869
353.941175	2438.693461
354.331010	2442.204625
354.720782	2441.783688
355.110490	2443.921138
355.500135	2440.294027
355.889717	2442.126487
356.279235	2440.450303
356.668689	2446.290480
357.058080	2443.618668
357.447408	2440.863678
357.836672	2441.370314
358.225873	2442.570108
358.615010	2439.986517
359.004084	2447.371807
359.393095	2449.494133
359.782043	2448.909359
360.170927	2450.441870
360.559748	2451.182920
360.948505	2452.418003
361.337199	2455.692232
361.725830	2454.129474
362.114398	2454.106789
362.502903	2455.909002
362.891344	2457.118878
363.279722	2455.646862
363.668037	2456.881944
364.056289	2457.859928
364.444478	2459.992336
364.832603	2461.063581
365.220665	2462.439816
365.608665	2463.637090
365.996601	2461.907975
366.384474	2467.372585
366.772284	2467.957359
367.160031	2464.499128
367.547715	2467.874180
367.935336	2466.770168
368.322893	2470.644294
368.710388	2469.731845
369.097820	2475.292238
369.485189	2472.958184
369.872495	2474.256281
370.259738	2476.595376
370.646918	2481.381952
371.034035	2478.750470
371.421090	2484.830101
371.808081	2488.210195
372.195010	2493.137923
372.581875	2498.778974
372.968678	2503.275683
373.355418	2513.567199
373.742096	2523.750329
374.128710	2536.421270
374.515262	2547.479041
374.901751	2562.143757
375.288177	2580.995152
375.674540	2600.378388
376.060841	2627.688839
376.447079	2649.834628
376.833254	2674.553926
377.219367	2699.031249
377.605417	2733.109449
377.991404	2762.663213
378.377329	2802.233750
378.763191	2837.491580
379.148991	2889.049981
379.534727	2938.571756
379.920402	2986.830722
380.306013	3040.161088
380.691563	3104.468567
381.077049	3160.279182
381.462474	3219.479972
381.847835	3296.493679
382.233134	3370.008826
382.618371	3429.552414
383.003545	3516.366125
383.388657	3601.899382
383.773706	3689.449101
384.158693	3769.868107
384.543618	3866.534753
384.928480	3945.834624
385.313280	4051.666087
385.698017	4160.640710
386.082692	4283.801139
386.467305	4347.475953
386.851856	4480.854802
387.236344	4641.995285
387.620770	4702.554666
388.005133	4823.471782
388.389435	4979.530782
388.773674	5066.921704
389.157851	5199.398186
389.541965	5333.976829
389.926018	5355.454665
390.310008	5542.937697
390.693936	5672.238252
391.077802	5792.368948
391.461606	5928.752324
391.845348	6044.910591
392.229027	6170.594118
392.612645	6402.862761
392.996200	6518.983220
393.379694	6696.666249
393.763125	6928.503873
394.146494	7024.671444
394.529801	7162.307547
394.913047	7420.109634
395.296230	7417.952020
395.679351	7471.705844
396.062410	7743.550065
396.445408	7641.471741
396.828343	7800.137017
397.211217	7943.202442
397.594028	7823.021335
397.976778	8028.992799
398.359466	8204.248512
398.742092	8173.878081
399.124656	8334.151485
399.507158	8517.233590
399.889598	8540.072537
400.271977	8755.551617
400.654294	8788.281309
401.036549	8992.919387
401.418742	9015.939816
401.800874	9330.235594
402.182944	9410.891535
402.564952	9792.290112
402.946898	9608.741700
403.328783	9667.302264
403.710606	9867.428510
404.092367	10135.348193
404.474067	10512.398774
404.855705	10287.548189
405.237282	10239.647145
405.618797	10682.000833
406.000250	10936.090111
406.381642	11309.327059
406.762972	11256.715057
407.144240	11055.817514
407.525447	11315.129427
407.906593	11249.521330
408.287677	11511.288285
408.668700	11678.558811
409.049661	11646.048410
409.430560	11816.434368
409.811399	11781.315170
410.192176	11948.028648
410.572891	12021.901717
410.953545	12533.732587
411.334138	11985.784370
411.714669	12622.698871
412.095139	11893.105277
412.475547	12416.102304
412.855894	12253.333528
413.236180	12592.681320
413.616405	12267.201743
413.996568	12554.300495
414.376670	12522.969724
414.756711	12395.095816
415.136691	12688.939632
415.516609	12885.436247
415.896466	12952.155918
416.276262	13243.887492
416.655997	13684.486858
417.035670	13721.010018
417.415283	14383.999887
417.794834	14493.312267
418.174324	14225.503489
418.553753	14120.760915
418.933121	14628.314367
419.312428	14426.597637
419.691674	14347.776676
420.070859	14807.272808
420.449983	14458.041834
420.829045	15017.052863
421.208047	14758.497123
421.586988	15231.538836
421.965867	15496.547252
422.344686	15493.542725
422.723444	16062.565486
423.102141	14719.397934
423.480777	15934.467246
423.859352	15435.592141
424.237866	16582.177377
424.616319	16268.360509
424.994712	16948.729756
425.373044	16737.061788
425.751314	17431.936955
426.129524	16528.579829
426.507673	17662.428591
426.885762	17338.650403
427.263789	17553.635450
427.641756	17721.669710
428.019662	17777.540818
428.397508	17823.047314
428.775292	18140.156056
429.153016	18091.760979
429.530679	18185.415535
429.908282	18196.133028
430.285824	17914.839164
430.663305	18640.432602
431.040726	18224.912975
431.418086	18051.867808
431.795385	18716.443119
432.172624	19133.028950
432.549802	18677.432150
432.926920	18870.906594
433.303977	18753.808152
433.680974	19020.026445
434.057910	19314.381939
434.434786	19343.562658
434.811601	19244.985415
435.188355	20317.024589
435.565050	19952.833991
435.941683	19911.546941
436.318257	20799.001746
436.694770	20602.628639
437.071222	21220.217877
437.447614	20268.256467
437.823946	20310.576953
438.200218	20451.275557
438.576429	20224.743747
438.952580	20502.985193
439.328670	20471.364555
439.704700	20897.054709
440.080670	20450.726071
440.456580	21051.437525
440.832429	21239.114642
441.208218	20200.394974
441.583947	20662.595685
441.959616	20751.377966
442.335224	21009.769868
442.710773	21149.102319
443.086261	21699.568593
443.461689	21050.257895
443.837057	21167.086636
444.212365	21841.101508
444.587612	21821.347746
444.962800	21393.734392
445.337927	21829.640444
445.712995	20535.178001
446.088002	22430.616559
446.462949	22631.141056
446.837837	22815.100322
447.212664	22775.476852
447.587431	25676.718864
447.962139	28666.322221
448.336786	31073.604252
448.711374	29478.759616
449.085901	25729.366154
449.460369	25674.992269
449.834776	25599.203562
450.209124	28136.302867
450.583412	27648.795564
450.957640	28185.403705
451.331808	26806.380947
451.705917	25424.325935
452.079965	25464.660207
452.453954	25833.445817
452.827883	25707.358997
453.201752	25507.444480
453.575562	25677.810274
453.949311	26825.164287
454.323001	26885.741312
454.696632	26639.143189
455.070202	28229.412978
455.443713	28359.520118
455.817164	28964.544279
456.190556	29503.403296
456.563888	28944.142730
456.937160	29385.215965
457.310373	27694.833901
457.683526	28164.669440
458.056619	28148.094126
458.429653	28064.297546
458.802628	28652.088523
459.175542	28783.987793
459.548398	30086.286710
459.921194	31686.727027
460.293930	32349.419468
460.666607	34417.825055
461.039224	36205.534156
461.411782	36601.216842
461.784280	35400.812247
462.156719	34930.341523
462.529099	34364.482086
462.901419	33064.282809
463.273680	31980.046563
463.645882	32064.508576
464.018024	32036.545295
464.390106	32889.773187
464.762130	35630.477133
465.134094	39725.071166
465.505999	45072.039048
465.877845	49658.490900
466.249631	50862.583099
466.621358	49183.238642
466.993026	47083.282993
467.364634	45010.816756
467.736184	43019.898744
468.107674	41750.296750
468.479105	40941.655344
468.850477	40254.866188
469.221790	38791.303280
469.593043	37016.862497
469.964238	36129.074975
470.335373	36039.332354
470.706449	37792.612895
471.077467	40411.164643
471.448425	45009.105284
471.819324	47821.522165
472.190164	45956.789275
472.560945	42381.227401
472.931667	39235.610416
473.302330	38128.908268
473.672934	37282.654813
474.043479	37810.030081
474.413965	36986.033320
474.784393	36614.659078
475.154761	37520.713221
475.525070	37550.929897
475.895321	37079.319872
476.265513	37690.176648
476.635645	38662.108589
477.005719	38479.802822
477.375734	38961.931214
477.745691	39650.951081
478.115588	41027.360001
478.485427	43012.057229
478.855207	46406.576144
479.224928	49023.479435
479.594591	50667.666886
479.964194	49678.632830
480.333739	49838.255926
480.703226	49892.718031
481.072653	50525.796213
481.442022	51003.044769
481.811333	51246.837489
482.180584	49977.411936
482.549777	49457.479932
482.918912	48909.655223
483.287988	48628.885638
483.657005	47801.702868
484.025964	47151.613313
484.394864	47196.986218
484.763706	46754.758558
485.132489	45870.361213
485.501213	45693.963678
485.869879	45870.981275
486.238487	45445.381861
486.607036	45658.877247
486.975527	45110.780316
487.343959	45297.476928
487.712333	45394.377987
488.080648	45305.575542
488.448905	45763.503875
488.817104	45583.940495
489.185244	46551.171560
489.553326	48247.330786
489.921350	50966.700570
490.289315	53807.156349
490.657222	54387.282251
491.025070	54661.077399
491.392861	53786.427124
491.760593	52578.982558
492.128267	50922.656009
492.495883	49416.334034
492.863440	48034.112664
493.230939	46674.941969
493.598380	45563.478452
493.965763	45246.692344
494.333088	44418.645016
494.700354	43934.946305
495.067563	43629.159995
495.434713	43486.301256
495.801805	43570.541458
496.168839	43179.524360
496.535815	42846.437681
496.902733	42873.526321
497.269593	42451.659882
497.636395	42398.478230
498.003139	42807.499809
498.369825	42255.576642
498.736453	42570.232862
499.103023	42090.884666
499.469535	41970.630462
499.835989	42073.467479
500.202385	41724.770868
500.568723	41748.308015
500.935003	41941.943776
501.301226	41740.227046
501.667390	42355.948535
502.033497	42645.036023
502.399546	42043.765001
502.765537	41366.919521
503.131470	41746.296595
503.497345	42123.102680
503.863163	40756.801274
504.228923	41383.099104
504.594625	41824.028667
504.960269	41079.677095
505.325856	41801.466982
505.691385	41139.629017
506.056856	41292.174333
506.422270	41722.184756
506.787625	41298.057359
507.152924	41499.816939
507.518164	41593.889911
507.883347	40787.436366
508.248472	41068.732750
508.613540	41542.528115
508.978550	41847.071781
509.343503	41596.551640
509.708398	41794.643781
510.073236	42339.292563
510.438016	42351.398894
510.802738	41785.100877
511.167403	42408.774786
511.532010	42647.576765
511.896561	42958.058909
512.261053	43815.881812
512.625488	43343.903784
512.989866	43215.719844
513.354186	43057.954414
513.718449	43051.320256
514.082655	43739.634361
514.446803	43403.402002
514.810894	43932.975213
515.174927	43841.475751
515.538904	43747.160803
515.902822	44432.127582
516.266684	43859.394532
516.630488	44293.541222
516.994235	44143.796267
517.357925	44740.628553
517.721558	44898.585547
518.085133	45205.223813
518.448651	45336.513103
518.812112	45105.461898
519.175516	45189.170258
519.538863	45547.515638
519.902152	45490.563202
520.265385	45962.589122
520.628560	46019.934768
520.991678	45797.624924
521.354739	46036.754578
521.717743	46359.267436
522.080690	46229.016624
522.443580	46783.659493
522.806413	46831.938624
523.169189	46774.678678
523.531908	46955.225082
523.894569	46811.975654
524.257174	46981.706263
524.619722	47274.625028
524.982213	47278.710883
525.344647	47193.941361
525.707025	47213.874083
526.069345	47599.938247
526.431608	47537.279226
526.793815	47851.592648
527.155964	47372.637662
527.518057	47541.604536
527.880093	47319.473653
528.242072	47832.378290
528.603995	47516.658386
528.965860	47527.166671
529.327669	47619.918861
529.689421	47520.494704
530.051117	47460.371383
530.412755	47600.674256
530.774337	47682.759364
531.135862	47472.165162
531.497331	47660.888318
531.858743	47565.030778
532.220098	47912.565403
532.581396	47625.980848
532.942638	47265.853420
533.303824	47562.069100
533.664953	47522.034777
534.026025	47236.554234
534.387040	47711.924960
534.747999	47642.238569
535.108902	47813.700815
535.469748	47331.136363
535.830537	47437.081252
536.191270	47617.743603
536.551947	47266.118081
536.912567	47596.318699
537.273131	47706.334320
537.633638	47160.342070
537.994089	47520.396402
538.354483	47122.460320
538.714821	47687.011577
539.075103	48036.245072
539.435328	47784.071433
539.795497	47667.177157
540.155609	47649.197882
540.515665	48114.458574
540.875665	47567.097651
541.235609	47880.763284
541.595496	47862.874750
541.955328	48535.972132
542.315102	47895.818690
542.674821	47667.136828
543.034483	47709.217860
543.394090	47686.739355
543.753640	47642.888878
544.113134	48661.206996
544.472571	47645.117068
544.831953	48909.287218
545.191278	48103.287377
545.550548	47833.086572
545.909761	48311.295467
546.268918	48497.359414
546.628019	48809.691662
546.987064	48368.099188
547.346053	47624.808780
547.704986	48535.641936
548.063863	48072.813602
548.422684	48270.257954
548.781449	48136.160741
549.140158	48522.865132
549.498811	48361.775061
549.857408	47784.845250
550.215949	48642.716044
550.574434	48571.718954
550.932864	48321.153443
551.291237	49048.483558
551.649555	48645.465993
552.007817	48902.516949
552.366022	48535.697389
552.724173	48707.053770
553.082267	49127.576742
553.440305	49412.870761
553.798288	48720.740503
554.156215	49044.261592
554.514086	49256.259755
554.871902	49013.676912
555.229661	49028.807935
555.587365	48847.381849
555.945014	48945.747363
556.302606	48851.563486
556.660143	49096.659345
557.017625	49173.504174
557.375050	48974.234924
557.732421	49320.968006
558.089735	49302.235078
558.446994	49234.968442
558.804197	49725.664275
559.161345	49648.660650
559.518437	48905.644985
559.875474	49188.647800
560.232455	49359.479901
560.589381	49552.727492
560.946251	49247.064691
561.303065	49956.183637
561.659825	49751.520353
562.016528	49410.733312
562.373177	49130.921547
562.729770	49630.855295
563.086307	49121.852511
563.442789	49593.127299
563.799216	49641.950874
564.155587	49433.375654
564.511904	49461.651486
564.868164	49550.441329
565.224370	49809.261729
565.580520	49535.348114
565.936615	49750.249982
566.292654	49461.679213
566.648638	49715.246731
567.004567	49678.174085
567.360441	49713.933510
567.716260	49576.846893
568.072023	49858.644872
568.427732	49848.552482
568.783385	49394.460467
569.138982	49797.659514
569.494525	49741.085165
569.850013	49527.408297
570.205445	49491.482514
570.560823	49448.768818
570.916145	49338.193629
571.271412	49373.204442
571.626625	49127.516248
571.981782	49158.993212
572.336884	48870.848420
572.691931	49200.050890
573.046923	48794.389240
573.401860	48636.265888
573.756743	48643.179830
574.111570	48748.668495
574.466342	48604.375548
574.821059	48709.440756
575.175722	48223.415552
575.530330	48262.923075
575.884882	47961.988876
576.239380	47927.595603
576.593823	47908.250176
576.948211	47834.488013
577.302544	47344.621449
577.656823	47373.287971
578.011047	47588.555322
578.365216	47302.462280
578.719330	47121.873025
579.073389	46967.565827
579.427394	47046.840492
579.781344	47011.852363
580.135239	46667.720517
580.489080	46761.266688
580.842866	46230.392859
581.196597	46688.104422
581.550273	46592.486337
581.903895	46476.749006
582.257463	46903.127278
582.610975	46268.894671
582.964434	46538.581278
583.317837	46181.924685
583.671186	46021.399223
584.024481	46254.688700
584.377721	45795.719368
584.730906	46081.187308
585.084037	46105.031965
585.437113	45800.369833
585.790135	45846.531678
586.143103	45429.436692
586.496016	45541.912396
586.848874	45591.177072
587.201679	45604.057220
587.554428	45056.625721
587.907124	45259.355723
588.259765	44994.009549
588.612352	45236.748668
588.964884	44615.091220
589.317362	44904.498821
589.669786	44854.165420
590.022155	44601.671668
590.374470	45040.909923
590.726731	44553.689966
591.078937	44064.473712
591.431090	44144.280218
591.783188	43806.578363
592.135232	43480.075431
592.487222	43716.437491
592.839157	43802.651304
593.191038	43463.570694
593.542866	43192.606154
593.894639	42594.750513
594.246358	42856.973693
594.598022	42844.963143
594.949633	42440.919704
595.301190	42360.553629
595.652692	42204.512274
596.004141	42516.005170
596.355535	41514.645493
596.706876	41447.661162
597.058162	41296.008130
597.409395	41771.832560
597.760573	41844.399969
598.111698	41391.676627
598.462768	41407.289081
598.813785	41452.029321
599.164748	40873.816537
599.515657	41243.789338
599.866511	40715.899872
600.217312	41329.289828
600.568060	40249.388975
600.918753	40998.706082
601.269392	40939.820364
601.619978	40597.329413
601.970510	40790.627416
602.320988	40970.117699
602.671412	41247.234967
603.021783	40978.095325
603.372100	40630.956430
603.722363	40722.685265
604.072572	40798.514301
604.422728	40800.162759
604.772830	40594.498805
605.122878	40665.402634
605.472872	40592.081572
605.822813	40861.856399
606.172701	40661.742756
606.522534	40898.540876
606.872314	41146.258135
607.222041	40878.388863
607.571714	41238.821281
607.921333	40665.758035
608.270899	40949.048196
608.620411	41270.255396
608.969870	41065.128325
609.319276	41022.948991
609.668627	41061.796123
610.017926	41537.262630
610.367171	41660.670076
610.716362	41729.035684
611.065500	41648.946873
611.414585	41808.368322
611.763616	42072.532345
612.112594	41976.886533
612.461518	42176.133098
612.810389	42424.248608
613.159207	42264.779268
613.507971	42322.371930
613.856682	42766.462296
614.205340	42604.971453
614.553945	43285.297850
614.902496	42717.192579
615.250994	43132.286227
615.599439	43184.174824
615.947830	43342.628372
616.296169	43364.254922
616.644454	43437.495325
616.992686	43578.821553
617.340864	44051.838059
617.688990	43722.784304
618.037063	44290.634997
618.385082	44197.890369
618.733048	44471.125948
619.080961	44431.966265
619.428821	44422.665336
619.776628	44505.234395
620.124382	44298.637828
620.472083	44408.315692
620.819731	44503.379251
621.167326	44175.515207
621.514868	44131.274041
621.862357	43679.526163
622.209793	43684.411041
622.557176	43343.475286
622.904506	43080.344699
623.251783	42718.765419
623.599007	42477.604180
623.946179	42225.642270
624.293297	42165.861747
624.640363	41539.198433
624.987376	41516.205730
625.334336	41238.846487
625.681243	40842.831085
626.028097	40781.679368
626.374899	40589.714750
626.721647	40528.126974
627.068343	40378.346731
627.414987	40113.338315
627.761577	39859.364984
628.108115	40127.083021
628.454600	39554.586905
628.801032	39693.301814
629.147412	39603.904513
629.493739	39581.362993
629.840014	39179.328453
630.186236	39446.794432
630.532405	39033.301350
630.878521	39178.443731
631.224585	39021.043784
631.570597	38720.366684
631.916556	38808.511259
632.262462	38715.769152
632.608316	38682.578195
632.954117	38549.368225
633.299866	38502.364506
633.645562	38397.606809
633.991206	37899.674399
634.336797	37449.592622
634.682336	37430.950435
635.027823	37169.538882
635.373257	36969.238716
635.718639	36700.701492
636.063968	36559.057672
636.409245	35982.029559
636.754470	35996.805181
637.099642	35729.387093
637.444762	35230.146504
637.789829	35344.434502
638.134845	34979.218030
638.479808	34898.730967
638.824719	34757.213176
639.169577	34357.242989
639.514383	34375.131523
639.859137	34044.547778
640.203839	34234.783280
640.548489	33857.158007
640.893086	33894.003800
641.237632	33597.949438
641.582125	33671.091539
641.926566	33570.845674
642.270955	33501.572658
642.615292	33468.890858
642.959576	33409.800973
643.303809	33362.761967
643.647990	33451.163641
643.992118	33380.917682
644.336195	33336.041331
644.680219	33349.019781
645.024192	33582.589042
645.368112	34004.699977
645.711981	33946.928354
646.055797	34683.249367
646.399562	34536.730751
646.743274	35343.189337
647.086935	35696.869130
647.430544	35535.075818
647.774101	35590.112615
648.117606	35784.232326
648.461059	36030.764913
648.804460	35662.387637
649.147810	35078.085139
649.491108	34822.743135
649.834354	34457.955160
650.177548	33675.951211
650.520690	33239.987185
650.863781	33210.191446
651.206820	33028.775442
651.549807	32593.401231
651.892742	32126.096352
652.235626	31895.375343
652.578458	31745.844638
652.921238	31157.007622
653.263967	31384.623280
653.606644	31052.812013
653.949269	30986.654431
654.291843	30566.731356
654.634365	30879.890354
654.976836	30476.340947
655.319255	30424.207855
655.661622	30391.276517
656.003938	30135.546344
656.346203	29982.842233
656.688416	30128.892021
657.030577	29921.249415
657.372687	29744.990512
657.714746	29937.484451
658.056753	29995.198101
658.398708	29478.956221
658.740612	29470.804675
659.082465	29675.999801
659.424266	29453.823548
659.766016	29509.399749
660.107715	29370.611742
660.449362	29438.218656
660.790958	29375.844460
661.132503	29347.172897
661.473996	29311.998246
661.815438	29368.194509
662.156829	29496.330557
662.498168	29245.611291
662.839456	29214.590551
663.180693	29303.708069
663.521879	29399.386648
663.863013	29302.480548
664.204097	29247.894934
664.545129	29585.783312
664.886110	29499.738377
665.227040	29498.392389
665.567918	29542.885613
665.908746	29522.582366
666.249522	29643.355809
666.590248	29585.627036
666.930922	29650.375616
667.271545	29557.827593
667.612118	29586.688199
667.952639	29345.411014
668.293109	29339.792648
668.633528	29223.818383
668.973896	29124.711819
669.314213	29098.374311
669.654480	28837.108951
669.994695	28816.500714
670.334859	28665.805502
670.674973	28537.800524
671.015035	28619.532751
671.355047	28524.731332
671.695008	28430.910418
672.034918	28285.994889
672.374777	28295.111816
672.714585	28098.829450
673.054342	28231.295849
673.394049	27963.313152
673.733705	28172.936932
674.073310	27835.071239
674.412864	27862.684160
674.752368	27483.065110
675.091820	27684.799484
675.431223	27310.405591
675.770574	27043.214355
676.109875	26891.195840
676.449125	26625.305222
676.788324	26510.881112
677.127473	26040.682610
677.466571	25942.029750
677.805619	25622.508816
678.144616	25580.694966
678.483562	25475.002134
678.822458	25171.204559
679.161303	25053.866662
679.500098	24941.486740
679.838842	24793.080212
680.177535	24864.009247
680.516179	25005.980742
680.854771	25132.244002
681.193314	25731.851443
681.531805	26500.569432
681.870247	27007.843099
682.208638	27507.756682
682.546978	27630.690260
682.885268	27676.993258
683.223508	27238.322132
683.561697	26942.023274
683.899836	26743.313592
684.237925	26307.646994
684.575963	26140.792364
684.913951	25730.233233
685.251889	25782.406655
685.589776	25704.084768
685.927614	25633.985003
686.265401	25660.627501
686.603137	25658.205227
686.940824	25962.854757
687.278460	26165.965366
687.616046	26189.583171
687.953582	26568.723311
688.291068	26421.166217
688.628504	26591.383298
688.965889	26502.880801
689.303224	26188.660640
689.640510	25913.504381
689.977745	25355.637693
690.314930	24745.721092
690.652065	24350.159394
690.989150	23781.396253
691.326185	23092.152055
691.663170	22548.332543
692.000105	21962.875620
692.336990	21446.883277
692.673825	21077.253274
693.010610	20662.351189
693.347345	20207.346725
693.684030	19691.029228
694.020665	19443.377504
694.357251	18935.597200
694.693786	18848.765846
695.030272	18642.096182
695.366707	18221.152274
695.703093	17966.886557
696.039429	17916.205317
696.375716	17685.023042
696.711952	17622.142210
697.048139	17458.801263
697.384276	17288.049821
697.720363	17340.671905
698.056400	17172.340217
698.392388	16983.042369
698.728326	16923.965087
699.064214	16761.702948
699.400053	16691.729212
699.735842	16407.849236
700.071581	16192.251689
700.407270	15959.161338
700.742910	15816.753783
701.078501	15593.808754
701.414042	15361.719072
701.749533	15144.294107
702.084974	14881.145876
702.420366	14988.227545
702.755709	14660.665971
703.091002	14435.480150
703.426246	14412.749587
703.761440	14313.456500
704.096584	14111.903608
704.431679	14044.851220
704.766725	13962.541781
705.101721	13885.845666
705.436668	13908.233431
705.771565	13668.904652
706.106413	13857.728631
706.441212	13811.783555
706.775961	13859.266183
707.110661	13867.581566
707.445311	14055.349423
707.779913	13914.630655
708.114465	14019.075801
708.448967	14160.835567
708.783421	14563.076795
709.117825	14702.051324
709.452180	14802.909689
709.786485	15000.958979
710.120742	15469.985413
710.454949	15451.239882
710.789107	15704.595672
711.123216	16099.333141
711.457275	16163.829663
711.791286	16481.145092
712.125247	16494.231928
712.459159	16302.468956
712.793023	16684.976586
713.126837	15987.898435
713.460602	16115.331243
713.794318	15862.784559
714.127985	15600.135402
714.461602	15032.738413
714.795171	14976.322861
715.128691	14338.803422
715.462162	13983.124812
715.795584	13704.064179
716.128957	13511.928162
716.462281	13233.911048
716.795556	13053.283985
717.128782	12708.736243
717.461960	12358.988551
717.795088	12281.538784
718.128167	12015.421314
718.461198	11729.534958
718.794180	11614.694953
719.127113	11386.015612
719.459997	11248.155178
719.792833	11022.268636
720.125619	10975.406069
720.458357	10774.332087
720.791046	10646.024639
721.123686	10534.358040
721.456278	10372.458864
721.788821	10327.010341
722.121315	10159.850721
722.453761	10174.530561
722.786158	10108.798956
723.118506	10088.984701
723.450805	10001.029169
723.783056	10060.824815
724.115259	9984.491664
724.447412	9923.682745
724.779518	10034.870435
725.111574	10023.366522
725.443582	10116.506880
725.775542	10082.569832
726.107453	10320.028343
726.439315	10239.644624
726.771129	10430.288460
727.102895	10606.940573
727.434612	10698.868534
727.766281	10753.764179
728.097901	10870.716428
728.429473	10872.899247
728.760996	10842.491007
729.092471	10868.082425
729.423897	10781.056986
729.755276	10693.630775
730.086606	10729.485982
730.417887	10963.902156
730.749120	11197.773886
731.080305	11272.259455
731.411442	11417.084243
731.742530	11434.158631
732.073570	11459.003958
732.404562	11601.708941
732.735506	11497.117602
733.066401	11320.752834
733.397249	11029.474965
733.728048	10673.914822
734.058798	10234.384180
734.389501	9853.973670
734.720156	9593.744267
735.050762	9296.563207
735.381320	9089.707021
735.711831	8938.177498
736.042293	8743.374710
736.372707	8717.871513
736.703073	8595.411804
737.033391	8668.702619
737.363661	8629.714335
737.693883	8663.926126
738.024056	8734.593020
738.354182	8810.003641
738.684260	8941.194628
739.014290	9040.361686
739.344272	9125.673133
739.674207	9258.469728
740.004093	9307.119383
740.333931	9289.094737
740.663722	9290.939800
740.993464	9272.363148
741.323159	9175.484774
741.652806	9022.349643
741.982405	8899.277434
742.311956	8713.503353
742.641460	8641.251016
742.970915	8463.220147
743.300323	8286.767159
743.629683	8160.892068
743.958996	8006.741146
744.288260	7860.088939
744.617477	7690.716252
744.946647	7636.264229
745.275768	7485.672361
745.604842	7382.394242
745.933869	7286.115765
746.262847	7245.632779
746.591778	7201.225255
746.920662	7139.680328
747.249498	7124.939994
747.578286	7167.832652
747.907027	7220.908440
748.235720	7305.859444
748.564365	7309.136194
748.892963	7251.475476
749.221514	7259.760613
749.550017	7187.510796
749.878473	7155.567524
750.206881	7044.717592
750.535242	6987.248439
750.863555	6937.235151
751.191821	6873.025975
751.520039	6870.790223
751.848210	6820.850033
752.176334	6822.064951
752.504411	6774.857065
752.832440	6690.599220
753.160421	6707.638320
753.488356	6643.645913
753.816243	6596.475837
754.144082	6526.096288
754.471875	6488.310319
754.799620	6458.096163
755.127318	6432.986176
755.454969	6401.405868
755.782572	6377.488113
756.110129	6367.730960
756.437638	6322.844526
756.765100	6310.609646
757.092515	6308.061343
757.419882	6306.511188
757.747203	6297.583304
758.074477	6321.702705
758.401703	6300.368542
758.728882	6363.904724
759.056014	6380.215378
759.383099	6412.130923
759.710138	6449.621984
760.037129	6473.116281
760.364073	6470.686445
760.690970	6460.596576
761.017820	6447.620646
761.344623	6506.385376
761.671379	6628.353573
761.998088	6852.904209
762.324751	7484.066753
762.651366	8653.513622
762.977935	10117.762127
763.304456	11000.062353
763.630931	11161.139821
763.957359	10676.621922
764.283740	9894.290298
764.610074	9134.112024
764.936362	8277.907332
765.262602	7650.384501
765.588796	7031.913062
765.914943	6616.181707
766.241044	6275.248472
766.567097	6003.454663
766.893104	5773.842708
767.219064	5612.288851
767.544978	5448.814314
767.870845	5316.617616
768.196665	5235.523094
768.522438	5144.651255
768.848165	5071.665430
769.173846	4993.898070
769.499479	4938.021921
769.825066	4864.100961
770.150607	4789.938027
770.476101	4759.532307
770.801548	4712.606727
771.126949	4646.791942
771.452303	4605.008339
771.777611	4533.696177
772.102872	4519.739742
772.428087	4471.264007
772.753256	4420.943209
773.078378	4381.347466
773.403453	4322.295390
773.728482	4279.281745
774.053465	4247.204883
774.378401	4213.282959
774.703291	4169.550949
775.028135	4128.606698
775.352932	4107.118779
775.677683	4073.887493
776.002388	4039.887431
776.327046	4031.977861
776.651658	3997.093076
776.976224	3964.146615
777.300743	3955.803505
777.625216	3926.153959
777.949643	3906.014549
778.274024	3904.572779
778.598359	3874.310733
778.922647	3872.619426
779.246889	3858.670553
779.571086	3852.482537
779.895236	3861.501161
780.219339	3854.640151
780.543397	3853.223586
780.867409	3864.407386
781.191374	3861.980071
781.515294	3844.794777
781.839167	3861.120554
782.162995	3847.075899
782.486776	3824.509174
782.810511	3804.112666
783.134201	3775.622585
783.457844	3770.931791
783.781441	3750.036208
784.104993	3727.411510
784.428498	3716.210066
784.751958	3706.715053
785.075372	3694.200388
785.398739	3675.260773
785.722061	3681.353008
786.045337	3676.274045
786.368568	3713.034139
786.691752	3718.939851
787.014891	3804.026966
787.337983	3904.466915
787.661030	4058.275040
787.984031	4204.496228
788.306987	4288.076038
788.629897	4303.844767
788.952760	4263.308849
789.275579	4191.999207
789.598351	4087.327209
789.921078	3991.205008
790.243759	3886.689286
790.566395	3818.694203
790.888984	3750.048811
791.211529	3699.559135
791.534027	3645.218017
791.856480	3594.017538
792.178888	3574.394847
792.501249	3551.437432
792.823566	3512.262625
793.145836	3504.705936
793.468062	3495.057167
793.790241	3481.783809
794.112375	3497.083711
794.434464	3522.506250
794.756507	3534.645348
795.078505	3572.297727
795.400457	3642.775578
795.722364	3720.668967
796.044226	3789.906694
796.366042	3838.064837
796.687812	3820.352743
797.009538	3825.441788
797.331218	3789.947023
797.652852	3763.790997
797.974442	3716.915827
798.295986	3691.362219
798.617484	3646.674910
798.938938	3613.002523
799.260346	3586.067638
799.581709	3538.088457
799.903026	3520.567926
800.224299	3497.602950
800.545526	3459.769090
800.866708	3434.643980
801.187845	3420.695107
801.508936	3395.237280
801.829983	3384.176988
802.150984	3346.484281
802.471940	3340.709639
802.792851	3334.758557
803.113717	3325.550890
803.434538	3314.951864
803.755314	3303.175728
804.076045	3303.604227
804.396731	3292.196095
804.717372	3294.797331
805.037967	3291.818009
805.358518	3305.681182
805.679024	3319.937565
805.999485	3321.470076
806.319901	3325.014007
806.640272	3329.006601
806.960598	3342.557222
807.280879	3343.260463
807.601115	3350.562575
807.921306	3336.429700
808.241453	3335.050944
808.561554	3335.388702
808.881611	3324.177175
809.201623	3322.301866
809.521590	3304.383085
809.841513	3298.699184
810.161390	3299.513330
810.481223	3271.056017
810.801011	3259.216867
811.120755	3257.359202
811.440453	3237.882704
811.760107	3228.158318
812.079716	3215.988973
812.399281	3199.927857
812.718801	3194.553987
813.038276	3182.939168
813.357707	3172.877025
813.677093	3178.094619
813.996434	3157.314983
814.315731	3159.732216
814.634983	3161.922598
814.954191	3156.737771
815.273354	3174.190246
815.592473	3184.572502
815.911547	3206.614947
816.230577	3218.282698
816.549562	3242.195411
816.868502	3257.215529
817.187399	3271.706326
817.506250	3288.319448
817.825058	3295.119965
818.143821	3332.157322
818.462539	3377.313458
818.781213	3439.811162
819.099843	3543.580794
819.418429	3720.023699
819.736970	3893.464597
820.055466	4079.674738
820.373919	4324.064835
820.692327	4727.054673
821.010691	5543.882913
821.329011	7621.173535
821.647286	11100.262847
821.965517	15026.381518
822.283704	17072.386739
822.601847	17278.126310
822.919945	15209.806422
823.237999	13174.039784
823.556010	11318.254942
823.873976	9775.198079
824.191897	8450.534083
824.509775	7469.409598
824.827609	6618.969465
825.145398	6102.944354
825.463144	5852.056210
825.780845	5918.193628
826.098502	6300.381145
826.416116	6995.737742
826.733685	7624.336859
827.051210	7733.908858
827.368692	7278.251565
827.686129	6549.608229
828.003522	5855.431262
828.320872	5241.890072
828.638177	4788.168582
828.955439	4439.045992
829.272656	4145.640756
829.589830	3904.918098
829.906960	3707.781257
830.224046	3555.200653
830.541088	3438.528189
830.858086	3365.325594
831.175041	3311.034887
831.491952	3285.718213
831.808819	3292.425468
832.125642	3347.447142
832.442421	3493.403669
832.759157	3792.349133
833.075849	4281.850213
833.392497	4785.698416
833.709101	5077.782870
834.025662	4995.163400
834.342179	4695.716341
834.658653	4345.550233
834.975083	4049.853792
835.291469	3818.490036
835.607811	3621.721199
835.924110	3481.766165
836.240366	3354.293028
836.556578	3234.237950
836.872746	3140.850575
837.188871	3069.427507
837.504952	3012.717047
837.820990	2966.789615
838.136984	2937.008998
838.452935	2922.636669
838.768842	2932.545057
839.084706	3010.582118
839.400526	3210.131152
839.716303	3450.949592
840.032037	3589.447732
840.347727	3543.663973
840.663373	3381.051473
840.978977	3232.443299
841.294537	3123.335086
841.610054	3032.909388
841.925527	2971.384626
842.240957	2915.510998
842.556344	2869.460057
842.871687	2829.125785
843.186987	2789.358643
843.502244	2756.674322
843.817458	2736.209758
844.132629	2714.787375
844.447756	2707.097095
844.762840	2690.942717
845.077881	2680.298321
845.392879	2673.303720
845.707833	2667.425735
846.022745	2658.102121
846.337613	2659.528767
846.652438	2650.943682
846.967221	2650.956285
847.281960	2647.351860
847.596656	2644.475882
847.911309	2640.969759
848.225919	2634.776702
848.540485	2633.776033
848.855009	2631.736886
849.169490	2627.038531
849.483928	2625.483335
849.798323	2621.594084
850.112675	2621.745319
850.426984	2620.109465
850.741251	2620.590895
851.055474	2618.927314
851.369654	2619.990997
851.683792	2616.825153
851.997887	2617.092334
852.311938	2618.952520
852.625947	2619.272633
852.939914	2616.641151
853.253837	2616.865482
853.567718	2616.961264
853.881555	2615.302724
854.195350	2618.100565
854.509103	2614.896912
854.822812	2612.981273
855.136479	2613.825666
855.450103	2612.867847
855.763685	2614.506222
856.077224	2611.736108
856.390720	2614.044957
856.704173	2618.617283
857.017584	2619.166769
857.330953	2619.186933
857.644278	2620.517798
857.957561	2621.430247
858.270802	2622.330093
858.584000	2621.379835
858.897155	2618.108127
859.210268	2617.034361
859.523339	2613.059411
859.836367	2610.059924
860.149352	2609.487753
860.462295	2611.713423
860.775195	2604.791919
861.088054	2602.536002
861.400869	2602.296547
861.713642	2601.051382
862.026373	2605.343925
862.339062	2606.299224
862.651708	2608.114039
862.964312	2614.244082
863.276873	2614.874226
863.589392	2621.326903
863.901869	2630.101032
864.214303	2635.585807
864.526696	2638.827269
864.839045	2643.253402
865.151353	2646.184833
865.463619	2647.366983
865.775842	2646.172230
866.088023	2646.346150
866.400162	2645.408495
866.712258	2644.929586
867.024313	2642.189718
867.336325	2645.254740
867.648296	2642.265336
867.960224	2644.150727
868.272110	2644.296921
868.583954	2644.629637
868.895755	2645.582415
869.207515	2644.624596
869.519233	2648.420585
869.830909	2646.467137
870.142542	2654.338899
870.454134	2650.195071
870.765684	2657.159425
871.077191	2658.404590
871.388657	2664.101094
871.700081	2669.255673
872.011463	2675.327743
872.322803	2676.000737
872.634101	2684.116995
872.945357	2688.094465
873.256571	2693.521267
873.567744	2698.103676
873.878874	2697.266845
874.189963	2704.183308
874.501010	2702.519727
874.812015	2702.829758
875.122979	2703.560725
875.433900	2703.873277
875.744780	2704.649615
876.055618	2705.441076
876.366415	2705.138607
876.677169	2705.776312
876.987882	2708.032229
877.298554	2713.184288
877.609183	2717.862479
877.919771	2726.525702
878.230317	2745.041860
878.540822	2768.342073
878.851285	2799.720735
879.161707	2846.636233
879.472087	2934.541353
879.782425	3081.281780
880.092722	3378.644322
880.402977	3943.278759
880.713191	4749.596193
881.023363	5569.078600
881.333494	6019.117528
881.643583	6075.308749
881.953631	5830.948899
882.263637	5495.228217
882.573602	5163.411909
882.883526	4875.224267
883.193408	4604.302577
883.503248	4352.615410
883.813048	4126.567551
884.122806	3918.493926
884.432522	3712.630847
884.742197	3528.603526
885.051831	3371.909341
885.361424	3240.617530
885.670975	3136.633649
885.980485	3054.117523
886.289954	2984.037923
886.599382	2930.727721
886.908768	2885.430433
887.218113	2845.038187
887.527417	2812.883188
887.836680	2783.677263
888.145901	2760.593819
888.455082	2741.228227
888.764221	2726.036710
889.073319	2710.751931
889.382376	2703.326312
889.691392	2696.309026
890.000366	2697.655014
890.309300	2693.838860
890.618193	2697.057637
890.927044	2694.063192
891.235855	2693.382636
891.544625	2700.573842
891.853353	2704.899152
892.162041	2718.558158
892.470687	2742.029770
892.779293	2766.431476
893.087858	2806.833803
893.396381	2871.642877
893.704864	2970.192393
894.013306	3102.734410
894.321707	3231.291395
894.630068	3311.027326
894.938387	3311.155875
895.246665	3267.444030
895.554903	3193.132381
895.863100	3119.889457
896.171256	3061.394428
896.479371	3002.717918
896.787446	2952.830660
897.095480	2910.585790
897.403473	2876.192518
897.711425	2842.941067
898.019336	2813.430153
898.327207	2787.064918
898.635038	2765.458533
898.942827	2739.398288
899.250576	2722.034034
899.558284	2702.466795
899.865952	2690.821730
900.173579	2675.053000
900.481165	2664.479180
900.788711	2656.007521
901.096216	2646.880512
901.403681	2642.721560
901.711105	2641.040335
902.018489	2639.162506
902.325832	2647.939154
902.633135	2656.990546
902.940397	2700.664582
903.247619	2796.786783
903.554800	2977.602890
903.861941	3209.256512
904.169041	3375.302037
904.476101	3426.096703
904.783121	3352.596680
905.090100	3253.963985
905.397039	3163.107269
905.703938	3077.087540
906.010796	3003.242198
906.317614	2946.698096
906.624391	2888.848335
906.931129	2842.870491
907.237826	2800.560087
907.544483	2761.619694
907.851099	2721.146791
908.157675	2679.635409
908.464211	2646.217600
908.770707	2618.375308
909.077163	2602.016763
909.383578	2585.144022
909.689954	2577.073134
909.996289	2569.796229
910.302584	2567.202555
910.608839	2562.710887
910.915054	2556.734599
911.221229	2556.885834
911.527363	2561.742985
911.833458	2560.041596
912.139513	2562.763819
912.445527	2564.656772
912.751502	2575.142372
913.057436	2586.331213
913.363331	2598.707246
913.669186	2618.377828
913.975000	2647.220790
914.280775	2687.096317
914.586510	2750.831625
914.892205	2839.608865
915.197859	2952.069445
915.503475	3088.662029
915.809050	3196.807382
916.114585	3256.837442
916.420081	3268.779936
916.725536	3251.980291
917.030952	3201.026828
917.336328	3151.058911
917.641665	3106.227930
917.946961	3055.803789
918.252218	3013.198477
918.557435	2960.286526
918.862612	2914.749783
919.167750	2874.596993
919.472848	2830.933039
919.777906	2792.577420
920.082925	2758.481576
920.387904	2720.803992
920.692843	2696.551001
920.997743	2675.186591
921.302603	2654.689259
921.607423	2637.786271
921.912204	2623.880248
922.216946	2612.474637
922.521647	2598.888727
922.826310	2592.327666
923.130932	2580.917014
923.435516	2570.532237
923.740059	2566.406053
924.044564	2557.775597
924.349028	2551.345606
924.653454	2540.295396
924.957840	2538.301620
925.262186	2533.704088
925.566493	2529.794673
925.870761	2521.484331
926.174989	2518.946110
926.479178	2517.653054
926.783328	2513.693228
927.087438	2510.403875
927.391509	2511.626354
927.695541	2504.828358
927.999533	2501.148316
928.303486	2502.539675
928.607400	2500.308964
928.911275	2497.710249
929.215110	2493.949548
929.518906	2496.414673
929.822663	2497.271669
930.126381	2492.815289
930.430060	2498.380723
930.733699	2495.116576
931.037299	2497.120434
931.340861	2496.407111
931.644383	2497.770743
931.947866	2494.451143
932.251309	2497.241422
932.554714	2493.546256
932.858080	2498.670589
933.161407	2494.869559
933.464694	2496.467605
933.767943	2490.755977
934.071153	2491.260093
934.374323	2492.475011
934.677455	2491.005515
934.980548	2488.729434
935.283602	2489.223467
935.586617	2487.310349
935.889593	2489.352016
936.192530	2488.482417
936.495428	2490.294712
936.798287	2493.243787
937.101108	2492.265803
937.403890	2501.407936
937.706632	2505.085457
938.009336	2510.234996
938.312002	2519.243538
938.614628	2523.941893
938.917216	2528.998171
939.219765	2528.501617
939.522275	2532.630322
939.824747	2530.807945
940.127179	2529.683768
940.429573	2526.722090
940.731929	2527.926925
941.034246	2524.125895
941.336524	2526.885927
941.638763	2525.819723
941.940964	2525.628159
942.243126	2520.491223
942.545250	2520.130781
942.847335	2516.090296
943.149381	2512.979904
943.451389	2511.860768
943.753359	2509.640140
944.055290	2504.750221
944.357182	2504.833400
944.659036	2501.297030
944.960851	2502.065806
945.262628	2498.045486
945.564367	2501.909530
945.866067	2498.277379
946.167729	2498.600013
946.469352	2499.545229
946.770937	2497.470794
947.072484	2496.510455
947.373992	2497.964828
947.675462	2495.378716
947.976893	2499.315857
948.278286	2490.914774
948.579641	2491.968375
948.880958	2491.900319
949.182236	2492.359064
949.483476	2493.384939
949.784678	2490.990391
950.085841	2490.453508
950.386967	2492.177583
950.688054	2493.251349
950.989103	2496.207985
951.290114	2493.248828
951.591087	2498.544560
951.892021	2500.913902
952.192917	2501.130672
952.493776	2505.158554
952.794596	2508.105108
953.095378	2508.402537
953.396122	2507.666528
953.696828	2506.081085
953.997496	2504.901455
954.298126	2501.566732
954.598718	2500.752586
954.899272	2496.492811
955.199788	2497.143119
955.500266	2492.870742
955.800706	2487.796820
956.101108	2480.076293
956.401472	2481.202991
956.701798	2478.518577
957.002087	2477.326344
957.302337	2472.990951
957.602550	2473.041363
957.902724	2472.617906
958.202861	2470.034315
958.502960	2467.077678
958.803022	2466.558439
959.103045	2461.418983
959.403031	2462.752368
959.702979	2462.540639
960.002889	2461.981071
960.302762	2459.112655
960.602596	2459.304219
960.902393	2455.888837
961.202153	2457.244907
961.501875	2455.304063
961.801559	2452.886830
962.101205	2454.081583
962.400814	2451.850873
962.700385	2452.609566
962.999918	2452.962447
963.299414	2451.561006
963.598873	2451.298866
963.898293	2452.642334
964.197677	2450.119236
964.497022	2449.310131
964.796331	2449.373146
965.095601	2447.374328
965.394835	2452.259206
965.694030	2449.849535
965.993189	2450.797272
966.292309	2450.585543
966.591393	2450.507405
966.890439	2451.669391
967.189447	2447.812908
967.488419	2450.250306
967.787353	2447.553289
968.086249	2447.129832
968.385108	2449.116047
968.683930	2451.258537
968.982714	2449.758794
969.281462	2447.449945
969.580172	2449.904987
969.878844	2446.177054
970.177480	2451.245934
970.476078	2450.739298
970.774639	2453.564865
971.073162	2451.707200
971.371649	2449.489092
971.670098	2446.061108
971.968510	2449.824329
972.266885	2446.257712
972.565223	2452.546552
972.863524	2452.768363
973.161788	2452.912036
973.460014	2453.862293
973.758204	2454.200050
974.056356	2453.524536
974.354471	2452.569237
974.652550	2454.096707
974.950591	2454.573096
975.248595	2453.968157
975.546563	2455.150308
975.844493	2453.128805
976.142386	2452.473455
976.440243	2451.923969
976.738062	2451.094700
977.035845	2452.251644
977.333590	2450.300718
977.631299	2451.923969
977.928971	2450.197374
978.226606	2448.223762
978.524204	2449.060594
978.821765	2445.141097
979.119290	2448.112857
979.416777	2447.167641
979.714228	2450.242745
980.011642	2447.485233
980.309020	2453.343054
980.606360	2450.235183
980.903664	2453.143929
981.200931	2456.874383
981.498162	2459.543673
981.795356	2465.298151
982.092513	2474.531024
982.389633	2487.257417
982.686717	2494.718324
982.983764	2501.349962
983.280775	2506.459172
983.577749	2507.616117
983.874686	2506.738956
984.171587	2504.644356
984.468451	2496.775115
984.765279	2492.976606
985.062070	2488.374032
985.358824	2482.808598
985.655543	2477.439770
985.952224	2475.672845
986.248869	2467.937195
986.545478	2458.800103
986.842050	2455.868672
987.138586	2449.438681
987.435086	2445.743515
987.731549	2443.409461
988.027975	2443.706889
988.324366	2443.180088
988.620719	2442.980963
988.917037	2441.811415
989.213318	2438.648091
989.509563	2436.969387
989.805772	2438.300251
990.101944	2438.136414
990.398080	2438.970725
990.694180	2437.483584
990.990244	2439.396702
991.286271	2437.740683
991.582262	2438.423759
991.878217	2436.724891
992.174136	2439.152206
992.470019	2438.816969
992.765865	2437.927206
993.061676	2438.494336
993.357450	2438.822011
993.653188	2438.569953
993.948890	2443.159923
994.244556	2442.562547
994.540186	2444.601693
994.835780	2448.254009
995.131337	2449.965481
995.426859	2455.430092
995.722345	2457.522171
996.017795	2463.347224
996.313208	2465.061216
996.608586	2470.097329
996.903928	2472.136476
997.199234	2469.162195
997.494504	2469.696557
997.789738	2466.324025
998.084936	2462.515434
998.380099	2460.289764
998.675225	2458.968982
998.970316	2458.439661
999.265371	2452.412961
999.560390	2449.509257
999.855373	2446.976077
1000.150320	2442.134049
1000.445232	2444.442897
1000.740108	2439.031218
1001.034948	2437.556681
1001.329752	2438.302772
1001.624521	2435.938471
1001.919254	2430.864549
1002.213951	2435.187339
1002.508613	2428.981678
1002.803239	2429.576534
1003.097829	2426.471184
1003.392384	2431.456885
1003.686903	2434.224478
1003.981386	2432.676844
1004.275834	2430.042841
1004.570246	2432.964190
1004.864623	2432.381937
1005.158964	2430.007553
1005.453270	2428.830444
1005.747540	2429.868921
1006.041775	2428.769950
1006.335974	2427.250042
1006.630138	2429.271545
1006.924266	2431.419076
1007.218359	2426.892120
1007.512416	2430.753644
1007.806438	2427.754157
1008.100425	2430.095773
1008.394376	2426.768612
1008.688292	2432.361772
1008.982172	2427.996133
1009.276017	2427.423962
1009.569827	2428.192738
1009.863602	2430.052923
1010.157341	2426.564445
1010.451045	2426.468663
1010.744714	2427.822213
1011.038347	2426.166194
1011.331945	2428.149888
1011.625508	2426.927408
1011.919036	2430.355393
1012.212528	2426.607295
1012.505986	2424.943714
1012.799408	2424.479928
1013.092795	2427.111410
1013.386147	2427.832295
1013.679464	2427.592840
1013.972745	2428.590989
1014.265992	2427.497058
1014.559204	2427.358427
1014.852380	2424.071594
1015.145521	2426.655186
1015.438628	2427.706266
1015.731699	2427.113931
1016.024736	2424.215267
1016.317737	2427.139137
1016.610703	2425.997315
1016.903635	2423.907757
1017.196531	2421.848446
1017.489393	2424.941193
1017.782219	2420.910791
1018.075011	2432.127358
1018.367768	2428.590989
1018.660490	2425.304157
1018.953177	2425.304157
1019.245829	2425.304157
