Dividing Wavelength (nm)	Counts (n)	Blue Motor Position (mm): 0.000000	Red Motor Position (mm): 35.400000	
326.493990	1990.676037
326.888308	1990.676037
327.282561	1990.676037
327.676750	1966.758282
328.070874	1967.910186
328.464933	1974.561988
328.858929	1980.863431
329.252859	1994.199803
329.646726	2011.319562
330.040528	2025.306243
330.434265	2044.094623
330.827938	2063.510627
331.221547	2083.844121
331.615091	2106.345312
332.008571	2125.002622
332.401986	2146.261168
332.795338	2164.729435
333.188625	2183.933710
333.581847	2205.081351
333.975006	2221.754967
334.368100	2241.145765
334.761129	2255.082035
335.154095	2269.285486
335.546996	2296.704322
335.939833	2336.534478
336.332606	2350.581654
336.725315	2363.058509
337.117960	2370.005219
337.510540	2377.045191
337.903056	2387.525750
338.295508	2394.424569
338.687896	2402.780281
339.080220	2410.465520
339.472480	2412.424008
339.864676	2419.587488
340.256807	2419.206881
340.648875	2424.890782
341.040879	2425.044537
341.432818	2427.187027
341.824694	2427.497058
342.216506	2426.090577
342.608253	2425.989753
342.999937	2423.075967
343.391557	2424.469846
343.783113	2420.820050
344.174605	2420.464649
344.566033	2421.661923
344.957397	2418.082704
345.348697	2414.861406
345.739934	2414.821077
346.131106	2414.216139
346.522215	2411.312434
346.913260	2410.306724
347.304241	2406.203225
347.695159	2408.020561
348.086012	2408.065931
348.476802	2403.062586
348.867528	2406.339336
349.258191	2402.059396
349.648789	2401.018398
350.039324	2398.873387
350.429796	2401.545198
350.820203	2401.250291
351.210548	2398.618809
351.600828	2400.315157
351.991045	2398.477656
352.381198	2398.533109
352.771288	2398.646535
353.161314	2399.155692
353.551276	2398.081926
353.941175	2397.338356
354.331010	2399.901782
354.720782	2397.134189
355.110490	2398.586041
355.500135	2399.516134
355.889717	2402.863460
356.279235	2399.327091
356.668689	2400.000085
357.058080	2400.708367
357.447408	2401.744324
357.836672	2401.865312
358.225873	2402.223234
358.615010	2398.354148
359.004084	2406.178019
359.393095	2407.357649
359.782043	2407.844120
360.170927	2408.128945
360.559748	2408.900242
360.948505	2410.578946
361.337199	2412.096333
361.725830	2410.082392
362.114398	2410.626837
362.502903	2412.406364
362.891344	2414.344688
363.279722	2412.877712
363.668037	2413.873340
364.056289	2416.167065
364.444478	2416.787127
364.832603	2418.967426
365.220665	2418.715368
365.608665	2419.670667
365.996601	2422.211409
366.384474	2420.313414
366.772284	2421.309042
367.160031	2425.367171
367.547715	2426.435896
367.935336	2423.340627
368.322893	2422.705442
368.710388	2425.470515
369.097820	2432.114755
369.485189	2429.626946
369.872495	2432.195414
370.259738	2432.752461
370.646918	2435.257915
371.034035	2433.659869
371.421090	2441.629933
371.808081	2444.805860
372.195010	2450.908177
372.581875	2456.138374
372.968678	2460.932511
373.355418	2470.666979
373.742096	2480.996304
374.128710	2489.281440
374.515262	2503.247957
374.901751	2519.992149
375.288177	2534.450178
375.674540	2556.873231
376.060841	2577.978021
376.447079	2601.981475
376.833254	2627.615743
377.219367	2655.919301
377.605417	2689.488344
377.991404	2718.059084
378.377329	2759.905702
378.763191	2792.332924
379.148991	2841.642970
379.534727	2894.365878
379.920402	2939.637960
380.306013	2988.703510
380.691563	3054.533418
381.077049	3111.768158
381.462474	3168.813855
381.847835	3243.995103
382.233134	3316.650733
382.618371	3381.144734
383.003545	3466.957776
383.388657	3547.149931
383.773706	3640.373468
384.158693	3718.957495
384.543618	3814.028615
384.928480	3893.278074
385.313280	4000.604240
385.698017	4108.348821
386.082692	4229.026482
386.467305	4296.237666
386.851856	4427.184158
387.236344	4580.836006
387.620770	4649.133558
388.005133	4766.912556
388.389435	4923.389972
388.773674	5010.493548
389.157851	5146.110669
389.541965	5281.596720
389.926018	5299.689421
390.310008	5485.012319
390.693936	5613.022338
391.077802	5732.651440
391.461606	5866.055494
391.845348	5977.792669
392.229027	6101.512667
392.612645	6330.723850
392.996200	6451.341017
393.379694	6629.525641
393.763125	6860.428131
394.146494	6955.101001
394.529801	7091.262566
394.913047	7339.113415
395.296230	7336.998651
395.679351	7398.026860
396.062410	7665.916296
396.445408	7560.490645
396.828343	7721.300932
397.211217	7854.712548
397.594028	7734.342398
397.976778	7951.429606
398.359466	8115.577137
398.742092	8079.149759
399.124656	8237.492401
399.507158	8427.591792
399.889598	8451.270092
400.271977	8664.142895
400.654294	8694.104993
401.036549	8892.812154
401.418742	8927.366743
401.800874	9236.747396
402.182944	9313.814035
402.564952	9688.338999
402.946898	9508.566411
403.328783	9564.301408
403.710606	9766.081153
404.092367	10026.804588
404.474067	10392.192460
404.855705	10182.593886
405.237282	10132.930959
405.618797	10565.789634
406.000250	10825.678759
406.381642	11200.551562
406.762972	11140.607202
407.144240	10937.148753
407.525447	11202.414268
407.906593	11135.331634
408.287677	11399.422561
408.668700	11554.064996
409.049661	11527.155317
409.430560	11692.051459
409.811399	11661.328147
410.192176	11831.061276
410.572891	11897.430587
410.953545	12401.677042
411.334138	11874.473173
411.714669	12480.321563
412.095139	11766.201791
412.475547	12283.409052
412.855894	12125.797377
413.236180	12466.927217
413.616405	12140.056281
413.996568	12422.391143
414.376670	12392.860064
414.756711	12265.157555
415.136691	12563.649315
415.516609	12750.035896
415.896466	12810.814567
416.276262	13111.766411
416.655997	13555.682857
417.035670	13581.811157
417.415283	14246.961160
417.794834	14341.755017
418.174324	14088.661368
418.553753	13981.327641
418.933121	14484.896060
419.312428	14288.096976
419.691674	14200.489284
420.070859	14657.575744
420.449983	14314.908352
420.829045	14873.841244
421.208047	14614.531852
421.586988	15072.656790
421.965867	15333.488611
422.344686	15339.719477
422.723444	15903.244859
423.102141	14576.501387
423.480777	15786.181705
423.859352	15282.434325
424.237866	16404.441416
424.616319	16111.051303
424.994712	16776.818848
425.373044	16566.338072
425.751314	17250.226044
426.129524	16357.888881
426.507673	17479.956466
426.885762	17162.331006
427.263789	17380.660858
427.641756	17537.536525
428.019662	17603.626052
428.397508	17645.369326
428.775292	17953.134289
429.153016	17920.142458
429.530679	17991.094178
429.908282	18021.557870
430.285824	17726.093323
430.663305	18448.175597
431.040726	18044.570737
431.418086	17861.123149
431.795385	18529.610396
432.172624	18944.315876
432.549802	18503.411519
432.926920	18686.067647
433.303977	18570.824349
433.680974	18830.766406
434.057910	19122.301374
434.434786	19140.131935
434.811601	19070.357325
435.188355	20117.916656
435.565050	19754.998949
435.941683	19707.276867
436.318257	20604.231726
436.694770	20406.386602
437.071222	21006.236019
437.447614	20063.573017
437.823946	20090.754919
438.200218	20243.227138
438.576429	20019.329331
438.952580	20295.645055
439.328670	20247.804505
439.704700	20688.212308
440.080670	20243.287632
440.456580	20849.027637
440.832429	21028.825430
441.208218	19989.490741
441.583947	20450.254723
441.959616	20558.705066
442.335224	20800.030142
442.710773	20931.188362
443.086261	21471.227009
443.461689	20835.585400
443.837057	20961.629369
444.212365	21616.850820
444.587612	21609.248760
444.962800	21173.355310
445.337927	21600.164601
445.712995	20320.583643
446.088002	22215.230740
446.462949	22398.819481
446.837837	22579.350762
447.212664	22538.048589
447.587431	25413.636168
447.962139	28382.177584
448.336786	30775.109971
448.711374	29190.418218
449.085901	25473.608255
449.460369	25424.283085
449.834776	25335.591545
450.209124	27860.745836
450.583412	27371.189304
450.957640	27915.109639
451.331808	26551.704376
451.705917	25168.227758
452.079965	25209.996238
452.453954	25570.834469
452.827883	25445.327382
453.201752	25239.537400
453.575562	25426.843992
453.949311	26544.543417
454.323001	26605.354855
454.696632	26376.163837
455.070202	27935.158308
455.443713	28080.313292
455.817164	28668.452108
456.190556	29208.188286
456.563888	28651.788574
456.937160	29081.796477
457.310373	27399.563438
457.683526	27863.067287
458.056619	27845.284617
458.429653	27780.392364
458.802628	28364.432723
459.175542	28487.938471
459.548398	29783.646080
459.921194	31370.069469
460.293930	32048.702038
460.666607	34085.799539
461.039224	35848.963262
461.411782	36253.160457
461.784280	35070.581382
462.156719	34590.413998
462.529099	34017.819580
462.901419	32714.144428
463.273680	31651.522129
463.645882	31740.069996
464.018024	31724.424775
464.390106	32562.584658
464.762130	35290.728570
465.134094	39368.427175
465.505999	44673.742524
465.877845	49279.433939
466.249631	50455.353650
466.621358	48767.683727
466.993026	46651.319122
467.364634	44585.998721
467.736184	42589.971500
468.107674	41343.067302
468.479105	40553.451210
468.850477	39843.160195
469.221790	38398.791480
469.593043	36641.440208
469.964238	35743.814875
470.335373	35669.006672
470.706449	37407.632578
471.077467	40005.608857
471.448425	44575.863481
471.819324	47402.811488
472.190164	45535.769750
472.560945	41971.169865
472.931667	38849.805871
473.302330	37732.381188
473.672934	36919.462363
474.043479	37423.320649
474.413965	36610.263192
474.784393	36226.981745
475.154761	37139.314644
475.525070	37162.564446
475.895321	36702.216359
476.265513	37307.999214
476.635645	38272.795401
477.005719	38092.185982
477.375734	38557.103875
477.745691	39254.663457
478.115588	40611.353903
478.485427	42571.369642
478.855207	45948.330219
479.224928	48563.761493
479.594591	50214.585622
479.964194	49226.602647
480.333739	49379.992356
480.703226	49406.836500
481.072653	50046.667308
481.442022	50535.334077
481.811333	50786.239865
482.180584	49487.379015
482.549777	48959.870156
482.918912	48434.864230
483.287988	48152.463833
483.657005	47314.891244
484.025964	46656.201480
484.394864	46682.039914
484.763706	46249.176198
485.132489	45379.496501
485.501213	45217.922479
485.869879	45362.548142
486.238487	44930.138129
486.607036	45123.816740
486.975527	44586.326396
487.343959	44790.735102
487.712333	44866.561618
488.080648	44789.386593
488.448905	45240.668165
488.817104	45048.209514
489.185244	46014.467637
489.553326	47695.410140
489.921350	50403.782646
490.289315	53259.308954
490.657222	53843.230846
491.025070	54123.128310
491.392861	53228.704109
491.760593	51989.389368
492.128267	50339.165136
492.495883	48819.955452
492.863440	47408.150070
493.230939	46063.525625
493.598380	44960.654754
493.965763	44631.527902
494.333088	43797.106035
494.700354	43319.479393
495.067563	43016.196016
495.434713	42889.627767
495.801805	42936.394551
496.168839	42556.813310
496.535815	42219.965931
496.902733	42240.523756
497.269593	41832.855727
497.636395	41764.031374
498.003139	42161.712877
498.369825	41603.374842
498.736453	41915.407142
499.103023	41452.815741
499.469535	41316.172746
499.835989	41412.889803
500.202385	41070.081259
500.568723	41088.552047
500.935003	41279.992385
501.301226	41074.303225
501.667390	41681.570700
502.033497	41942.142901
502.399546	41350.293796
502.765537	40671.225167
503.131470	41060.797974
503.497345	41411.919381
503.863163	40061.230428
504.228923	40675.857987
504.594625	41072.417834
504.960269	40363.969360
505.325856	41054.604917
505.691385	40407.340928
506.056856	40550.408874
506.422270	40973.654068
506.787625	40558.865409
507.152924	40735.704045
507.518164	40827.778199
507.883347	40040.715452
508.248472	40297.088372
508.613540	40760.529207
508.978550	41063.421895
509.343503	40784.933433
509.708398	40990.541934
510.073236	41514.340503
510.438016	41498.256702
510.802738	40949.718670
511.167403	41582.355751
511.532010	41788.380147
511.896561	42072.365987
512.261053	42927.988427
512.625488	42439.820732
512.989866	42314.585868
513.354186	42145.573623
513.718449	42113.312759
514.082655	42783.665233
514.446803	42435.565998
514.810894	42942.058287
515.174927	42858.239022
515.538904	42730.029877
515.902822	43384.699321
516.266684	42817.534225
516.630488	43227.894231
516.994235	43051.647931
517.357925	43631.320129
517.721558	43767.907672
518.085133	44041.826328
518.448651	44169.753168
518.812112	43920.251341
519.175516	43998.328732
519.538863	44296.528105
519.902152	44241.037604
520.265385	44660.159135
520.628560	44669.863356
520.991678	44448.314727
521.354739	44654.956664
521.717743	44937.044510
522.080690	44797.593592
522.443580	45311.332539
522.806413	45335.086456
523.169189	45243.347538
523.531908	45381.485236
523.894569	45203.121651
524.257174	45327.088666
524.619722	45592.573471
524.982213	45535.157249
525.344647	45408.649494
525.707025	45402.738741
526.069345	45748.345125
526.431608	45622.636392
526.793815	45869.312653
527.155964	45369.217588
527.518057	45481.773951
527.880093	45215.608589
528.242072	45679.440114
528.603995	45324.411813
528.965860	45270.650428
529.327669	45315.521738
529.689421	45164.312328
530.051117	45052.053394
530.412755	45110.465244
530.774337	45127.882430
531.135862	44871.436413
531.497331	44997.954252
531.858743	44835.460219
532.220098	45105.832423
532.581396	44744.409419
532.942638	44339.382954
533.303824	44559.751953
533.664953	44429.423003
534.026025	44084.575313
534.387040	44479.723636
534.747999	44334.820710
535.108902	44416.232824
535.469748	43883.488727
535.830537	43898.576900
536.191270	43993.141385
536.551947	43580.671656
536.912567	43770.531593
537.273131	43806.555678
537.633638	43234.248605
537.994089	43461.604644
538.354483	42986.853980
538.714821	43430.823358
539.075103	43675.168085
539.435328	43346.444525
539.795497	43141.453566
540.155609	43043.612331
540.515665	43370.382444
540.875665	42763.233437
541.235609	42963.533602
541.595496	42840.007689
541.955328	43363.090415
542.315102	42666.652491
542.674821	42343.070908
543.034483	42298.547437
543.394090	42142.838797
543.753640	42005.905936
544.113134	42815.666478
544.472571	41790.348718
544.831953	42815.865603
545.191278	41981.879796
545.550548	41603.362239
545.909761	41901.738053
546.268918	41958.506487
546.628019	42107.366718
546.987064	41611.412962
547.346053	40819.745121
547.704986	41481.378919
548.063863	40960.993210
548.422684	41012.405418
548.781449	40762.666656
549.140158	40978.218833
549.498811	40709.550539
549.857408	40064.761756
550.215949	40662.332571
550.574434	40475.046144
550.932864	40115.130445
551.291237	40595.416295
551.649555	40097.970357
552.007817	40165.622642
552.366022	39714.020957
552.724173	39714.913241
553.082267	39934.276530
553.440305	40022.768945
553.798288	39282.606572
554.156215	39389.920135
554.514086	39403.790870
554.871902	39040.323677
555.229661	38879.132783
555.587365	38563.680061
555.945014	38491.659616
556.302606	38245.532841
556.660143	38294.081673
557.017625	38183.912297
557.375050	37838.328598
557.732421	37946.158879
558.089735	37761.395549
558.446994	37531.234109
558.804197	37727.392967
559.161345	37509.607559
559.518437	36738.217759
559.875474	36772.414426
560.232455	36720.757723
560.589381	36697.023970
560.946251	36271.744670
561.303065	36622.220809
561.659825	36287.825951
562.016528	35831.394841
562.373177	35440.082835
562.729770	35621.609744
563.086307	35067.085341
563.442789	35209.916353
563.799216	35044.392587
564.155587	34697.306624
564.511904	34509.740413
564.868164	34384.883635
565.224370	34356.723750
565.580520	33963.077690
565.936615	33906.631891
566.292654	33509.323432
566.648638	33471.305571
567.004567	33239.288986
567.360441	33052.594894
567.716260	32741.732142
568.072023	32726.212950
568.427732	32504.460154
568.783385	31968.656076
569.138982	32025.505168
569.494525	31790.184107
569.850013	31417.282395
570.205445	31184.439061
570.560823	30949.244028
570.916145	30653.023307
571.271412	30455.498297
571.626625	30090.617061
571.981782	29902.808874
572.336884	29482.512755
572.691931	29475.344234
573.046923	28999.653395
573.401860	28696.727940
573.756743	28470.957344
574.111570	28319.032091
574.466342	28020.096709
574.821059	27863.828502
575.175722	27354.188012
575.530330	27152.519173
575.884882	26770.349300
576.239380	26548.258747
576.593823	26317.993963
576.948211	26051.939507
577.302544	25565.581587
577.656823	25371.323244
578.011047	25269.711226
578.365216	24913.921711
578.719330	24587.945580
579.073389	24299.878926
579.427394	24126.032215
579.781344	23899.011413
580.135239	23510.502289
580.489080	23346.737886
580.842866	22863.999514
581.196597	22888.865005
581.550273	22645.747799
581.903895	22366.767825
582.257463	22360.534438
582.610975	21865.513295
582.964434	21777.741766
583.317837	21406.155795
583.671186	21128.400821
584.024481	21022.574399
584.377721	20612.474013
584.730906	20534.802435
585.084037	20350.281081
585.437113	20024.171359
585.790135	19841.953812
586.143103	19472.308686
586.496016	19323.314863
586.848874	19147.023193
587.201679	18957.443041
587.554428	18546.863745
587.907124	18426.801104
588.259765	18135.311507
588.612352	18048.865801
588.964884	17616.551570
589.317362	17542.491979
589.669786	17325.298907
590.022155	17056.575160
590.374470	17024.233637
590.726731	16679.219589
591.078937	16321.534600
591.431090	16170.105900
591.783188	15890.198353
592.135232	15604.450630
592.487222	15513.437638
592.839157	15373.805238
593.191038	15097.050933
593.542866	14848.161606
593.894639	14506.131921
594.246358	14431.583338
594.598022	14261.215023
594.949633	13983.190347
595.301190	13813.863031
595.652692	13609.691259
596.004141	13546.840673
596.355535	13112.063839
596.706876	12944.155607
597.058162	12742.469124
597.409395	12731.358421
597.760573	12593.366917
598.111698	12331.380672
598.462768	12193.260618
598.813785	12058.656770
599.164748	11787.845985
599.515657	11734.853376
599.866511	11476.353089
600.217312	11491.826911
600.568060	11122.491815
600.918753	11157.477423
601.269392	11021.832576
601.619978	10816.395474
601.970510	10736.644420
602.320988	10644.814762
602.671412	10587.116236
603.021783	10410.615357
603.372100	10221.720802
603.722363	10120.169278
604.072572	10014.458803
604.422728	9905.970651
604.772830	9751.602959
605.122878	9656.766252
605.472872	9528.783959
605.822813	9464.889854
606.172701	9332.935132
606.522534	9264.748485
606.872314	9207.357469
607.222041	9053.362822
607.571714	9012.100978
607.921333	8815.140576
608.270899	8758.104962
608.620411	8716.979229
608.969870	8583.237417
609.319276	8485.343251
609.668627	8397.889314
610.017926	8383.010348
610.367171	8313.722209
610.716362	8229.272800
611.065500	8127.806976
611.414585	8061.707367
611.763616	8017.141046
612.112594	7916.595232
612.461518	7857.966613
612.810389	7808.593553
613.159207	7701.665638
613.507971	7635.359342
613.856682	7608.076617
614.205340	7504.599373
614.553945	7518.754933
614.902496	7371.180195
615.250994	7348.424427
615.599439	7278.922038
615.947830	7227.136786
616.296169	7160.084398
616.644454	7104.417457
616.992686	7050.769498
617.340864	7040.041922
617.688990	6943.082890
618.037063	6938.755059
618.385082	6866.439707
618.733048	6834.372928
619.080961	6773.866479
619.428821	6716.097376
619.776628	6655.530433
620.124382	6572.895839
620.472083	6516.140009
620.819731	6457.476102
621.167326	6366.700044
621.514868	6291.889321
621.862357	6186.970307
622.209793	6120.936232
622.557176	6031.037336
622.904506	5944.518533
623.251783	5857.477971
623.599007	5774.861021
623.946179	5697.287746
624.293297	5643.546525
624.640363	5539.247572
624.987376	5485.655066
625.334336	5420.851033
625.681243	5342.735834
626.028097	5290.872443
626.374899	5237.700873
626.721647	5190.177916
627.068343	5134.974760
627.414987	5081.369651
627.761577	5027.013410
628.108115	4996.055684
628.454600	4921.444086
628.801032	4894.519284
629.147412	4854.530331
629.493739	4821.170495
629.840014	4765.727885
630.186236	4745.548146
630.532405	4690.881874
630.878521	4667.127957
631.224585	4627.295280
631.570597	4583.706943
631.916556	4566.151125
632.262462	4523.865927
632.608316	4497.465404
632.954117	4459.603818
633.299866	4426.221297
633.645562	4390.988673
633.991206	4333.663192
634.336797	4275.611785
634.682336	4242.740941
635.027823	4201.272410
635.373257	4157.638703
635.718639	4112.301085
636.063968	4077.098708
636.409245	4023.231459
636.754470	4000.584075
637.099642	3959.796099
637.444762	3917.309255
637.789829	3894.082138
638.134845	3856.563351
638.479808	3830.636697
638.824719	3805.554436
639.169577	3762.681943
639.514383	3748.014706
639.859137	3712.744273
640.203839	3703.052654
640.548489	3665.919515
640.893086	3644.716422
641.237632	3617.116105
641.582125	3603.535236
641.926566	3578.962132
642.270955	3560.766087
642.615292	3547.817883
642.959576	3527.723844
643.303809	3507.700381
643.647990	3497.996160
643.992118	3478.628047
644.336195	3462.682877
644.680219	3448.728963
645.024192	3443.992799
645.368112	3443.095474
645.711981	3428.639965
646.055797	3440.804270
646.399562	3428.463525
646.743274	3439.876697
647.086935	3440.816873
647.430544	3432.619956
647.774101	3418.575302
648.117606	3408.561050
648.461059	3406.547109
648.804460	3381.353942
649.147810	3349.584591
649.491108	3327.910150
649.834354	3303.715132
650.177548	3273.894186
650.520690	3247.647419
650.863781	3238.606109
651.206820	3228.052454
651.549807	3201.803166
651.892742	3183.413037
652.235626	3166.615912
652.578458	3157.463697
652.921238	3134.778505
653.263967	3129.921353
653.606644	3114.301338
653.949269	3108.786316
654.291843	3095.293667
654.634365	3089.070363
654.976836	3077.163157
655.319255	3065.225705
655.661622	3058.152966
656.003938	3048.501677
656.346203	3033.375695
656.688416	3030.650952
657.030577	3020.140146
657.372687	3008.570698
657.714746	3004.837723
658.056753	3003.532064
658.398708	2981.935761
658.740612	2977.444093
659.082465	2973.852271
659.424266	2967.578555
659.766016	2961.738378
660.107715	2962.038327
660.449362	2956.825774
660.790958	2956.041875
661.132503	2946.504012
661.473996	2942.360183
661.815438	2938.675100
662.156829	2935.685695
662.498168	2927.781166
662.839456	2920.600043
663.180693	2917.623241
663.521879	2916.829259
663.863013	2910.832807
664.204097	2906.232754
664.545129	2908.281983
664.886110	2902.099008
665.227040	2896.886455
665.567918	2896.951990
665.908746	2893.453429
666.249522	2893.138357
666.590248	2889.304559
666.930922	2888.213150
667.271545	2882.529249
667.612118	2882.821636
667.952639	2875.574977
668.293109	2867.680530
668.633528	2863.861856
668.973896	2861.038810
669.314213	2856.438757
669.654480	2851.810978
669.994695	2848.297293
670.334859	2843.626664
670.674973	2838.588031
671.015035	2836.352279
671.355047	2830.489417
671.695008	2827.636124
672.034918	2824.682008
672.374777	2824.606391
672.714585	2821.150680
673.054342	2820.598674
673.394049	2815.257571
673.733705	2815.083651
674.073310	2810.392858
674.412864	2806.317085
674.752368	2801.139820
675.091820	2803.592341
675.431223	2794.402318
675.770574	2789.600619
676.109875	2780.947478
676.449125	2779.987138
676.788324	2771.313833
677.127473	2765.640014
677.466571	2761.662544
677.805619	2761.980137
678.144616	2759.235228
678.483562	2758.728592
678.822458	2749.047057
679.161303	2750.088055
679.500098	2745.508167
679.838842	2744.842734
680.177535	2744.255440
680.516179	2745.987076
680.854771	2745.843403
681.193314	2752.623755
681.531805	2761.062647
681.870247	2763.401742
682.208638	2766.040786
682.546978	2769.463730
682.885268	2770.540016
683.223508	2762.290168
683.561697	2759.693973
683.899836	2756.702049
684.237925	2749.588981
684.575963	2748.369021
684.913951	2741.813001
685.251889	2742.939699
685.589776	2741.971797
685.927614	2737.951477
686.265401	2735.302351
686.603137	2739.587331
686.940824	2742.354925
687.278460	2742.498598
687.616046	2741.535737
687.953582	2747.307858
688.291068	2746.876840
688.628504	2748.094278
688.965889	2745.193094
689.303224	2743.350553
689.640510	2739.194121
689.977745	2729.414283
690.314930	2723.004456
690.652065	2716.561861
690.989150	2709.761345
691.326185	2698.161650
691.663170	2695.809951
692.000105	2686.851821
692.336990	2679.209432
692.673825	2675.133659
693.010610	2669.976558
693.347345	2659.395177
693.684030	2650.190030
694.020665	2652.816471
694.357251	2644.334729
694.693786	2649.839669
695.030272	2642.514873
695.366707	2639.132259
695.703093	2632.588841
696.039429	2633.629839
696.375716	2634.212092
696.711952	2633.839047
697.048139	2629.291926
697.384276	2630.428707
697.720363	2625.034672
698.056400	2629.216309
698.392388	2621.004269
698.728326	2623.522326
699.064214	2621.790689
699.400053	2620.868158
699.735842	2614.869185
700.071581	2614.037395
700.407270	2610.448093
700.742910	2608.855089
701.078501	2604.330653
701.414042	2602.339397
701.749533	2601.500045
702.084974	2594.598706
702.420366	2597.487287
702.755709	2593.386308
703.091002	2592.912440
703.426246	2589.728951
703.761440	2588.849270
704.096584	2585.582602
704.431679	2585.514546
704.766725	2585.328024
705.101721	2582.837694
705.436668	2584.816347
705.771565	2582.464648
706.106413	2583.435070
706.441212	2582.462128
706.775961	2585.002869
707.110661	2583.866089
707.445311	2588.314907
707.779913	2586.106882
708.114465	2586.106882
708.448967	2588.181317
708.783421	2592.909919
709.117825	2594.066864
709.452180	2598.177925
709.786485	2600.864860
710.120742	2604.252515
710.454949	2607.529265
710.789107	2607.693103
711.123216	2610.768207
711.457275	2611.670573
711.791286	2615.481685
712.125247	2618.977726
712.459159	2620.111985
712.793023	2620.243055
713.126837	2615.900101
713.460602	2619.320524
713.794318	2614.927158
714.127985	2611.657970
714.461602	2605.583380
714.795171	2605.354007
715.128691	2595.674992
715.462162	2592.330186
715.795584	2588.791296
716.128957	2587.107551
716.462281	2581.675708
716.795556	2579.487847
717.128782	2574.441652
717.461960	2572.185736
717.795088	2569.239181
718.128167	2566.731207
718.461198	2562.657955
718.794180	2562.930177
719.127113	2559.333314
719.459997	2558.307439
719.792833	2555.368446
720.125619	2555.897768
720.458357	2551.537169
720.791046	2551.635472
721.123686	2547.791592
721.456278	2548.477189
721.788821	2547.784030
722.121315	2547.350491
722.453761	2544.141797
722.786158	2547.642878
723.118506	2545.855789
723.450805	2546.369987
723.783056	2545.437373
724.115259	2543.209183
724.447412	2541.908566
724.779518	2548.910728
725.111574	2547.048022
725.443582	2549.293856
725.775542	2549.578681
726.107453	2550.730585
726.439315	2551.219577
726.771129	2558.884651
727.102895	2555.738971
727.434612	2560.263407
727.766281	2559.650907
728.097901	2559.275341
728.429473	2560.321380
728.760996	2561.944632
729.092471	2559.257697
729.423897	2563.419169
729.755276	2558.884651
730.086606	2561.627039
730.417887	2563.756926
730.749120	2571.931157
731.080305	2572.357135
731.411442	2574.784450
731.742530	2576.291755
732.073570	2576.251426
732.404562	2577.211766
732.735506	2576.175809
733.066401	2576.455593
733.397249	2572.760427
733.728048	2567.187432
734.058798	2560.069322
734.389501	2552.424412
734.720156	2548.580533
735.050762	2546.680018
735.381320	2544.726571
735.711831	2541.701878
736.042293	2539.456044
736.372707	2539.645088
736.703073	2538.722556
737.033391	2536.416228
737.363661	2535.866743
737.693883	2538.780530
738.024056	2544.033412
738.354182	2541.233051
738.684260	2546.904349
739.014290	2545.192877
739.344272	2549.389638
739.674207	2551.280071
740.004093	2552.119423
740.333931	2552.560524
740.663722	2552.593291
740.993464	2552.709238
741.323159	2553.397355
741.652806	2550.380225
741.982405	2546.291849
742.311956	2544.713968
742.641460	2547.466438
742.970915	2541.606096
743.300323	2539.763555
743.629683	2538.346990
743.958996	2535.181146
744.288260	2533.840199
744.617477	2530.792821
744.946647	2524.052799
745.275768	2528.733510
745.604842	2523.457942
745.933869	2524.819054
746.262847	2524.115813
746.591778	2526.293592
746.920662	2522.724455
747.249498	2522.825278
747.578286	2525.834847
747.907027	2524.123375
748.235720	2528.501617
748.564365	2527.952131
748.892963	2528.879703
749.221514	2527.357275
749.550017	2525.731503
749.878473	2530.286185
750.206881	2525.413910
750.535242	2523.883920
750.863555	2525.905423
751.191821	2523.367202
751.520039	2524.478776
751.848210	2522.575741
752.176334	2522.268230
752.504411	2524.014990
752.832440	2520.960051
753.160421	2521.922911
753.488356	2521.338137
753.816243	2519.777900
754.144082	2518.936027
754.471875	2518.217663
754.799620	2521.005421
755.127318	2519.102386
755.454969	2514.114164
755.782572	2517.708507
756.110129	2515.573578
756.437638	2516.695235
756.765100	2515.860924
757.092515	2516.740605
757.419882	2519.455266
757.747203	2516.980060
758.074477	2517.985770
758.401703	2517.159021
758.728882	2516.559123
759.056014	2520.271933
759.383099	2522.774866
759.710138	2520.803775
760.037129	2520.075328
760.364073	2526.482635
760.690970	2524.514064
761.017820	2523.488189
761.344623	2527.158149
761.671379	2529.842564
761.998088	2533.610826
762.324751	2546.493495
762.651366	2575.424677
762.977935	2609.986828
763.304456	2630.242184
763.630931	2639.427166
763.957359	2626.574744
764.283740	2613.770214
764.610074	2596.630291
764.936362	2574.789492
765.262602	2559.716442
765.588796	2548.164637
765.914943	2535.788605
766.241044	2528.141174
766.567097	2517.320338
766.893104	2515.671880
767.219064	2512.158196
767.544978	2507.059069
767.870845	2505.392968
768.196665	2501.768378
768.522438	2501.491115
768.848165	2500.775271
769.173846	2497.881648
769.499479	2496.623881
769.825066	2496.147492
770.150607	2490.972747
770.476101	2491.040803
770.801548	2492.714466
771.126949	2486.405462
771.452303	2488.613487
771.777611	2488.179948
772.102872	2486.995277
772.428087	2486.390338
772.753256	2484.608290
773.078378	2486.334886
773.403453	2484.232724
773.728482	2478.989924
774.053465	2481.616366
774.378401	2477.775006
774.703291	2481.036633
775.028135	2478.684935
775.352932	2479.370532
775.677683	2475.708133
776.002388	2475.025057
776.327046	2475.957670
776.651658	2476.862557
776.976224	2474.687300
777.300743	2474.901549
777.625216	2473.237968
777.949643	2474.284007
778.274024	2473.205200
778.598359	2470.006588
778.922647	2469.900724
779.246889	2471.113122
779.571086	2467.226392
779.895236	2475.259471
780.219339	2473.885756
780.543397	2473.255612
780.867409	2471.004737
781.191374	2474.692341
781.515294	2470.361990
781.839167	2474.823411
782.162995	2470.031794
782.486776	2471.523976
782.810511	2474.536065
783.134201	2471.692854
783.457844	2474.430201
783.781441	2471.365179
784.104993	2470.175467
784.428498	2472.421301
784.751958	2469.610858
785.075372	2469.802422
785.398739	2472.078502
785.722061	2470.447689
786.045337	2469.063893
786.368568	2474.026908
786.691752	2474.906590
787.014891	2478.478247
787.337983	2479.486478
787.661030	2485.697180
787.984031	2485.994608
788.306987	2494.161277
788.629897	2494.635145
788.952760	2492.782521
789.275579	2492.550628
789.598351	2487.781697
789.921078	2482.969915
790.243759	2482.337251
790.566395	2481.918835
790.888984	2477.822897
791.211529	2476.189563
791.534027	2472.421301
791.856480	2470.387195
792.178888	2470.341825
792.501249	2471.425673
792.823566	2471.904583
793.145836	2471.579428
793.468062	2468.912658
793.790241	2471.574387
794.112375	2470.576239
794.434464	2471.385344
794.756507	2471.786116
795.078505	2470.719912
795.400457	2471.481126
795.722364	2472.580097
796.044226	2477.759883
796.366042	2480.325830
796.687812	2480.794658
797.009538	2481.439925
797.331218	2481.175265
797.652852	2479.506643
797.974442	2480.378762
798.295986	2477.679224
798.617484	2477.691827
798.938938	2477.142342
799.260346	2475.776189
799.581709	2474.669656
799.903026	2473.069089
800.224299	2472.592700
800.545526	2471.181177
800.866708	2470.767803
801.187845	2469.116825
801.508936	2468.418625
801.829983	2469.958697
802.150984	2464.506689
802.471940	2465.668675
802.792851	2466.255970
803.113717	2463.780763
803.434538	2464.405866
803.755314	2466.608851
804.076045	2464.872173
804.396731	2465.172122
804.717372	2463.034673
805.037967	2463.710187
805.358518	2464.668006
805.679024	2467.407873
805.999485	2466.928964
806.319901	2466.008953
806.640272	2465.131792
806.960598	2468.269911
807.280879	2467.173460
807.601115	2467.453244
807.921306	2468.000209
808.241453	2467.430559
808.561554	2468.577421
808.881611	2467.627164
809.201623	2467.470888
809.521590	2465.943418
809.841513	2464.622636
810.161390	2464.725980
810.481223	2468.549695
810.801011	2465.290589
811.120755	2465.101546
811.440453	2468.219499
811.760107	2462.013839
812.079716	2462.717080
812.399281	2459.447892
812.718801	2459.253807
813.038276	2455.382201
813.357707	2464.907461
813.677093	2461.078705
813.996434	2465.073819
814.315731	2462.830506
814.634983	2463.599282
814.954191	2463.558953
815.273354	2465.220013
815.592473	2467.337297
815.911547	2467.493573
816.230577	2467.644808
816.549562	2467.697740
816.868502	2469.429376
817.187399	2469.628502
817.506250	2472.827114
817.825058	2474.841055
818.143821	2478.440439
818.462539	2479.725933
818.781213	2484.386480
819.099843	2489.412510
819.418429	2501.269304
819.736970	2510.834893
820.055466	2520.612211
820.373919	2541.164995
820.692327	2564.414797
821.010691	2606.984821
821.329011	2702.209696
821.647286	2846.366532
821.965517	3004.883094
822.283704	3097.295005
822.601847	3127.201651
822.919945	3062.342165
823.237999	2988.027996
823.556010	2910.341294
823.873976	2838.346056
824.191897	2774.169647
824.509775	2726.162739
824.827609	2679.214473
825.145398	2651.445277
825.463144	2640.120325
825.780845	2640.826086
826.098502	2661.091525
826.416116	2694.469004
826.733685	2730.931670
827.051210	2736.348390
827.368692	2723.196020
827.686129	2681.593897
828.003522	2645.892446
828.320872	2604.204624
828.638177	2576.785788
828.955439	2553.294012
829.272656	2532.867256
829.589830	2520.876872
829.906960	2511.598628
830.224046	2499.721670
830.541088	2492.900988
830.858086	2486.108034
831.175041	2486.702890
831.491952	2481.069400
831.808819	2484.252889
832.125642	2488.981491
832.442421	2502.827020
832.759157	2521.731347
833.075849	2550.871737
833.392497	2583.878692
833.709101	2605.454830
834.025662	2600.295209
834.342179	2583.593867
834.658653	2558.980433
834.975083	2539.282124
835.291469	2526.071781
835.607811	2510.164420
835.924110	2499.840137
836.240366	2492.790083
836.556578	2481.243320
836.872746	2475.665283
837.188871	2469.424335
837.504952	2466.886114
837.820990	2463.518623
838.136984	2463.347224
838.452935	2459.059723
838.768842	2460.763633
839.084706	2465.890486
839.400526	2477.898515
839.716303	2496.124806
840.032037	2507.016219
840.347727	2504.485560
840.663373	2493.919302
840.978977	2481.916314
841.294537	2474.019347
841.610054	2467.065075
841.925527	2466.228243
842.240957	2460.337655
842.556344	2455.109979
842.871687	2453.585030
843.186987	2448.886674
843.502244	2446.108998
843.817458	2444.427774
844.132629	2440.155396
844.447756	2441.783688
844.762840	2438.232196
845.077881	2438.065838
845.392879	2437.970056
845.707833	2437.077771
846.022745	2433.972421
846.337613	2438.945519
846.652438	2440.389809
846.967221	2436.046855
847.281960	2435.033583
847.596656	2436.966866
847.911309	2438.985848
848.225919	2438.070879
848.540485	2436.445107
848.855009	2438.048193
849.169490	2435.441917
849.483928	2432.192893
849.798323	2434.978131
850.112675	2436.251022
850.426984	2433.569128
850.741251	2435.126845
851.055474	2435.789757
851.369654	2436.344283
851.683792	2434.312698
851.997887	2435.343614
852.311938	2435.232709
852.625947	2434.232040
852.939914	2433.848912
853.253837	2434.693306
853.567718	2436.893769
853.881555	2434.980651
854.195350	2435.956115
854.509103	2435.144489
854.822812	2434.524427
855.136479	2436.538368
855.450103	2434.058120
855.763685	2432.336566
856.077224	2435.283121
856.390720	2434.879828
856.704173	2434.090888
857.017584	2433.891762
857.330953	2433.556525
857.644278	2433.745569
857.957561	2436.467792
858.270802	2437.874274
858.584000	2436.866043
858.897155	2436.654314
859.210268	2434.920158
859.523339	2435.814962
859.836367	2434.431166
860.149352	2436.011567
860.462295	2437.216403
860.775195	2432.576021
861.088054	2429.032090
861.400869	2435.114242
861.713642	2432.954107
862.026373	2437.294541
862.339062	2433.750610
862.651708	2436.646753
862.964312	2436.762699
863.276873	2437.493667
863.589392	2440.220931
863.901869	2439.863009
864.214303	2437.970056
864.526696	2437.803697
864.839045	2438.380910
865.151353	2438.766558
865.463619	2439.520210
865.775842	2440.321754
866.088023	2438.789243
866.400162	2441.730756
866.712258	2443.265788
867.024313	2438.469130
867.336325	2438.093564
867.648296	2440.367124
867.960224	2438.353183
868.272110	2442.242433
868.583954	2440.513318
868.895755	2440.533482
869.207515	2439.910900
869.519233	2443.812753
869.830909	2439.532813
870.142542	2443.288473
870.454134	2440.089861
870.765684	2441.244285
871.077191	2444.342074
871.388657	2443.963987
871.700081	2443.215376
872.011463	2445.604883
872.322803	2446.504729
872.634101	2445.418360
872.945357	2445.042794
873.256571	2445.683021
873.567744	2445.620007
873.878874	2448.909359
874.189963	2448.748043
874.501010	2448.100254
874.812015	2449.325255
875.122979	2449.612600
875.433900	2449.451283
875.744780	2450.910697
876.055618	2450.038578
876.366415	2450.588064
876.677169	2450.577981
876.987882	2449.733588
877.298554	2450.431788
877.609183	2453.335493
877.919771	2451.301387
878.230317	2458.467387
878.540822	2463.369909
878.851285	2470.283852
879.161707	2474.515900
879.472087	2486.826398
879.782425	2506.519666
880.092722	2542.037115
880.402977	2591.309353
880.713191	2654.570792
881.023363	2712.221428
881.333494	2747.045718
881.643583	2760.109869
881.953631	2755.502254
882.263637	2737.366703
882.573602	2716.508929
882.883526	2689.281657
883.193408	2669.807680
883.503248	2644.543937
883.813048	2622.229270
884.122806	2598.417380
884.432522	2577.602455
884.742197	2552.764690
885.051831	2540.645757
885.361424	2525.943231
885.670975	2510.965963
885.980485	2504.109994
886.289954	2492.870742
886.599382	2485.016624
886.908768	2481.044195
887.218113	2471.592031
887.527417	2472.648153
887.836680	2466.369396
888.145901	2462.548201
888.455082	2457.615432
888.764221	2458.578293
889.073319	2455.127623
889.382376	2456.992850
889.691392	2453.690894
890.000366	2454.994032
890.309300	2451.913887
890.618193	2454.084104
890.927044	2453.224587
891.235855	2454.184927
891.544625	2455.155349
891.853353	2456.614763
892.162041	2456.950000
892.470687	2461.471915
892.779293	2463.705146
893.087858	2468.302678
893.396381	2474.982207
893.704864	2491.139105
894.013306	2505.009840
894.321707	2530.591175
894.630068	2541.674152
894.938387	2542.510983
895.246665	2538.099974
895.554903	2529.819879
895.863100	2518.031140
896.171256	2512.085099
896.479371	2505.400529
896.787446	2495.645897
897.095480	2488.028713
897.403473	2484.033599
897.711425	2480.378762
898.019336	2475.602269
898.327207	2469.779736
898.635038	2469.346197
898.942827	2462.021401
899.250576	2460.188941
899.558284	2458.976544
899.865952	2455.394804
900.173579	2452.874227
900.481165	2453.746347
900.788711	2449.494133
901.096216	2449.889864
901.403681	2448.869030
901.711105	2448.553958
902.018489	2447.891046
902.325832	2452.261727
902.633135	2449.572271
902.940397	2459.314301
903.247619	2472.731332
903.554800	2497.480877
903.861941	2529.872811
904.169041	2555.539846
904.476101	2563.837585
904.783121	2556.812737
905.090100	2544.187167
905.397039	2531.554036
905.703938	2520.466018
906.010796	2507.936230
906.317614	2496.369302
906.624391	2490.907212
906.931129	2481.518063
907.237826	2473.616054
907.544483	2468.711012
907.851099	2462.638942
908.157675	2454.741974
908.464211	2449.705862
908.770707	2440.515838
909.077163	2442.842331
909.383578	2437.100457
909.689954	2437.145827
909.996289	2433.816145
910.302584	2436.976948
910.608839	2435.777154
910.915054	2437.521393
911.221229	2434.378233
911.527363	2436.586259
911.833458	2436.203131
912.139513	2437.266815
912.445527	2438.814449
912.751502	2437.932247
913.057436	2439.139603
913.363331	2444.079934
913.669186	2446.403906
913.975000	2453.113682
914.280775	2458.273303
914.586510	2468.093470
914.892205	2485.697180
915.197859	2502.801815
915.503475	2526.039013
915.809050	2544.998793
916.114585	2554.466080
916.420081	2559.623180
916.725536	2557.279044
917.030952	2549.505584
917.336328	2543.602393
917.641665	2534.339273
917.946961	2527.727800
918.252218	2518.386542
918.557435	2510.804646
918.862612	2498.657986
919.167750	2493.636997
919.472848	2488.837818
919.777906	2478.934472
920.082925	2474.442804
920.387904	2466.840744
920.692843	2462.124744
920.997743	2456.208950
921.302603	2455.316666
921.607423	2453.401027
921.912204	2448.503547
922.216946	2446.908021
922.521647	2443.843000
922.826310	2442.910386
923.130932	2440.876281
923.435516	2441.385437
923.740059	2438.567432
924.044564	2436.127514
924.349028	2436.281269
924.653454	2429.180804
924.957840	2432.271031
925.262186	2428.028900
925.566493	2431.557708
925.870761	2425.044537
926.174989	2430.216761
926.479178	2428.275917
926.783328	2429.924374
927.087438	2425.604105
927.391509	2427.368509
927.695541	2425.868766
927.999533	2427.991092
928.303486	2425.760381
928.607400	2424.222829
928.911275	2426.393046
929.215110	2421.997160
929.518906	2422.281985
929.822663	2424.006059
930.126381	2420.956161
930.430060	2424.772315
930.733699	2423.796852
931.037299	2426.950093
931.340861	2423.912798
931.644383	2424.038827
931.947866	2420.348702
932.251309	2425.251224
932.554714	2424.101841
932.858080	2424.709300
933.161407	2426.695515
933.464694	2422.844073
933.767943	2422.395411
934.071153	2420.686460
934.374323	2423.869948
934.677455	2423.869948
934.980548	2424.447160
935.283602	2426.355237
935.586617	2422.077818
935.889593	2423.784249
936.192530	2426.135947
936.495428	2423.068405
936.798287	2422.544125
937.101108	2426.756009
937.403890	2427.736513
937.706632	2426.393046
938.009336	2428.860691
938.312002	2430.788932
938.614628	2431.376226
938.917216	2434.814293
939.219765	2431.663572
939.522275	2434.998295
939.824747	2434.138779
940.127179	2430.917481
940.429573	2431.842533
940.731929	2433.692637
941.034246	2425.609146
941.336524	2432.812955
941.638763	2430.718356
941.940964	2434.756320
942.243126	2431.940836
942.545250	2430.519230
942.847335	2428.028900
943.149381	2431.250197
943.451389	2430.960331
943.753359	2429.876483
944.055290	2427.698705
944.357182	2431.124169
944.659036	2426.027562
944.960851	2427.872624
945.262628	2423.471697
945.564367	2427.295412
945.866067	2426.335072
946.167729	2423.688467
946.469352	2423.706111
946.770937	2427.567635
947.072484	2425.243663
947.373992	2425.931780
947.675462	2427.587799
947.976893	2424.595874
948.278286	2425.243663
948.579641	2422.024886
948.880958	2427.355906
949.182236	2426.380443
949.483476	2424.852973
949.784678	2424.361461
950.085841	2423.234763
950.386967	2426.083015
950.688054	2425.130237
950.989103	2425.140319
951.290114	2424.616039
951.591087	2424.515216
951.892021	2424.744588
952.192917	2425.967068
952.493776	2428.071750
952.794596	2430.304981
953.095378	2427.144178
953.396122	2431.542584
953.696828	2426.960176
953.997496	2426.556883
954.298126	2425.117634
954.598718	2428.694332
954.899272	2424.414393
955.199788	2425.236101
955.500266	2424.706780
955.800706	2421.903898
956.101108	2418.115471
956.401472	2423.106213
956.701798	2415.756211
957.002087	2417.288722
957.302337	2418.818712
957.602550	2419.123702
957.902724	2416.996335
958.202861	2420.520102
958.502960	2418.556572
958.803022	2419.627817
959.103045	2417.603794
959.403031	2417.989442
959.702979	2415.022723
960.002889	2415.869637
960.302762	2417.245872
960.602596	2416.338464
960.902393	2413.389389
961.202153	2415.771335
961.501875	2413.659091
961.801559	2413.858217
962.101205	2414.435429
962.400814	2413.301169
962.700385	2412.910480
962.999918	2414.372414
963.299414	2415.168917
963.598873	2416.623290
963.898293	2413.676735
964.197677	2413.134811
964.497022	2414.848803
964.796331	2412.426529
965.095601	2414.780748
965.394835	2412.620613
965.694030	2411.418298
965.993189	2414.866447
966.292309	2411.277146
966.591393	2414.667322
966.890439	2410.778072
967.189447	2416.945923
967.488419	2414.047260
967.787353	2414.387538
968.086249	2412.794533
968.385108	2414.395100
968.683930	2412.257650
968.982714	2416.376273
969.281462	2413.059194
969.580172	2411.725809
969.878844	2413.016344
970.177480	2414.816036
970.476078	2412.358473
970.774639	2412.552558
971.073162	2414.455593
971.371649	2414.223700
971.670098	2409.018709
971.968510	2411.052815
972.266885	2410.357135
972.565223	2416.683783
972.863524	2414.266550
973.161788	2414.417785
973.460014	2411.380490
973.758204	2414.367373
974.056356	2414.274112
974.354471	2412.963412
974.652550	2417.472724
974.950591	2415.680594
975.248595	2416.857703
975.546563	2411.952661
975.844493	2412.252609
976.142386	2415.778896
976.440243	2417.134967
976.738062	2414.180851
977.035845	2412.920562
977.333590	2413.588515
977.631299	2415.844431
977.928971	2411.541807
978.226606	2411.607342
978.524204	2410.921745
978.821765	2412.862589
979.119290	2412.547517
979.416777	2411.327558
979.714228	2414.407703
980.011642	2411.234296
980.309020	2416.255285
980.606360	2412.381159
980.903664	2416.804771
981.200931	2413.679256
981.498162	2416.991294
981.795356	2416.978691
982.092513	2420.686460
982.389633	2421.316604
982.686717	2426.035124
982.983764	2428.601071
983.280775	2427.323139
983.577749	2428.868252
983.874686	2429.631987
984.171587	2427.653334
984.468451	2426.284661
984.765279	2425.445309
985.062070	2423.265010
985.358824	2422.536563
985.655543	2419.640420
985.952224	2418.274267
986.248869	2416.726633
986.545478	2412.144224
986.842050	2413.459966
987.138586	2410.518452
987.435086	2410.064748
987.731549	2407.473595
988.027975	2411.912331
988.324366	2413.026426
988.620719	2411.713206
988.917037	2413.790161
989.213318	2409.361508
989.509563	2411.672877
989.805772	2408.383524
990.101944	2410.735222
990.398080	2409.674059
990.694180	2410.808319
990.990244	2411.151117
991.286271	2407.970149
991.582262	2413.006262
991.878217	2411.463669
992.174136	2411.483833
992.470019	2409.878226
992.765865	2410.576426
993.061676	2411.929975
993.357450	2411.476272
993.653188	2408.227248
993.948890	2410.939389
994.244556	2411.922414
994.540186	2412.376117
994.835780	2413.838052
995.131337	2410.054666
995.426859	2414.690007
995.722345	2415.292425
996.017795	2415.670512
996.313208	2417.059349
996.608586	2420.598239
996.903928	2419.554721
997.199234	2416.688825
997.494504	2417.785276
997.789738	2416.865265
998.084936	2417.878537
998.380099	2416.829977
998.675225	2416.068763
998.970316	2415.395769
999.265371	2415.993145
999.560390	2416.212436
999.855373	2412.383679
1000.150320	2411.219173
1000.445232	2411.665315
1000.740108	2411.045253
1001.034948	2411.627506
1001.329752	2409.832855
1001.624521	2408.081054
1001.919254	2403.571742
1002.213951	2403.987637
1002.508613	2405.008471
1002.803239	2405.129459
1003.097829	2403.861609
1003.392384	2405.328584
1003.686903	2408.267577
1003.981386	2408.683472
1004.275834	2406.845972
1004.570246	2408.123904
1004.864623	2406.356980
1005.158964	2405.215158
1005.453270	2406.578791
1005.747540	2409.868143
1006.041775	2403.176012
1006.335974	2408.635581
1006.630138	2407.518966
1006.924266	2407.009809
1007.218359	2404.653070
1007.512416	2409.338822
1007.806438	2405.741959
1008.100425	2407.135838
1008.394376	2404.816907
1008.688292	2407.652556
1008.982172	2404.033008
1009.276017	2408.547361
1009.569827	2407.967628
1009.863602	2406.871177
1010.157341	2404.390930
1010.451045	2404.960580
1010.744714	2406.233472
1011.038347	2404.985786
1011.331945	2405.273132
1011.625508	2406.941754
1011.919036	2407.042577
1012.212528	2407.234141
1012.505986	2405.459654
1012.799408	2405.300858
1013.092795	2406.399830
1013.386147	2403.967473
1013.679464	2406.142731
1013.972745	2405.492422
1014.265992	2407.949984
1014.559204	2407.027453
1014.852380	2405.729356
1015.145521	2408.103740
1015.438628	2405.958729
1015.731699	2404.211969
1016.024736	2404.612741
1016.317737	2404.479150
1016.610703	2408.081054
1016.903635	2401.709036
1017.196531	2402.016546
1017.489393	2404.892525
1017.782219	2397.814745
1018.075011	2407.375293
1018.367768	2406.404871
1018.660490	2407.347567
1018.953177	2407.347567
1019.245829	2407.347567
