Dividing Wavelength (nm)	Counts (n)	Blue Motor Position (mm): 0.000000	Red Motor Position (mm): 46.600000	
326.493990	1996.997643
326.888308	1996.997643
327.282561	1996.997643
327.676750	1974.733387
328.070874	1974.811525
328.464933	1981.826291
328.858929	1992.755512
329.252859	2002.941164
329.646726	2018.215860
330.040528	2033.147758
330.434265	2053.052754
330.827938	2071.863819
331.221547	2093.258476
331.615091	2114.625407
332.008571	2133.980917
332.401986	2156.363640
332.795338	2175.678821
333.188625	2194.537778
333.581847	2213.101827
333.975006	2230.294682
334.368100	2249.075500
334.761129	2265.920516
335.154095	2280.512136
335.546996	2321.277426
335.939833	2409.583318
336.332606	2424.767274
336.725315	2438.007864
337.117960	2443.747218
337.510540	2451.185440
337.903056	2463.712708
338.295508	2468.156485
338.687896	2475.113277
339.080220	2481.853300
339.472480	2485.419916
339.864676	2490.521564
340.256807	2494.690598
340.648875	2495.976092
341.040879	2496.379385
341.432818	2496.767553
341.824694	2497.793428
342.216506	2499.872904
342.608253	2500.366937
342.999937	2495.106493
343.391557	2495.625732
343.783113	2494.325114
344.174605	2495.383757
344.566033	2490.884527
344.957397	2487.615339
345.348697	2488.169866
345.739934	2487.814464
346.131106	2487.680874
346.522215	2485.520739
346.913260	2484.961171
347.304241	2482.009576
347.695159	2481.409678
348.086012	2478.384986
348.476802	2477.104533
348.867528	2476.212249
349.258191	2472.877525
349.648789	2475.685448
350.039324	2473.442135
350.429796	2475.304841
350.820203	2469.928450
351.210548	2472.302834
351.600828	2470.210755
351.991045	2472.002885
352.381198	2470.057000
352.771288	2471.652525
353.161314	2469.320991
353.551276	2470.770323
353.941175	2469.157154
354.331010	2470.538430
354.720782	2471.511373
355.110490	2474.745273
355.500135	2470.982052
355.889717	2472.706126
356.279235	2471.655046
356.668689	2474.649491
357.058080	2473.522793
357.447408	2471.445838
357.836672	2471.776033
358.225873	2472.900211
358.615010	2472.950622
359.004084	2476.328195
359.393095	2480.802219
359.782043	2479.063021
360.170927	2480.088896
360.559748	2478.016982
360.948505	2481.344143
361.337199	2483.615183
361.725830	2483.600060
362.114398	2486.516367
362.502903	2482.133084
362.891344	2486.254227
363.279722	2483.373208
363.668037	2489.898981
364.056289	2488.399238
364.444478	2490.198930
364.832603	2491.338231
365.220665	2491.376039
365.608665	2491.585247
365.996601	2490.907212
366.384474	2494.065495
366.772284	2494.330156
367.160031	2497.984992
367.547715	2496.712101
367.935336	2498.085815
368.322893	2497.611947
368.710388	2499.126813
369.097820	2503.419356
369.485189	2501.851557
369.872495	2503.585714
370.259738	2507.023781
370.646918	2509.451097
371.034035	2511.386900
371.421090	2511.787671
371.808081	2515.467714
372.195010	2521.728827
372.581875	2529.593027
372.968678	2536.058307
373.355418	2542.649615
373.742096	2553.800647
374.128710	2564.041752
374.515262	2577.110943
374.901751	2592.002511
375.288177	2610.841303
375.674540	2629.647328
376.060841	2653.199598
376.447079	2676.777075
376.833254	2702.925540
377.219367	2725.378839
377.605417	2762.799324
377.991404	2787.107768
378.377329	2830.227278
378.763191	2864.035776
379.148991	2917.368663
379.534727	2966.872794
379.920402	3015.613190
380.306013	3062.659758
380.691563	3128.764408
381.077049	3186.341947
381.462474	3245.532655
381.847835	3323.904953
382.233134	3396.391704
382.618371	3456.356229
383.003545	3549.471382
383.388657	3631.763177
383.773706	3724.250706
384.158693	3800.246101
384.543618	3897.661358
384.928480	3983.199656
385.313280	4090.135132
385.698017	4193.488868
386.082692	4322.693641
386.467305	4386.217221
386.851856	4517.773692
387.236344	4676.345707
387.620770	4739.009770
388.005133	4866.810582
388.389435	5020.807749
388.773674	5105.368064
389.157851	5239.780349
389.541965	5378.291092
389.926018	5404.636162
390.310008	5587.940077
390.693936	5715.236774
391.077802	5838.152708
391.461606	5972.486855
391.845348	6091.805925
392.229027	6215.205809
392.612645	6441.059584
392.996200	6569.548513
393.379694	6747.796152
393.763125	6974.716130
394.146494	7071.390337
394.529801	7211.211781
394.913047	7466.841130
395.296230	7464.847354
395.679351	7525.005963
396.062410	7796.898076
396.445408	7691.416972
396.828343	7851.924790
397.211217	7996.885690
397.594028	7871.277780
397.976778	8080.198319
398.359466	8250.952282
398.742092	8220.692756
399.124656	8381.371973
399.507158	8569.127227
399.889598	8588.102131
400.271977	8803.563567
400.654294	8843.192077
401.036549	9044.785299
401.418742	9075.243950
401.800874	9382.532524
402.182944	9458.999266
402.564952	9839.374488
402.946898	9656.746087
403.328783	9715.818328
403.710606	9920.083362
404.092367	10183.430718
404.474067	10554.338653
404.855705	10344.160347
405.237282	10291.334095
405.618797	10733.332382
406.000250	10989.874181
406.381642	11368.411903
406.762972	11318.633029
407.144240	11110.665268
407.525447	11369.198323
407.906593	11300.222735
408.287677	11576.041906
408.668700	11738.523336
409.049661	11708.228522
409.430560	11867.042512
409.811399	11837.725682
410.192176	12007.214315
410.572891	12082.685429
410.953545	12593.263573
411.334138	12047.979606
411.714669	12675.958661
412.095139	11954.052827
412.475547	12482.506903
412.855894	12310.064153
413.236180	12664.729491
413.616405	12325.840444
413.996568	12623.026546
414.376670	12588.998757
414.756711	12459.983027
415.136691	12762.968976
415.516609	12941.635030
415.896466	13012.342254
416.276262	13311.857369
416.655997	13753.722065
417.035670	13791.709680
417.415283	14455.039827
417.794834	14551.714034
418.174324	14289.233756
418.553753	14191.831102
418.933121	14691.366598
419.312428	14493.730682
419.691674	14410.327313
420.070859	14873.243867
420.449983	14527.085477
420.829045	15095.049595
421.208047	14828.627135
421.586988	15306.752851
421.965867	15566.062243
422.344686	15557.915739
422.723444	16137.976106
423.102141	14788.988542
423.480777	16018.382293
423.859352	15514.355128
424.237866	16645.244732
424.616319	16331.717731
424.994712	17025.259512
425.373044	16805.185420
425.751314	17507.897061
426.129524	16606.848784
426.507673	17737.130929
426.885762	17411.495076
427.263789	17628.584804
427.641756	17797.700393
428.019662	17857.049897
428.397508	17899.899704
428.775292	18220.501966
429.153016	18164.877874
429.530679	18261.859592
429.908282	18287.317419
430.285824	17995.021236
430.663305	18721.701043
431.040726	18307.300552
431.418086	18130.464437
431.795385	18803.294638
432.172624	19219.545232
432.549802	18760.197814
432.926920	18959.116704
433.303977	18836.840997
433.680974	19108.095403
434.057910	19399.280011
434.434786	19419.104348
434.811601	19327.257046
435.188355	20395.187679
435.565050	20032.723677
435.941683	19988.331276
436.318257	20888.744367
436.694770	20688.562668
437.071222	21298.733848
437.447614	20355.634786
437.823946	20380.129753
438.200218	20540.509021
438.576429	20313.798250
438.952580	20586.607852
439.328670	20551.700383
439.704700	20972.861060
440.080670	20531.190448
440.456580	21132.136316
440.832429	21323.064977
441.208218	20284.574682
441.583947	20751.955178
441.959616	20850.729026
442.335224	21097.193558
442.710773	21222.531766
443.086261	21781.573042
443.461689	21137.757203
443.837057	21250.832804
444.212365	21918.248806
444.587612	21912.900141
444.962800	21475.320426
445.337927	21925.107295
445.712995	20619.950044
446.088002	22523.744315
446.462949	22717.249005
446.837837	22910.284868
447.212664	22854.587680
447.587431	25777.814163
447.962139	28767.719989
448.336786	31184.018124
448.711374	29573.160263
449.085901	25825.437944
449.460369	25772.175633
449.834776	25703.847834
450.209124	28238.391273
450.583412	27738.742351
450.957640	28278.080278
451.331808	26916.590653
451.705917	25516.715162
452.079965	25559.446502
452.453954	25924.698263
452.827883	25794.828058
453.201752	25604.746311
453.575562	25764.361844
453.949311	26931.265452
454.323001	26994.763825
454.696632	26743.800063
455.070202	28335.889709
455.443713	28455.294479
455.817164	29082.870242
456.190556	29614.734658
456.563888	29043.662668
456.937160	29490.515586
457.310373	27784.669783
457.683526	28259.279294
458.056619	28235.447240
458.429653	28166.040633
458.802628	28764.806202
459.175542	28888.879081
459.548398	30198.094461
459.921194	31809.133804
460.293930	32470.994454
460.666607	34561.888629
461.039224	36329.415470
461.411782	36727.976655
461.784280	35519.206265
462.156719	35039.618615
462.529099	34486.175540
462.901419	33168.672502
463.273680	32098.581734
463.645882	32183.701617
464.018024	32169.145285
464.390106	33014.501415
464.762130	35760.201145
465.134094	39875.418538
465.505999	45238.891158
465.877845	49838.495380
466.249631	51017.936337
466.621358	49337.598773
466.993026	47238.293432
467.364634	45183.521645
467.736184	43165.615816
468.107674	41911.573344
468.479105	41088.042890
468.850477	40403.844887
469.221790	38919.522508
469.593043	37166.400764
469.964238	36266.713599
470.335373	36174.934352
470.706449	37962.782084
471.077467	40598.922418
471.448425	45176.403536
471.819324	47993.349894
472.190164	46121.372866
472.560945	42538.150959
472.931667	39397.476824
473.302330	38265.813403
473.672934	37439.162475
474.043479	37962.782084
474.413965	37142.692217
474.784393	36759.425893
475.154761	37674.418002
475.525070	37707.926551
475.895321	37223.685916
476.265513	37840.216510
476.635645	38822.666819
477.005719	38647.159048
477.375734	39125.705700
477.745691	39824.825518
478.115588	41193.266894
478.485427	43185.147767
478.855207	46596.000021
479.224928	49207.032888
479.594591	50840.787670
479.964194	49857.719821
480.333739	50022.066477
480.703226	50076.140414
481.072653	50686.120029
481.442022	51159.257523
481.811333	51428.548400
482.180584	50150.414254
482.549777	49624.626949
482.918912	49085.767932
483.287988	48796.735897
483.657005	47953.456723
484.025964	47321.306113
484.394864	47345.538939
484.763706	46906.232628
485.132489	46034.675102
485.501213	45849.067379
485.869879	46019.264294
486.238487	45611.772706
486.607036	45803.649103
486.975527	45243.960039
487.343959	45441.727025
487.712333	45527.333379
488.080648	45437.676457
488.448905	45917.324602
488.817104	45731.069091
489.185244	46696.311421
489.553326	48391.202796
489.921350	51107.890686
490.289315	53915.631897
490.657222	54482.499565
491.025070	54769.636126
491.392861	53891.923351
491.760593	52677.832023
492.128267	51039.487270
492.495883	49522.672133
492.863440	48128.838465
493.230939	46784.052703
493.598380	45651.837276
493.965763	45335.638462
494.333088	44514.104305
494.700354	44010.999672
495.067563	43713.296852
495.434713	43587.789766
495.801805	43654.385928
496.168839	43253.094959
496.535815	42924.179835
496.902733	42954.051192
497.269593	42548.210581
497.636395	42463.889721
498.003139	42875.212587
498.369825	42320.456292
498.736453	42641.789520
499.103023	42156.707012
499.469535	42018.455888
499.835989	42123.775674
500.202385	41775.968826
500.568723	41808.595174
500.935003	42001.731860
501.301226	41780.669702
501.667390	42408.812595
502.033497	42678.915097
502.399546	42095.507404
502.765537	41403.689697
503.131470	41805.081490
503.497345	42164.929134
503.863163	40795.333333
504.228923	41435.794285
504.594625	41850.225023
504.960269	41133.574592
505.325856	41839.021058
505.691385	41180.134689
506.056856	41335.510612
506.422270	41768.843155
506.787625	41330.819818
507.152924	41544.239587
507.518164	41647.739517
507.883347	40836.053253
508.248472	41106.254058
508.613540	41595.384613
508.978550	41907.547983
509.343503	41658.303254
509.708398	41851.898686
510.073236	42398.150555
510.438016	42392.920358
510.802738	41830.267094
511.167403	42475.340702
511.532010	42712.910118
511.896561	43015.747353
512.261053	43891.332762
512.625488	43428.300261
512.989866	43286.608550
513.354186	43127.096360
513.718449	43138.781754
514.082655	43821.986650
514.446803	43493.694108
514.810894	44019.183985
515.174927	43940.340339
515.538904	43828.925798
515.902822	44536.741607
516.266684	43954.581599
516.630488	44409.538172
516.994235	44247.984314
517.357925	44835.777812
517.721558	44996.517523
518.085133	45311.476212
518.448651	45473.309853
518.812112	45229.474283
519.175516	45331.638307
519.538863	45674.035997
519.902152	45623.851310
520.265385	46096.736747
520.628560	46154.289080
520.991678	45925.355160
521.354739	46163.920204
521.717743	46489.939185
522.080690	46397.118940
522.443580	46951.799618
522.806413	46993.409302
523.169189	46922.276101
523.531908	47110.802652
523.894569	46968.014489
524.257174	47161.148655
524.619722	47458.972462
524.982213	47441.734237
525.344647	47360.085189
525.707025	47393.603821
526.069345	47781.598747
526.431608	47720.537771
526.793815	48059.633505
527.155964	47579.007377
527.518057	47727.640757
527.880093	47520.817338
528.242072	48042.838901
528.603995	47741.735823
528.965860	47741.428312
529.327669	47838.140328
529.689421	47737.186182
530.051117	47693.305458
530.412755	47836.181840
530.774337	47909.099610
531.135862	47688.992751
531.497331	47899.919669
531.858743	47803.419381
532.220098	48168.172068
532.581396	47859.038432
532.942638	47521.860857
533.303824	47825.751693
533.664953	47788.737021
534.026025	47489.569746
534.387040	47974.276688
534.747999	47906.581554
535.108902	48090.356817
535.469748	47603.474617
535.830537	47703.659988
536.191270	47914.927184
536.551947	47562.177485
536.912567	47876.392604
537.273131	48005.141152
537.633638	47461.608986
537.994089	47835.070266
538.354483	47410.713497
538.714821	47968.716295
539.075103	48334.837655
539.435328	48093.971324
539.795497	47971.320051
540.155609	47966.757807
540.515665	48430.034804
540.875665	47868.740132
541.235609	48194.882622
541.595496	48164.623096
541.955328	48862.318788
542.315102	48219.612002
542.674821	48012.566772
543.034483	48082.306094
543.394090	48012.866721
543.753640	47977.492944
544.113134	48998.697123
544.472571	47976.232656
544.831953	49253.426627
545.191278	48450.648083
545.550548	48150.628852
545.909761	48626.415473
546.268918	48849.688177
546.628019	49144.628444
546.987064	48695.718736
547.346053	47959.042321
547.704986	48857.010453
548.063863	48387.590810
548.422684	48601.371021
548.781449	48460.548909
549.140158	48850.209936
549.498811	48701.236278
549.857408	48118.708266
550.215949	48963.393923
550.574434	48902.595087
550.932864	48643.772166
551.291237	49383.987470
551.649555	48973.209049
552.007817	49217.692408
552.366022	48854.683960
552.724173	49041.214214
553.082267	49453.159663
553.440305	49744.046842
553.798288	49051.992201
554.156215	49352.192913
554.514086	49582.016596
554.871902	49324.648048
555.229661	49333.185242
555.587365	49151.174383
555.945014	49245.461604
556.302606	49168.032001
556.660143	49393.840405
557.017625	49501.693371
557.375050	49276.537797
557.732421	49633.451489
558.089735	49618.272575
558.446994	49523.171207
558.804197	50004.412356
559.161345	49937.332243
559.518437	49181.297798
559.875474	49487.111834
560.232455	49625.448657
560.589381	49831.442806
560.946251	49527.395694
561.303065	50211.991948
561.659825	50018.313338
562.016528	49669.750317
562.373177	49392.849819
562.729770	49894.689122
563.086307	49386.412265
563.442789	49847.569457
563.799216	49900.642725
564.155587	49672.923723
564.511904	49698.210151
564.868164	49794.818823
565.224370	50064.954093
565.580520	49774.916348
565.936615	49979.141052
566.292654	49714.331761
566.648638	49954.323452
567.004567	49910.593963
567.360441	49948.440425
567.716260	49798.743362
568.072023	50081.395817
568.427732	50064.336552
568.783385	49617.995311
569.138982	50017.284943
569.494525	49983.030302
569.850013	49752.127812
570.205445	49709.209949
570.560823	49682.673315
570.916145	49568.970090
571.271412	49577.930741
571.626625	49333.517958
571.981782	49385.499816
572.336884	49085.311708
572.691931	49415.088869
573.046923	49005.374131
573.401860	48850.792190
573.756743	48826.173715
574.111570	48963.950970
574.466342	48804.290066
574.821059	48919.707283
575.175722	48426.485832
575.530330	48447.464594
575.884882	48159.501283
576.239380	48139.898757
576.593823	48104.290566
576.948211	48035.892191
577.302544	47541.733085
577.656823	47553.388233
578.011047	47788.913461
578.365216	47513.464815
578.719330	47303.447825
579.073389	47148.099628
579.427394	47231.810508
579.781344	47201.934110
580.135239	46866.399951
580.489080	46952.333980
580.842866	46424.583146
581.196597	46875.320273
581.550273	46806.758060
581.903895	46677.873400
582.257463	47106.237887
582.610975	46468.509240
582.964434	46758.468847
583.317837	46391.951757
583.671186	46232.094248
584.024481	46451.452496
584.377721	45991.230438
584.730906	46274.863397
585.084037	46321.703278
585.437113	46039.622994
585.790135	46072.796307
586.143103	45672.311922
586.496016	45792.687114
586.848874	45820.083265
587.201679	45835.647827
587.554428	45313.772458
587.907124	45483.881153
588.259765	45240.584986
588.612352	45490.545558
588.964884	44873.495725
589.317362	45180.063414
589.669786	45119.715761
590.022155	44894.855094
590.374470	45312.620554
590.726731	44827.792624
591.078937	44347.252195
591.431090	44453.686077
591.783188	44120.097803
592.135232	43779.381338
592.487222	44031.953228
592.839157	44117.219304
593.191038	43785.720589
593.542866	43539.702199
593.894639	42926.493725
594.246358	43220.030031
594.598022	43193.382492
594.949633	42800.714416
595.301190	42746.509409
595.652692	42557.448496
596.004141	42898.172522
596.355535	41894.947619
596.706876	41837.445697
597.058162	41685.338962
597.409395	42167.641274
597.760573	42241.017789
598.111698	41820.938439
598.462768	41813.432161
598.813785	41888.079047
599.164748	41304.661271
599.515657	41711.850391
599.866511	41157.099136
600.217312	41801.262816
600.568060	40727.986038
600.918753	41496.048677
601.269392	41457.574591
601.619978	41110.589451
601.970510	41318.882366
602.320988	41495.005158
602.671412	41809.568117
603.021783	41552.265104
603.372100	41195.500126
603.722363	41323.757162
604.072572	41407.901581
604.422728	41411.879052
604.772830	41226.699827
605.122878	41309.702425
605.472872	41257.511359
605.822813	41529.879860
606.172701	41364.318286
606.522534	41595.792947
606.872314	41885.790363
607.222041	41609.560338
607.571714	42005.512726
607.921333	41435.811929
608.270899	41741.104206
608.620411	42093.657301
608.969870	41889.077195
609.319276	41884.406566
609.668627	41931.006992
610.017926	42436.483488
610.367171	42587.327414
610.716362	42677.216229
611.065500	42624.463074
611.414585	42816.359637
611.763616	43124.918581
612.112594	43035.319633
612.461518	43266.509469
612.810389	43549.522367
613.159207	43411.072117
613.507971	43494.939273
613.856682	43968.283455
614.205340	43860.453174
614.553945	44563.532819
614.902496	44001.585317
615.250994	44481.911497
615.599439	44555.754318
615.947830	44764.594199
616.296169	44809.894007
616.644454	44929.535712
616.992686	45097.080980
617.340864	45618.038860
617.688990	45326.992884
618.037063	45941.554908
618.385082	45906.201296
618.733048	46207.019549
619.080961	46219.478761
619.428821	46221.117136
619.776628	46359.058228
620.124382	46179.298244
620.472083	46335.168200
620.819731	46467.339692
621.167326	46148.274983
621.514868	46110.539426
621.862357	45687.384972
622.209793	45715.436473
622.557176	45389.863634
622.904506	45125.853366
623.251783	44798.722810
623.599007	44559.141974
623.946179	44338.389847
624.293297	44297.183455
624.640363	43682.906256
624.987376	43676.932489
625.334336	43409.388372
625.681243	43056.177407
626.028097	42989.644259
626.374899	42860.371430
626.721647	42809.851507
627.068343	42694.862788
627.414987	42433.229424
627.761577	42218.572052
628.108115	42553.211406
628.454600	41985.136382
628.801032	42179.031762
629.147412	42130.989565
629.493739	42129.797333
629.840014	41760.550457
630.186236	42099.021088
630.532405	41693.919006
630.878521	41909.445977
631.224585	41783.583489
631.570597	41485.651297
631.916556	41657.221927
632.262462	41583.860536
632.608316	41596.811260
632.954117	41492.146824
633.299866	41488.718839
633.645562	41402.999059
633.991206	40922.095667
634.336797	40465.871244
634.682336	40490.280511
635.027823	40226.809647
635.373257	40045.038242
635.718639	39799.758381
636.063968	39669.626035
636.409245	39081.169626
636.754470	39134.925970
637.099642	38875.432576
637.444762	38359.394863
637.789829	38528.613794
638.134845	38158.575458
638.479808	38118.336968
638.824719	37994.120417
639.169577	37586.119671
639.514383	37655.246493
639.859137	37330.583583
640.203839	37585.091276
640.548489	37193.474281
640.893086	37263.100177
641.237632	36997.315423
641.582125	37110.890098
641.926566	37033.200876
642.270955	36997.499425
642.615292	37009.101640
642.959576	36978.852197
643.303809	36975.830025
643.647990	37123.898796
643.992118	37062.910917
644.336195	37071.304438
644.680219	37150.344689
645.024192	37442.235058
645.368112	37968.486149
645.711981	37963.145047
646.055797	38853.639668
646.399562	38764.754043
646.743274	39726.729706
647.086935	40184.680724
647.430544	40059.937372
647.774101	40192.136590
648.117606	40440.557090
648.461059	40781.208020
648.804460	40409.095249
649.147810	39783.198190
649.491108	39528.506495
649.834354	39165.634159
650.177548	38292.188720
650.520690	37841.340688
650.863781	37842.734567
651.206820	37699.659059
651.549807	37240.059583
651.892742	36758.626870
652.235626	36533.972890
652.578458	36383.542339
652.921238	35756.100167
653.263967	36087.629129
653.606644	35744.409731
653.949269	35701.045726
654.291843	35279.585099
654.634365	35681.594433
654.976836	35259.423005
655.319255	35242.920788
655.661622	35254.520483
656.003938	35027.320720
656.346203	34883.320160
656.688416	35088.661480
657.030577	34882.536261
657.372687	34732.168724
657.714746	35012.449316
658.056753	35118.651304
658.398708	34560.305707
658.740612	34604.312459
659.082465	34887.292589
659.424266	34683.332546
659.766016	34809.963810
660.107715	34672.098335
660.449362	34816.958411
660.790958	34787.843227
661.132503	34814.047145
661.473996	34828.323692
661.815438	34953.175429
662.156829	35150.395450
662.498168	34906.902678
662.839456	34926.177530
663.180693	35057.486984
663.521879	35221.889094
663.863013	35177.892423
664.204097	35170.965878
664.545129	35635.077186
664.886110	35571.916570
665.227040	35639.369729
665.567918	35757.078151
665.908746	35818.199620
666.249522	35978.210885
666.590248	35979.067881
666.930922	36089.975786
667.271545	36048.890382
667.612118	36140.241131
667.952639	35903.536273
668.293109	35955.107277
668.633528	35850.059713
668.973896	35781.880627
669.314213	35829.237227
669.654480	35558.078603
669.994695	35579.075008
670.334859	35461.585877
670.674973	35349.805852
671.015035	35510.850553
671.355047	35457.293334
671.695008	35397.109519
672.034918	35282.153567
672.374777	35342.609605
672.714585	35170.184499
673.054342	35389.756996
673.394049	35136.144108
673.733705	35438.656188
674.073310	35087.612920
674.412864	35173.957803
674.752368	34735.886575
675.091820	35068.391000
675.431223	34642.801669
675.770574	34356.580077
676.109875	34208.783529
676.449125	33912.686316
676.788324	33826.563244
677.127473	33278.438586
677.466571	33199.436144
677.805619	32838.182018
678.144616	32831.333611
678.483562	32739.186359
678.822458	32392.622156
679.161303	32312.135094
679.500098	32208.062993
679.838842	32066.278021
680.177535	32228.552763
680.516179	32480.214725
680.854771	32720.319841
681.193314	33581.490070
681.531805	34696.212694
681.870247	35446.716993
682.208638	36187.159150
682.546978	36409.249703
682.885268	36518.819182
683.223508	35998.294842
683.561697	35668.926014
683.899836	35472.114327
684.237925	34949.568483
684.575963	34788.831293
684.913951	34292.123884
685.251889	34455.341322
685.589776	34421.305972
685.927614	34366.117940
686.265401	34514.680744
686.603137	34570.700566
686.940824	35064.584929
687.278460	35432.465652
687.616046	35549.969907
687.953582	36135.142004
688.291068	36005.123084
688.628504	36303.070400
688.965889	36234.117498
689.303224	35864.628647
689.640510	35553.934774
689.977745	34829.551213
690.314930	34038.722724
690.652065	33527.219529
690.989150	32792.756181
691.326185	31881.562582
691.663170	31173.275425
692.000105	30414.385167
692.336990	29705.646827
692.673825	29230.553365
693.010610	28696.203660
693.347345	28091.179499
693.684030	27390.963230
694.020665	27115.312937
694.357251	26422.461794
694.693786	26340.958939
695.030272	26092.442657
695.366707	25526.545412
695.703093	25227.231943
696.039429	25228.900565
696.375716	24927.842857
696.711952	24873.297573
697.048139	24696.884915
697.384276	24505.931048
697.720363	24637.147242
698.056400	24412.210957
698.392388	24189.913716
698.728326	24145.049968
699.064214	23946.763743
699.400053	23900.937134
699.735842	23536.807030
700.071581	23239.217636
700.407270	22932.380245
700.742910	22751.566660
701.078501	22482.217810
701.414042	22185.871060
701.749533	21879.187425
702.084974	21510.227896
702.420366	21710.137372
702.755709	21254.490161
703.091002	20956.288267
703.426246	20974.005402
703.761440	20860.738237
704.096584	20571.980945
704.431679	20534.260511
704.766725	20419.972512
705.101721	20347.894094
705.436668	20444.903538
705.771565	20095.483521
706.106413	20446.587284
706.441212	20413.645864
706.775961	20544.095802
707.110661	20598.389029
707.445311	20947.718305
707.779913	20758.075139
708.114465	20980.213583
708.448967	21258.863362
708.783421	21962.129529
709.117825	22204.283875
709.452180	22416.443355
709.786485	22810.500269
710.120742	23586.981634
710.454949	23597.880609
710.789107	24043.513568
711.123216	24744.964919
711.457275	24860.258628
711.791286	25413.716827
712.125247	25482.173176
712.459159	25202.857964
712.793023	25892.230712
713.126837	24793.317147
713.460602	25080.630148
713.794318	24730.491767
714.127985	24347.472459
714.461602	23458.679227
714.795171	23435.600825
715.128691	22403.192682
715.462162	21860.104137
715.795584	21443.762803
716.128957	21171.238026
716.462281	20762.695356
716.795556	20513.130515
717.128782	20001.120683
717.461960	19438.265774
717.795088	19360.019504
718.128167	18946.881823
718.461198	18463.014233
718.794180	18317.579465
719.127113	17941.932845
719.459997	17731.633551
719.792833	17372.075773
720.125619	17330.566913
720.458357	16996.514853
720.791046	16815.146740
721.123686	16655.483316
721.456278	16407.342600
721.788821	16358.090527
722.121315	16082.359576
722.453761	16151.032694
722.786158	16066.686629
723.118506	16071.921867
723.450805	15931.102276
723.783056	16078.861015
724.115259	15962.294415
724.447412	15880.037908
724.779518	16125.327851
725.111574	16144.443906
725.443582	16327.215980
725.775542	16294.118285
726.107453	16762.295283
726.439315	16629.254192
726.771129	17020.649377
727.102895	17379.534160
727.434612	17583.978155
727.766281	17702.725054
728.097901	17965.278429
728.429473	18011.137805
728.760996	17997.173809
729.092471	18081.151870
729.423897	17970.029716
729.755276	17840.872834
730.086606	17950.228064
730.417887	18453.060475
730.749120	18954.546898
731.080305	19126.031828
731.411442	19464.784764
731.742530	19542.957936
732.073570	19649.447270
732.404562	19950.565472
732.735506	19781.681777
733.066401	19498.726852
733.397249	18989.353544
733.728048	18358.039766
734.058798	17524.991613
734.389501	16827.704255
734.720156	16369.720469
735.050762	15836.041237
735.381320	15464.987109
735.711831	15209.193921
736.042293	14848.738818
736.372707	14847.481051
736.703073	14615.230052
737.033391	14793.926353
737.363661	14732.268000
737.693883	14818.716227
738.024056	14974.039218
738.354182	15141.382840
738.684260	15407.535599
739.014290	15612.642505
739.344272	15783.804801
739.674207	16067.215950
740.004093	16175.736869
740.333931	16170.322670
740.663722	16212.854885
740.993464	16222.090278
741.323159	16060.054991
741.652806	15792.989784
741.982405	15598.975937
742.311956	15268.069557
742.641460	15156.387835
742.970915	14854.624366
743.300323	14527.791238
743.629683	14317.466738
743.958996	14044.488257
744.288260	13768.132203
744.617477	13483.959841
744.946647	13396.997416
745.275768	13118.395528
745.604842	12931.048607
745.933869	12747.482552
746.262847	12691.044314
746.591778	12623.949077
746.920662	12510.051767
747.249498	12507.498423
747.578286	12608.644134
747.907027	12735.376221
748.235720	12948.012090
748.564365	12971.138383
748.892963	12867.159544
749.221514	12924.376640
749.550017	12770.366870
749.878473	12728.227865
750.206881	12506.482630
750.535242	12417.768405
750.863555	12327.453613
751.191821	12226.272614
751.520039	12239.576219
751.848210	12139.937814
752.176334	12169.128615
752.504411	12075.340468
752.832440	11922.084350
753.160421	11971.371711
753.488356	11849.874862
753.816243	11748.073802
754.144082	11612.859973
754.471875	11544.416227
754.799620	11485.023873
755.127318	11455.306272
755.454969	11424.945922
755.782572	11369.455422
756.110129	11380.598892
756.437638	11287.650097
756.765100	11273.978488
757.092515	11271.881368
757.419882	11284.776640
757.747203	11280.831937
758.074477	11350.382216
758.401703	11296.013372
758.728882	11452.783174
759.056014	11488.295582
759.383099	11599.148035
759.710138	11689.004082
760.037129	11767.424271
760.364073	11779.581013
760.690970	11761.455545
761.017820	11765.372521
761.344623	11943.320211
761.671379	12264.340888
761.998088	12880.851318
762.324751	14394.356937
762.651366	17152.505797
762.977935	20647.845269
763.304456	22786.582514
763.630931	23284.424183
763.957359	22210.751675
764.283740	20403.671941
764.610074	18595.112628
764.936362	16525.741660
765.262602	15066.244442
765.588796	13612.652937
765.914943	12601.344543
766.241044	11757.031932
766.567097	11128.896601
766.893104	10579.877139
767.219064	10222.275329
767.544978	9837.378192
767.870845	9522.240541
768.196665	9338.994599
768.522438	9140.864650
768.848165	8975.688723
769.173846	8809.595307
769.499479	8695.211526
769.825066	8534.265128
770.150607	8350.568003
770.476101	8288.937376
770.801548	8185.029113
771.126949	8043.304634
771.452303	7951.086807
771.777611	7790.609236
772.102872	7772.365300
772.428087	7652.718555
772.753256	7529.522837
773.078378	7439.477747
773.403453	7302.300389
773.728482	7200.315327
774.053465	7130.157588
774.378401	7047.081894
774.703291	6953.712163
775.028135	6857.620209
775.352932	6821.482697
775.677683	6737.272743
776.002388	6651.590772
776.327046	6645.110368
776.651658	6561.530558
776.976224	6482.525595
777.300743	6466.973635
777.625216	6395.628706
777.949643	6354.636563
778.274024	6359.279466
778.598359	6287.264062
778.922647	6289.701460
779.246889	6247.645634
779.571086	6246.990284
779.895236	6263.023674
780.219339	6250.153608
780.543397	6245.770325
780.867409	6292.534589
781.191374	6284.337673
781.515294	6252.628815
781.839167	6302.969777
782.162995	6273.617659
782.486776	6227.496143
782.810511	6190.549526
783.134201	6119.121417
783.457844	6108.655982
783.781441	6065.145783
784.104993	6016.279358
784.428498	5989.669628
784.751958	5976.935673
785.075372	5945.289830
785.398739	5907.909674
785.722061	5927.484474
786.045337	5925.730153
786.368568	6027.170771
786.691752	6049.162805
787.014891	6284.357837
787.337983	6540.229162
787.661030	6950.778211
787.984031	7338.422777
788.306987	7591.004750
788.629897	7675.002976
788.952760	7601.268539
789.275579	7435.044053
789.598351	7155.854870
789.921078	6905.617034
790.243759	6640.016282
790.566395	6452.576100
790.888984	6262.731287
791.211529	6133.372759
791.534027	5977.275951
791.856480	5835.392676
792.178888	5773.300784
792.501249	5715.093101
792.823566	5613.992761
793.145836	5604.008755
793.468062	5580.670734
793.790241	5538.498961
794.112375	5577.456998
794.434464	5664.371532
794.756507	5684.793246
795.078505	5801.329599
795.400457	5996.051728
795.722364	6215.936777
796.044226	6398.923100
796.366042	6544.146139
796.687812	6501.666856
797.009538	6532.611979
797.331218	6445.904133
797.652852	6388.248456
797.974442	6276.702845
798.295986	6210.230191
798.617484	6084.375264
798.938938	5982.422969
799.260346	5915.236991
799.581709	5782.296723
799.903026	5733.326954
800.224299	5669.896636
800.545526	5557.090737
800.866708	5492.495912
801.187845	5441.950783
801.508936	5369.985791
801.829983	5338.929763
802.150984	5235.505450
802.471940	5209.520823
802.792851	5192.174213
803.113717	5168.009442
803.434538	5141.165297
803.755314	5108.365030
804.076045	5101.040233
804.396731	5061.026075
804.717372	5073.611315
805.037967	5073.649124
805.358518	5093.365077
805.679024	5146.889528
805.999485	5151.577801
806.319901	5167.580943
806.640272	5181.875135
806.960598	5221.574222
807.280879	5212.888314
807.601115	5250.051700
807.921306	5217.311926
808.241453	5211.832192
808.561554	5218.604982
808.881611	5192.799316
809.201623	5192.791754
809.521590	5145.742665
809.841513	5135.380573
810.161390	5148.359024
810.481223	5068.091252
810.801011	5052.370413
811.120755	5029.581878
811.440453	4981.764013
811.760107	4954.788798
812.079716	4931.440694
812.399281	4881.601327
812.718801	4874.573958
813.038276	4842.010625
813.357707	4810.072395
813.677093	4831.033513
813.996434	4771.895737
814.315731	4794.149911
814.634983	4788.062717
814.954191	4791.503305
815.273354	4848.730483
815.592473	4886.980238
815.911547	4956.409529
816.230577	5001.711858
816.549562	5086.022636
816.868502	5134.757991
817.187399	5188.400909
817.506250	5262.619296
817.825058	5292.563750
818.143821	5431.785296
818.462539	5590.390078
818.781213	5802.337830
819.099843	6140.710158
819.418429	6710.194185
819.736970	7281.528315
820.055466	7946.950540
820.373919	8811.100092
820.692327	10184.068424
821.010691	12736.981828
821.329011	18645.108272
821.647286	27690.901801
821.965517	37471.826631
822.283704	42617.612146
822.601847	43976.515659
822.919945	39607.024987
823.237999	34805.247811
823.556010	29940.640213
823.873976	25518.807241
824.191897	21563.570865
824.509775	18654.235281
824.827609	16032.323604
825.145398	14551.570361
825.463144	13828.419362
825.780845	14089.599023
826.098502	15247.647843
826.416116	17446.200899
826.733685	19487.749740
827.051210	19864.883500
827.368692	18513.723200
827.686129	16187.467634
828.003522	13945.921097
828.320872	11910.691342
828.638177	10397.278985
828.955439	9255.160210
829.272656	8261.233715
829.589830	7477.684652
829.906960	6801.018133
830.224046	6312.600902
830.541088	5924.280821
830.858086	5681.634963
831.175041	5489.405684
831.491952	5427.974184
831.808819	5457.573318
832.125642	5680.646897
832.442421	6186.181366
832.759157	7203.561830
833.075849	8815.027150
833.392497	10474.012908
833.709101	11462.361366
834.025662	11231.879812
834.342179	10278.098546
834.658653	9105.206048
834.975083	8106.455169
835.291469	7276.898015
835.607811	6604.082938
835.924110	6124.691892
836.240366	5673.586761
836.556578	5258.851034
836.872746	4932.963123
837.188871	4678.891490
837.504952	4472.035303
837.820990	4317.748269
838.136984	4219.415522
838.452935	4169.432482
838.768842	4197.962892
839.084706	4458.910659
839.400526	5137.558352
839.716303	5949.912568
840.032037	6463.200332
840.347727	6317.667261
840.663373	5776.726248
840.978977	5258.732567
841.294537	4855.296586
841.610054	4546.397364
841.925527	4328.485927
842.240957	4138.968789
842.556344	3968.779435
842.871687	3821.890295
843.186987	3681.773944
843.502244	3572.877459
843.817458	3494.936180
844.132629	3427.540994
844.447756	3379.027450
844.762840	3340.240812
845.077881	3303.039617
845.392879	3271.449227
845.707833	3249.207656
846.022745	3221.256978
846.337613	3213.964949
846.652438	3191.602391
846.967221	3180.335412
847.281960	3159.775066
847.596656	3151.983963
847.911309	3138.632467
848.225919	3128.315746
848.540485	3120.877523
848.855009	3111.256481
849.169490	3101.590068
849.483928	3094.000611
849.798323	3090.161773
850.112675	3078.559557
850.426984	3082.786565
850.741251	3069.140161
851.055474	3067.776529
851.369654	3070.589493
851.683792	3067.433731
851.997887	3069.614030
852.311938	3065.434913
852.625947	3067.360634
852.939914	3060.973492
853.253837	3066.911971
853.567718	3065.752506
853.881555	3057.381670
854.195350	3066.329718
854.509103	3059.687998
854.822812	3058.016855
855.136479	3052.421174
855.450103	3055.955023
855.763685	3050.928993
856.077224	3052.204405
856.390720	3057.482493
856.704173	3071.406160
857.017584	3072.444637
857.330953	3075.902869
857.644278	3083.104157
857.957561	3088.654468
858.270802	3079.855134
858.584000	3083.479723
858.897155	3077.798343
859.210268	3070.685275
859.523339	3054.971998
859.836367	3055.488717
860.149352	3051.859086
860.462295	3045.098898
860.775195	3038.195038
861.088054	3034.000798
861.400869	3036.115562
861.713642	3030.751775
862.026373	3041.902807
862.339062	3041.244936
862.651708	3050.135011
862.964312	3066.100345
863.276873	3068.762075
863.589392	3100.551591
863.901869	3121.250568
864.214303	3139.534833
864.526696	3154.413799
864.839045	3171.468022
865.151353	3181.749456
865.463619	3181.227696
865.775842	3183.637368
866.088023	3185.338757
866.400162	3180.791637
866.712258	3182.936647
867.024313	3185.134591
867.336325	3180.032943
867.648296	3181.051256
867.960224	3179.488498
868.272110	3183.377748
868.583954	3182.351874
868.895755	3185.991587
869.207515	3184.711134
869.519233	3203.623022
869.830909	3205.987323
870.142542	3218.451576
870.454134	3220.520970
870.765684	3232.503793
871.077191	3248.701020
871.388657	3261.044285
871.700081	3272.885956
872.011463	3293.900005
872.322803	3310.339208
872.634101	3325.548369
872.945357	3346.373376
873.256571	3367.377343
873.567744	3384.101371
873.878874	3388.217473
874.189963	3403.305647
874.501010	3402.667941
874.812015	3398.488824
875.122979	3412.989703
875.433900	3411.172367
875.744780	3417.347781
876.055618	3423.545879
876.366415	3419.790220
876.677169	3428.602157
876.987882	3441.373920
877.298554	3456.376394
877.609183	3492.481138
877.919771	3534.068136
878.230317	3593.957044
878.540822	3689.486909
878.851285	3822.414575
879.161707	4024.365718
879.472087	4357.943909
879.782425	4925.187143
880.092722	6006.754098
880.402977	7795.030328
880.713191	10017.672538
881.023363	12204.225128
881.333494	13457.224081
881.643583	13861.794321
881.953631	13457.047641
882.263637	12649.273313
882.573602	11710.202133
882.883526	10842.468322
883.193408	9955.288259
883.503248	9119.681721
883.813048	8356.945062
884.122806	7649.928276
884.432522	6952.308201
884.742197	6348.171283
885.051831	5833.121636
885.361424	5379.503489
885.670975	5011.060678
885.980485	4712.994895
886.289954	4469.703770
886.599382	4269.736320
886.908768	4108.797483
887.218113	3961.215184
887.527417	3840.837471
887.836680	3730.400914
888.145901	3639.929847
888.455082	3571.486101
888.764221	3510.483098
889.073319	3456.457052
889.382376	3425.043102
889.691392	3399.174421
890.000366	3393.666961
890.309300	3388.620766
890.618193	3394.917167
890.927044	3385.664129
891.235855	3394.017321
891.544625	3407.179773
891.853353	3428.705500
892.162041	3487.066938
892.470687	3565.900502
892.779293	3673.526616
893.087858	3829.509999
893.396381	4081.476950
893.704864	4449.639977
894.013306	4946.614567
894.321707	5443.536226
894.630068	5740.550928
894.938387	5768.045381
895.246665	5610.136278
895.554903	5333.548331
895.863100	5041.975554
896.171256	4805.966375
896.479371	4597.345785
896.787446	4397.915218
897.095480	4223.781162
897.403473	4096.378601
897.711425	3966.473107
898.019336	3858.945296
898.327207	3748.049994
898.635038	3660.830470
898.942827	3566.208013
899.250576	3492.249245
899.558284	3416.095054
899.865952	3371.798435
900.173579	3313.794919
900.481165	3274.423508
900.788711	3239.112745
901.096216	3210.363045
901.403681	3190.649613
901.711105	3174.349042
902.018489	3170.754699
902.325832	3201.057075
902.633135	3253.532966
902.940397	3403.933270
903.247619	3764.917694
903.554800	4440.875931
903.861941	5301.133712
904.169041	5923.524648
904.476101	6108.955930
904.783121	5862.325040
905.090100	5502.399258
905.397039	5141.797962
905.703938	4825.672246
906.010796	4538.744892
906.317614	4305.339469
906.624391	4096.393724
906.931129	3923.270419
907.237826	3760.731016
907.544483	3608.036987
907.851099	3453.303811
908.157675	3312.542192
908.464211	3187.082997
908.770707	3094.487083
909.077163	3025.597195
909.383578	2971.495532
909.689954	2930.069850
909.996289	2907.135121
910.302584	2889.513767
910.608839	2874.992724
910.915054	2865.170035
911.221229	2859.823892
911.527363	2864.570138
911.833458	2871.065665
912.139513	2882.085627
912.445527	2891.479817
912.751502	2923.418048
913.057436	2962.242494
913.363331	3012.689320
913.669186	3090.489448
913.975000	3197.853422
914.280775	3361.375850
914.586510	3601.314608
914.892205	3939.293727
915.197859	4375.875294
915.503475	4889.246237
915.809050	5319.508718
916.114585	5563.581222
916.420081	5609.785918
916.725536	5549.070261
917.030952	5340.374053
917.336328	5155.822452
917.641665	4972.410152
917.946961	4775.628711
918.252218	4601.860138
918.557435	4404.493924
918.862612	4233.767687
919.167750	4080.834203
919.472848	3914.345056
919.777906	3764.741254
920.082925	3628.284781
920.387904	3491.162876
920.692843	3395.748957
920.997743	3306.936429
921.302603	3223.202864
921.607423	3167.661951
921.912204	3112.410905
922.216946	3067.106056
922.521647	3024.699869
922.826310	2986.747543
923.130932	2953.296966
923.435516	2918.286153
923.740059	2895.548028
924.044564	2872.618340
924.349028	2845.930472
924.653454	2820.656647
924.957840	2797.573203
925.262186	2782.968981
925.566493	2763.426948
925.870761	2739.632702
926.174989	2731.526526
926.479178	2718.611090
926.783328	2703.303627
927.087438	2694.463963
927.391509	2679.670697
927.695541	2674.332115
927.999533	2664.423727
928.303486	2656.420896
928.607400	2650.923517
928.911275	2646.376397
929.215110	2641.352887
929.518906	2636.203348
929.822663	2637.294758
930.126381	2635.500107
930.430060	2639.064203
930.733699	2639.815335
931.037299	2645.557209
931.340861	2641.252064
931.644383	2642.892959
931.947866	2641.965387
932.251309	2639.777526
932.554714	2637.342649
932.858080	2639.409522
933.161407	2635.409367
933.464694	2632.094808
933.767943	2629.480970
934.071153	2625.304374
934.374323	2624.762450
934.677455	2623.139198
934.980548	2618.617283
935.283602	2615.368259
935.586617	2613.732405
935.889593	2616.747015
936.192530	2617.861110
936.495428	2620.878241
936.798287	2628.699591
937.101108	2637.347690
937.403890	2658.891061
937.706632	2679.383352
938.009336	2703.308668
938.312002	2727.841443
938.614628	2748.908425
938.917216	2766.270159
939.219765	2773.063113
939.522275	2780.977725
939.824747	2785.391255
940.127179	2777.514452
940.429573	2772.551436
940.731929	2775.066972
941.034246	2767.444747
941.336524	2768.193359
941.638763	2759.101638
941.940964	2755.608118
942.243126	2741.944071
942.545250	2732.648183
942.847335	2720.914897
943.149381	2711.286294
943.451389	2699.295909
943.753359	2692.644107
944.055290	2683.055832
944.357182	2670.793225
944.659036	2670.241219
944.960851	2665.764674
945.262628	2663.294509
945.564367	2660.894920
945.866067	2658.359219
946.167729	2659.130516
946.469352	2660.347955
946.770937	2655.992398
947.072484	2652.566934
947.373992	2650.038795
947.675462	2648.317241
947.976893	2643.795326
948.278286	2640.137969
948.579641	2639.462454
948.880958	2635.958852
949.182236	2633.561784
949.483476	2631.588172
949.784678	2631.530199
950.085841	2629.304529
950.386967	2634.305354
950.688054	2637.682927
950.989103	2646.051242
951.290114	2651.767911
951.591087	2662.152688
951.892021	2670.538647
952.192917	2680.779751
952.493776	2691.119158
952.794596	2692.984385
953.095378	2696.182997
953.396122	2695.638552
953.696828	2691.482121
953.997496	2687.766790
954.298126	2678.554082
954.598718	2673.147444
954.899272	2666.392298
955.199788	2657.401400
955.500266	2647.949237
955.800706	2632.498100
956.101108	2617.694752
956.401472	2609.661673
956.701798	2595.939652
957.002087	2583.621593
957.302337	2578.129256
957.602550	2566.748851
957.902724	2558.995557
958.202861	2551.796789
958.502960	2541.384286
958.803022	2539.808925
959.103045	2531.586803
959.403031	2525.973478
959.702979	2522.434588
960.002889	2518.396624
960.302762	2510.666015
960.602596	2508.410098
960.902393	2504.823317
961.202153	2505.332474
961.501875	2501.244098
961.801559	2497.997595
962.101205	2498.302585
962.400814	2492.348982
962.700385	2494.788901
962.999918	2488.409320
963.299414	2490.062819
963.598873	2492.406955
963.898293	2490.279588
964.197677	2486.355050
964.497022	2487.673312
964.796331	2483.189206
965.095601	2483.955461
965.394835	2485.621562
965.694030	2483.312714
965.993189	2482.596870
966.292309	2482.034781
966.591393	2481.097127
966.890439	2483.259782
967.189447	2481.145018
967.488419	2479.115953
967.787353	2482.667446
968.086249	2479.569657
968.385108	2485.384628
968.683930	2482.518732
968.982714	2484.071408
969.281462	2485.946717
969.580172	2485.074597
969.878844	2489.047026
970.177480	2489.606594
970.476078	2491.953252
970.774639	2490.559373
971.073162	2496.197903
971.371649	2496.412152
971.670098	2497.775784
971.968510	2500.311485
972.266885	2497.127996
972.565223	2501.317195
972.863524	2500.606392
973.161788	2504.956908
973.460014	2503.162257
973.758204	2505.158554
974.056356	2507.606034
974.354471	2508.122753
974.652550	2507.089316
974.950591	2510.270284
975.248595	2507.013699
975.546563	2504.152844
975.844493	2502.738800
976.142386	2503.810045
976.440243	2500.331649
976.738062	2499.167143
977.035845	2499.709067
977.333590	2494.378047
977.631299	2495.166987
977.928971	2491.880155
978.226606	2490.035093
978.524204	2489.730103
978.821765	2489.704897
979.119290	2486.833960
979.416777	2486.425626
979.714228	2489.901502
980.011642	2487.844711
980.309020	2493.652120
980.606360	2495.131699
980.903664	2506.214676
981.200931	2513.685666
981.498162	2533.620909
981.795356	2558.103272
982.092513	2591.644589
982.389633	2631.008439
982.686717	2668.159222
982.983764	2694.017821
983.280775	2711.911397
983.577749	2710.232692
983.874686	2702.209696
984.171587	2689.589167
984.468451	2674.942095
984.765279	2660.249652
985.062070	2644.566622
985.358824	2628.445012
985.655543	2607.027670
985.952224	2588.841708
986.248869	2564.107287
986.545478	2536.650642
986.842050	2521.769156
987.138586	2509.378000
987.435086	2494.181442
987.731549	2484.830101
988.027975	2481.477734
988.324366	2474.687300
988.620719	2472.466671
988.917037	2469.275621
989.213318	2466.855867
989.509563	2463.634570
989.805772	2464.194138
990.101944	2460.259517
990.398080	2463.087605
990.694180	2459.800772
990.990244	2462.409569
991.286271	2461.280351
991.582262	2462.815382
991.878217	2460.932511
992.174136	2460.171297
992.470019	2465.235136
992.765865	2462.601133
993.061676	2466.094653
993.357450	2467.372585
993.653188	2471.186218
993.948890	2475.133442
994.244556	2479.584781
994.540186	2489.581389
994.835780	2499.822493
995.131337	2511.984276
995.426859	2523.215967
995.722345	2543.461241
996.017795	2554.725699
996.313208	2570.565005
996.608586	2577.438618
996.903928	2581.632858
997.199234	2580.266705
997.494504	2578.139338
997.789738	2570.622978
998.084936	2560.502862
998.380099	2550.188661
998.675225	2542.233720
998.970316	2529.101514
999.265371	2519.840915
999.560390	2505.745848
999.855373	2498.834427
1000.150320	2490.536687
1000.445232	2482.400265
1000.740108	2475.229224
1001.034948	2471.768472
1001.329752	2463.916874
1001.624521	2462.996864
1001.919254	2457.668364
1002.213951	2458.028807
1002.508613	2453.022941
1002.803239	2451.742488
1003.097829	2445.967846
1003.392384	2451.692076
1003.686903	2449.665532
1003.981386	2449.345419
1004.275834	2448.942127
1004.570246	2447.255861
1004.864623	2445.642692
1005.158964	2444.936930
1005.453270	2446.537497
1005.747540	2448.095213
1006.041775	2444.828545
1006.335974	2443.220417
1006.630138	2442.897783
1006.924266	2443.981632
1007.218359	2441.826538
1007.512416	2441.541713
1007.806438	2440.530962
1008.100425	2442.779316
1008.394376	2440.331836
1008.688292	2443.336364
1008.982172	2440.349480
1009.276017	2442.134049
1009.569827	2440.813266
1009.863602	2440.074737
1010.157341	2443.280911
1010.451045	2442.363421
1010.744714	2441.438369
1011.038347	2442.363421
1011.331945	2438.917793
1011.625508	2436.477874
1011.919036	2435.600713
1012.212528	2440.047011
1012.505986	2436.498039
1012.799408	2441.718153
1013.092795	2437.508790
1013.386147	2437.004675
1013.679464	2437.415529
1013.972745	2439.610951
1014.265992	2436.361928
1014.559204	2438.093564
1014.852380	2436.808070
1015.145521	2439.169850
1015.438628	2439.651280
1015.731699	2440.011723
1016.024736	2435.933429
1016.317737	2436.422421
1016.610703	2438.353183
1016.903635	2435.988882
1017.196531	2436.387133
1017.489393	2436.535847
1017.782219	2433.468305
1018.075011	2439.419387
1018.367768	2436.724891
1018.660490	2440.669593
1018.953177	2440.669593
1019.245829	2440.669593
