Dividing Wavelength (nm)	Counts (n)	Blue Motor Position (mm): 0.000000	Red Motor Position (mm): 26.600000	
326.493990	1986.091107
326.888308	1986.091107
327.282561	1986.091107
327.676750	1963.032869
328.070874	1964.235185
328.464933	1968.777264
328.858929	1979.235138
329.252859	1991.230563
329.646726	2005.474344
330.040528	2019.481190
330.434265	2040.278470
330.827938	2059.492828
331.221547	2076.567216
331.615091	2098.622264
332.008571	2120.183279
332.401986	2142.150107
332.795338	2161.467808
333.188625	2179.668894
333.581847	2199.341997
333.975006	2218.843701
334.368100	2235.015722
334.761129	2254.419123
335.154095	2269.058634
335.546996	2287.589916
335.939833	2312.899029
336.332606	2328.917295
336.725315	2337.162102
337.117960	2345.159893
337.510540	2354.057529
337.903056	2365.576566
338.295508	2369.213758
338.687896	2377.713144
339.080220	2384.085162
339.472480	2388.904505
339.864676	2393.433982
340.256807	2397.928171
340.648875	2397.754251
341.040879	2396.592265
341.432818	2401.653583
341.824694	2400.370610
342.216506	2401.792215
342.608253	2402.268604
342.999937	2398.918757
343.391557	2399.309447
343.783113	2398.092008
344.174605	2395.359703
344.566033	2396.027656
344.957397	2393.055895
345.348697	2392.377860
345.739934	2387.482900
346.131106	2389.643034
346.522215	2387.629093
346.913260	2386.600698
347.304241	2384.997611
347.695159	2383.223125
348.086012	2380.165665
348.476802	2380.843700
348.867528	2381.909904
349.258191	2376.427649
349.648789	2376.200797
350.039324	2375.033770
350.429796	2376.042001
350.820203	2373.876826
351.210548	2371.585621
351.600828	2373.592000
351.991045	2371.416743
352.381198	2372.268697
352.771288	2373.077803
353.161314	2370.164016
353.551276	2374.645602
353.941175	2371.709129
354.331010	2371.510004
354.720782	2371.993955
355.110490	2373.657535
355.500135	2373.052597
355.889717	2372.515714
356.279235	2373.465972
356.668689	2376.099974
357.058080	2375.648791
357.447408	2375.973946
357.836672	2373.881867
358.225873	2372.220807
358.615010	2374.065869
359.004084	2379.764893
359.393095	2381.672970
359.782043	2382.711448
360.170927	2381.703217
360.559748	2380.901673
360.948505	2386.152035
361.337199	2382.459390
361.725830	2385.390821
362.114398	2385.204298
362.502903	2386.701521
362.891344	2388.665050
363.279722	2389.224618
363.668037	2389.398538
364.056289	2386.910729
364.444478	2390.905843
364.832603	2389.466594
365.220665	2391.964486
365.608665	2393.244939
365.996601	2396.461195
366.384474	2393.504558
366.772284	2396.257028
367.160031	2398.170146
367.547715	2398.999416
367.935336	2398.333983
368.322893	2398.470095
368.710388	2400.030332
369.097820	2402.266083
369.485189	2402.319016
369.872495	2404.156516
370.259738	2403.009654
370.646918	2407.544172
371.034035	2410.203380
371.421090	2413.953999
371.808081	2417.250913
372.195010	2420.963723
372.581875	2424.179979
372.968678	2433.473346
373.355418	2436.659356
373.742096	2450.376335
374.128710	2460.138530
374.515262	2472.154120
374.901751	2486.657519
375.288177	2502.138903
375.674540	2521.111285
376.060841	2543.680531
376.447079	2568.175498
376.833254	2593.313211
377.219367	2620.681636
377.605417	2654.585916
377.991404	2680.293280
378.377329	2721.121585
378.763191	2753.435381
379.148991	2802.954635
379.534727	2853.966071
379.920402	2901.743607
380.306013	2949.006944
380.691563	3012.636388
381.077049	3068.174780
381.462474	3126.760550
381.847835	3200.827702
382.233134	3273.879063
382.618371	3334.750996
383.003545	3418.845003
383.388657	3500.340297
383.773706	3592.137188
384.158693	3665.622087
384.543618	3763.163373
384.928480	3838.276565
385.313280	3947.699851
385.698017	4048.689286
386.082692	4171.025487
386.467305	4236.777256
386.851856	4363.995815
387.236344	4517.980379
387.620770	4586.598045
388.005133	4704.238411
388.389435	4853.575032
388.773674	4939.156180
389.157851	5077.757664
389.541965	5204.232652
389.926018	5227.729471
390.310008	5412.530609
390.693936	5533.109968
391.077802	5654.619419
391.461606	5783.733452
391.845348	5903.465897
392.229027	6025.539958
392.612645	6242.493575
392.996200	6360.965732
393.379694	6542.122116
393.763125	6762.067658
394.146494	6860.934767
394.529801	6992.365210
394.913047	7242.814774
395.296230	7240.470637
395.679351	7295.943494
396.062410	7556.059471
396.445408	7451.737833
396.828343	7603.884898
397.211217	7747.986280
397.594028	7624.246118
397.976778	7834.951225
398.359466	7994.581883
398.742092	7968.279662
399.124656	8125.021738
399.507158	8309.958988
399.889598	8328.961617
400.271977	8539.243267
400.654294	8573.079492
401.036549	8769.838247
401.418742	8795.805231
401.800874	9101.223537
402.182944	9180.619189
402.564952	9551.819511
402.946898	9376.760403
403.328783	9433.226367
403.710606	9620.666549
404.092367	9886.065655
404.474067	10246.092260
404.855705	10042.490139
405.237282	9993.076749
405.618797	10413.854298
406.000250	10668.286374
406.381642	11033.729699
406.762972	10986.773871
407.144240	10779.121183
407.525447	11039.469053
407.906593	10973.742489
408.287677	11229.213042
408.668700	11393.894935
409.049661	11364.825122
409.430560	11525.330419
409.811399	11495.643064
410.192176	11663.074907
410.572891	11725.413815
410.953545	12218.090822
411.334138	11694.693024
411.714669	12290.454065
412.095139	11600.194074
412.475547	12102.159407
412.855894	11953.417642
413.236180	12275.708690
413.616405	11967.374076
413.996568	12239.475396
414.376670	12208.689070
414.756711	12089.848909
415.136691	12365.922658
415.516609	12545.642313
415.896466	12612.107406
416.276262	12907.284608
416.655997	13361.696736
417.035670	13396.672262
417.415283	14031.618192
417.794834	14129.320794
418.174324	13866.255743
418.553753	13768.187656
418.933121	14267.009829
419.312428	14074.715016
419.691674	13984.528773
420.070859	14441.426191
420.449983	14096.233181
420.829045	14648.257171
421.208047	14392.322832
421.586988	14847.418036
421.965867	15102.480256
422.344686	15099.957159
422.723444	15654.040460
423.102141	14344.598228
423.480777	15543.929057
423.859352	15041.953642
424.237866	16149.689227
424.616319	15853.574371
424.994712	16512.629619
425.373044	16301.468287
425.751314	16972.511399
426.129524	16102.027638
426.507673	17190.425356
426.885762	16890.945530
427.263789	17081.692709
427.641756	17252.998678
428.019662	17310.732493
428.397508	17351.447372
428.775292	17657.309299
429.153016	17618.746993
429.530679	17695.864044
429.908282	17721.977221
430.285824	17436.484075
430.663305	18150.868507
431.040726	17745.927743
431.418086	17573.684118
431.795385	18231.118636
432.172624	18639.484865
432.549802	18194.507256
432.926920	18378.279999
433.303977	18266.822608
433.680974	18512.810751
434.057910	18811.884764
434.434786	18833.972580
434.811601	18758.561960
435.188355	19790.082860
435.565050	19433.272511
435.941683	19383.213853
436.318257	20269.259656
436.694770	20071.674152
437.071222	20671.140441
437.447614	19732.553212
437.823946	19753.887375
438.200218	19921.969527
438.576429	19688.160811
438.952580	19957.842377
439.328670	19931.003274
439.704700	20335.974286
440.080670	19912.784544
440.456580	20486.127574
440.832429	20680.572440
441.208218	19664.406894
441.583947	20107.710840
441.959616	20205.045438
442.335224	20446.990576
442.710773	20570.151006
443.086261	21114.146958
443.461689	20474.033846
443.837057	20590.398800
444.212365	21221.657126
444.587612	21220.359029
444.962800	20809.036163
445.337927	21221.263916
445.712995	19960.478901
446.088002	21806.274696
446.462949	21996.026248
446.837837	22172.940501
447.212664	22128.411989
447.587431	24955.405366
447.962139	27875.786118
448.336786	30242.950648
448.711374	28667.073352
449.085901	24991.530275
449.460369	24928.399905
449.834776	24832.867519
450.209124	27315.935737
450.583412	26841.164909
450.957640	27345.577722
451.331808	25993.414231
451.705917	24630.621468
452.079965	24652.535364
452.453954	24992.460368
452.827883	24857.700243
453.201752	24646.349868
453.575562	24780.815085
453.949311	25876.353598
454.323001	25909.683186
454.696632	25656.062736
455.070202	27150.258216
455.443713	27259.608404
455.817164	27818.523652
456.190556	28290.889850
456.563888	27719.202839
456.937160	28098.915149
457.310373	26427.543277
457.683526	26820.783524
458.056619	26757.154080
458.429653	26643.355073
458.802628	27156.428588
459.175542	27218.976704
459.548398	28411.877542
459.921194	29854.391112
460.293930	30441.554465
460.666607	32282.195681
461.039224	33882.603231
461.411782	34148.312368
461.784280	32908.705240
462.156719	32351.950127
462.529099	31723.224981
462.901419	30409.044064
463.273680	29302.775455
463.645882	29274.126578
464.018024	29157.033177
464.390106	29835.474182
464.762130	32180.566019
465.134094	35784.733921
465.505999	40512.950580
465.877845	44643.959387
466.249631	45556.133491
466.621358	43747.732974
466.993026	41582.491862
467.364634	39486.866564
467.736184	37501.677824
468.107674	36207.253189
468.479105	35316.972817
468.850477	34510.390722
469.221790	33062.415062
469.593043	31380.151776
469.964238	30434.499370
470.335373	30170.234524
470.706449	31444.807095
471.077467	33417.193825
471.448425	37096.961390
471.819324	39327.805558
472.190164	37528.370733
472.560945	34321.990200
472.931667	31492.887100
473.302330	30354.350065
473.672934	29492.756379
474.043479	29699.516784
474.413965	28829.910183
474.784393	28321.817328
475.154761	28803.701225
475.525070	28609.833571
475.895321	28038.766622
476.265513	28272.461912
476.635645	28770.628735
477.005719	28407.801769
477.375734	28525.968936
477.745691	28791.927610
478.115588	29536.410251
478.485427	30718.941435
478.855207	32902.252563
479.224928	34569.939352
479.594591	35492.601576
479.964194	34414.122328
480.333739	34191.157134
480.703226	33867.411714
481.072653	33979.698374
481.442022	33999.976416
481.811333	33861.863924
482.180584	32576.641915
482.549777	31870.784595
482.918912	31173.255261
483.287988	30637.625103
483.657005	29744.511602
484.025964	28994.962602
484.394864	28654.203287
484.763706	28054.184991
485.132489	27169.346545
485.501213	26749.862051
485.869879	26525.568513
486.238487	25946.032426
486.607036	25739.768575
486.975527	25105.777944
487.343959	24916.021352
487.712333	24628.617609
488.080648	24258.443162
488.448905	24181.547922
488.817104	23753.284258
489.185244	23927.214148
489.553326	24472.780420
489.921350	25566.990589
490.289315	26818.729254
490.657222	26792.139688
491.025070	26576.942912
491.392861	25692.117069
491.760593	24626.364213
492.128267	23398.147573
492.495883	22295.410292
492.863440	21315.790592
493.230939	20391.621063
493.598380	19591.597509
493.965763	19140.784765
494.333088	18500.442280
494.700354	18009.413731
495.067563	17588.812621
495.434713	17237.466883
495.801805	16976.660268
496.168839	16546.783436
496.535815	16159.214487
496.902733	15892.734054
497.269593	15479.109901
497.636395	15196.911150
498.003139	15063.219750
498.369825	14629.715807
498.736453	14465.727073
499.103023	14071.748297
499.469535	13788.553918
499.835989	13562.125452
500.202385	13214.623593
500.568723	12983.519457
500.935003	12770.606324
501.301226	12474.100779
501.667390	12406.103175
502.033497	12238.797361
502.399546	11864.511853
502.765537	11472.670526
503.131470	11335.510812
503.497345	11206.757222
503.863163	10690.202791
504.228923	10608.374781
504.594625	10479.777467
504.960269	10132.071443
505.325856	10058.299197
505.691385	9747.471733
506.056856	9571.842974
506.422270	9450.504922
506.787625	9193.698463
507.152924	9036.714411
507.518164	8868.715439
507.883347	8549.867499
508.248472	8414.978825
508.613540	8310.203484
508.978550	8185.036675
509.343503	7971.861402
509.708398	7837.217224
510.073236	7741.450424
510.438016	7580.133501
510.802738	7352.026331
511.167403	7269.013651
511.532010	7143.829198
511.896561	7029.440376
512.261053	6981.468756
512.625488	6782.388549
512.989866	6624.469364
513.354186	6473.234748
513.718449	6334.958419
514.082655	6271.220590
514.446803	6116.938598
514.810894	6043.917484
515.174927	5910.919243
515.538904	5783.836795
515.902822	5721.558381
516.266684	5573.928190
516.630488	5490.534903
516.994235	5382.805445
517.357925	5315.185928
517.721558	5228.588987
518.085133	5151.045959
518.448651	5063.934820
518.812112	4965.077793
519.175516	4881.838261
519.538863	4817.923992
519.902152	4735.077670
520.265385	4681.656562
520.628560	4607.191158
520.991678	4522.353580
521.354739	4464.990291
521.717743	4414.782919
522.080690	4343.155685
522.443580	4304.679078
522.806413	4246.794029
523.169189	4185.362528
523.531908	4136.682626
523.894569	4083.195984
524.257174	4036.451885
524.619722	3991.895646
524.982213	3949.489460
525.344647	3901.459867
525.707025	3861.959906
526.069345	3829.141994
526.431608	3793.569092
526.793815	3760.877210
527.155964	3712.199828
527.518057	3684.057587
527.880093	3646.037204
528.242072	3633.081439
528.603995	3592.641303
528.965860	3565.872776
529.327669	3541.771019
529.689421	3514.468130
530.051117	3492.087928
530.412755	3471.346100
530.774337	3449.331381
531.135862	3427.127619
531.497331	3407.986358
531.858743	3383.125908
532.220098	3374.709702
532.581396	3350.461752
532.942638	3328.255469
533.303824	3321.979232
533.664953	3305.958445
534.026025	3285.385497
534.387040	3278.317799
534.747999	3266.090480
535.108902	3259.597474
535.469748	3237.265162
535.830537	3226.497258
536.191270	3221.703121
536.551947	3205.795760
536.912567	3197.124975
537.273131	3191.665405
537.633638	3172.781243
537.994089	3166.109276
538.354483	3153.735764
538.714821	3157.602329
539.075103	3150.963129
539.435328	3141.044659
539.795497	3132.225160
540.155609	3126.977319
540.515665	3124.572689
540.875665	3108.645163
541.235609	3105.285234
541.595496	3097.158894
541.955328	3101.549739
542.315102	3085.105495
542.674821	3075.570153
543.034483	3070.861715
543.394090	3066.521282
543.753640	3061.200344
544.113134	3067.486663
544.472571	3051.085269
544.831953	3056.202040
545.191278	3044.299876
545.550548	3036.775953
545.909761	3036.944832
546.268918	3034.497352
546.628019	3033.116076
546.987064	3024.215919
547.346053	3009.193280
547.704986	3016.994466
548.063863	3009.352077
548.422684	3004.615913
548.781449	2999.252125
549.140158	2999.148781
549.498811	2993.164932
549.857408	2980.725884
550.215949	2991.062770
550.574434	2984.189157
550.932864	2977.862509
551.291237	2978.986686
551.649555	2976.440904
552.007817	2972.498721
552.366022	2971.402270
552.724173	2964.352217
553.082267	2965.788946
553.440305	2969.020325
553.798288	2959.439612
554.156215	2958.413738
554.514086	2957.942390
554.871902	2950.027778
555.229661	2951.552727
555.587365	2943.181891
555.945014	2944.989145
556.302606	2938.150820
556.660143	2939.378341
557.017625	2938.755758
557.375050	2931.529264
557.732421	2935.075716
558.089735	2934.743000
558.446994	2930.102618
558.804197	2933.054213
559.161345	2929.054058
559.518437	2917.915628
559.875474	2919.185999
560.232455	2917.711461
560.589381	2918.772624
560.946251	2914.432191
561.303065	2917.318251
561.659825	2911.425143
562.016528	2907.767785
562.373177	2903.510531
562.729770	2906.421797
563.086307	2900.306878
563.442789	2901.859553
563.799216	2901.055489
564.155587	2894.668347
564.511904	2892.223388
564.868164	2895.464849
565.224370	2892.006618
565.580520	2887.711555
565.936615	2888.853376
566.292654	2883.545041
566.648638	2885.359857
567.004567	2883.971019
567.360441	2881.541183
567.716260	2877.762838
568.072023	2877.445245
568.427732	2875.605224
568.783385	2871.103473
569.138982	2872.600696
569.494525	2870.274204
569.850013	2864.585262
570.205445	2866.858822
570.560823	2862.586444
570.916145	2859.801207
571.271412	2861.144674
571.626625	2856.975640
571.981782	2854.429857
572.336884	2849.242510
572.691931	2850.192767
573.046923	2845.948116
573.401860	2843.114987
573.756743	2838.388906
574.111570	2838.862774
574.466342	2832.979747
574.821059	2834.355982
575.175722	2829.380364
575.530330	2827.331135
575.884882	2822.111020
576.239380	2821.773262
576.593823	2819.421564
576.948211	2815.595328
577.302544	2811.761531
577.656823	2807.398412
578.011047	2808.910758
578.365216	2804.257773
578.719330	2801.263328
579.073389	2795.781073
579.427394	2794.084725
579.781344	2790.855866
580.135239	2788.100875
580.489080	2787.871503
580.842866	2779.674587
581.196597	2785.542490
581.550273	2779.372117
581.903895	2775.051849
582.257463	2777.733742
582.610975	2772.130500
582.964434	2768.974738
583.317837	2765.831578
583.671186	2760.455188
584.024481	2760.803027
584.377721	2756.770104
584.730906	2755.764394
585.084037	2754.350350
585.437113	2748.628641
585.790135	2746.299628
586.143103	2742.647312
586.496016	2740.416601
586.848874	2731.919736
587.201679	2734.397463
587.554428	2726.389591
587.907124	2728.779097
588.259765	2721.177037
588.612352	2726.286247
588.964884	2719.775597
589.317362	2718.059084
589.669786	2718.769887
590.022155	2710.008361
590.374470	2715.682180
590.726731	2710.126828
591.078937	2703.525437
591.431090	2705.330170
591.783188	2700.263811
592.135232	2695.109231
592.487222	2693.687626
592.839157	2695.530167
593.191038	2688.200330
593.542866	2686.297294
593.894639	2681.735050
594.246358	2681.460307
594.598022	2679.305214
594.949633	2672.978566
595.301190	2674.294307
595.652692	2673.157527
596.004141	2673.018895
596.355535	2669.268276
596.706876	2664.295178
597.058162	2662.230826
597.409395	2662.319046
597.760573	2663.173521
598.111698	2657.018272
598.462768	2655.374856
598.813785	2653.880154
599.164748	2650.953764
599.515657	2650.560554
599.866511	2648.110554
600.217312	2650.142139
600.568060	2644.967394
600.918753	2648.503764
601.269392	2644.473361
601.619978	2643.462610
601.970510	2643.828093
602.320988	2642.613175
602.671412	2643.520583
603.021783	2641.476395
603.372100	2638.118987
603.722363	2636.684778
604.072572	2636.468009
604.422728	2638.434059
604.772830	2633.458440
605.122878	2631.177318
605.472872	2629.478449
605.822813	2627.903088
606.172701	2631.857874
606.522534	2632.649335
606.872314	2634.320477
607.222041	2632.198152
607.571714	2632.089767
607.921333	2629.455764
608.270899	2629.866618
608.620411	2630.045579
608.969870	2629.609519
609.319276	2626.403345
609.668627	2626.710856
610.017926	2628.558438
610.367171	2630.411062
610.716362	2627.507358
611.065500	2627.527522
611.414585	2629.032307
611.763616	2628.656741
612.112594	2628.601288
612.461518	2628.165228
612.810389	2623.907974
613.159207	2627.104066
613.507971	2624.283540
613.856682	2627.696401
614.205340	2625.982409
614.553945	2631.467184
614.902496	2624.139867
615.250994	2627.192286
615.599439	2627.388891
615.947830	2628.082049
616.296169	2626.620115
616.644454	2627.285547
616.992686	2628.583644
617.340864	2630.542132
617.688990	2628.697070
618.037063	2630.373254
618.385082	2627.676237
618.733048	2630.365692
619.080961	2628.908799
619.428821	2629.133130
619.776628	2631.381485
620.124382	2628.946607
620.472083	2626.143726
620.819731	2631.855353
621.167326	2623.113992
621.514868	2627.517440
621.862357	2623.645834
622.209793	2620.961420
622.557176	2618.604680
622.904506	2615.774072
623.251783	2616.041253
623.599007	2614.922117
623.946179	2607.912393
624.293297	2610.231324
624.640363	2611.083279
624.987376	2609.699482
625.334336	2603.498863
625.681243	2607.874584
626.028097	2604.192021
626.374899	2605.122114
626.721647	2604.297886
627.068343	2600.574993
627.414987	2600.572473
627.761577	2601.116917
628.108115	2600.448965
628.454600	2595.644745
628.801032	2599.218923
629.147412	2599.997781
629.493739	2599.987699
629.840014	2596.007708
630.186236	2597.217585
630.532405	2593.247676
630.878521	2593.366143
631.224585	2593.509816
631.570597	2591.221132
631.916556	2591.891606
632.262462	2593.408993
632.608316	2590.898499
632.954117	2590.122161
633.299866	2589.486976
633.645562	2589.618046
633.991206	2587.195771
634.336797	2585.569999
634.682336	2586.316090
635.027823	2584.768456
635.373257	2586.046388
635.718639	2582.951120
636.063968	2580.609504
636.409245	2575.931313
636.754470	2579.066911
637.099642	2576.264029
637.444762	2574.572722
637.789829	2574.665983
638.134845	2574.083730
638.479808	2573.141034
638.824719	2571.958884
639.169577	2569.813873
639.514383	2569.786146
639.859137	2568.115004
640.203839	2567.631053
640.548489	2565.014694
640.893086	2565.251628
641.237632	2561.158212
641.582125	2562.693243
641.926566	2560.840619
642.270955	2565.599468
642.615292	2563.711556
642.959576	2565.627194
643.303809	2564.941597
643.647990	2562.781463
643.992118	2563.635939
644.336195	2563.615774
644.680219	2563.638459
645.024192	2561.947152
645.368112	2566.879921
645.711981	2568.228430
646.055797	2566.940415
646.399562	2566.884962
646.743274	2572.979717
647.086935	2573.178843
647.430544	2571.419480
647.774101	2572.616754
648.117606	2572.896538
648.461059	2572.788153
648.804460	2572.319326
649.147810	2570.305385
649.491108	2569.334963
649.834354	2567.046279
650.177548	2565.070147
650.520690	2561.453119
650.863781	2559.794579
651.206820	2563.761968
651.549807	2559.655948
651.892742	2558.975392
652.235626	2557.826009
652.578458	2557.468087
652.921238	2551.365770
653.263967	2553.044474
653.606644	2555.141594
653.949269	2552.678991
654.291843	2550.533980
654.634365	2552.666388
654.976836	2550.654967
655.319255	2552.391645
655.661622	2549.230842
656.003938	2548.890564
656.346203	2548.782179
656.688416	2548.948537
657.030577	2547.985677
657.372687	2547.516849
657.714746	2549.424926
658.056753	2548.769576
658.398708	2542.861344
658.740612	2547.347971
659.082465	2541.787578
659.424266	2544.645912
659.766016	2541.550644
660.107715	2547.174051
660.449362	2546.117929
660.790958	2542.831097
661.132503	2547.292518
661.473996	2545.346632
661.815438	2546.312013
662.156829	2546.775800
662.498168	2546.793444
662.839456	2547.388300
663.180693	2548.759494
663.521879	2543.367980
663.863013	2545.848227
664.204097	2546.256561
664.545129	2548.028526
664.886110	2547.602549
665.227040	2550.206305
665.567918	2546.274205
665.908746	2548.164638
666.249522	2549.215718
666.590248	2545.187836
666.930922	2550.143290
667.271545	2548.484751
667.612118	2549.314021
667.952639	2546.039791
668.293109	2548.096582
668.633528	2547.680687
668.973896	2546.599359
669.314213	2547.715975
669.654480	2546.914431
669.994695	2548.207487
670.334859	2545.588608
670.674973	2544.111550
671.015035	2544.958464
671.355047	2546.546427
671.695008	2546.364946
672.034918	2543.733463
672.374777	2545.097095
672.714585	2545.825542
673.054342	2545.994421
673.394049	2544.282949
673.733705	2546.375028
674.073310	2543.647764
674.412864	2547.746222
674.752368	2539.324974
675.091820	2545.432332
675.431223	2541.850592
675.770574	2541.084337
676.109875	2536.658204
676.449125	2536.033101
676.788324	2536.151568
677.127473	2535.014788
677.466571	2532.247194
677.805619	2533.653676
678.144616	2535.881866
678.483562	2536.166691
678.822458	2531.112935
679.161303	2532.892462
679.500098	2531.768285
679.838842	2532.723583
680.177535	2531.223840
680.516179	2533.434386
680.854771	2533.303316
681.193314	2537.358924
681.531805	2538.162988
681.870247	2545.142466
682.208638	2547.211859
682.546978	2546.790923
682.885268	2547.257230
683.223508	2547.597508
683.561697	2545.190357
683.899836	2543.862013
684.237925	2541.258257
684.575963	2541.089378
684.913951	2540.464275
685.251889	2543.688093
685.589776	2540.449152
685.927614	2537.154758
686.265401	2538.049562
686.603137	2543.408309
686.940824	2543.567105
687.278460	2547.600028
687.616046	2543.927548
687.953582	2549.440049
688.291068	2545.470141
688.628504	2547.269833
688.965889	2547.910059
689.303224	2545.049204
689.640510	2545.402085
689.977745	2544.056097
690.314930	2542.654656
690.652065	2537.432021
690.989150	2535.299613
691.326185	2532.824406
691.663170	2529.920702
692.000105	2529.129241
692.336990	2525.229908
692.673825	2523.762932
693.010610	2521.196985
693.347345	2516.546521
693.684030	2510.729029
694.020665	2512.621982
694.357251	2506.169305
694.693786	2509.766169
695.030272	2506.905314
695.366707	2508.089985
695.703093	2505.778616
696.039429	2504.571260
696.375716	2508.178205
696.711952	2506.494460
697.048139	2505.133348
697.384276	2507.391785
697.720363	2507.429594
698.056400	2502.650580
698.392388	2503.623523
698.728326	2504.183091
699.064214	2504.667042
699.400053	2502.484222
699.735842	2500.359376
700.071581	2498.267297
700.407270	2498.650424
700.742910	2501.019767
701.078501	2498.504231
701.414042	2497.357368
701.749533	2493.669764
702.084974	2492.391832
702.420366	2495.638335
702.755709	2494.423417
703.091002	2489.588950
703.426246	2492.018787
703.761440	2491.754126
704.096584	2489.447798
704.431679	2490.468632
704.766725	2494.413335
705.101721	2489.233549
705.436668	2489.258755
705.771565	2487.368322
706.106413	2492.008704
706.441212	2488.631131
706.775961	2490.420741
707.110661	2492.248159
707.445311	2490.745895
707.779913	2491.411327
708.114465	2491.953252
708.448967	2492.759836
708.783421	2495.857625
709.117825	2497.821155
709.452180	2500.923985
709.786485	2498.204282
710.120742	2501.554129
710.454949	2506.648215
710.789107	2503.225272
711.123216	2503.066475
711.457275	2505.211486
711.791286	2507.225427
712.125247	2508.470592
712.459159	2509.776251
712.793023	2512.697600
713.126837	2506.892711
713.460602	2510.678618
713.794318	2505.864316
714.127985	2507.225427
714.461602	2503.696619
714.795171	2506.035715
715.128691	2494.748571
715.462162	2498.922647
715.795584	2496.825527
716.128957	2497.342245
716.462281	2494.166318
716.795556	2493.084991
717.128782	2490.040134
717.461960	2490.413179
717.795088	2485.951758
718.128167	2486.060143
718.461198	2484.820019
718.794180	2487.612818
719.127113	2480.522435
719.459997	2481.618886
719.792833	2483.345481
720.125619	2480.396406
720.458357	2478.886581
720.791046	2479.743577
721.123686	2477.422126
721.456278	2476.799543
721.788821	2476.003041
722.121315	2472.691003
722.453761	2476.033288
722.786158	2477.228041
723.118506	2473.573205
723.450805	2478.359780
723.783056	2477.991776
724.115259	2475.705613
724.447412	2476.781899
724.779518	2476.741570
725.111574	2476.134111
725.443582	2478.858854
725.775542	2480.466982
726.107453	2479.473875
726.439315	2479.161324
726.771129	2485.067035
727.102895	2482.680049
727.434612	2484.215080
727.766281	2484.779690
728.097901	2483.960502
728.429473	2482.838845
728.760996	2483.650471
729.092471	2482.460759
729.423897	2485.694659
729.755276	2484.608290
730.086606	2490.682881
730.417887	2488.731954
730.749120	2491.013076
731.080305	2491.199599
731.411442	2492.548108
731.742530	2494.539363
732.073570	2495.497183
732.404562	2496.318891
732.735506	2496.868377
733.066401	2491.192037
733.397249	2492.958962
733.728048	2487.990905
734.058798	2487.670791
734.389501	2483.509319
734.720156	2479.862044
735.050762	2478.211066
735.381320	2477.167547
735.711831	2477.081848
736.042293	2474.672176
736.372707	2476.842393
736.703073	2471.024901
737.033391	2473.220324
737.363661	2472.428863
737.693883	2475.587146
738.024056	2478.742908
738.354182	2478.561426
738.684260	2477.888432
739.014290	2478.949595
739.344272	2479.806591
739.674207	2479.652836
740.004093	2481.104688
740.333931	2483.746253
740.663722	2482.548979
740.993464	2482.768269
741.323159	2478.793319
741.652806	2481.097127
741.982405	2479.645274
742.311956	2478.127887
742.641460	2477.812815
742.970915	2477.694348
743.300323	2474.299131
743.629683	2469.920889
743.958996	2473.827783
744.288260	2473.371558
744.617477	2467.047431
744.946647	2463.863942
745.275768	2466.291258
745.604842	2460.766153
745.933869	2465.736731
746.262847	2460.083077
746.591778	2464.373099
746.920662	2464.332770
747.249498	2467.904427
747.578286	2466.744962
747.907027	2467.571711
748.235720	2469.903245
748.564365	2471.040025
748.892963	2467.125569
749.221514	2470.455251
749.550017	2467.387709
749.878473	2468.403501
750.206881	2466.288737
750.535242	2467.047431
750.863555	2463.327059
751.191821	2466.707153
751.520039	2464.105918
751.848210	2461.373612
752.176334	2466.896196
752.504411	2464.915023
752.832440	2464.907461
753.160421	2464.970476
753.488356	2463.997533
753.816243	2464.234467
754.144082	2461.557614
754.471875	2463.296813
754.799620	2462.792697
755.127318	2463.679940
755.454969	2461.895372
755.782572	2462.583489
756.110129	2462.248252
756.437638	2463.962245
756.765100	2459.596606
757.092515	2461.683643
757.419882	2465.736731
757.747203	2464.113479
758.074477	2460.531740
758.401703	2464.448716
758.728882	2463.448047
759.056014	2465.903089
759.383099	2464.864611
759.710138	2466.376958
760.037129	2466.520630
760.364073	2467.745631
760.690970	2465.547688
761.017820	2468.267390
761.344623	2466.470219
761.671379	2471.345015
761.998088	2470.064562
762.324751	2480.041005
762.651366	2493.011894
762.977935	2516.995183
763.304456	2523.157994
763.630931	2530.825589
763.957359	2525.872655
764.283740	2517.113650
764.610074	2507.570746
764.936362	2496.959117
765.262602	2488.507623
765.588796	2477.185191
765.914943	2471.859212
766.241044	2467.959880
766.567097	2463.453088
766.893104	2459.795731
767.219064	2459.888992
767.544978	2456.496296
767.870845	2451.893723
768.196665	2455.830864
768.522438	2452.334823
768.848165	2452.284412
769.173846	2452.649896
769.499479	2450.474638
769.825066	2450.207457
770.150607	2448.329627
770.476101	2444.994903
770.801548	2450.167127
771.126949	2447.591098
771.452303	2446.865172
771.777611	2445.539348
772.102872	2444.357198
772.428087	2447.850717
772.753256	2442.991045
773.078378	2443.830397
773.403453	2443.502722
773.728482	2442.071034
774.053465	2442.696137
774.378401	2440.921651
774.703291	2440.725046
775.028135	2440.465427
775.352932	2441.299738
775.677683	2440.127669
776.002388	2440.944336
776.327046	2437.029880
776.651658	2441.072886
776.976224	2438.320416
777.300743	2439.736980
777.625216	2437.216403
777.949643	2437.055086
778.274024	2439.658842
778.598359	2430.672985
778.922647	2433.773295
779.246889	2431.356062
779.571086	2433.276741
779.895236	2439.043821
780.219339	2436.553491
780.543397	2434.567277
780.867409	2439.663883
781.191374	2439.036260
781.515294	2436.455189
781.839167	2438.330498
782.162995	2439.779830
782.486776	2438.002823
782.810511	2437.108018
783.134201	2437.927206
783.457844	2437.690272
783.781441	2438.423759
784.104993	2438.040632
784.428498	2436.016608
784.751958	2435.799839
785.075372	2436.611465
785.398739	2436.165323
785.722061	2434.867225
786.045337	2434.534509
786.368568	2438.234716
786.691752	2434.784046
787.014891	2439.119439
787.337983	2438.234716
787.661030	2440.538523
787.984031	2444.989862
788.306987	2448.072528
788.629897	2446.902980
788.952760	2449.262240
789.275579	2448.294339
789.598351	2446.522373
789.921078	2444.936930
790.243759	2437.188677
790.566395	2441.511466
790.888984	2442.252516
791.211529	2441.619851
791.534027	2435.089036
791.856480	2433.160795
792.178888	2437.476022
792.501249	2435.787236
792.823566	2435.502411
793.145836	2434.100970
793.468062	2434.295054
793.790241	2435.162133
794.112375	2435.484767
794.434464	2435.976279
794.756507	2433.478387
795.078505	2434.537030
795.400457	2438.600200
795.722364	2435.762030
796.044226	2437.813780
796.366042	2437.937288
796.687812	2439.089192
797.009538	2442.403750
797.331218	2442.892742
797.652852	2438.869902
797.974442	2439.880653
798.295986	2440.205807
798.617484	2437.952412
798.938938	2440.788061
799.260346	2441.062803
799.581709	2436.170364
799.903026	2434.300096
800.224299	2434.617688
800.545526	2434.957966
800.866708	2434.809252
801.187845	2436.568615
801.508936	2435.913265
801.829983	2434.055600
802.150984	2434.549633
802.471940	2432.792791
802.792851	2431.892945
803.113717	2434.468974
803.434538	2429.783222
803.755314	2432.951587
804.076045	2433.004519
804.396731	2430.678027
804.717372	2432.102153
805.037967	2430.877152
805.358518	2431.766916
805.679024	2431.000660
805.999485	2432.558377
806.319901	2432.583583
806.640272	2432.308840
806.960598	2434.922678
807.280879	2431.456885
807.601115	2433.508634
807.921306	2432.518048
808.241453	2432.074426
808.561554	2431.966041
808.881611	2433.473346
809.201623	2433.140630
809.521590	2433.516196
809.841513	2430.678027
810.161390	2432.296237
810.481223	2433.284303
810.801011	2433.959818
811.120755	2432.011412
811.440453	2434.320260
811.760107	2432.223140
812.079716	2427.784404
812.399281	2425.989753
812.718801	2429.395053
813.038276	2423.063364
813.357707	2430.834302
813.677093	2431.406473
813.996434	2429.800866
814.315731	2430.282296
814.634983	2430.627615
814.954191	2432.225661
815.273354	2430.554518
815.592473	2432.744900
815.911547	2434.990734
816.230577	2433.589293
816.549562	2437.173553
816.868502	2434.340425
817.187399	2437.738162
817.506250	2436.540888
817.825058	2439.404264
818.143821	2438.922834
818.462539	2441.670262
818.781213	2440.893925
819.099843	2447.815429
819.418429	2452.130657
819.736970	2459.629373
820.055466	2466.744962
820.373919	2474.551188
820.692327	2491.968375
821.010691	2512.735408
821.329011	2573.647670
821.647286	2659.125475
821.965517	2750.529156
822.283704	2807.448824
822.601847	2824.069508
822.919945	2786.349074
823.237999	2742.685120
823.556010	2697.327339
823.873976	2654.424599
824.191897	2614.478496
824.509775	2584.435739
824.827609	2557.218550
825.145398	2539.839172
825.463144	2533.126876
825.780845	2535.158461
826.098502	2548.288146
826.416116	2567.479818
826.733685	2586.729464
827.051210	2593.643407
827.368692	2584.148394
827.686129	2559.045968
828.003522	2536.582587
828.320872	2511.384379
828.638177	2498.030362
828.955439	2483.063177
829.272656	2470.430045
829.589830	2461.416462
829.906960	2455.790534
830.224046	2451.931531
830.541088	2449.000100
830.858086	2443.525407
831.175041	2442.131528
831.491952	2443.653957
831.808819	2441.645057
832.125642	2443.966508
832.442421	2451.205605
832.759157	2465.381330
833.075849	2480.353557
833.392497	2498.988182
833.709101	2513.504184
834.025662	2508.987310
834.342179	2499.220075
834.658653	2486.289515
834.975083	2475.211580
835.291469	2473.104377
835.607811	2456.965123
835.924110	2453.496809
836.240366	2449.365584
836.556578	2441.798812
836.872746	2439.132042
837.188871	2434.048038
837.504952	2432.765064
837.820990	2429.488314
838.136984	2431.126689
838.452935	2428.780032
838.768842	2429.518561
839.084706	2428.994281
839.400526	2441.703030
839.716303	2448.294339
840.032037	2455.747685
840.347727	2455.074691
840.663373	2448.599328
840.978977	2441.632454
841.294537	2438.814449
841.610054	2432.989396
841.925527	2434.821855
842.240957	2428.764909
842.556344	2426.957655
842.871687	2425.286513
843.186987	2421.694690
843.502244	2421.757705
843.817458	2418.117992
844.132629	2417.971798
844.447756	2419.910122
844.762840	2411.652712
845.077881	2416.605646
845.392879	2412.124060
845.707833	2416.038516
846.022745	2412.469379
846.337613	2415.204205
846.652438	2415.788979
846.967221	2414.314441
847.281960	2417.936510
847.596656	2412.522311
847.911309	2415.393248
848.225919	2415.889802
848.540485	2413.898546
848.855009	2415.297466
849.169490	2414.190933
849.483928	2412.189595
849.798323	2413.918711
850.112675	2413.822929
850.426984	2414.846283
850.741251	2415.851993
851.055474	2414.110274
851.369654	2414.211098
851.683792	2414.594225
851.997887	2413.351581
852.311938	2413.611200
852.625947	2414.551375
852.939914	2412.769328
853.253837	2416.129257
853.567718	2413.293607
853.881555	2413.638927
854.195350	2412.081210
854.509103	2412.918042
854.822812	2415.544483
855.136479	2412.918042
855.450103	2410.699934
855.763685	2416.668660
856.077224	2416.406520
856.390720	2411.657753
856.704173	2412.930644
857.017584	2413.805285
857.330953	2416.194792
857.644278	2413.853176
857.957561	2418.276788
858.270802	2414.183371
858.584000	2414.740419
858.897155	2415.849473
859.210268	2415.100861
859.523339	2415.642785
859.836367	2411.801426
860.149352	2416.005748
860.462295	2416.575399
860.775195	2409.114491
861.088054	2411.173802
861.400869	2414.044739
861.713642	2409.842938
862.026373	2416.209915
862.339062	2418.493558
862.651708	2415.751170
862.964312	2415.544483
863.276873	2412.550037
863.589392	2415.703279
863.901869	2416.083886
864.214303	2416.719072
864.526696	2413.991807
864.839045	2417.571027
865.151353	2420.510019
865.463619	2416.300656
865.775842	2416.459452
866.088023	2416.547672
866.400162	2415.509195
866.712258	2414.939544
867.024313	2415.536921
867.336325	2414.445511
867.648296	2415.846952
867.960224	2415.733526
868.272110	2416.552713
868.583954	2417.119843
868.895755	2416.250244
869.207515	2417.074473
869.519233	2415.715882
869.830909	2419.683270
870.142542	2416.678742
870.454134	2417.170255
870.765684	2419.461459
871.077191	2420.479772
871.388657	2420.215112
871.700081	2419.229566
872.011463	2418.806109
872.322803	2417.984401
872.634101	2420.643610
872.945357	2420.394073
873.256571	2419.829463
873.567744	2420.633528
873.878874	2419.741243
874.189963	2420.414237
874.501010	2420.167221
874.812015	2420.540266
875.122979	2422.198806
875.433900	2423.365833
875.744780	2422.655030
876.055618	2422.377767
876.366415	2421.833322
876.677169	2420.474731
876.987882	2422.014804
877.298554	2419.690832
877.609183	2422.501275
877.919771	2422.597057
878.230317	2424.744588
878.540822	2431.288006
878.851285	2434.030394
879.161707	2435.464602
879.472087	2446.434153
879.782425	2454.442026
880.092722	2475.927423
880.402977	2508.276508
880.713191	2543.365459
881.023363	2582.683938
881.333494	2603.077926
881.643583	2611.103443
881.953631	2603.241764
882.263637	2596.993254
882.573602	2581.108578
882.883526	2564.044272
883.193408	2552.149670
883.503248	2535.148378
883.813048	2520.632376
884.122806	2508.155520
884.432522	2498.849550
884.742197	2481.591160
885.051831	2474.548668
885.361424	2467.236474
885.670975	2458.364043
885.980485	2452.972529
886.289954	2446.519852
886.599382	2443.906014
886.908768	2439.401743
887.218113	2435.404108
887.527417	2433.891762
887.836680	2431.237595
888.145901	2429.153077
888.455082	2425.944383
888.764221	2426.992943
889.073319	2424.532860
889.382376	2425.752819
889.691392	2424.222829
890.000366	2425.190731
890.309300	2424.220308
890.618193	2425.538570
890.927044	2423.932963
891.235855	2427.076122
891.544625	2424.076636
891.853353	2423.431368
892.162041	2424.754671
892.470687	2425.725093
892.779293	2428.560742
893.087858	2434.214396
893.396381	2432.941505
893.704864	2444.021961
894.013306	2452.264247
894.321707	2467.687658
894.630068	2476.086220
894.938387	2475.725777
895.246665	2474.775520
895.554903	2470.412401
895.863100	2461.139199
896.171256	2459.831019
896.479371	2452.498661
896.787446	2449.524380
897.095480	2442.973401
897.403473	2441.365273
897.711425	2438.136414
898.019336	2439.835282
898.327207	2435.885538
898.635038	2431.976124
898.942827	2428.447316
899.250576	2427.789445
899.558284	2427.116451
899.865952	2425.891451
900.173579	2424.444640
900.481165	2423.408683
900.788711	2423.280133
901.096216	2422.256779
901.403681	2421.485482
901.711105	2422.476069
902.018489	2421.024217
902.325832	2421.530853
902.633135	2422.947417
902.940397	2424.464804
903.247619	2434.461413
903.554800	2451.286263
903.861941	2466.692030
904.169041	2483.058136
904.476101	2489.911584
904.783121	2485.528301
905.090100	2475.292238
905.397039	2470.286372
905.703938	2461.348407
906.010796	2456.564352
906.317614	2448.236365
906.624391	2443.648915
906.931129	2438.897628
907.237826	2437.349994
907.544483	2428.838005
907.851099	2427.910433
908.157675	2426.723241
908.464211	2421.782911
908.770707	2415.199164
909.077163	2415.978022
909.383578	2410.173133
909.689954	2411.917373
909.996289	2410.946950
910.302584	2412.880233
910.608839	2414.493402
910.915054	2412.807136
911.221229	2412.479461
911.527363	2414.639596
911.833458	2412.320665
912.139513	2414.102713
912.445527	2412.113977
912.751502	2417.026582
913.057436	2416.139339
913.363331	2417.339133
913.669186	2419.867272
913.975000	2422.962541
914.280775	2426.564445
914.586510	2431.814807
914.892205	2442.378545
915.197859	2451.480348
915.503475	2466.815538
915.809050	2477.709471
916.114585	2487.446460
916.420081	2486.317242
916.725536	2486.670122
917.030952	2480.837507
917.336328	2477.873309
917.641665	2472.953143
917.946961	2465.595579
918.252218	2463.092646
918.557435	2457.877572
918.862612	2454.487396
919.167750	2446.955912
919.472848	2444.397527
919.777906	2438.028029
920.082925	2436.407298
920.387904	2430.670465
920.692843	2429.223654
920.997743	2425.687284
921.302603	2423.413724
921.607423	2422.367684
921.912204	2421.913981
922.216946	2422.410534
922.521647	2419.282498
922.826310	2419.050605
923.130932	2413.338978
923.435516	2413.434760
923.740059	2414.516087
924.044564	2412.232445
924.349028	2412.766807
924.653454	2406.356980
924.957840	2409.172464
925.262186	2408.156672
925.566493	2410.284039
925.870761	2405.346228
926.174989	2410.725140
926.479178	2408.461662
926.783328	2406.336815
927.087438	2407.997875
927.391509	2408.948133
927.695541	2408.786816
927.999533	2407.642474
928.303486	2405.815056
928.607400	2408.388565
928.911275	2409.202711
929.215110	2406.389747
929.518906	2407.876888
929.822663	2403.014695
930.126381	2406.626682
930.430060	2408.045766
930.733699	2408.212124
931.037299	2407.380334
931.340861	2405.530231
931.644383	2406.273801
931.947866	2406.573749
932.251309	2404.675755
932.554714	2407.377813
932.858080	2405.217679
933.161407	2406.079716
933.464694	2404.895045
933.767943	2406.430077
934.071153	2406.876219
934.374323	2405.714233
934.677455	2406.477967
934.980548	2405.701630
935.283602	2407.574418
935.586617	2405.449572
935.889593	2407.428225
936.192530	2405.419325
936.495428	2407.304717
936.798287	2407.942423
937.101108	2404.965621
937.403890	2410.876374
937.706632	2407.672721
938.009336	2410.145407
938.312002	2412.678587
938.614628	2410.710016
938.917216	2411.962743
939.219765	2415.161355
939.522275	2412.560120
939.824747	2415.894843
940.127179	2408.998544
940.429573	2411.751014
940.731929	2407.750859
941.034246	2403.952349
941.336524	2412.396282
941.638763	2409.358987
941.940964	2410.276477
942.243126	2411.118350
942.545250	2410.102557
942.847335	2409.326219
943.149381	2410.205901
943.451389	2408.396127
943.753359	2408.053328
944.055290	2410.999883
944.357182	2410.284039
944.659036	2408.050807
944.960851	2409.623648
945.262628	2406.750190
945.564367	2406.770354
945.866067	2406.351939
946.167729	2407.478637
946.469352	2409.353946
946.770937	2404.138872
947.072484	2407.440828
947.373992	2408.222207
947.675462	2407.186250
947.976893	2408.869995
948.278286	2406.858575
948.579641	2407.702968
948.880958	2407.092988
949.182236	2407.768503
949.483476	2404.607699
949.784678	2406.374624
950.085841	2402.016546
950.386967	2406.074675
950.688054	2405.686506
950.989103	2408.882598
951.290114	2408.620458
951.591087	2407.725653
951.892021	2406.077196
952.192917	2410.710016
952.493776	2409.953843
952.794596	2408.116342
953.095378	2409.966446
953.396122	2409.384193
953.696828	2406.921589
953.997496	2407.778585
954.298126	2407.788667
954.598718	2406.321692
954.899272	2406.241033
955.199788	2405.696589
955.500266	2407.360169
955.800706	2407.203894
956.101108	2400.607544
956.401472	2405.837741
956.701798	2401.590569
957.002087	2402.533265
957.302337	2404.269942
957.602550	2405.124418
957.902724	2403.249108
958.202861	2406.649367
958.502960	2400.489077
958.803022	2403.881773
959.103045	2403.768347
959.403031	2403.281876
959.702979	2401.905641
960.002889	2406.581311
960.302762	2400.668038
960.602596	2400.935219
960.902393	2401.482184
961.202153	2402.044273
961.501875	2399.392626
961.801559	2399.750548
962.101205	2401.903120
962.400814	2401.787174
962.700385	2402.692061
962.999918	2402.699623
963.299414	2397.459343
963.598873	2401.802297
963.898293	2399.085115
964.197677	2401.973697
964.497022	2400.733573
964.796331	2399.513613
965.095601	2399.178377
965.394835	2402.429921
965.694030	2398.976731
965.993189	2400.869684
966.292309	2400.063099
966.591393	2400.617626
966.890439	2402.838254
967.189447	2400.242060
967.488419	2398.548233
967.787353	2398.071843
968.086249	2400.017729
968.385108	2397.434137
968.683930	2401.595610
968.982714	2400.864643
969.281462	2399.289282
969.580172	2397.688716
969.878844	2400.317678
970.177480	2397.272821
970.476078	2402.039232
970.774639	2404.098543
971.073162	2401.787174
971.371649	2401.308264
971.670098	2399.148130
971.968510	2396.103273
972.266885	2395.261400
972.565223	2401.078892
972.863524	2399.006978
973.161788	2402.631567
973.460014	2398.936401
973.758204	2399.919426
974.056356	2400.897410
974.354471	2402.883625
974.652550	2398.765002
974.950591	2403.546537
975.248595	2401.772050
975.546563	2401.197359
975.844493	2400.940260
976.142386	2403.536454
976.440243	2396.410783
976.738062	2399.463202
977.035845	2398.807852
977.333590	2399.901782
977.631299	2401.552760
977.928971	2401.227606
978.226606	2399.584190
978.524204	2402.011505
978.821765	2402.308933
979.119290	2401.646022
979.416777	2400.536968
979.714228	2399.579148
980.011642	2402.533265
980.309020	2403.118038
980.606360	2400.234498
980.903664	2401.146947
981.200931	2399.569066
981.498162	2402.389592
981.795356	2404.471588
982.092513	2404.849675
982.389633	2407.397978
982.686717	2406.722463
982.983764	2409.663977
983.280775	2410.473082
983.577749	2413.961560
983.874686	2408.328071
984.171587	2410.531055
984.468451	2408.728843
984.765279	2407.584501
985.062070	2404.958060
985.358824	2406.755231
985.655543	2404.322874
985.952224	2404.501835
986.248869	2404.002761
986.545478	2399.478325
986.842050	2398.500342
987.138586	2397.416493
987.435086	2396.715773
987.731549	2395.858777
988.027975	2400.902451
988.324366	2397.610578
988.620719	2397.565208
988.917037	2400.478994
989.213318	2399.869015
989.509563	2399.443037
989.805772	2397.880280
990.101944	2399.322050
990.398080	2397.713922
990.694180	2397.262738
990.990244	2398.923798
991.286271	2398.437327
991.582262	2400.952863
991.878217	2397.736607
992.174136	2398.162584
992.470019	2398.880949
992.765865	2397.693757
993.061676	2400.395815
993.357450	2400.398336
993.653188	2399.904303
993.948890	2402.553429
994.244556	2399.982441
994.540186	2398.941442
994.835780	2400.332801
995.131337	2400.363048
995.426859	2402.235837
995.722345	2405.285735
996.017795	2403.937226
996.313208	2402.344221
996.608586	2405.681465
996.903928	2404.781619
997.199234	2403.412946
997.494504	2406.293965
997.789738	2404.355642
998.084936	2402.775240
998.380099	2402.762637
998.675225	2400.549571
998.970316	2399.987482
999.265371	2401.935888
999.560390	2400.965466
999.855373	2402.311454
1000.150320	2400.398336
1000.445232	2399.407749
1000.740108	2398.391957
1001.034948	2400.294992
1001.329752	2401.058727
1001.624521	2400.337842
1001.919254	2395.286606
1002.213951	2397.116545
1002.508613	2392.168652
1002.803239	2398.346586
1003.097829	2393.098745
1003.392384	2396.496483
1003.686903	2396.725855
1003.981386	2398.028994
1004.275834	2397.192162
1004.570246	2398.558315
1004.864623	2396.410783
1005.158964	2397.724004
1005.453270	2397.814745
1005.747540	2397.708880
1006.041775	2394.696791
1006.335974	2398.404560
1006.630138	2397.940773
1006.924266	2396.504045
1007.218359	2397.867677
1007.512416	2400.090826
1007.806438	2397.202244
1008.100425	2397.839950
1008.394376	2397.948335
1008.688292	2397.356000
1008.982172	2397.706360
1009.276017	2397.139230
1009.569827	2398.202913
1009.863602	2397.277862
1010.157341	2398.175187
1010.451045	2396.196534
1010.744714	2398.505383
1011.038347	2398.079405
1011.331945	2399.347255
1011.625508	2397.852553
1011.919036	2397.534961
1012.212528	2395.100083
1012.505986	2398.013870
1012.799408	2399.054868
1013.092795	2395.435320
1013.386147	2396.693088
1013.679464	2396.556977
1013.972745	2397.550084
1014.265992	2396.849364
1014.559204	2398.301216
1014.852380	2395.742830
1015.145521	2398.941442
1015.438628	2395.654610
1015.731699	2397.202244
1016.024736	2395.037069
1016.317737	2397.713922
1016.610703	2398.240722
1016.903635	2393.665875
1017.196531	2391.258724
1017.489393	2393.071019
1017.782219	2391.805689
1018.075011	2393.542367
1018.367768	2398.117214
1018.660490	2397.590413
1018.953177	2397.590413
1019.245829	2397.590413
