Dividing Wavelength (nm)	Counts (n)	Blue Motor Position (mm): 0.000000	Red Motor Position (mm): 14.600000	
326.493990	1980.850828
326.888308	1980.850828
327.282561	1980.850828
327.676750	1956.270162
328.070874	1957.656479
328.464933	1964.956070
328.858929	1971.386061
329.252859	1986.363329
329.646726	1999.082161
330.040528	2015.302073
330.434265	2035.060876
330.827938	2053.571993
331.221547	2074.359190
331.615091	2094.755699
332.008571	2114.058277
332.401986	2135.296658
332.795338	2155.113434
333.188625	2175.139418
333.581847	2194.479804
333.975006	2213.124512
334.368100	2230.534137
334.761129	2247.358988
335.154095	2261.396080
335.546996	2276.869902
335.939833	2295.154167
336.332606	2307.194963
336.725315	2318.638382
337.117960	2324.433189
337.510540	2333.330825
337.903056	2341.855416
338.295508	2346.841118
338.687896	2356.358816
339.080220	2364.139837
339.472480	2367.658562
339.864676	2372.770292
340.256807	2372.808101
340.648875	2375.071579
341.040879	2377.443442
341.432818	2376.354553
341.824694	2379.991745
342.216506	2379.782537
342.608253	2379.659029
342.999937	2378.348329
343.391557	2378.761704
343.783113	2375.046373
344.174605	2375.026209
344.566033	2371.625950
344.957397	2370.784078
345.348697	2370.070754
345.739934	2368.490353
346.131106	2365.700074
346.522215	2365.014477
346.913260	2363.308047
347.304241	2363.025742
347.695159	2362.776205
348.086012	2360.986595
348.476802	2358.556759
348.867528	2356.787314
349.258191	2351.463856
349.648789	2355.549711
350.039324	2355.002746
350.429796	2353.654237
350.820203	2349.893536
351.210548	2350.758094
351.600828	2350.730368
351.991045	2349.618793
352.381198	2350.503516
352.771288	2351.184072
353.161314	2348.388752
353.551276	2349.054184
353.941175	2351.300018
354.331010	2353.865965
354.720782	2350.662312
355.110490	2351.163907
355.500135	2348.865141
355.889717	2351.640296
356.279235	2355.529546
356.668689	2354.186079
357.058080	2354.186079
357.447408	2350.236335
357.836672	2351.668022
358.225873	2354.780935
358.615010	2351.552076
359.004084	2355.441326
359.393095	2353.911336
359.782043	2357.117510
360.170927	2358.271934
360.559748	2360.921060
360.948505	2359.171780
361.337199	2361.609178
361.725830	2361.367202
362.114398	2361.077336
362.502903	2360.268231
362.891344	2362.640094
363.279722	2363.923067
363.668037	2366.075640
364.056289	2366.085722
364.444478	2368.293748
364.832603	2366.604961
365.220665	2367.162009
365.608665	2369.085209
365.996601	2368.928933
366.384474	2370.463964
366.772284	2369.806094
367.160031	2369.095291
367.547715	2372.152751
367.935336	2373.947402
368.322893	2372.578728
368.710388	2376.483102
369.097820	2374.809439
369.485189	2376.130221
369.872495	2377.216590
370.259738	2379.820346
370.646918	2381.103320
371.034035	2381.869575
371.421090	2384.906870
371.808081	2389.307798
372.195010	2392.652603
372.581875	2395.357182
372.968678	2402.608882
373.355418	2409.706827
373.742096	2416.772004
374.128710	2428.470001
374.515262	2442.328133
374.901751	2455.193158
375.288177	2472.796867
375.674540	2488.293374
376.060841	2508.825993
376.447079	2531.881711
376.833254	2554.987839
377.219367	2582.618403
377.605417	2618.763477
377.991404	2644.687610
378.377329	2683.363342
378.763191	2714.056408
379.148991	2762.832092
379.534727	2807.090902
379.920402	2851.014475
380.306013	2902.305695
380.691563	2965.015128
381.077049	3019.015968
381.462474	3074.728280
381.847835	3144.883498
382.233134	3215.852862
382.618371	3274.415946
383.003545	3359.359388
383.388657	3434.706994
383.773706	3524.779810
384.158693	3599.116665
384.543618	3693.774411
384.928480	3770.528499
385.313280	3872.074981
385.698017	3975.569870
386.082692	4091.786110
386.467305	4156.428826
386.851856	4280.632774
387.236344	4431.017955
387.620770	4494.113037
388.005133	4616.464361
388.389435	4757.720012
388.773674	4844.352241
389.157851	4974.701356
389.541965	5105.453763
389.926018	5130.644409
390.310008	5301.015245
390.693936	5424.362197
391.077802	5537.543663
391.461606	5668.137273
391.845348	5780.960817
392.229027	5902.061935
392.612645	6119.411283
392.996200	6234.407564
393.379694	6402.822432
393.763125	6621.898375
394.146494	6717.599640
394.529801	6841.985070
394.913047	7085.853408
395.296230	7079.839311
395.679351	7126.081816
396.062410	7383.190744
396.445408	7273.588498
396.828343	7427.686488
397.211217	7558.590130
397.594028	7440.342305
397.976778	7636.329764
398.359466	7796.109135
398.742092	7765.872294
399.124656	7907.942092
399.507158	8089.562262
399.889598	8096.803880
400.271977	8298.810476
400.654294	8321.097417
401.036549	8507.935182
401.418742	8524.233232
401.800874	8799.457547
402.182944	8860.826033
402.564952	9202.089463
402.946898	9015.128191
403.328783	9047.905773
403.710606	9206.727325
404.092367	9427.076159
404.474067	9748.301003
404.855705	9509.161267
405.237282	9431.472046
405.618797	9793.537797
406.000250	9976.385488
406.381642	10252.532334
406.762972	10149.723043
407.144240	9908.279500
407.525447	10070.758409
407.906593	9949.853896
408.287677	10112.358010
408.668700	10164.627214
409.049661	10058.831039
409.430560	10111.748031
409.811399	9998.511113
410.192176	10041.504593
410.572891	10003.332976
410.953545	10298.842894
411.334138	9772.301937
411.714669	10129.807964
412.095139	9483.650508
412.475547	9754.420964
412.855894	9527.042240
413.236180	9643.762596
413.616405	9289.253534
413.996568	9363.371098
414.376670	9215.934992
414.756711	9000.357610
415.136691	9050.063387
415.516609	9025.717134
415.896466	8933.378319
416.276262	8960.834964
416.655997	9084.731402
417.035670	8962.669944
417.415283	9183.719499
417.794834	9066.762209
418.174324	8759.529088
418.553753	8547.049494
418.933121	8635.723390
419.312428	8372.292855
419.691674	8169.431783
420.070859	8218.494813
420.449983	7888.465594
420.829045	7970.860733
421.208047	7695.830503
421.586988	7714.563430
421.965867	7653.762074
422.344686	7479.867472
422.723444	7520.095880
423.102141	6870.112188
423.480777	7132.416025
423.859352	6799.165509
424.237866	7002.654205
424.616319	6743.778352
424.994712	6778.766480
425.373044	6552.942952
425.751314	6570.382824
426.129524	6179.600140
426.507673	6292.879908
426.885762	6067.651236
427.263789	5952.165963
427.641756	5835.851421
428.019662	5701.837387
428.397508	5562.391510
428.775292	5475.955886
429.153016	5324.799408
429.530679	5198.510943
429.908282	5064.285181
430.285824	4895.535076
430.663305	4870.556159
431.040726	4686.422973
431.418086	4545.701684
431.795385	4516.379813
432.172624	4449.579483
432.549802	4291.776245
432.926920	4203.500600
433.303977	4095.662757
433.680974	4020.264740
434.057910	3945.973255
434.434786	3856.089482
434.811601	3766.800565
435.188355	3757.240017
435.565050	3650.312103
435.941683	3569.411666
436.318257	3550.154458
436.694770	3464.716983
437.071222	3428.607198
437.447614	3309.754434
437.823946	3253.081783
438.200218	3205.775595
438.576429	3139.428969
438.952580	3101.784153
439.328670	3053.499981
439.704700	3022.199457
440.080670	2966.371199
440.456580	2944.008640
440.832429	2911.294073
441.208218	2852.713344
441.583947	2832.309274
441.959616	2805.628967
442.335224	2784.067952
442.710773	2761.249169
443.086261	2749.848600
443.461689	2716.433312
443.837057	2700.049562
444.212365	2691.666123
444.587612	2672.018226
444.962800	2656.330155
445.337927	2646.000831
445.712995	2618.241717
446.088002	2628.686988
446.462949	2620.348919
446.837837	2611.121087
447.212664	2601.076588
447.587431	2617.263733
447.962139	2633.168574
448.336786	2646.688948
448.711374	2624.775053
449.085901	2590.381780
449.460369	2581.761407
449.834776	2574.786971
450.209124	2584.576892
450.583412	2579.775193
450.957640	2578.257805
451.331808	2561.793397
451.705917	2547.655481
452.079965	2547.491643
452.453954	2545.996941
452.827883	2542.871426
453.201752	2533.837678
453.575562	2532.844571
453.949311	2537.653832
454.323001	2535.259284
454.696632	2530.182842
455.070202	2537.265663
455.443713	2537.762217
455.817164	2536.275076
456.190556	2533.328522
456.563888	2528.194107
456.937160	2527.629497
457.310373	2520.428209
457.683526	2520.518950
458.056619	2524.040196
458.429653	2514.716582
458.802628	2517.673218
459.175542	2517.090965
459.548398	2520.886954
459.921194	2526.230577
460.293930	2532.625281
460.666607	2536.993441
461.039224	2545.409647
461.411782	2544.892929
461.784280	2538.271373
462.156719	2534.334232
462.529099	2530.145033
462.901419	2525.739065
463.273680	2518.288239
463.645882	2516.546521
464.018024	2516.102899
464.390106	2518.842766
464.762130	2530.618902
465.134094	2547.224462
465.505999	2565.181052
465.877845	2582.953640
466.249631	2588.864393
466.621358	2577.723443
466.993026	2572.054666
467.364634	2564.008984
467.736184	2554.947510
468.107674	2548.275543
468.479105	2542.568957
468.850477	2541.144831
469.221790	2532.627801
469.593043	2526.739734
469.964238	2524.113292
470.335373	2525.113962
470.706449	2531.322143
471.077467	2540.464275
471.448425	2555.985988
471.819324	2566.953018
472.190164	2560.081925
472.560945	2545.823022
472.931667	2532.905065
473.302330	2527.379960
473.672934	2526.928777
474.043479	2524.304856
474.413965	2522.926101
474.784393	2513.302538
475.154761	2521.554907
475.525070	2520.781090
475.895321	2522.568179
476.265513	2518.101717
476.635645	2529.277955
477.005719	2523.500792
477.375734	2530.371885
477.745691	2533.255425
478.115588	2534.961856
478.485427	2539.957639
478.855207	2553.732592
479.224928	2564.371947
479.594591	2569.682803
479.964194	2567.938563
480.333739	2569.040056
480.703226	2568.346897
481.072653	2567.736917
481.442022	2570.650704
481.811333	2573.307392
482.180584	2568.382185
482.549777	2566.443861
482.918912	2562.882286
483.287988	2563.061247
483.657005	2558.746019
484.025964	2558.778787
484.394864	2555.718807
484.763706	2554.864331
485.132489	2549.976932
485.501213	2553.283929
485.869879	2552.457180
486.238487	2553.755277
486.607036	2551.446429
486.975527	2549.009031
487.343959	2550.254196
487.712333	2551.517005
488.080648	2549.901315
488.448905	2550.884340
488.817104	2551.373332
489.185244	2554.166131
489.553326	2561.024621
489.921350	2572.878894
490.289315	2581.348033
490.657222	2584.007241
491.025070	2585.058322
491.392861	2584.133270
491.760593	2576.579101
492.128267	2570.726322
492.495883	2565.183573
492.863440	2560.260886
493.230939	2554.634958
493.598380	2553.460370
493.965763	2545.371838
494.333088	2547.307641
494.700354	2540.003009
495.067563	2544.638350
495.434713	2540.900335
495.801805	2546.932075
496.168839	2542.707588
496.535815	2542.742877
496.902733	2541.953936
497.269593	2546.019627
497.636395	2541.732125
498.003139	2545.560882
498.369825	2544.003165
498.736453	2546.433001
499.103023	2546.090203
499.469535	2545.951571
499.835989	2542.750438
500.202385	2545.041643
500.568723	2546.493495
500.935003	2549.921480
501.301226	2549.770245
501.667390	2551.123795
502.033497	2554.052705
502.399546	2552.247972
502.765537	2551.370811
503.131470	2554.627397
503.497345	2558.864487
503.863163	2552.469783
504.228923	2556.550597
504.594625	2560.707028
504.960269	2561.770712
505.325856	2563.391443
505.691385	2565.944787
506.056856	2567.094170
506.422270	2572.374779
506.787625	2571.268246
507.152924	2573.937537
507.518164	2575.795202
507.883347	2573.567012
508.248472	2577.541962
508.613540	2580.060018
508.978550	2586.840370
509.343503	2587.341965
509.708398	2591.609301
510.073236	2597.129365
510.438016	2598.182966
510.802738	2596.214395
511.167403	2603.231682
511.532010	2603.687906
511.896561	2608.776951
512.261053	2614.032354
512.625488	2612.474637
512.989866	2613.601335
513.354186	2615.849690
513.718449	2614.165944
514.082655	2627.565331
514.446803	2623.769342
514.810894	2629.395270
515.174927	2632.372071
515.538904	2630.693367
515.902822	2635.989099
516.266684	2637.516569
516.630488	2638.126548
516.994235	2641.448669
517.357925	2641.630150
517.721558	2640.642084
518.085133	2646.167189
518.448651	2649.703558
518.812112	2650.000986
519.175516	2650.868065
519.538863	2653.839825
519.902152	2656.441060
520.265385	2658.102121
520.628560	2658.669250
520.991678	2655.755463
521.354739	2660.501710
521.717743	2660.864673
522.080690	2661.825013
522.443580	2664.390960
522.806413	2666.331804
523.169189	2665.754592
523.531908	2665.638646
523.894569	2666.987154
524.257174	2665.744510
524.619722	2670.624347
524.982213	2669.759789
525.344647	2668.832217
525.707025	2669.805159
526.069345	2667.193842
526.431608	2668.688544
526.793815	2671.839265
527.155964	2668.970848
527.518057	2667.559325
527.880093	2667.261897
528.242072	2669.810200
528.603995	2666.205775
528.965860	2663.443223
529.327669	2665.227792
529.689421	2665.905827
530.051117	2658.664209
530.412755	2661.656134
530.774337	2658.969199
531.135862	2656.206647
531.497331	2653.741522
531.858743	2651.888898
532.220098	2649.973260
532.581396	2647.669453
532.942638	2643.051756
533.303824	2645.211890
533.664953	2643.860861
534.026025	2639.210397
534.387040	2641.935140
534.747999	2637.488842
535.108902	2635.497587
535.469748	2630.786628
535.830537	2629.894344
536.191270	2624.089456
536.551947	2621.417644
536.912567	2622.118364
537.273131	2618.914711
537.633638	2614.329782
537.994089	2613.797940
538.354483	2605.603544
538.714821	2605.001127
539.075103	2605.301075
539.435328	2600.529623
539.795497	2597.194900
540.155609	2595.102821
540.515665	2588.750967
540.875665	2588.103179
541.235609	2584.203846
541.595496	2582.676377
541.955328	2581.095975
542.315102	2576.100192
542.674821	2571.104408
543.034483	2568.324212
543.394090	2566.030487
543.753640	2563.706515
544.113134	2561.037224
544.472571	2557.294167
544.831953	2557.853735
545.191278	2552.656306
545.550548	2548.666232
545.909761	2547.252189
546.268918	2542.765562
546.628019	2544.333361
546.987064	2535.264325
547.346053	2536.716177
547.704986	2535.218954
548.063863	2531.531350
548.422684	2529.643438
548.781449	2527.551359
549.140158	2526.470032
549.498811	2525.749147
549.857408	2521.207067
550.215949	2517.191788
550.574434	2515.074504
550.932864	2513.148783
551.291237	2512.180881
551.649555	2514.540141
552.007817	2512.236334
552.366022	2511.477640
552.724173	2509.834224
553.082267	2509.851868
553.440305	2508.878926
553.798288	2507.298524
554.156215	2505.478667
554.514086	2508.737773
554.871902	2502.096053
555.229661	2503.189983
555.587365	2499.146978
555.945014	2501.755775
556.302606	2499.575476
556.660143	2498.930208
557.017625	2501.007164
557.375050	2494.970382
557.732421	2498.932729
558.089735	2498.463902
558.446994	2496.150012
558.804197	2497.687564
559.161345	2494.665392
559.518437	2495.003150
559.875474	2493.657162
560.232455	2492.222953
560.589381	2494.143633
560.946251	2492.144815
561.303065	2489.888899
561.659825	2493.405104
562.016528	2490.347644
562.373177	2491.595330
562.729770	2491.907881
563.086307	2490.939980
563.442789	2492.505258
563.799216	2488.618528
564.155587	2490.607263
564.511904	2493.500886
564.868164	2489.616677
565.224370	2489.566265
565.580520	2491.073570
565.936615	2492.258241
566.292654	2485.535863
566.648638	2491.681029
567.004567	2490.841677
567.360441	2486.773466
567.716260	2488.522746
568.072023	2485.276243
568.427732	2482.070069
568.783385	2485.102323
569.138982	2481.482775
569.494525	2483.975626
569.850013	2483.582416
570.205445	2484.323465
570.560823	2485.969402
570.916145	2488.658858
571.271412	2483.915132
571.626625	2486.556696
571.981782	2486.745740
572.336884	2485.982005
572.691931	2487.511995
573.046923	2482.957312
573.401860	2485.029227
573.756743	2484.099134
574.111570	2482.261633
574.466342	2482.710296
574.821059	2483.569813
575.175722	2482.574185
575.530330	2481.802888
575.884882	2481.936479
576.239380	2479.935141
576.593823	2482.806078
576.948211	2478.324492
577.302544	2481.543269
577.656823	2481.238279
578.011047	2481.329020
578.365216	2480.023361
578.719330	2480.177116
579.073389	2475.347691
579.427394	2478.178299
579.781344	2478.979842
580.135239	2478.775675
580.489080	2477.331385
580.842866	2478.511015
581.196597	2478.513535
581.550273	2479.405820
581.903895	2475.347691
582.257463	2476.658391
582.610975	2477.349029
582.964434	2477.182671
583.317837	2476.532362
583.671186	2474.641929
584.024481	2476.348360
584.377721	2476.013123
584.730906	2475.602269
585.084037	2475.509008
585.437113	2474.899028
585.790135	2472.781743
586.143103	2472.083544
586.496016	2472.920375
586.848874	2471.907103
587.201679	2470.493060
587.554428	2467.894345
587.907124	2471.864253
588.259765	2468.395940
588.612352	2471.224027
588.964884	2471.803760
589.317362	2470.525827
589.669786	2472.083544
590.022155	2472.590180
590.374470	2470.921558
590.726731	2471.259315
591.078937	2468.920220
591.431090	2471.239150
591.783188	2468.161526
592.135232	2468.627833
592.487222	2469.285703
592.839157	2469.124386
593.191038	2467.685137
593.542866	2468.428707
593.894639	2465.867801
594.246358	2469.628502
594.598022	2469.840230
594.949633	2466.240846
595.301190	2465.860239
595.652692	2466.810497
596.004141	2468.431228
596.355535	2464.300002
596.706876	2462.114662
597.058162	2465.787142
597.409395	2465.015846
597.760573	2464.710856
598.111698	2465.237657
598.462768	2464.763788
598.813785	2464.559622
599.164748	2461.928139
599.515657	2460.272120
599.866511	2464.337811
600.217312	2464.380661
600.568060	2461.620629
600.918753	2464.685650
601.269392	2462.744806
601.619978	2462.003757
601.970510	2461.088787
602.320988	2463.627008
602.671412	2463.526185
603.021783	2463.775722
603.372100	2460.612398
603.722363	2462.394446
604.072572	2462.132306
604.422728	2464.713377
604.772830	2458.936214
605.122878	2455.329269
605.472872	2459.321863
605.822813	2457.512088
606.172701	2461.872687
606.522534	2461.086267
606.872314	2461.179528
607.222041	2462.356637
607.571714	2461.958386
607.921333	2460.977882
608.270899	2464.158850
608.620411	2462.649024
608.969870	2460.635083
609.319276	2462.336473
609.668627	2461.103911
610.017926	2462.270938
610.367171	2463.213633
610.716362	2462.265897
611.065500	2463.087605
611.414585	2461.300516
611.763616	2461.605505
612.112594	2458.835391
612.461518	2462.351596
612.810389	2460.327573
613.159207	2460.730865
613.507971	2459.692387
613.856682	2462.270938
614.205340	2461.807152
614.553945	2462.626339
614.902496	2459.493262
615.250994	2464.221864
615.599439	2461.166925
615.947830	2464.037862
616.296169	2461.474435
616.644454	2462.709518
616.992686	2462.636421
617.340864	2462.354117
617.688990	2463.115331
618.037063	2462.976699
618.385082	2463.896710
618.733048	2465.139354
619.080961	2460.816565
619.428821	2466.359313
619.776628	2459.717593
620.124382	2464.047944
620.472083	2461.320680
620.819731	2461.842440
621.167326	2461.068622
621.514868	2462.288582
621.862357	2458.467387
622.209793	2460.325052
622.557176	2458.671554
622.904506	2458.328755
623.251783	2454.157201
623.599007	2456.213991
623.946179	2454.195009
624.293297	2455.566203
624.640363	2456.715586
624.987376	2456.067798
625.334336	2455.871193
625.681243	2454.666357
626.028097	2456.115689
626.374899	2453.401028
626.721647	2454.646193
627.068343	2454.041254
627.414987	2455.321707
627.761577	2454.235338
628.108115	2454.131995
628.454600	2452.221398
628.801032	2454.053857
629.147412	2451.104782
629.493739	2451.555965
629.840014	2454.131995
630.186236	2452.750719
630.532405	2454.147118
630.878521	2451.838270
631.224585	2451.641665
631.570597	2453.332972
631.916556	2452.140739
632.262462	2449.352981
632.608316	2451.354319
632.954117	2452.065122
633.299866	2449.191664
633.645562	2450.930862
633.991206	2448.841304
634.336797	2449.874740
634.682336	2449.080759
635.027823	2447.812908
635.373257	2447.860799
635.718639	2447.248299
636.063968	2449.254678
636.409245	2446.310645
636.754470	2447.175203
637.099642	2446.955912
637.444762	2449.272322
637.789829	2448.425409
638.134845	2447.631427
638.479808	2445.584718
638.824719	2446.829883
639.169577	2446.197219
639.514383	2444.914245
639.859137	2443.583380
640.203839	2444.150510
640.548489	2443.396858
640.893086	2441.098092
641.237632	2438.254881
641.582125	2440.772937
641.926566	2438.988369
642.270955	2443.911055
642.615292	2442.166816
642.959576	2444.079934
643.303809	2443.525407
643.647990	2440.195725
643.992118	2443.888370
644.336195	2444.175716
644.680219	2443.709409
645.024192	2443.217897
645.368112	2446.048505
645.711981	2443.351487
646.055797	2445.980449
646.399562	2446.822322
646.743274	2446.071190
647.086935	2444.163113
647.430544	2446.834925
647.774101	2447.515480
648.117606	2447.762497
648.461059	2444.944492
648.804460	2448.874071
649.147810	2445.420881
649.491108	2447.341561
649.834354	2443.366611
650.177548	2441.473658
650.520690	2442.348298
650.863781	2441.115736
651.206820	2444.127825
651.549807	2443.512804
651.892742	2440.175560
652.235626	2438.587597
652.578458	2441.340067
652.921238	2437.143306
653.263967	2441.849223
653.606644	2438.491815
653.949269	2440.314192
654.291843	2437.329829
654.634365	2437.445776
654.976836	2442.002979
655.319255	2440.162957
655.661622	2441.783688
656.003938	2439.560540
656.346203	2440.394851
656.688416	2438.554829
657.030577	2436.049376
657.372687	2437.455858
657.714746	2436.636670
658.056753	2439.109356
658.398708	2433.876639
658.740612	2435.983841
659.082465	2432.966710
659.424266	2436.745055
659.766016	2430.486463
660.107715	2437.367638
660.449362	2439.351332
660.790958	2439.162288
661.132503	2437.060127
661.473996	2437.942329
661.815438	2436.548450
662.156829	2436.855961
662.498168	2437.513831
662.839456	2435.890580
663.180693	2435.227668
663.521879	2437.702874
663.863013	2438.774120
664.204097	2439.129521
664.545129	2437.430652
664.886110	2439.268153
665.227040	2437.455858
665.567918	2435.537699
665.908746	2438.819490
666.249522	2440.682196
666.590248	2437.123142
666.930922	2440.382248
667.271545	2435.267997
667.612118	2437.644901
667.952639	2439.232865
668.293109	2439.681527
668.633528	2435.890580
668.973896	2440.072217
669.314213	2438.247319
669.654480	2437.486105
669.994695	2437.665066
670.334859	2438.534665
670.674973	2435.885538
671.015035	2439.391661
671.355047	2439.424428
671.695008	2439.066507
672.034918	2436.107349
672.374777	2438.431321
672.714585	2438.471650
673.054342	2437.632298
673.394049	2435.310847
673.733705	2437.594490
674.073310	2440.732608
674.412864	2436.677000
674.752368	2438.713626
675.091820	2436.634150
675.431223	2436.248502
675.770574	2436.306475
676.109875	2429.397573
676.449125	2434.758841
676.788324	2430.478901
677.127473	2432.273552
677.466571	2429.334559
677.805619	2434.685744
678.144616	2434.899993
678.483562	2433.826227
678.822458	2432.041659
679.161303	2433.843871
679.500098	2431.875301
679.838842	2433.738007
680.177535	2436.329160
680.516179	2435.953594
680.854771	2434.100970
681.193314	2437.034922
681.531805	2434.973090
681.870247	2438.819490
682.208638	2438.118770
682.546978	2437.690272
682.885268	2439.631116
683.223508	2441.403081
683.561697	2434.542071
683.899836	2434.506783
684.237925	2434.685744
684.575963	2434.451330
684.913951	2433.400250
685.251889	2436.800508
685.589776	2435.078954
685.927614	2435.537699
686.265401	2437.037442
686.603137	2433.201124
686.940824	2435.083995
687.278460	2439.043821
687.616046	2437.710436
687.953582	2438.950560
688.291068	2439.006013
688.628504	2440.004161
688.965889	2437.002154
689.303224	2437.458378
689.640510	2438.456527
689.977745	2436.455189
690.314930	2438.083482
690.652065	2434.163984
690.989150	2435.267997
691.326185	2433.649787
691.663170	2430.040321
692.000105	2431.897986
692.336990	2430.408325
692.673825	2430.463777
693.010610	2432.117276
693.347345	2426.831626
693.684030	2425.737696
694.020665	2425.785587
694.357251	2422.289547
694.693786	2429.589137
695.030272	2428.316246
695.366707	2426.856832
695.703093	2426.632501
696.039429	2428.570824
696.375716	2427.257604
696.711952	2428.878335
697.048139	2425.036975
697.384276	2424.227870
697.720363	2426.009918
698.056400	2425.931780
698.392388	2427.156781
698.728326	2428.694333
699.064214	2424.825247
699.400053	2426.627459
699.735842	2427.567635
700.071581	2423.635535
700.407270	2424.363981
700.742910	2424.454722
701.078501	2423.436409
701.414042	2422.415575
701.749533	2424.341296
702.084974	2423.217119
702.420366	2422.234094
702.755709	2424.381625
703.091002	2421.626635
703.426246	2423.224681
703.761440	2422.040009
704.096584	2422.060174
704.431679	2422.193765
704.766725	2421.099834
705.101721	2422.597057
705.436668	2421.908939
705.771565	2420.212591
706.106413	2423.995977
706.441212	2420.835174
706.775961	2424.008580
707.110661	2419.418609
707.445311	2423.388518
707.779913	2423.388518
708.114465	2424.928591
708.448967	2421.757705
708.783421	2423.154104
709.117825	2425.115113
709.452180	2423.990936
709.786485	2424.956317
710.120742	2428.338931
710.454949	2423.098652
710.789107	2424.893302
711.123216	2422.493713
711.457275	2425.218457
711.791286	2425.326842
712.125247	2425.604105
712.459159	2426.067891
712.793023	2427.328180
713.126837	2426.488828
713.460602	2427.514702
713.794318	2427.154260
714.127985	2426.680392
714.461602	2425.757860
714.795171	2425.967068
715.128691	2426.161153
715.462162	2422.597057
715.795584	2422.463466
716.128957	2421.535894
716.462281	2425.445309
716.795556	2423.413724
717.128782	2424.721903
717.461960	2419.494227
717.795088	2425.203333
718.128167	2421.505647
718.461198	2420.406676
718.794180	2418.717889
719.127113	2419.108578
719.459997	2418.478434
719.792833	2418.259144
720.125619	2419.274937
720.458357	2417.800399
720.791046	2418.649833
721.123686	2417.901222
721.456278	2419.511871
721.788821	2417.906263
722.121315	2415.703279
722.453761	2418.952303
722.786158	2418.528846
723.118506	2418.145718
723.450805	2417.820564
723.783056	2418.453228
724.115259	2419.978177
724.447412	2416.547672
724.779518	2419.262334
725.111574	2418.196130
725.443582	2417.475245
725.775542	2419.723599
726.107453	2419.423651
726.439315	2418.879206
726.771129	2421.853487
727.102895	2418.347364
727.434612	2419.995822
727.766281	2419.590009
728.097901	2422.891964
728.429473	2418.823753
728.760996	2417.442477
729.092471	2416.761921
729.423897	2422.047571
729.755276	2420.847777
730.086606	2420.784762
730.417887	2421.974474
730.749120	2423.259969
731.080305	2422.057653
731.411442	2420.774680
731.742530	2422.750812
732.073570	2424.116965
732.404562	2421.379618
732.735506	2424.643765
733.066401	2423.955648
733.397249	2425.205854
733.728048	2419.806778
734.058798	2418.733013
734.389501	2419.942889
734.720156	2421.979516
735.050762	2418.710327
735.381320	2419.837025
735.711831	2415.274781
736.042293	2419.889957
736.372707	2415.947775
736.703073	2417.422313
737.033391	2418.823753
737.363661	2417.540780
737.693883	2418.123033
738.024056	2420.018507
738.354182	2420.835174
738.684260	2415.151273
739.014290	2417.949113
739.344272	2421.127561
739.674207	2418.785945
740.004093	2420.376429
740.333931	2420.036151
740.663722	2419.426171
740.993464	2422.675195
741.323159	2419.804258
741.652806	2419.869793
741.982405	2420.202509
742.311956	2418.727971
742.641460	2419.537077
742.970915	2418.145718
743.300323	2416.346026
743.629683	2414.301838
743.958996	2416.734195
744.288260	2414.710172
744.617477	2416.295615
744.946647	2409.822773
745.275768	2416.673701
745.604842	2410.284039
745.933869	2413.081879
746.262847	2411.498957
746.591778	2415.725964
746.920662	2414.158165
747.249498	2414.982394
747.578286	2416.535069
747.907027	2413.160017
748.235720	2416.477096
748.564365	2417.752508
748.892963	2412.247568
749.221514	2414.997518
749.550017	2415.163876
749.878473	2417.671850
750.206881	2414.989956
750.535242	2412.986097
750.863555	2413.943916
751.191821	2415.594894
751.520039	2416.444329
751.848210	2414.226221
752.176334	2414.183371
752.504411	2412.613052
752.832440	2415.965419
753.160421	2415.753691
753.488356	2415.673032
753.816243	2415.320151
754.144082	2411.443504
754.471875	2413.084400
754.799620	2414.024575
755.127318	2416.945923
755.454969	2413.041550
755.782572	2415.940213
756.110129	2411.244378
756.437638	2416.524987
756.765100	2415.189081
757.092515	2415.015162
757.419882	2412.194636
757.747203	2414.702610
758.074477	2416.368711
758.401703	2413.139852
758.728882	2412.550037
759.056014	2418.604463
759.383099	2413.558268
759.710138	2415.700758
760.037129	2413.286046
760.364073	2416.998856
760.690970	2415.499112
761.017820	2416.562796
761.344623	2415.065573
761.671379	2418.566654
761.998088	2410.619275
762.324751	2418.743095
762.651366	2422.367684
762.977935	2427.875145
763.304456	2430.128541
763.630931	2432.946546
763.957359	2430.657862
764.283740	2430.793973
764.610074	2427.275248
764.936362	2424.807603
765.262602	2422.070256
765.588796	2418.329720
765.914943	2416.295615
766.241044	2416.363670
766.567097	2417.576068
766.893104	2415.715882
767.219064	2411.365366
767.544978	2412.698751
767.870845	2411.340160
768.196665	2410.483164
768.522438	2411.685479
768.848165	2414.221180
769.173846	2408.920407
769.499479	2409.159861
769.825066	2411.864440
770.150607	2411.007444
770.476101	2411.166241
770.801548	2410.727660
771.126949	2410.276477
771.452303	2408.133987
771.777611	2410.195818
772.102872	2406.528379
772.428087	2409.583318
772.753256	2410.344533
773.078378	2409.144738
773.403453	2406.067113
773.728482	2407.476116
774.053465	2408.340674
774.378401	2410.672207
774.703291	2408.933009
775.028135	2405.396640
775.352932	2406.465365
775.677683	2409.540468
776.002388	2409.265726
776.327046	2408.209604
776.651658	2408.885118
776.976224	2406.629202
777.300743	2407.297155
777.625216	2405.179870
777.949643	2408.131466
778.274024	2406.803122
778.598359	2404.522000
778.922647	2402.621485
779.246889	2407.173647
779.571086	2399.485887
779.895236	2404.824469
780.219339	2407.544172
780.543397	2407.501322
780.867409	2403.788512
781.191374	2406.982083
781.515294	2406.382186
781.839167	2409.590880
782.162995	2406.914027
782.486776	2410.425191
782.810511	2404.320354
783.134201	2407.450910
783.457844	2405.830179
783.781441	2407.387896
784.104993	2404.146434
784.428498	2406.505694
784.751958	2406.228430
785.075372	2406.132648
785.398739	2407.135838
785.722061	2407.168606
786.045337	2404.569891
786.368568	2405.857906
786.691752	2404.872360
787.014891	2407.866805
787.337983	2406.407391
787.661030	2407.292114
787.984031	2407.375293
788.306987	2409.895870
788.629897	2410.468041
788.952760	2409.268246
789.275579	2409.991652
789.598351	2411.385531
789.921078	2407.828997
790.243759	2409.321178
790.566395	2408.600293
790.888984	2406.150293
791.211529	2406.619120
791.534027	2407.050138
791.856480	2403.097874
792.178888	2407.377813
792.501249	2408.214645
792.823566	2407.148441
793.145836	2402.472771
793.468062	2405.520148
793.790241	2404.527041
794.112375	2406.979562
794.434464	2404.917730
794.756507	2407.851682
795.078505	2405.016033
795.400457	2407.508883
795.722364	2402.205590
796.044226	2408.186919
796.366042	2403.254150
796.687812	2404.206928
797.009538	2408.378483
797.331218	2407.599624
797.652852	2407.259346
797.974442	2406.934192
798.295986	2406.556105
798.617484	2405.777247
798.938938	2405.348749
799.260346	2404.985786
799.581709	2406.132648
799.903026	2408.181877
800.224299	2406.611558
800.545526	2406.533420
800.866708	2404.796743
801.187845	2404.267422
801.508936	2405.147103
801.829983	2406.639284
802.150984	2403.841444
802.471940	2403.798594
802.792851	2407.276990
803.113717	2405.678945
803.434538	2402.649211
803.755314	2405.225241
804.076045	2405.194994
804.396731	2403.637277
804.717372	2403.574263
805.037967	2404.244736
805.358518	2403.052503
805.679024	2405.416805
805.999485	2403.246588
806.319901	2407.587021
806.640272	2403.901938
806.960598	2404.136352
807.280879	2405.953687
807.601115	2406.614079
807.921306	2406.669531
808.241453	2409.248082
808.561554	2406.979562
808.881611	2406.977042
809.201623	2403.125600
809.521590	2404.789181
809.841513	2404.355642
810.161390	2405.580642
810.481223	2404.998389
810.801011	2405.618451
811.120755	2407.115673
811.440453	2402.729870
811.760107	2402.172822
812.079716	2404.254819
812.399281	2399.014539
812.718801	2403.574263
813.038276	2401.076371
813.357707	2407.793709
813.677093	2404.874881
813.996434	2404.900086
814.315731	2403.072668
814.634983	2402.981927
814.954191	2406.064593
815.273354	2406.351939
815.592473	2403.846485
815.911547	2406.031825
816.230577	2405.111815
816.549562	2407.587021
816.868502	2406.359500
817.187399	2409.237999
817.506250	2409.653894
817.825058	2403.291958
818.143821	2406.543503
818.462539	2408.370921
818.781213	2405.847823
819.099843	2410.546179
819.418429	2411.365366
819.736970	2413.971643
820.055466	2414.674884
820.373919	2416.373753
820.692327	2421.921542
821.010691	2430.771288
821.329011	2448.924483
821.647286	2481.157621
821.965517	2510.640809
822.283704	2529.290557
822.601847	2534.044366
822.919945	2519.057015
823.237999	2504.425066
823.556010	2491.973416
823.873976	2476.623103
824.191897	2463.301854
824.509775	2452.919597
824.827609	2446.161931
825.145398	2441.871909
825.463144	2438.035591
825.780845	2437.155909
826.098502	2439.434511
826.416116	2448.806016
826.733685	2454.636110
827.051210	2457.738940
827.368692	2453.219546
827.686129	2445.488937
828.003522	2439.570622
828.320872	2426.468663
828.638177	2423.456574
828.955439	2418.480955
829.272656	2417.429874
829.589830	2412.529873
829.906960	2414.155645
830.224046	2410.833524
830.541088	2407.224058
830.858086	2409.825294
831.175041	2410.016857
831.491952	2407.715571
831.808819	2407.450910
832.125642	2409.444687
832.442421	2409.840417
832.759157	2414.992476
833.075849	2421.258631
833.392497	2428.744744
833.709101	2428.659044
834.025662	2428.863211
834.342179	2424.167376
834.658653	2422.770977
834.975083	2419.859710
835.291469	2420.532704
835.607811	2415.093299
835.924110	2410.999882
836.240366	2412.257650
836.556578	2405.525189
836.872746	2408.990983
837.188871	2405.005951
837.504952	2406.341856
837.820990	2403.077709
838.136984	2403.082750
838.452935	2404.763975
838.768842	2404.005282
839.084706	2403.029818
839.400526	2407.057700
839.716303	2410.019378
840.032037	2413.565830
840.347727	2408.769172
840.663373	2411.521642
840.978977	2407.546692
841.294537	2407.428225
841.610054	2404.312792
841.925527	2404.418656
842.240957	2402.462688
842.556344	2403.228944
842.871687	2401.623336
843.186987	2400.499159
843.502244	2400.617626
843.817458	2399.143089
844.132629	2398.457492
844.447756	2399.332132
844.762840	2396.251987
845.077881	2398.220558
845.392879	2396.216699
845.707833	2399.347255
846.022745	2395.694939
846.337613	2399.921947
846.652438	2401.308264
846.967221	2399.558984
847.281960	2398.427245
847.596656	2400.330280
847.911309	2398.223078
848.225919	2399.715260
848.540485	2398.339025
848.855009	2400.806669
849.169490	2397.945815
849.483928	2397.860115
849.798323	2400.544529
850.112675	2398.180228
850.426984	2398.117214
850.741251	2400.239540
851.055474	2398.439848
851.369654	2395.939435
851.683792	2400.045455
851.997887	2399.276679
852.311938	2400.925137
852.625947	2400.118552
852.939914	2399.427914
853.253837	2400.718449
853.567718	2397.597975
853.881555	2397.842471
854.195350	2398.054199
854.509103	2399.306926
854.822812	2396.887172
855.136479	2399.959756
855.450103	2399.513613
855.763685	2400.484036
856.077224	2397.824827
856.390720	2400.415980
856.704173	2398.454971
857.017584	2397.671072
857.330953	2400.380692
857.644278	2398.538150
857.957561	2400.988151
858.270802	2400.179046
858.584000	2400.146278
858.897155	2396.690567
859.210268	2397.245094
859.523339	2400.116031
859.836367	2398.349107
860.149352	2397.401370
860.462295	2401.746845
860.775195	2398.028994
861.088054	2395.982285
861.400869	2396.579662
861.713642	2394.495145
862.026373	2399.120403
862.339062	2397.507234
862.651708	2399.430434
862.964312	2397.292985
863.276873	2396.806514
863.589392	2399.536299
863.901869	2401.945970
864.214303	2399.019580
864.526696	2400.574776
864.839045	2398.742317
865.151353	2399.190980
865.463619	2401.036042
865.775842	2400.196690
866.088023	2398.202913
866.400162	2402.992010
866.712258	2397.557646
867.024313	2398.787687
867.336325	2398.034035
867.648296	2399.627039
867.960224	2399.097718
868.272110	2396.766185
868.583954	2399.614437
868.895755	2399.193500
869.207515	2401.857750
869.519233	2396.468757
869.830909	2398.170146
870.142542	2401.600651
870.454134	2398.490259
870.765684	2399.437996
871.077191	2399.377502
871.388657	2401.076371
871.700081	2400.574776
872.011463	2397.562687
872.322803	2399.112842
872.634101	2399.944632
872.945357	2400.547050
873.256571	2401.313305
873.567744	2399.863974
873.878874	2401.756927
874.189963	2400.519324
874.501010	2402.243398
874.812015	2402.051834
875.122979	2402.409756
875.433900	2399.974879
875.744780	2401.570404
876.055618	2401.832544
876.366415	2402.598800
876.677169	2400.985630
876.987882	2398.999416
877.298554	2398.318860
877.609183	2400.226937
877.919771	2399.004457
878.230317	2403.153327
878.540822	2403.170971
878.851285	2403.395302
879.161707	2405.439490
879.472087	2406.752710
879.782425	2410.533576
880.092722	2420.386511
880.402977	2430.360434
880.713191	2443.311158
881.023363	2456.022427
881.333494	2461.660958
881.643583	2466.276134
881.953631	2463.017028
882.263637	2456.443364
882.573602	2452.967488
882.883526	2447.306272
883.193408	2443.585901
883.503248	2440.336877
883.813048	2436.611465
884.122806	2428.021338
884.432522	2424.313570
884.742197	2419.658064
885.051831	2419.022879
885.361424	2415.700758
885.670975	2412.434091
885.980485	2410.309244
886.289954	2407.597104
886.599382	2406.848492
886.908768	2403.022257
887.218113	2404.055693
887.527417	2403.838923
887.836680	2400.557132
888.145901	2403.561660
888.455082	2401.920764
888.764221	2402.571073
889.073319	2403.193656
889.382376	2401.484705
889.691392	2401.779612
890.000366	2402.918913
890.309300	2402.873542
890.618193	2402.500497
890.927044	2400.030332
891.235855	2400.761299
891.544625	2402.649211
891.853353	2401.343552
892.162041	2403.140724
892.470687	2404.821948
892.779293	2403.352452
893.087858	2402.288769
893.396381	2404.690878
893.704864	2408.615417
894.013306	2406.694737
894.321707	2416.063722
894.630068	2416.119174
894.938387	2417.833167
895.246665	2417.870975
895.554903	2416.882909
895.863100	2416.487178
896.171256	2411.821591
896.479371	2412.378638
896.787446	2412.124060
897.095480	2406.961918
897.403473	2407.161044
897.711425	2402.941598
898.019336	2404.781619
898.327207	2407.022412
898.635038	2403.463357
898.942827	2404.358162
899.250576	2401.091495
899.558284	2400.892369
899.865952	2399.397667
900.173579	2402.376989
900.481165	2400.456309
900.788711	2399.095198
901.096216	2400.305075
901.403681	2400.741134
901.711105	2399.727863
902.018489	2399.460681
902.325832	2399.858933
902.633135	2401.116700
902.940397	2405.356311
903.247619	2402.742473
903.554800	2414.639596
903.861941	2418.266706
904.169041	2421.256110
904.476101	2422.912129
904.783121	2423.189392
905.090100	2419.342992
905.397039	2414.563978
905.703938	2413.250758
906.010796	2411.952661
906.317614	2411.733370
906.624391	2409.066600
906.931129	2404.509397
907.237826	2405.000909
907.544483	2403.349932
907.851099	2401.983779
908.157675	2404.612741
908.464211	2399.924468
908.770707	2395.468088
909.077163	2399.614437
909.383578	2395.362223
909.689954	2395.795763
909.996289	2393.912892
910.302584	2398.079405
910.608839	2396.670403
910.915054	2398.371792
911.221229	2399.876577
911.527363	2397.141751
911.833458	2394.666544
912.139513	2395.889024
912.445527	2399.153171
912.751502	2397.844992
913.057436	2398.875908
913.363331	2401.116700
913.669186	2398.376833
913.975000	2401.517472
914.280775	2403.617113
914.586510	2403.975035
914.892205	2407.443348
915.197859	2410.556261
915.503475	2414.029616
915.809050	2420.079001
916.114585	2420.923394
916.420081	2421.235945
916.725536	2420.439443
917.030952	2417.500450
917.336328	2417.250913
917.641665	2417.205543
917.946961	2416.111612
918.252218	2414.821077
918.557435	2411.057856
918.862612	2408.411250
919.167750	2409.414440
919.472848	2408.867474
919.777906	2406.704819
920.082925	2404.043090
920.387904	2404.199366
920.692843	2402.992010
920.997743	2402.634088
921.302603	2402.626526
921.607423	2401.235167
921.912204	2401.638460
922.216946	2399.274159
922.521647	2401.169632
922.826310	2399.692574
923.130932	2401.043604
923.435516	2397.686195
923.740059	2397.996226
924.044564	2396.375495
924.349028	2398.593603
924.653454	2392.690412
924.957840	2393.312994
925.262186	2393.335679
925.566493	2395.296688
925.870761	2391.707387
926.174989	2394.974054
926.479178	2395.785680
926.783328	2395.407594
927.087438	2396.856925
927.391509	2397.928171
927.695541	2393.345762
927.999533	2397.315670
928.303486	2394.016235
928.607400	2395.387429
928.911275	2393.398694
929.215110	2394.401883
929.518906	2395.813407
929.822663	2394.890875
930.126381	2394.351472
930.430060	2393.023128
930.733699	2393.766698
931.037299	2394.230484
931.340861	2396.405742
931.644383	2393.123951
931.947866	2391.548590
932.251309	2393.413817
932.554714	2398.054199
932.858080	2391.064640
933.161407	2394.537995
933.464694	2394.185114
933.767943	2394.989178
934.071153	2395.783160
934.374323	2391.145298
934.677455	2395.001781
934.980548	2394.694270
935.283602	2394.986657
935.586617	2394.785011
935.889593	2396.098232
936.192530	2396.446071
936.495428	2395.495814
936.798287	2394.487583
937.101108	2396.859446
937.403890	2393.620505
937.706632	2394.482542
938.009336	2395.198386
938.312002	2397.434138
938.614628	2395.374826
938.917216	2397.514796
939.219765	2394.079250
939.522275	2397.295506
939.824747	2400.899931
940.127179	2394.495145
940.429573	2393.239898
940.731929	2394.074208
941.034246	2392.304763
941.336524	2395.337017
941.638763	2396.438510
941.940964	2397.285423
942.243126	2395.258880
942.545250	2395.483211
942.847335	2395.452964
943.149381	2396.448592
943.451389	2398.331463
943.753359	2394.028838
944.055290	2395.773077
944.357182	2395.798283
944.659036	2394.948849
944.960851	2397.212327
945.262628	2394.422048
945.564367	2394.112017
945.866067	2390.926008
946.167729	2396.221740
946.469352	2395.009343
946.770937	2396.133520
947.072484	2394.096894
947.373992	2396.030176
947.675462	2394.646379
947.976893	2398.399518
948.278286	2394.437172
948.579641	2395.016904
948.880958	2397.161915
949.182236	2395.034548
949.483476	2394.369116
949.784678	2393.660834
950.085841	2394.779970
950.386967	2397.570249
950.688054	2394.825340
950.989103	2396.083108
951.290114	2392.503889
951.591087	2395.946997
951.892021	2395.813407
952.192917	2393.065978
952.493776	2393.570093
952.794596	2392.773591
953.095378	2397.381205
953.396122	2397.476987
953.696828	2390.734444
953.997496	2396.476318
954.298126	2394.558159
954.598718	2395.367264
954.899272	2393.670916
955.199788	2392.387943
955.500266	2392.902140
955.800706	2393.360885
956.101108	2389.675802
956.401472	2393.829712
956.701798	2392.549259
957.002087	2390.404248
957.302337	2394.462377
957.602550	2391.717469
957.902724	2392.420710
958.202861	2393.446585
958.502960	2391.989691
958.803022	2394.444733
959.103045	2392.876934
959.403031	2394.669065
959.702979	2393.328118
960.002889	2396.549415
960.302762	2392.892058
960.602596	2394.071688
960.902393	2392.894578
961.202153	2392.188817
961.501875	2392.519012
961.801559	2391.833416
962.101205	2393.756616
962.400814	2393.340721
962.700385	2394.800135
962.999918	2392.410628
963.299414	2393.151677
963.598873	2393.738972
963.898293	2394.001112
964.197677	2394.588406
964.497022	2391.891389
964.796331	2389.504403
965.095601	2389.804351
965.394835	2395.886503
965.694030	2391.407438
965.993189	2393.844836
966.292309	2391.546070
966.591393	2392.372819
966.890439	2392.488766
967.189447	2391.223436
967.488419	2391.730072
967.787353	2394.182593
968.086249	2390.273178
968.385108	2392.050185
968.683930	2393.726369
968.982714	2392.798797
969.281462	2390.038765
969.580172	2391.669578
969.878844	2390.996584
970.177480	2391.914074
970.476078	2392.060268
970.774639	2394.371637
971.073162	2392.700494
971.371649	2389.355688
971.670098	2386.825029
971.968510	2389.091028
972.266885	2388.057591
972.565223	2393.159239
972.863524	2393.595299
973.161788	2392.791235
973.460014	2392.345093
973.758204	2392.682850
974.056356	2392.135885
974.354471	2393.358365
974.652550	2388.909546
974.950591	2394.212840
975.248595	2390.880638
975.546563	2390.777294
975.844493	2391.437685
976.142386	2392.687891
976.440243	2390.406769
976.738062	2391.719990
977.035845	2390.593292
977.333590	2393.522202
977.631299	2394.790052
977.928971	2391.707387
978.226606	2391.427603
978.524204	2391.871224
978.821765	2393.270144
979.119290	2393.910371
979.416777	2391.485576
979.714228	2390.706718
980.011642	2391.430123
980.309020	2392.123282
980.606360	2393.514640
980.903664	2394.346431
981.200931	2392.019938
981.498162	2394.593447
981.795356	2391.873745
982.092513	2394.132182
982.389633	2392.493807
982.686717	2396.007491
982.983764	2394.671585
983.280775	2394.149826
983.577749	2396.350289
983.874686	2394.527912
984.171587	2395.248797
984.468451	2398.822975
984.765279	2393.053375
985.062070	2393.207130
985.358824	2396.166287
985.655543	2397.182080
985.952224	2394.681668
986.248869	2391.258724
986.545478	2387.102293
986.842050	2391.137736
987.138586	2389.703528
987.435086	2388.223949
987.731549	2385.199257
988.027975	2392.077912
988.324366	2389.580020
988.620719	2391.921636
988.917037	2390.709238
989.213318	2393.817110
989.509563	2389.748898
989.805772	2392.357696
990.101944	2391.745195
990.398080	2391.394835
990.694180	2388.206305
990.990244	2393.315515
991.286271	2392.075391
991.582262	2391.084804
991.878217	2391.498179
992.174136	2392.571945
992.470019	2391.354506
992.765865	2390.744526
993.061676	2390.613456
993.357450	2390.106820
993.653188	2390.870555
993.948890	2392.503889
994.244556	2393.514640
994.540186	2391.856101
994.835780	2392.955072
995.131337	2393.628066
995.426859	2392.095556
995.722345	2394.142264
996.017795	2392.829043
996.313208	2391.573796
996.608586	2393.847357
996.903928	2390.830226
997.199234	2394.777449
997.494504	2396.148643
997.789738	2394.079250
998.084936	2393.978427
998.380099	2392.952552
998.675225	2392.609753
998.970316	2394.021276
999.265371	2391.304094
999.560390	2391.203271
999.855373	2391.218395
1000.150320	2394.351472
1000.445232	2390.550442
1000.740108	2390.822664
1001.034948	2389.559855
1001.329752	2390.820144
1001.624521	2391.425082
1001.919254	2389.791748
1002.213951	2389.585061
1002.508613	2386.797303
1002.803239	2389.711090
1003.097829	2388.607077
1003.392384	2390.048847
1003.686903	2390.492469
1003.981386	2390.215205
1004.275834	2393.441544
1004.570246	2392.710576
1004.864623	2391.709907
1005.158964	2388.788559
1005.453270	2390.164794
1005.747540	2389.668240
1006.041775	2390.787376
1006.335974	2393.096225
1006.630138	2389.045657
1006.924266	2390.774773
1007.218359	2389.887530
1007.512416	2390.008518
1007.806438	2390.598333
1008.100425	2390.275699
1008.394376	2388.503733
1008.688292	2389.794269
1008.982172	2390.303425
1009.276017	2390.893240
1009.569827	2391.120092
1009.863602	2390.167314
1010.157341	2389.854763
1010.451045	2390.167314
1010.744714	2389.643034
1011.038347	2391.341903
1011.331945	2392.690412
1011.625508	2390.721841
1011.919036	2391.936759
1012.212528	2392.249311
1012.505986	2389.716131
1012.799408	2391.107489
1013.092795	2388.874258
1013.386147	2391.793086
1013.679464	2388.309649
1013.972745	2390.555483
1014.265992	2391.498179
1014.559204	2389.022972
1014.852380	2389.816954
1015.145521	2389.322921
1015.438628	2392.811399
1015.731699	2391.629249
1016.024736	2389.819475
1016.317737	2390.736965
1016.610703	2390.147150
1016.903635	2385.791593
1017.196531	2384.001983
1017.489393	2387.797972
1017.782219	2385.325286
1018.075011	2394.759805
1018.367768	2388.155894
1018.660490	2389.227139
1018.953177	2389.227139
1019.245829	2389.227139
