Dividing Wavelength (nm)	Counts (n)	Blue Motor Position (mm): 0.000000	Red Motor Position (mm): 39.400000	
326.493990	1991.424648
326.888308	1991.424648
327.282561	1991.424648
327.676750	1967.471605
328.070874	1970.793726
328.464933	1975.131639
328.858929	1984.999697
329.252859	1998.963693
329.646726	2013.729233
330.040528	2027.776408
330.434265	2046.748791
330.827938	2066.981462
331.221547	2088.502148
331.615091	2106.562081
332.008571	2126.298198
332.401986	2148.743936
332.795338	2168.303613
333.188625	2190.509896
333.581847	2207.601928
333.975006	2226.634804
334.368100	2241.639798
334.761129	2259.268713
335.154095	2275.617175
335.546996	2303.850158
335.939833	2346.669718
336.332606	2362.312419
336.725315	2373.382792
337.117960	2379.270860
337.510540	2389.708569
337.903056	2399.180897
338.295508	2405.000909
338.687896	2413.091961
339.080220	2421.225863
339.472480	2427.943201
339.864676	2428.495207
340.256807	2430.123500
340.648875	2435.822524
341.040879	2436.576177
341.432818	2437.944850
341.824694	2437.365117
342.216506	2437.511311
342.608253	2439.696651
342.999937	2436.044335
343.391557	2435.477205
343.783113	2434.819334
344.174605	2432.112235
344.566033	2430.746082
344.957397	2432.419745
345.348697	2427.139137
345.739934	2427.739034
346.131106	2424.056471
346.522215	2425.130237
346.913260	2420.938517
347.304241	2418.843918
347.695159	2418.342323
348.086012	2416.073804
348.476802	2415.572209
348.867528	2416.623290
349.258191	2413.664132
349.648789	2414.395100
350.039324	2412.643299
350.429796	2413.265881
350.820203	2411.050294
351.210548	2409.427043
351.600828	2410.891498
351.991045	2412.219842
352.381198	2410.919224
352.771288	2412.071128
353.161314	2409.174985
353.551276	2409.071641
353.941175	2412.834862
354.331010	2411.372928
354.720782	2412.827301
355.110490	2408.696075
355.500135	2411.844276
355.889717	2412.973494
356.279235	2414.039698
356.668689	2412.635737
357.058080	2412.050963
357.447408	2408.985942
357.836672	2412.161868
358.225873	2411.700603
358.615010	2411.796385
359.004084	2416.280491
359.393095	2417.941551
359.782043	2419.915163
360.170927	2418.009607
360.559748	2421.845925
360.948505	2422.118147
361.337199	2423.317942
361.725830	2423.474218
362.114398	2422.478590
362.502903	2422.342479
362.891344	2426.725762
363.279722	2427.461770
363.668037	2428.323808
364.056289	2429.778181
364.444478	2429.175763
364.832603	2429.069898
365.220665	2431.736669
365.608665	2430.446133
365.996601	2434.627771
366.384474	2432.921340
366.772284	2435.086516
367.160031	2435.031063
367.547715	2437.100457
367.935336	2433.964859
368.322893	2436.971907
368.710388	2439.278235
369.097820	2442.431477
369.485189	2440.145313
369.872495	2444.087496
370.259738	2445.004986
370.646918	2449.685697
371.034035	2449.589915
371.421090	2455.077211
371.808081	2455.871193
372.195010	2463.039714
372.581875	2467.062554
372.968678	2472.544809
373.355418	2481.412199
373.742096	2493.866369
374.128710	2508.407578
374.515262	2513.930162
374.901751	2532.005219
375.288177	2550.715461
375.674540	2569.859243
376.060841	2589.393714
376.447079	2614.138218
376.833254	2643.757517
377.219367	2668.126455
377.605417	2701.723225
377.991404	2732.040724
378.377329	2773.627723
378.763191	2806.322126
379.148991	2857.696525
379.534727	2905.950449
379.920402	2955.366360
380.306013	3005.677075
380.691563	3070.697878
381.077049	3124.161835
381.462474	3188.547452
381.847835	3262.944800
382.233134	3336.921212
382.618371	3397.445305
383.003545	3485.647854
383.388657	3566.417221
383.773706	3661.866427
384.158693	3737.584558
384.543618	3833.248014
384.928480	3916.351435
385.313280	4025.789844
385.698017	4125.191316
386.082692	4255.071603
386.467305	4319.989062
386.851856	4452.503353
387.236344	4609.333649
387.620770	4675.554246
388.005133	4797.482113
388.389435	4947.718580
388.773674	5036.407600
389.157851	5173.874824
389.541965	5305.922808
389.926018	5330.886602
390.310008	5515.191186
390.693936	5639.884127
391.077802	5762.555564
391.461606	5899.440535
391.845348	6011.709552
392.229027	6141.952803
392.612645	6373.026692
392.996200	6485.920812
393.379694	6667.664491
393.763125	6897.858699
394.146494	6995.059707
394.529801	7136.106150
394.913047	7387.621918
395.296230	7385.562607
395.679351	7445.748943
396.062410	7714.182823
396.445408	7604.835155
396.828343	7766.257942
397.211217	7908.131135
397.594028	7784.312835
397.976778	7994.982654
398.359466	8163.921802
398.742092	8133.201010
399.124656	8290.243035
399.507158	8480.748239
399.889598	8503.657762
400.271977	8721.675063
400.654294	8749.471986
401.036549	8953.658881
401.418742	8977.594280
401.800874	9290.624728
402.182944	9370.474084
402.564952	9742.954859
402.946898	9567.925998
403.328783	9634.749013
403.710606	9830.824692
404.092367	10097.148849
404.474067	10467.356064
404.855705	10245.174770
405.237282	10201.417555
405.618797	10642.410132
406.000250	10890.765096
406.381642	11274.154929
406.762972	11211.014477
407.144240	11004.037303
407.525447	11269.494382
407.906593	11207.155473
408.287677	11473.794703
408.668700	11632.291101
409.049661	11603.415372
409.430560	11764.578539
409.811399	11734.177861
410.192176	11905.622462
410.572891	11978.459574
410.953545	12486.502017
411.334138	11946.110489
411.714669	12566.106877
412.095139	11854.900893
412.475547	12373.832229
412.855894	12210.410624
413.236180	12549.163559
413.616405	12225.521482
413.996568	12515.198785
414.376670	12486.479332
414.756711	12350.897499
415.136691	12643.473466
415.516609	12827.702433
415.896466	12906.712437
416.276262	13201.554402
416.655997	13641.430363
417.035670	13674.482688
417.415283	14335.947608
417.794834	14439.003916
418.174324	14172.347042
418.553753	14068.700919
418.933121	14578.401902
419.312428	14375.402199
419.691674	14295.832626
420.070859	14763.573565
420.449983	14412.421912
420.829045	14972.478981
421.208047	14706.182549
421.586988	15181.444890
421.965867	15449.094871
422.344686	15437.530464
422.723444	16014.694689
423.102141	14671.338094
423.480777	15885.258023
423.859352	15386.360232
424.237866	16517.045669
424.616319	16213.868157
424.994712	16881.725259
425.373044	16679.123807
425.751314	17365.421450
426.129524	16471.362733
426.507673	17604.868696
426.885762	17279.699150
427.263789	17480.004357
427.641756	17663.509918
428.019662	17722.526706
428.397508	17767.254344
428.775292	18078.659020
429.153016	18039.963123
429.530679	18119.815000
429.908282	18142.467425
430.285824	17851.144185
430.663305	18585.330269
431.040726	18174.209050
431.418086	17986.073188
431.795385	18652.155805
432.172624	19077.762780
432.549802	18627.683523
432.926920	18812.091452
433.303977	18699.532569
433.680974	18956.759964
434.057910	19252.557228
434.434786	19284.417320
434.811601	19182.046609
435.188355	20247.287787
435.565050	19885.731192
435.941683	19835.954839
436.318257	20738.205431
436.694770	20536.072806
437.071222	21159.522384
437.447614	20203.845644
437.823946	20229.366485
438.200218	20385.813654
438.576429	20162.142699
438.952580	20435.537075
439.328670	20398.300592
439.704700	20826.375212
440.080670	20380.502798
440.456580	21000.945328
440.832429	21177.294972
441.208218	20134.186980
441.583947	20595.344172
441.959616	20698.856705
442.335224	20952.487237
442.710773	21075.592214
443.086261	21621.143362
443.461689	20980.299283
443.837057	21104.644383
444.212365	21770.444695
444.587612	21768.952514
444.962800	21311.883698
445.337927	21764.952358
445.712995	20466.472115
446.088002	22360.237010
446.462949	22543.629146
446.837837	22741.605340
447.212664	22690.982073
447.587431	25583.946510
447.962139	28567.382015
448.336786	30992.000574
448.711374	29411.477856
449.085901	25665.335939
449.460369	25597.129127
449.834776	25516.198443
450.209124	28052.002172
450.583412	27568.169870
450.957640	28102.328011
451.331808	26738.832006
451.705917	25347.592012
452.079965	25389.489042
452.453954	25755.035710
452.827883	25625.909075
453.201752	25427.249804
453.575562	25602.278666
453.949311	26737.269249
454.323001	26796.459957
454.696632	26548.944344
455.070202	28144.051120
455.443713	28280.232850
455.817164	28879.462205
456.190556	29421.345914
456.563888	28859.075779
456.937160	29308.507247
457.310373	27606.512886
457.683526	28075.083095
458.056619	28042.723928
458.429653	27989.577564
458.802628	28572.140864
459.175542	28687.207721
459.548398	30010.845842
459.921194	31589.639445
460.293930	32261.133740
460.666607	34334.638455
461.039224	36104.869875
461.411782	36519.290530
461.784280	35314.734545
462.156719	34832.293601
462.529099	34273.774084
462.901419	32970.792091
463.273680	31890.291340
463.645882	31990.149036
464.018024	31952.973047
464.390106	32793.756850
464.762130	35514.149988
465.134094	39607.733269
465.505999	44958.716431
465.877845	49577.058621
466.249631	50766.808738
466.621358	49090.143654
466.993026	46997.341402
467.364634	44917.051294
467.736184	42914.851180
468.107674	41641.296922
468.479105	40836.506957
468.850477	40151.202421
469.221790	38690.114720
469.593043	36915.850377
469.964238	36017.491555
470.335373	35941.488599
470.706449	37677.019237
471.077467	40279.739241
471.448425	44882.652981
471.819324	47739.921008
472.190164	45879.742800
472.560945	42290.496714
472.931667	39159.181482
473.302330	38025.912453
473.672934	37198.880918
474.043479	37698.600417
474.413965	36886.916674
474.784393	36503.705803
475.154761	37419.812006
475.525070	37455.442881
475.895321	36974.317679
476.265513	37583.218487
476.635645	38576.524921
477.005719	38393.909122
477.375734	38857.944813
477.745691	39571.550387
478.115588	40929.848962
478.485427	42913.595932
478.855207	46295.743857
479.224928	48904.568698
479.594591	50566.380023
479.964194	49575.379917
480.333739	49760.763309
480.703226	49800.747220
481.072653	50410.873029
481.442022	50898.166083
481.811333	51152.285608
482.180584	49861.939266
482.549777	49358.010404
482.918912	48816.920677
483.287988	48535.596566
483.657005	47691.830920
484.025964	47053.963642
484.394864	47072.436950
484.763706	46632.961761
485.132489	45764.282733
485.501213	45590.496516
485.869879	45751.130363
486.238487	45339.736921
486.607036	45530.221960
486.975527	44984.922869
487.343959	45176.867322
487.712333	45283.394465
488.080648	45175.773392
488.448905	45632.998484
488.817104	45441.144771
489.185244	46423.035512
489.553326	48091.808669
489.921350	50813.026036
490.289315	53651.853522
490.657222	54250.077167
491.025070	54530.544282
491.392861	53648.196165
491.760593	52424.609824
492.128267	50792.725310
492.495883	49257.830075
492.863440	47875.424702
493.230939	46500.462594
493.598380	45395.441671
493.965763	45076.674389
494.333088	44244.367287
494.700354	43732.349893
495.067563	43439.428608
495.434713	43313.155266
495.801805	43360.282492
496.168839	42974.987104
496.535815	42640.602328
496.902733	42681.148329
497.269593	42262.775409
497.636395	42188.183976
498.003139	42596.759413
498.369825	42026.299923
498.736453	42361.264432
499.103023	41872.262427
499.469535	41745.011101
499.835989	41842.065915
500.202385	41491.594817
500.568723	41510.317663
500.935003	41705.992570
501.301226	41492.368634
501.667390	42108.347223
502.033497	42381.562638
502.399546	41801.073772
502.765537	41099.861875
503.131470	41503.708710
503.497345	41855.863553
503.863163	40506.513027
504.228923	41125.334826
504.594625	41538.797661
504.960269	40815.959214
505.325856	41511.444361
505.691385	40879.734852
506.056856	41016.944977
506.422270	41460.037194
506.787625	41040.867772
507.152924	41205.436240
507.518164	41327.906031
507.883347	40510.903872
508.248472	40786.700357
508.613540	41235.073183
508.978550	41550.301574
509.343503	41299.630199
509.708398	41501.941786
510.073236	42039.270812
510.438016	42036.276367
510.802738	41487.332522
511.167403	42113.932821
511.532010	42339.988242
511.896561	42630.588076
512.261053	43509.210780
512.625488	43028.594734
512.989866	42907.014706
513.354186	42752.147939
513.718449	42713.744429
514.082655	43403.039039
514.446803	43074.539810
514.810894	43603.603865
515.174927	43530.975962
515.538904	43413.910287
515.902822	44102.179022
516.266684	43529.957649
516.630488	43974.453827
516.994235	43807.387468
517.357925	44392.126026
517.721558	44565.035083
518.085133	44860.439136
518.448651	45013.503691
518.812112	44756.034320
519.175516	44861.281009
519.538863	45212.382251
519.902152	45160.125650
520.265385	45620.927441
520.628560	45656.873388
520.991678	45450.947295
521.354739	45678.815011
521.717743	45987.573081
522.080690	45904.938487
522.443580	46433.543797
522.806413	46490.216448
523.169189	46432.981708
523.531908	46609.953935
523.894569	46470.455125
524.257174	46640.447874
524.619722	46919.715194
524.982213	46934.211032
525.344647	46845.779112
525.707025	46860.993314
526.069345	47257.510311
526.431608	47182.936522
526.793815	47502.621293
527.155964	47046.336376
527.518057	47179.069957
527.880093	46969.899881
528.242072	47491.792895
528.603995	47182.162705
528.965860	47184.642952
529.327669	47289.007440
529.689421	47180.884772
530.051117	47123.763458
530.412755	47269.188144
530.774337	47335.391097
531.135862	47131.393244
531.497331	47325.505394
531.858743	47206.932414
532.220098	47567.589163
532.581396	47286.983417
532.942638	46939.721013
533.303824	47222.509580
533.664953	47197.049232
534.026025	46898.207112
534.387040	47385.364055
534.747999	47318.493149
535.108902	47468.583422
535.469748	46997.729571
535.830537	47099.765045
536.191270	47294.335940
536.551947	46931.128367
536.912567	47254.591483
537.273131	47356.402626
537.633638	46841.022783
537.994089	47177.973506
538.354483	46766.317924
538.714821	47340.452415
539.075103	47683.565949
539.435328	47422.968542
539.795497	47304.539235
540.155609	47291.764951
540.515665	47755.039428
540.875665	47205.485603
541.235609	47532.754790
541.595496	47484.483222
541.955328	48155.506169
542.315102	47505.429216
542.674821	47302.051426
543.034483	47345.675050
543.394090	47284.621636
543.753640	47255.143489
544.113134	48243.363398
544.472571	47247.944721
544.831953	48492.882869
545.191278	47686.134417
545.550548	47389.770023
545.909761	47849.626598
546.268918	48051.015653
546.628019	48335.145166
546.987064	47897.605779
547.346053	47149.306985
547.704986	48028.927837
548.063863	47548.629384
548.422684	47737.644927
548.781449	47585.941484
549.140158	47968.512129
549.498811	47801.927200
549.857408	47218.345587
550.215949	48040.741781
550.574434	47962.976942
550.932864	47690.086681
551.291237	48399.971883
551.649555	48001.287190
552.007817	48212.723265
552.366022	47834.649329
552.724173	48012.352523
553.082267	48386.315398
553.440305	48661.857305
553.798288	47940.299311
554.156215	48230.057272
554.514086	48428.930792
554.871902	48153.562804
555.229661	48145.754057
555.587365	47930.123742
555.945014	48003.286008
556.302606	47888.319974
556.660143	48098.198332
557.017625	48168.225000
557.375050	47918.115714
557.732421	48227.488805
558.089735	48182.249490
558.446994	48073.773942
558.804197	48507.287967
559.161345	48431.814332
559.518437	47636.889905
559.875474	47895.155778
560.232455	48015.384777
560.589381	48158.092281
560.946251	47827.322012
561.303065	48480.342999
561.659825	48238.649919
562.016528	47857.395016
562.373177	47540.641675
562.729770	47953.121486
563.086307	47444.199361
563.442789	47841.064198
563.799216	47851.716156
564.155587	47578.165504
564.511904	47560.632371
564.868164	47591.504397
565.224370	47777.094476
565.580520	47462.811301
565.936615	47598.982949
566.292654	47268.658823
566.648638	47452.113973
567.004567	47342.088269
567.360441	47326.909355
567.716260	47123.869322
568.072023	47313.472160
568.427732	47222.345742
568.783385	46711.724748
569.138982	47032.833646
569.494525	46911.016683
569.850013	46635.212636
570.205445	46521.910183
570.560823	46398.681697
570.916145	46196.990173
571.271412	46153.301013
571.626625	45829.066601
571.981782	45791.197453
572.336884	45418.983859
572.691931	45647.902655
573.046923	45153.725905
573.401860	44913.240182
573.756743	44834.588099
574.111570	44859.483838
574.466342	44606.216268
574.821059	44625.002128
575.175722	44073.391513
575.530330	43998.459802
575.884882	43634.818690
576.239380	43509.654402
576.593823	43383.655802
576.948211	43202.801888
577.302544	42661.810463
577.656823	42572.425764
578.011047	42670.919827
578.365216	42305.496668
578.719330	42028.240768
579.073389	41752.837492
579.427394	41722.262894
579.781344	41604.708227
580.135239	41162.888901
580.489080	41137.841928
580.842866	40532.376666
581.196597	40829.787099
581.550273	40641.963789
581.903895	40409.117934
582.257463	40664.359115
582.610975	39973.416048
582.964434	40094.771745
583.317837	39646.693827
583.671186	39381.297241
584.024481	39463.226073
584.377721	38925.440822
584.730906	39062.721524
585.084037	38956.799320
585.437113	38577.820497
585.790135	38481.879778
586.143103	38009.659773
586.496016	37981.204981
586.848874	37874.730770
587.201679	37753.178469
587.554428	37163.834817
587.907124	37183.901129
588.259765	36844.170210
588.612352	36913.690242
588.964884	36263.638495
589.317362	36366.127673
589.669786	36180.625814
590.022155	35854.357296
590.374470	36082.708963
590.726731	35551.446965
591.078937	35023.459196
591.431090	34972.737627
591.783188	34569.722582
592.135232	34153.015764
592.487222	34218.354159
592.839157	34154.409643
593.191038	33733.932042
593.542866	33413.569236
593.894639	32790.651499
594.246358	32891.789648
594.598022	32734.130082
594.949633	32265.015429
595.301190	32113.614455
595.652692	31827.344972
596.004141	31954.480352
596.355535	31052.411241
596.706876	30889.196324
597.058162	30635.646450
597.409395	30852.864728
597.760573	30779.863779
598.111698	30308.258796
598.462768	30184.939570
598.813785	30064.105633
599.164748	29518.062972
599.515657	29651.467026
599.866511	29118.821231
600.217312	29435.635065
600.568060	28532.071253
600.918753	28919.332691
601.269392	28749.312216
601.619978	28349.125259
601.970510	28353.765641
602.320988	28346.924795
602.671412	28395.508915
603.021783	28079.577283
603.372100	27689.810391
603.722363	27613.767106
604.072572	27519.104319
604.422728	27381.490902
604.772830	27110.697761
605.122878	27017.113781
605.472872	26825.280233
605.822813	26859.015635
606.172701	26593.732475
606.522534	26607.875432
606.872314	26632.027600
607.222041	26308.287221
607.571714	26403.096201
607.921333	25880.704113
608.270899	25935.181343
608.620411	26000.461764
608.969870	25719.992129
609.319276	25553.364350
609.668627	25430.912203
610.017926	25566.824231
610.367171	25527.636822
610.716362	25415.632465
611.065500	25213.729213
611.414585	25174.035167
611.763616	25188.349524
612.112594	24997.088147
612.461518	24962.974659
612.810389	24962.309226
613.159207	24731.563012
613.507971	24610.179589
613.856682	24726.859615
614.205340	24500.229503
614.553945	24735.172478
614.902496	24264.111939
615.250994	24355.621484
615.599439	24229.877463
615.947830	24179.032386
616.296169	24054.488159
616.644454	23943.030768
616.992686	23875.464183
617.340864	23985.850329
617.688990	23673.008924
618.037063	23822.716070
618.385082	23637.204129
618.733048	23643.548421
619.080961	23471.939983
619.428821	23329.419002
619.776628	23225.117529
620.124382	22980.016629
620.472083	22900.434453
620.819731	22817.827586
621.167326	22502.959637
621.514868	22356.869519
621.862357	21992.220177
622.209793	21871.683668
622.557176	21568.763253
622.904506	21300.989764
623.251783	21004.542192
623.599007	20753.079355
623.946179	20519.769714
624.293297	20348.451142
624.640363	19945.249575
624.987376	19802.884870
625.334336	19547.373987
625.681243	19259.488814
626.028097	19099.732128
626.374899	18911.621473
626.721647	18756.064068
627.068343	18565.548782
627.414987	18337.494543
627.761577	18114.214278
628.108115	18114.244525
628.454600	17755.568949
628.801032	17698.419909
629.147412	17554.600831
629.493739	17419.563442
629.840014	17148.193090
630.186236	17158.406468
630.532405	16887.847741
630.878521	16845.466760
631.224585	16673.737334
631.570597	16460.337730
631.916556	16403.591982
632.262462	16265.212308
632.608316	16144.832075
632.954117	15997.060733
633.299866	15886.871192
633.645562	15744.922382
633.991206	15460.722293
634.336797	15196.729668
634.682336	15096.579586
635.027823	14896.629780
635.373257	14729.858328
635.718639	14549.742943
636.063968	14393.860383
636.409245	14112.180871
636.754470	14011.796375
637.099642	13841.483512
637.444762	13581.130602
637.789829	13532.236450
638.134845	13324.828258
638.479808	13203.336450
638.824719	13078.530084
639.169577	12856.207637
639.514383	12781.364147
639.859137	12588.915578
640.203839	12572.809092
640.548489	12365.922658
640.893086	12296.959674
641.237632	12130.674693
641.582125	12073.921383
641.926566	11979.397228
642.270955	11879.872248
642.615292	11797.900566
642.959576	11704.031761
643.303809	11623.582507
643.647990	11582.227402
643.992118	11490.856488
644.336195	11408.821792
644.680219	11350.190652
645.024192	11341.109013
645.368112	11402.051522
645.711981	11325.514204
646.055797	11480.905251
646.399562	11389.642722
646.743274	11552.827393
647.086935	11593.345667
647.430544	11494.957467
647.774101	11449.352669
648.117606	11430.937334
648.461059	11424.739235
648.804460	11249.223902
649.147810	11022.707216
649.491108	10886.810311
649.834354	10716.010978
650.177548	10453.076996
650.520690	10263.690928
650.863781	10187.282159
651.206820	10085.934803
651.549807	9917.199822
651.892742	9739.229447
652.235626	9620.485068
652.578458	9526.686839
652.921238	9328.322476
653.263967	9325.166714
653.606644	9201.885297
653.949269	9121.824212
654.291843	8980.878591
654.634365	9003.175615
654.976836	8859.243111
655.319255	8795.013770
655.661622	8737.340449
656.003938	8636.756827
656.346203	8545.481695
656.688416	8532.881331
657.030577	8434.765354
657.372687	8350.827622
657.714746	8340.825973
658.056753	8307.859347
658.398708	8154.850246
658.740612	8105.651105
659.082465	8095.767922
659.424266	8015.026282
659.766016	7980.277608
660.107715	7912.781600
660.449362	7885.597177
660.790958	7838.457348
661.132503	7784.504399
661.473996	7736.958756
661.815438	7707.251237
662.156829	7688.407404
662.498168	7595.640091
662.839456	7555.275572
663.180693	7522.525716
663.521879	7499.553178
663.863013	7445.985877
664.204097	7401.180102
664.545129	7419.537463
664.886110	7373.307562
665.227040	7335.980338
665.567918	7311.341699
665.908746	7281.404807
666.249522	7269.182529
666.590248	7219.708645
666.930922	7194.903648
667.271545	7148.366236
667.612118	7119.281299
667.952639	7045.388066
668.293109	7007.725606
668.633528	6942.374608
668.973896	6896.132103
669.314213	6853.292378
669.654480	6774.365553
669.994695	6733.691003
670.334859	6681.394073
670.674973	6625.439786
671.015035	6605.723833
671.355047	6560.257667
671.695008	6516.830647
672.034918	6464.385003
672.374777	6442.307270
672.714585	6390.965638
673.054342	6387.174691
673.394049	6319.416542
673.733705	6321.226316
674.073310	6247.380974
674.412864	6220.375513
674.752368	6134.438963
675.091820	6127.988807
675.431223	6047.811775
675.770574	5981.392053
676.109875	5927.633188
676.449125	5863.000555
676.788324	5818.346014
677.127473	5728.346294
677.466571	5679.535322
677.805619	5620.130365
678.144616	5589.162557
678.483562	5549.869284
678.822458	5483.754551
679.161303	5444.816679
679.500098	5408.512809
679.838842	5369.814392
680.177535	5358.013051
680.516179	5356.472978
680.854771	5358.875088
681.193314	5418.837092
681.531805	5510.185321
681.870247	5567.750256
682.208638	5616.583914
682.546978	5613.513851
682.885268	5602.572027
683.223508	5527.300038
683.561697	5469.435153
683.899836	5430.202374
684.237925	5358.207135
684.575963	5324.653215
684.913951	5264.222383
685.251889	5257.144603
685.589776	5232.115274
685.927614	5214.032656
686.265401	5206.748188
686.603137	5202.745512
686.940824	5230.078648
687.278460	5259.365232
687.616046	5257.696610
687.953582	5294.144152
688.291068	5276.933653
688.628504	5281.518582
688.965889	5256.569912
689.303224	5204.396490
689.640510	5151.850023
689.977745	5069.399431
690.314930	4977.784022
690.652065	4906.494545
690.989150	4818.236544
691.326185	4719.107294
691.663170	4637.853977
692.000105	4558.297007
692.336990	4483.975276
692.673825	4427.486627
693.010610	4373.153071
693.347345	4306.012463
693.684030	4241.294130
694.020665	4203.883727
694.357251	4136.861587
694.693786	4120.162765
695.030272	4087.470882
695.366707	4036.388870
695.703093	4003.628932
696.039429	3988.346674
696.375716	3960.469093
696.711952	3949.708750
697.048139	3924.271088
697.384276	3908.479674
697.720363	3898.825864
698.056400	3876.463306
698.392388	3852.679142
698.728326	3844.409129
699.064214	3815.248574
699.400053	3800.840957
699.735842	3767.014814
700.071581	3734.945514
700.407270	3701.903271
700.742910	3679.729756
701.078501	3651.879902
701.414042	3623.876292
701.749533	3594.347733
702.084974	3561.819688
702.420366	3563.609298
702.755709	3528.139739
703.091002	3499.450533
703.426246	3492.773525
703.761440	3478.139055
704.096584	3451.078141
704.431679	3436.350410
704.766725	3426.094183
705.101721	3412.077254
705.436668	3410.862336
705.771565	3383.451062
706.106413	3394.307187
706.441212	3386.677401
706.775961	3385.316289
707.110661	3380.383520
707.445311	3390.279305
707.779913	3376.171636
708.114465	3383.922410
708.448967	3390.032289
708.783421	3418.875250
709.117825	3429.890172
709.452180	3438.066923
709.786485	3452.519911
710.120742	3489.902588
710.454949	3493.131447
710.789107	3514.831093
711.123216	3546.086247
711.457275	3554.237793
711.791286	3577.411977
712.125247	3579.556988
712.459159	3568.262283
712.793023	3587.879933
713.126837	3530.335162
713.460602	3529.498330
713.794318	3498.220491
714.127985	3464.684215
714.461602	3413.183788
714.795171	3398.077970
715.128691	3339.618230
715.462162	3305.666058
715.795584	3272.434772
716.128957	3252.144128
716.462281	3223.825446
716.795556	3203.610419
717.128782	3175.145544
717.461960	3146.927686
717.795088	3138.390492
718.128167	3115.486009
718.461198	3091.764860
718.794180	3081.276739
719.127113	3061.356620
719.459997	3046.770041
719.792833	3028.266486
720.125619	3023.192564
720.458357	3004.699092
720.791046	2995.158708
721.123686	2982.918786
721.456278	2972.647435
721.788821	2967.228195
722.121315	2954.121195
722.453761	2951.414095
722.786158	2949.669856
723.118506	2942.836572
723.450805	2936.804832
723.783056	2937.765171
724.115259	2932.749223
724.447412	2927.463573
724.779518	2933.891045
725.111574	2927.264448
725.443582	2937.442538
725.775542	2930.324428
726.107453	2944.923610
726.439315	2940.068979
726.771129	2952.626493
727.102895	2963.278451
727.434612	2968.485963
727.766281	2970.547795
728.097901	2972.937302
728.429473	2975.097436
728.760996	2968.019656
729.092471	2969.353041
729.423897	2960.788121
729.755276	2952.805454
730.086606	2952.573561
730.417887	2962.058492
730.749120	2974.270687
731.080305	2975.099957
731.411442	2979.069865
731.742530	2978.540544
732.073570	2976.667756
732.404562	2984.600011
732.735506	2978.820328
733.066401	2964.246353
733.397249	2944.790019
733.728048	2921.988880
734.058798	2890.738768
734.389501	2867.574666
734.720156	2851.442973
735.050762	2833.123420
735.381320	2819.119095
735.711831	2807.229534
736.042293	2797.076650
736.372707	2792.889972
736.703073	2787.246400
737.033391	2787.621966
737.363661	2788.088272
737.693883	2791.206226
738.024056	2794.745116
738.354182	2797.918522
738.684260	2803.383133
739.014290	2810.478557
739.344272	2817.052222
739.674207	2822.607573
740.004093	2824.969354
740.333931	2825.092862
740.663722	2821.821153
740.993464	2818.496512
741.323159	2812.684062
741.652806	2802.256435
741.982405	2796.040693
742.311956	2784.879578
742.641460	2778.447066
742.970915	2766.638163
743.300323	2755.658530
743.629683	2748.205184
743.958996	2739.978021
744.288260	2732.116341
744.617477	2723.279199
744.946647	2715.001624
745.275768	2708.637167
745.604842	2701.725745
745.933869	2695.078984
746.262847	2693.609488
746.591778	2693.753161
746.920662	2690.103365
747.249498	2691.121678
747.578286	2693.034796
747.907027	2694.315249
748.235720	2701.468647
748.564365	2698.204499
748.892963	2693.876669
749.221514	2696.172914
749.550017	2693.092769
749.878473	2688.835515
750.206881	2683.832170
750.535242	2682.884433
750.863555	2678.707837
751.191821	2676.824966
751.520039	2674.115346
751.848210	2670.095026
752.176334	2670.634429
752.504411	2670.074861
752.832440	2663.042451
753.160421	2662.878614
753.488356	2659.400218
753.816243	2658.328972
754.144082	2656.582213
754.471875	2650.273209
754.799620	2652.536687
755.127318	2650.147180
755.454969	2648.266829
755.782572	2649.436377
756.110129	2647.225831
756.437638	2645.126191
756.765100	2641.957825
757.092515	2642.860192
757.419882	2643.515542
757.747203	2645.592497
758.074477	2645.859678
758.401703	2645.345481
758.728882	2648.286994
759.056014	2648.130718
759.383099	2650.779845
759.710138	2651.987201
760.037129	2654.036430
760.364073	2655.329486
760.690970	2653.272695
761.017820	2652.781183
761.344623	2655.079949
761.671379	2662.205620
761.998088	2667.203924
762.324751	2700.316743
762.651366	2752.308683
762.977935	2824.256031
763.304456	2863.171218
763.630931	2876.265615
763.957359	2858.306504
764.283740	2822.607573
764.610074	2787.795886
764.936362	2747.398599
765.262602	2714.903322
765.588796	2688.734692
765.914943	2664.907678
766.241044	2647.883702
766.567097	2633.902062
766.893104	2621.435288
767.219064	2611.657970
767.544978	2604.912906
767.870845	2596.905033
768.196665	2591.132912
768.522438	2590.369177
768.848165	2584.493713
769.173846	2577.269739
769.499479	2575.981724
769.825066	2569.196331
770.150607	2568.261197
770.476101	2567.237843
770.801548	2564.409756
771.126949	2563.106618
771.452303	2557.591595
771.777611	2557.268961
772.102872	2553.215874
772.428087	2551.872406
772.753256	2551.965667
773.078378	2549.666901
773.403453	2547.181613
773.728482	2542.798329
774.053465	2540.945705
774.378401	2535.811290
774.703291	2537.179963
775.028135	2533.593182
775.352932	2535.471012
775.677683	2531.990095
776.002388	2528.546987
776.327046	2531.249046
776.651658	2531.818696
776.976224	2523.916687
777.300743	2527.463139
777.625216	2524.647655
777.949643	2522.822757
778.274024	2525.701256
778.598359	2518.724299
778.922647	2519.435102
779.246889	2517.400996
779.571086	2518.235307
779.895236	2521.852335
780.219339	2519.845956
780.543397	2517.887468
780.867409	2521.552386
781.191374	2521.469207
781.515294	2520.029958
781.839167	2524.652696
782.162995	2523.760412
782.486776	2519.858559
782.810511	2521.038189
783.134201	2516.165913
783.457844	2517.746315
783.781441	2519.427540
784.104993	2516.244051
784.428498	2519.402334
784.751958	2515.392096
785.075372	2517.552231
785.398739	2514.681294
785.722061	2512.763135
786.045337	2513.438649
786.368568	2517.811850
786.691752	2517.022910
787.014891	2523.397449
787.337983	2526.228057
787.661030	2537.202648
787.984031	2547.211859
788.306987	2551.655637
788.629897	2552.936090
788.952760	2552.376522
789.275579	2551.048178
789.598351	2542.304296
789.921078	2540.449152
790.243759	2532.305168
790.566395	2527.483304
790.888984	2522.081707
791.211529	2519.419978
791.534027	2517.564834
791.856480	2512.165758
792.178888	2511.117198
792.501249	2511.071827
792.823566	2510.870181
793.145836	2510.565192
793.468062	2507.797598
793.790241	2507.696775
794.112375	2509.141066
794.434464	2506.610406
794.756507	2511.825480
795.078505	2513.685666
795.400457	2515.409740
795.722364	2517.053157
796.044226	2522.570699
796.366042	2524.022552
796.687812	2525.335772
797.009538	2526.217974
797.331218	2527.009435
797.652852	2527.785773
797.974442	2521.869979
798.295986	2520.415606
798.617484	2520.861748
798.938938	2518.142046
799.260346	2515.717251
799.581709	2511.785151
799.903026	2513.937723
800.224299	2508.974707
800.545526	2510.315654
800.866708	2509.811539
801.187845	2505.415653
801.508936	2502.204438
801.829983	2503.442041
802.150984	2501.362565
802.471940	2501.493635
802.792851	2501.980107
803.113717	2500.314005
803.434538	2496.639004
803.755314	2502.307782
804.076045	2498.267297
804.396731	2497.702688
804.717372	2497.609426
805.037967	2498.221926
805.358518	2499.005826
805.679024	2500.142606
805.999485	2499.194869
806.319901	2501.733090
806.640272	2499.633449
806.960598	2501.400374
807.280879	2501.836434
807.601115	2499.905672
807.921306	2502.567401
808.241453	2502.635457
808.561554	2502.464057
808.881611	2502.476660
809.201623	2501.879283
809.521590	2499.479694
809.841513	2497.886690
810.161390	2500.427431
810.481223	2498.496669
810.801011	2497.266628
811.120755	2501.118069
811.440453	2498.647904
811.760107	2495.043479
812.079716	2492.502737
812.399281	2490.478714
812.718801	2493.614312
813.038276	2484.078969
813.357707	2494.428458
813.677093	2492.235556
813.996434	2496.124806
814.315731	2493.790752
814.634983	2493.203458
814.954191	2494.027686
815.273354	2496.013901
815.592473	2494.461226
815.911547	2500.860970
816.230577	2499.716628
816.549562	2503.003461
816.868502	2504.220899
817.187399	2505.100581
817.506250	2504.198214
817.825058	2510.171982
818.143821	2511.447393
818.462539	2517.567354
818.781213	2522.159845
819.099843	2530.543284
819.418429	2548.346119
819.736970	2560.298695
820.055466	2579.039184
820.373919	2602.689757
820.692327	2635.628657
821.010691	2698.219623
821.329011	2835.974193
821.647286	3051.526370
821.965517	3285.007410
822.283704	3420.317020
822.601847	3464.671612
822.919945	3366.041438
823.237999	3252.938110
823.556010	3138.040131
823.873976	3029.287319
824.191897	2935.660490
824.509775	2863.642566
824.827609	2798.276444
825.145398	2758.322780
825.463144	2735.743452
825.780845	2742.831314
826.098502	2767.648914
826.416116	2815.764207
826.733685	2865.207844
827.051210	2879.063455
827.368692	2853.666122
827.686129	2800.083698
828.003522	2744.285687
828.320872	2689.127902
828.638177	2652.778662
828.955439	2623.277830
829.272656	2595.813624
829.589830	2571.328739
829.906960	2557.682336
830.224046	2542.185829
830.541088	2535.100487
830.858086	2526.838036
831.175041	2519.369567
831.491952	2520.881913
831.808819	2520.087931
832.125642	2526.737213
832.442421	2545.107178
832.759157	2568.924109
833.075849	2611.438680
833.392497	2651.377221
833.709101	2678.634740
834.025662	2674.619461
834.342179	2654.033909
834.658653	2623.166924
834.975083	2598.162801
835.291469	2577.370562
835.607811	2554.803837
835.924110	2540.363452
836.240366	2527.440454
836.556578	2515.495440
836.872746	2508.276508
837.188871	2498.859632
837.504952	2494.168839
837.820990	2488.064001
838.136984	2488.121975
838.452935	2484.429329
838.768842	2485.001500
839.084706	2493.034579
839.400526	2513.118536
839.716303	2532.748789
840.032037	2549.855945
840.347727	2545.366797
840.663373	2534.631660
840.978977	2520.163548
841.294537	2503.986486
841.610054	2499.666217
841.925527	2493.241266
842.240957	2484.489823
842.556344	2480.771972
842.871687	2475.415746
843.186987	2469.855354
843.502244	2464.859570
843.817458	2465.814869
844.132629	2461.345886
844.447756	2460.020062
844.762840	2455.382201
845.077881	2458.505196
845.392879	2455.435133
845.707833	2456.420679
846.022745	2451.535801
846.337613	2455.656944
846.652438	2455.457818
846.967221	2453.345575
847.281960	2451.351798
847.596656	2453.199381
847.911309	2452.642334
848.225919	2453.073353
848.540485	2452.148301
848.855009	2454.999073
849.169490	2451.979422
849.483928	2454.830195
849.798323	2452.607046
850.112675	2450.313321
850.426984	2452.191151
850.741251	2449.766356
851.055474	2454.386573
851.369654	2450.540173
851.683792	2453.471604
851.997887	2451.591253
852.311938	2454.066460
852.625947	2452.818774
852.939914	2453.033023
853.253837	2451.119905
853.567718	2450.333485
853.881555	2453.418672
854.195350	2450.479679
854.509103	2451.891202
854.822812	2454.036213
855.136479	2451.193002
855.450103	2451.445060
855.763685	2452.423044
856.077224	2453.590071
856.390720	2453.711058
856.704173	2449.947837
857.017584	2451.646706
857.330953	2452.407920
857.644278	2451.621500
857.957561	2453.252313
858.270802	2454.570575
858.584000	2453.827005
858.897155	2453.743826
859.210268	2451.429936
859.523339	2453.748867
859.836367	2451.427416
860.149352	2451.747529
860.462295	2452.425564
860.775195	2448.243927
861.088054	2446.446756
861.400869	2450.177210
861.713642	2447.144956
862.026373	2452.392797
862.339062	2450.204936
862.651708	2453.388425
862.964312	2455.190637
863.276873	2452.453291
863.589392	2456.413117
863.901869	2455.362036
864.214303	2455.548559
864.526696	2457.668364
864.839045	2456.042592
865.151353	2458.449743
865.463619	2457.086111
865.775842	2457.580144
866.088023	2454.326079
866.400162	2458.986626
866.712258	2459.768005
867.024313	2457.491924
867.336325	2458.996708
867.648296	2458.003601
867.960224	2457.423868
868.272110	2457.431430
868.583954	2461.177007
868.895755	2458.563169
869.207515	2457.645679
869.519233	2460.816565
869.830909	2461.539970
870.142542	2462.825465
870.454134	2461.247583
870.765684	2461.388736
871.077191	2461.938222
871.388657	2461.217337
871.700081	2462.674230
872.011463	2463.185907
872.322803	2465.015846
872.634101	2462.845629
872.945357	2464.635239
873.256571	2466.802935
873.567744	2467.841413
873.878874	2467.957359
874.189963	2468.012812
874.501010	2468.915178
874.812015	2465.998871
875.122979	2469.331074
875.433900	2468.348049
875.744780	2470.971969
876.055618	2469.280662
876.366415	2472.658235
876.677169	2470.157823
876.987882	2471.196301
877.298554	2469.300827
877.609183	2474.687300
877.919771	2477.661580
878.230317	2479.945223
878.540822	2485.127529
878.851285	2493.402583
879.161707	2500.177894
879.472087	2516.024761
879.782425	2539.201466
880.092722	2582.212591
880.402977	2646.051242
880.713191	2723.206102
881.023363	2796.489355
881.333494	2840.100377
881.643583	2861.064016
881.953631	2851.672346
882.263637	2826.965651
882.573602	2800.655869
882.883526	2767.623708
883.193408	2743.345512
883.503248	2709.471478
883.813048	2684.071625
884.122806	2654.117088
884.432522	2626.867131
884.742197	2601.671444
885.051831	2582.520101
885.361424	2562.201730
885.670975	2545.528114
885.980485	2532.416073
886.289954	2524.569517
886.599382	2511.865809
886.908768	2510.751714
887.218113	2500.503048
887.527417	2495.172028
887.836680	2490.282109
888.145901	2486.297077
888.455082	2483.713486
888.764221	2480.789616
889.073319	2478.949595
889.382376	2478.528659
889.691392	2474.861219
890.000366	2474.901549
890.309300	2473.815180
890.618193	2473.164871
890.927044	2471.632360
891.235855	2476.124028
891.544625	2476.706282
891.853353	2476.615541
892.162041	2478.853813
892.470687	2482.990080
892.779293	2487.607777
893.087858	2490.894609
893.396381	2500.687051
893.704864	2518.441994
894.013306	2537.459747
894.321707	2566.887483
894.630068	2580.266705
894.938387	2583.631675
895.246665	2579.583629
895.554903	2569.692885
895.863100	2557.102603
896.171256	2543.612476
896.479371	2536.844727
896.787446	2525.562624
897.095480	2518.953672
897.403473	2513.718433
897.711425	2505.708040
898.019336	2500.649242
898.327207	2496.139930
898.635038	2492.661534
898.942827	2485.795482
899.250576	2484.434371
899.558284	2477.210397
899.865952	2474.740232
900.173579	2472.219655
900.481165	2474.946919
900.788711	2468.592545
901.096216	2470.765282
901.403681	2470.538430
901.711105	2470.361990
902.018489	2468.181691
902.325832	2473.479943
902.633135	2474.064717
902.940397	2479.186529
903.247619	2497.201093
903.554800	2529.487163
903.861941	2568.233471
904.169041	2598.384612
904.476101	2610.715274
904.783121	2598.956783
905.090100	2583.858527
905.397039	2570.600293
905.703938	2554.677808
906.010796	2538.266332
906.317614	2526.298633
906.624391	2520.380318
906.931129	2506.743997
907.237826	2498.713439
907.544483	2493.226143
907.851099	2485.044350
908.157675	2475.430870
908.464211	2469.318471
908.770707	2462.933849
909.077163	2459.047120
909.383578	2456.793724
909.689954	2453.786676
909.996289	2449.847014
910.302584	2451.377004
910.608839	2454.300873
910.915054	2451.157714
911.221229	2451.387087
911.527363	2455.064608
911.833458	2453.133846
912.139513	2454.242900
912.445527	2452.624690
912.751502	2457.265072
913.057436	2458.106945
913.363331	2462.394446
913.669186	2469.389047
913.975000	2471.879377
914.280775	2480.038484
914.586510	2493.518530
914.892205	2512.916890
915.197859	2534.014119
915.503475	2559.897923
915.809050	2583.611511
916.114585	2595.490990
916.420081	2600.738831
916.725536	2600.680858
917.030952	2589.834815
917.336328	2580.163362
917.641665	2571.568194
917.946961	2560.462532
918.252218	2557.445402
918.557435	2540.741538
918.862612	2534.578728
919.167750	2524.090607
919.472848	2511.384379
919.777906	2506.333143
920.082925	2499.091525
920.387904	2492.401914
920.692843	2483.468990
920.997743	2479.753659
921.302603	2475.798874
921.607423	2470.828296
921.912204	2469.308388
922.216946	2467.264201
922.521647	2466.755044
922.826310	2459.306739
923.130932	2461.865125
923.435516	2456.816409
923.740059	2453.438836
924.044564	2454.131995
924.349028	2452.813733
924.653454	2445.924996
924.957840	2446.293001
925.262186	2443.296035
925.566493	2445.436004
925.870761	2438.186825
926.174989	2444.906683
926.479178	2443.018771
926.783328	2442.489450
927.087438	2442.885181
927.391509	2443.066662
927.695541	2438.965683
927.999533	2441.342588
928.303486	2438.534665
928.607400	2439.666404
928.911275	2436.394695
929.215110	2437.402926
929.518906	2439.379058
929.822663	2439.167330
930.126381	2439.038780
930.430060	2438.517021
930.733699	2437.937288
931.037299	2439.762186
931.340861	2440.152875
931.644383	2439.958791
931.947866	2437.861671
932.251309	2440.654470
932.554714	2440.432659
932.858080	2440.147834
933.161407	2438.131373
933.464694	2439.603389
933.767943	2437.171033
934.071153	2440.178081
934.374323	2439.525252
934.677455	2438.784202
934.980548	2437.871753
935.283602	2435.678851
935.586617	2437.924685
935.889593	2437.234047
936.192530	2437.564243
936.495428	2437.816300
936.798287	2439.986517
937.101108	2439.852927
937.403890	2439.308482
937.706632	2444.241251
938.009336	2440.651949
938.312002	2449.431119
938.614628	2444.788216
938.917216	2448.087651
939.219765	2447.233176
939.522275	2449.736109
939.824747	2448.692590
940.127179	2444.488267
940.429573	2445.173864
940.731929	2444.480706
941.034246	2444.090016
941.336524	2449.481530
941.638763	2445.516663
941.940964	2447.656633
942.243126	2447.497836
942.545250	2447.543207
942.847335	2447.228135
943.149381	2447.195367
943.451389	2444.556323
943.753359	2443.618668
944.055290	2441.491302
944.357182	2441.264450
944.659036	2442.940633
944.960851	2442.035746
945.262628	2441.458534
945.564367	2441.435849
945.866067	2441.234203
946.167729	2440.324274
946.469352	2441.950047
946.770937	2442.174378
947.072484	2441.748400
947.373992	2439.321085
947.675462	2439.056424
947.976893	2437.420570
948.278286	2442.108843
948.579641	2438.650611
948.880958	2437.329829
949.182236	2436.954263
949.483476	2439.056424
949.784678	2441.501384
950.085841	2440.863678
950.386967	2438.829572
950.688054	2439.749583
950.989103	2441.299738
951.290114	2438.958122
951.591087	2441.551795
951.892021	2442.663370
952.192917	2440.394851
952.493776	2441.496343
952.794596	2442.121446
953.095378	2443.739656
953.396122	2443.958946
953.696828	2441.403081
953.997496	2442.960798
954.298126	2442.154213
954.598718	2440.863678
954.899272	2437.881835
955.199788	2438.358224
955.500266	2439.671445
955.800706	2433.110383
956.101108	2432.853284
956.401472	2434.290013
956.701798	2429.838674
957.002087	2432.719694
957.302337	2430.645259
957.602550	2434.290013
957.902724	2430.095773
958.202861	2432.354210
958.502960	2430.720876
958.803022	2430.541915
959.103045	2428.248190
959.403031	2429.158119
959.702979	2431.789601
960.002889	2429.863880
960.302762	2428.543098
960.602596	2428.134764
960.902393	2425.606626
961.202153	2429.326997
961.501875	2425.347006
961.801559	2427.169383
962.101205	2425.478076
962.400814	2426.909764
962.700385	2427.365988
962.999918	2425.861204
963.299414	2424.220308
963.598873	2428.114600
963.898293	2428.530495
964.197677	2425.798190
964.497022	2423.658220
964.796331	2422.476069
965.095601	2424.885741
965.394835	2424.948755
965.694030	2428.064188
965.993189	2427.234918
966.292309	2423.426327
966.591393	2424.999167
966.890439	2423.847263
967.189447	2425.460432
967.488419	2423.960689
967.787353	2424.520257
968.086249	2423.151584
968.385108	2423.690987
968.683930	2427.822213
968.982714	2426.302305
969.281462	2426.403128
969.580172	2423.625452
969.878844	2423.920360
970.177480	2423.814496
970.476078	2425.936821
970.774639	2429.185845
971.073162	2425.379774
971.371649	2421.987077
971.670098	2421.911460
971.968510	2421.684608
972.266885	2419.645461
972.565223	2423.156625
972.863524	2425.127716
973.161788	2428.480083
973.460014	2425.374733
973.758204	2424.943714
974.056356	2426.382963
974.354471	2424.263158
974.652550	2427.557552
974.950591	2425.992274
975.248595	2425.339445
975.546563	2424.800041
975.844493	2425.984712
976.142386	2425.987233
976.440243	2422.040009
976.738062	2424.202664
977.035845	2424.429516
977.333590	2422.408014
977.631299	2423.305339
977.928971	2425.478076
978.226606	2424.452202
978.524204	2423.625452
978.821765	2426.385484
979.119290	2423.806934
979.416777	2424.921029
979.714228	2421.611511
980.011642	2424.623601
980.309020	2427.751637
980.606360	2423.302818
980.903664	2424.863056
981.200931	2424.948755
981.498162	2429.697522
981.795356	2429.813469
982.092513	2431.908068
982.389633	2435.227668
982.686717	2439.719336
982.983764	2439.926023
983.280775	2442.355859
983.577749	2439.802515
983.874686	2441.743359
984.171587	2439.323605
984.468451	2440.558688
984.765279	2434.179108
985.062070	2435.842689
985.358824	2435.588110
985.655543	2430.536874
985.952224	2432.331525
986.248869	2429.765578
986.545478	2423.721234
986.842050	2425.543611
987.138586	2421.581264
987.435086	2421.389701
987.731549	2420.288208
988.027975	2422.307191
988.324366	2421.951789
988.620719	2422.342479
988.917037	2418.609504
989.213318	2421.901378
989.509563	2417.946593
989.805772	2418.730492
990.101944	2418.566654
990.398080	2419.307704
990.694180	2419.590009
990.990244	2417.268557
991.286271	2418.228897
991.582262	2421.248548
991.878217	2419.738723
992.174136	2418.657395
992.470019	2418.501119
992.765865	2422.864238
993.061676	2420.227715
993.357450	2420.986408
993.653188	2420.376429
993.948890	2420.905750
994.244556	2422.438261
994.540186	2420.903229
994.835780	2421.682087
995.131337	2421.561100
995.426859	2425.397418
995.722345	2427.552511
996.017795	2428.016297
996.313208	2429.821030
996.608586	2430.957811
996.903928	2429.241298
997.199234	2429.132913
997.494504	2427.630649
997.789738	2425.021852
998.084936	2427.421441
998.380099	2424.628642
998.675225	2422.975143
998.970316	2426.786256
999.265371	2425.168045
999.560390	2421.339289
999.855373	2422.350040
1000.150320	2421.924063
1000.445232	2421.314083
1000.740108	2419.295101
1001.034948	2419.075811
1001.329752	2415.136149
1001.624521	2418.564134
1001.919254	2413.802764
1002.213951	2414.387538
1002.508613	2415.315110
1002.803239	2415.385686
1003.097829	2412.703793
1003.392384	2415.357960
1003.686903	2414.594225
1003.981386	2416.981212
1004.275834	2414.949627
1004.570246	2416.429205
1004.864623	2415.466345
1005.158964	2413.890984
1005.453270	2413.326375
1005.747540	2416.865265
1006.041775	2416.298135
1006.335974	2414.763104
1006.630138	2415.920049
1006.924266	2412.645819
1007.218359	2417.429874
1007.512416	2413.880902
1007.806438	2415.385686
1008.100425	2415.413413
1008.394376	2414.652198
1008.688292	2414.478279
1008.982172	2413.530542
1009.276017	2416.572878
1009.569827	2415.710841
1009.863602	2413.570871
1010.157341	2414.833680
1010.451045	2413.364184
1010.744714	2414.626993
1011.038347	2413.371745
1011.331945	2412.875192
1011.625508	2413.744791
1011.919036	2412.849986
1012.212528	2412.991138
1012.505986	2413.933834
1012.799408	2413.946437
1013.092795	2414.266550
1013.386147	2412.870151
1013.679464	2412.303021
1013.972745	2412.860068
1014.265992	2412.204718
1014.559204	2415.846952
1014.852380	2412.862589
1015.145521	2414.092630
1015.438628	2413.167579
1015.731699	2412.877712
1016.024736	2411.645150
1016.317737	2412.408885
1016.610703	2416.320820
1016.903635	2410.737742
1017.196531	2408.055849
1017.489393	2413.356622
1017.782219	2407.080385
1018.075011	2415.690676
1018.367768	2411.186405
1018.660490	2411.269584
1018.953177	2411.269584
1019.245829	2411.269584
