Dividing Wavelength (nm)	Counts (n)	Blue Motor Position (mm): 0.000000	Red Motor Position (mm): 25.000000	
326.493990	1985.241673
326.888308	1985.241673
327.282561	1985.241673
327.676750	1960.459360
328.070874	1961.034052
328.464933	1967.126286
328.858929	1977.556434
329.252859	1989.171252
329.646726	2004.014930
330.040528	2021.018742
330.434265	2038.080527
330.827938	2056.679864
331.221547	2078.535786
331.615091	2098.523961
332.008571	2119.573299
332.401986	2140.998203
332.795338	2159.925215
333.188625	2181.448422
333.581847	2199.478108
333.975006	2219.551983
334.368100	2235.045969
334.761129	2253.060533
335.154095	2266.071751
335.546996	2284.045985
335.939833	2309.249233
336.332606	2322.862869
336.725315	2334.800322
337.117960	2340.363235
337.510540	2348.071159
337.903056	2359.993488
338.295508	2363.658407
338.687896	2371.779706
339.080220	2379.016282
339.472480	2383.603732
339.864676	2388.415513
340.256807	2392.576986
340.648875	2391.906512
341.040879	2395.851215
341.432818	2395.944477
341.824694	2395.384908
342.216506	2396.642676
342.608253	2395.883983
342.999937	2396.141082
343.391557	2395.495814
343.783113	2395.289127
344.174605	2393.338200
344.566033	2391.846018
344.957397	2388.148332
345.348697	2387.314021
345.739934	2389.088507
346.131106	2384.785883
346.522215	2380.969729
346.913260	2378.330685
347.304241	2380.911756
347.695159	2375.505118
348.086012	2376.982176
348.476802	2373.597042
348.867528	2373.486136
349.258191	2373.445807
349.648789	2371.015971
350.039324	2368.873480
350.429796	2371.802391
350.820203	2369.357431
351.210548	2369.916999
351.600828	2369.947246
351.991045	2370.106042
352.381198	2367.406505
352.771288	2368.208048
353.161314	2367.340970
353.551276	2367.000692
353.941175	2367.159488
354.331010	2369.362472
354.720782	2369.816176
355.110490	2368.079499
355.500135	2372.094778
355.889717	2368.235774
356.279235	2370.532020
356.668689	2372.006558
357.058080	2372.200642
357.447408	2369.097812
357.836672	2367.373737
358.225873	2371.474716
358.615010	2371.696527
359.004084	2373.697865
359.393095	2375.467310
359.782043	2377.463607
360.170927	2375.638709
360.559748	2376.241127
360.948505	2378.194574
361.337199	2376.959491
361.725830	2379.462424
362.114398	2381.609956
362.502903	2381.365460
362.891344	2381.501571
363.279722	2383.409648
363.668037	2385.063146
364.056289	2383.785213
364.444478	2384.387631
364.832603	2386.111706
365.220665	2386.212529
365.608665	2386.963661
365.996601	2388.788559
366.384474	2390.424413
366.772284	2392.244270
367.160031	2388.894423
367.547715	2392.055226
367.935336	2391.871224
368.322893	2392.365257
368.710388	2390.757129
369.097820	2398.422204
369.485189	2398.873387
369.872495	2401.439334
370.259738	2401.409087
370.646918	2405.172309
371.034035	2403.370096
371.421090	2407.844120
371.808081	2411.017527
372.195010	2414.821077
372.581875	2421.790472
372.968678	2425.485638
373.355418	2432.810435
373.742096	2443.434666
374.128710	2454.366408
374.515262	2464.640280
374.901751	2480.421612
375.288177	2499.401556
375.674540	2516.291942
376.060841	2534.835827
376.447079	2561.526216
376.833254	2588.322469
377.219367	2612.514966
377.605417	2647.298928
377.991404	2672.885304
378.377329	2714.343753
378.763191	2745.661922
379.148991	2793.265537
379.534727	2843.901407
379.920402	2890.887482
380.306013	2938.017229
380.691563	3000.330932
381.077049	3055.062739
381.462474	3113.456945
381.847835	3182.871112
382.233134	3257.046650
382.618371	3315.476144
383.003545	3404.916295
383.388657	3481.420846
383.773706	3571.347469
384.158693	3644.426556
384.543618	3739.658993
384.928480	3820.350222
385.313280	3920.195315
385.698017	4029.580792
386.082692	4148.851971
386.467305	4211.392526
386.851856	4335.898944
387.236344	4492.167151
387.620770	4555.657963
388.005133	4680.711346
388.389435	4819.358200
388.773674	4905.687960
389.157851	5039.457498
389.541965	5172.082694
389.926018	5194.725036
390.310008	5371.667016
390.693936	5495.926417
391.077802	5609.105362
391.461606	5746.060909
391.845348	5861.609196
392.229027	5976.602957
392.612645	6198.325506
392.996200	6319.721532
393.379694	6491.377861
393.763125	6715.580658
394.146494	6809.394010
394.529801	6944.844773
394.913047	7184.763367
395.296230	7177.688107
395.679351	7237.733291
396.062410	7493.750810
396.445408	7390.843216
396.828343	7544.288377
397.211217	7680.623862
397.594028	7561.965183
397.976778	7767.717357
398.359466	7933.987213
398.742092	7906.709530
399.124656	8047.435860
399.507158	8236.325374
399.889598	8255.905216
400.271977	8468.576373
400.654294	8497.300868
401.036549	8696.013070
401.418742	8723.023572
401.800874	9017.290846
402.182944	9097.586344
402.564952	9462.598650
402.946898	9283.315055
403.328783	9342.036935
403.710606	9535.259321
404.092367	9794.500657
404.474067	10157.834259
404.855705	9945.858781
405.237282	9901.504189
405.618797	10327.421195
406.000250	10569.268030
406.381642	10940.811151
406.762972	10879.324198
407.144240	10687.568788
407.525447	10938.950965
407.906593	10869.302384
408.287677	11129.385593
408.668700	11286.672114
409.049661	11260.823597
409.430560	11421.696899
409.811399	11390.260263
410.192176	11550.513503
410.572891	11625.288938
410.953545	12099.164961
411.334138	11582.779408
411.714669	12172.249089
412.095139	11490.874133
412.475547	11988.713281
412.855894	11835.225269
413.236180	12160.651915
413.616405	11856.582118
413.996568	12122.939043
414.376670	12099.056577
414.756711	11978.015952
415.136691	12247.833629
415.516609	12428.783326
415.896466	12495.780261
416.276262	12781.795165
416.655997	13224.317732
417.035670	13262.955656
417.415283	13902.242019
417.794834	13990.048837
418.174324	13738.023912
418.553753	13637.445331
418.933121	14125.998674
419.312428	13936.589921
419.691674	13846.025592
420.070859	14302.403770
420.449983	13952.492241
420.829045	14500.969779
421.208047	14243.999483
421.586988	14696.687536
421.965867	14957.221929
422.344686	14945.483602
422.723444	15510.922103
423.102141	14209.467579
423.480777	15380.368821
423.859352	14889.955292
424.237866	15989.332644
424.616319	15684.645305
424.994712	16345.981675
425.373044	16134.563245
425.751314	16802.458156
426.129524	15935.364571
426.507673	17017.725508
426.885762	16712.226543
427.263789	16905.171666
427.641756	17068.152170
428.019662	17132.555431
428.397508	17179.405394
428.775292	17462.932489
429.153016	17428.824042
429.530679	17505.454622
429.908282	17528.323816
430.285824	17245.709170
430.663305	17945.280171
431.040726	17550.562866
431.418086	17374.619035
431.795385	18021.444444
432.172624	18446.506975
432.549802	17992.926637
432.926920	18188.465433
433.303977	18064.213593
433.680974	18320.021904
434.057910	18605.358774
434.434786	18617.923850
434.811601	18538.714720
435.188355	19563.135155
435.565050	19219.540191
435.941683	19173.045629
436.318257	20039.713236
436.694770	19848.414051
437.071222	20427.161197
437.447614	19508.710858
437.823946	19532.230361
438.200218	19680.253761
438.576429	19460.593044
438.952580	19724.018538
439.328670	19671.880405
439.704700	20087.417675
440.080670	19649.986674
440.456580	20235.846888
440.832429	20405.910213
441.208218	19400.636081
441.583947	19826.275824
441.959616	19924.666544
442.335224	20154.326390
442.710773	20266.839902
443.086261	20786.343409
443.461689	20144.942282
443.837057	20253.395145
444.212365	20859.757732
444.587612	20837.793425
444.962800	20399.875952
445.337927	20802.878394
445.712995	19542.247134
446.088002	21312.453348
446.462949	21474.327318
446.837837	21621.332406
447.212664	21548.938916
447.587431	24261.636733
447.962139	27044.537658
448.336786	29291.833631
448.711374	27709.909472
449.085901	24125.200424
449.460369	24016.218240
449.834776	23883.966089
450.209124	26172.370152
450.583412	25657.257490
450.957640	26083.114002
451.331808	24725.183432
451.705917	23353.112425
452.079965	23300.082007
452.453954	23549.845974
452.827883	23358.393033
453.201752	23074.374426
453.575562	23123.823104
453.949311	24056.854981
454.323001	23986.971986
454.696632	23665.895856
455.070202	24952.317659
455.443713	24950.429747
455.817164	25322.093856
456.190556	25646.267774
456.563888	25014.477607
456.937160	25243.489664
457.310373	23657.550226
457.683526	23888.099836
458.056619	23723.881728
458.429653	23510.381301
458.802628	23826.365866
459.175542	23763.626185
459.548398	24660.122300
459.921194	25759.025783
460.293930	26127.173687
460.666607	27549.636068
461.039224	28778.497976
461.411782	28856.114101
461.784280	27645.657445
462.156719	27026.376901
462.529099	26355.144746
462.901419	25112.046619
463.273680	24071.582712
463.645882	23896.891608
464.018024	23662.135156
464.390106	24045.567838
464.762130	25791.500896
465.134094	28508.004784
465.505999	32101.853443
465.877845	35206.206064
466.249631	35737.674749
466.621358	34041.976789
466.993026	32089.863059
467.364634	30240.515770
467.736184	28517.918213
468.107674	27315.892887
468.479105	26465.011653
468.850477	25694.806524
469.221790	24457.029335
469.593043	23053.279717
469.964238	22192.230476
470.335373	21841.759378
470.706449	22568.169483
471.077467	23789.383961
471.448425	26193.227926
471.819324	27580.969359
472.190164	26144.381665
472.560945	23738.024686
472.931667	21660.671050
473.302330	20728.660006
473.672934	19977.994390
474.043479	19952.465987
474.413965	19244.473738
474.784393	18767.852806
475.154761	18932.358259
475.525070	18665.474533
475.895321	18149.386408
476.265513	18134.852762
476.635645	18315.754567
477.005719	17927.497501
477.375734	17860.248509
477.745691	17872.906846
478.115588	18161.127256
478.485427	18718.172235
478.855207	19854.670123
479.224928	20677.895587
479.594591	21031.774505
479.964194	20216.521625
480.333739	19893.726462
480.703226	19547.694100
481.072653	19450.215829
481.442022	19302.199990
481.811333	19053.953410
482.180584	18206.469914
482.549777	17677.083225
482.918912	17145.617060
483.287988	16725.131897
483.657005	16126.245341
484.025964	15605.020280
484.394864	15306.682275
484.763706	14870.682961
485.132489	14331.408049
485.501213	14006.929141
485.869879	13778.816929
486.238487	13398.073703
486.607036	13183.907843
486.975527	12771.591870
487.343959	12567.684759
487.712333	12330.158192
488.080648	12066.079869
488.448905	11928.461410
488.817104	11643.553038
489.185244	11612.706218
489.553326	11752.973803
489.921350	12118.691871
490.289315	12550.242366
490.657222	12436.566868
491.025070	12238.094120
491.392861	11773.272009
491.760593	11242.340207
492.128267	10658.778758
492.495883	10138.128389
492.863440	9663.728086
493.230939	9232.207837
493.598380	8866.978761
493.965763	8619.957182
494.333088	8312.212383
494.700354	8067.557626
495.067563	7848.963113
495.434713	7669.137593
495.801805	7507.498036
496.168839	7302.376007
496.535815	7110.214784
496.902733	6959.227185
497.269593	6765.578822
497.636395	6616.937880
498.003139	6519.915833
498.369825	6328.036915
498.736453	6220.988013
499.103023	6049.583741
499.469535	5915.640283
499.835989	5797.596625
500.202385	5649.593389
500.568723	5541.407707
500.935003	5441.870124
501.301226	5320.096012
501.667390	5264.277836
502.033497	5177.895144
502.399546	5039.107138
502.765537	4897.475920
503.131470	4830.231969
503.497345	4761.238738
503.863163	4599.016927
504.228923	4548.527251
504.594625	4490.987521
504.960269	4377.798494
505.325856	4339.899099
505.691385	4241.243718
506.056856	4182.085778
506.422270	4136.670023
506.787625	4056.296387
507.152924	4005.905013
507.518164	3951.397537
507.883347	3868.888972
508.248472	3828.232066
508.613540	3793.591778
508.978550	3759.558948
509.343503	3704.454095
509.708398	3668.505627
510.073236	3645.480157
510.438016	3608.110083
510.802738	3554.671332
511.167403	3537.891852
511.532010	3508.784229
511.896561	3485.804129
512.261053	3480.578973
512.625488	3434.951490
512.989866	3403.587951
513.354186	3378.470402
513.718449	3351.288501
514.082655	3346.171730
514.446803	3315.531597
514.810894	3305.915596
515.174927	3286.991104
515.538904	3266.929832
515.902822	3264.179883
516.266684	3235.374730
516.630488	3223.664129
516.994235	3208.147458
517.357925	3201.780481
517.721558	3196.267979
518.085133	3183.521421
518.448651	3173.514731
518.812112	3158.015703
519.175516	3149.717964
519.538863	3145.634630
519.902152	3131.998308
520.265385	3132.109214
520.628560	3122.294087
520.991678	3111.248919
521.354739	3105.345728
521.717743	3103.016715
522.080690	3092.226125
522.443580	3092.193358
522.806413	3084.150197
523.169189	3076.134762
523.531908	3076.787592
523.894569	3066.307033
524.257174	3061.820406
524.619722	3058.863769
524.982213	3055.014848
525.344647	3044.342725
525.707025	3037.968186
526.069345	3039.029349
526.431608	3035.500542
526.793815	3030.434182
527.155964	3019.804909
527.518057	3015.898015
527.880093	3010.325019
528.242072	3009.866274
528.603995	3005.984586
528.965860	2995.746002
529.327669	2994.596619
529.689421	2988.764004
530.051117	2986.785351
530.412755	2981.771924
530.774337	2981.033395
531.135862	2974.184987
531.497331	2972.435707
531.858743	2962.970941
532.220098	2968.294399
532.581396	2960.984726
532.942638	2951.862758
533.303824	2956.077163
533.664953	2952.331585
534.026025	2946.811522
534.387040	2946.161213
534.747999	2942.493774
535.108902	2946.072993
535.469748	2933.465067
535.830537	2934.551436
536.191270	2935.284924
536.551947	2931.604881
536.912567	2927.372833
537.273131	2924.000301
537.633638	2921.106678
537.994089	2921.855290
538.354483	2914.089392
538.714821	2920.630289
539.075103	2920.574837
539.435328	2918.777665
539.795497	2913.292890
540.155609	2913.124011
540.515665	2913.557551
540.875665	2906.459606
541.235609	2907.946746
541.595496	2906.227713
541.955328	2909.199473
542.315102	2903.442475
542.674821	2900.626991
543.034483	2898.539953
543.394090	2896.760426
543.753640	2895.096845
544.113134	2904.864081
544.472571	2893.869324
544.831953	2904.450706
545.191278	2892.460322
545.550548	2890.252296
545.909761	2895.011146
546.268918	2895.527864
546.628019	2895.636249
546.987064	2891.641134
547.346053	2883.635782
547.704986	2890.983264
548.063863	2883.257695
548.422684	2882.499002
548.781449	2881.667211
549.140158	2884.230638
549.498811	2880.570760
549.857408	2874.372662
550.215949	2879.439021
550.574434	2874.712940
550.932864	2875.285111
551.291237	2875.728732
551.649555	2877.122611
552.007817	2874.145810
552.366022	2873.480378
552.724173	2873.792929
553.082267	2873.228320
553.440305	2874.044987
553.798288	2868.978627
554.156215	2871.852085
554.514086	2872.101622
554.871902	2869.603730
555.229661	2866.001826
555.587365	2863.546784
555.945014	2864.877648
556.302606	2863.508975
556.660143	2862.583923
557.017625	2864.670961
557.375050	2860.383460
557.732421	2863.335055
558.089735	2860.877493
558.446994	2856.161493
558.804197	2863.894623
559.161345	2860.985878
559.518437	2851.740402
559.875474	2855.249045
560.232455	2854.946575
560.589381	2855.725434
560.946251	2853.388859
561.303065	2854.628983
561.659825	2853.343488
562.016528	2849.119002
562.373177	2846.782427
562.729770	2845.993486
563.086307	2842.825121
563.442789	2843.785461
563.799216	2844.352591
564.155587	2841.897549
564.511904	2838.593072
564.868164	2837.020232
565.224370	2838.492249
565.580520	2836.218689
565.936615	2835.026456
566.292654	2828.558656
566.648638	2830.043275
567.004567	2829.294664
567.360441	2828.016732
567.716260	2824.351813
568.072023	2822.547080
568.427732	2819.388797
568.783385	2815.066007
569.138982	2814.708085
569.494525	2812.220276
569.850013	2808.300779
570.205445	2806.024698
570.560823	2802.261477
570.916145	2804.739204
571.271412	2798.352062
571.626625	2799.667803
571.981782	2794.462812
572.336884	2788.826802
572.691931	2787.584157
573.046923	2783.863786
573.401860	2780.760955
573.756743	2778.681479
574.111570	2773.902466
574.466342	2775.180398
574.821059	2770.235026
575.175722	2766.517175
575.530330	2763.177411
575.884882	2759.353696
576.239380	2753.500916
576.593823	2754.249527
576.948211	2747.877509
577.302544	2742.579256
577.656823	2742.301993
578.011047	2741.104719
578.365216	2732.776732
578.719330	2733.618605
579.073389	2725.353633
579.427394	2726.813047
579.781344	2722.966647
580.135239	2719.039588
580.489080	2715.725030
580.842866	2711.271170
581.196597	2714.540358
581.550273	2709.060624
581.903895	2707.281097
582.257463	2706.308154
582.610975	2700.357072
582.964434	2700.379757
583.317837	2693.135619
583.671186	2690.073118
584.024481	2688.780062
584.377721	2687.529856
584.730906	2684.588343
585.084037	2685.152952
585.437113	2679.166582
585.790135	2678.579287
586.143103	2673.714574
586.496016	2673.028977
586.848874	2666.823317
587.201679	2671.433452
587.554428	2662.011535
587.907124	2661.494817
588.259765	2659.105310
588.612352	2660.287461
588.964884	2656.614980
589.317362	2655.573982
589.669786	2655.732778
590.022155	2652.619866
590.374470	2651.346974
590.726731	2648.143321
591.078937	2646.061325
591.431090	2646.525111
591.783188	2641.761220
592.135232	2637.325005
592.487222	2636.387350
592.839157	2637.312402
593.191038	2634.098667
593.542866	2632.006588
593.894639	2629.390229
594.246358	2626.196658
594.598022	2628.175311
594.949633	2625.924436
595.301190	2624.926287
595.652692	2625.664816
596.004141	2619.733899
596.355535	2618.103085
596.706876	2617.094855
597.058162	2612.877929
597.409395	2617.299021
597.760573	2615.711058
598.111698	2614.133177
598.462768	2615.272477
598.813785	2613.641664
599.164748	2608.930706
599.515657	2609.548247
599.866511	2605.227978
600.217312	2610.294338
600.568060	2605.371651
600.918753	2607.284769
601.269392	2607.814090
601.619978	2604.418873
601.970510	2602.432659
602.320988	2603.922320
602.671412	2603.924840
603.021783	2602.394850
603.372100	2600.408635
603.722363	2602.667072
604.072572	2601.389140
604.422728	2601.043821
604.772830	2597.530137
605.122878	2595.415372
605.472872	2598.354365
605.822813	2594.470156
606.172701	2597.802359
606.522534	2599.115579
606.872314	2598.372009
607.222041	2597.588110
607.571714	2601.195055
607.921333	2596.126175
608.270899	2597.956114
608.620411	2597.464602
608.969870	2594.596185
609.319276	2597.081474
609.668627	2597.890579
610.017926	2599.309664
610.367171	2598.059458
610.716362	2600.123810
611.065500	2598.407297
611.414585	2599.478542
611.763616	2598.626587
612.112594	2598.387133
612.461518	2597.883017
612.810389	2599.097935
613.159207	2599.907041
613.507971	2598.472832
613.856682	2598.999633
614.205340	2597.656165
614.553945	2599.944849
614.902496	2599.034921
615.250994	2604.247474
615.599439	2599.080291
615.947830	2600.907710
616.296169	2600.781681
616.644454	2599.342431
616.992686	2599.907041
617.340864	2603.324943
617.688990	2599.097935
618.037063	2602.294027
618.385082	2601.421907
618.733048	2603.090529
619.080961	2602.220930
619.428821	2601.941146
619.776628	2601.164808
620.124382	2600.280086
620.472083	2599.927205
620.819731	2602.563729
621.167326	2598.956783
621.514868	2599.801176
621.862357	2594.195413
622.209793	2596.819334
622.557176	2594.248345
622.904506	2591.004363
623.251783	2587.314238
623.599007	2586.709300
623.946179	2586.376584
624.293297	2585.950606
624.640363	2579.651684
624.987376	2584.390369
625.334336	2580.644792
625.681243	2583.624114
626.028097	2583.190574
626.374899	2580.828794
626.721647	2581.516911
627.068343	2580.783423
627.414987	2577.163875
627.761577	2578.081365
628.108115	2578.174626
628.454600	2577.423494
628.801032	2575.563309
629.147412	2573.912331
629.493739	2573.982907
629.840014	2576.987435
630.186236	2572.412587
630.532405	2571.779923
630.878521	2574.166909
631.224585	2570.990982
631.570597	2572.127762
631.916556	2571.479974
632.262462	2569.208934
632.608316	2568.815724
632.954117	2569.680282
633.299866	2568.815724
633.645562	2567.878070
633.991206	2563.817420
634.336797	2561.803479
634.682336	2564.492935
635.027823	2559.378684
635.373257	2560.631411
635.718639	2558.589744
636.063968	2557.198385
636.409245	2557.147974
636.754470	2554.445915
637.099642	2556.180072
637.444762	2552.832746
637.789829	2552.535318
638.134845	2550.062632
638.479808	2552.742005
638.824719	2549.835780
639.169577	2548.333516
639.514383	2548.227652
639.859137	2546.727909
640.203839	2548.283105
640.548489	2547.622713
640.893086	2545.681869
641.237632	2541.235572
641.582125	2543.771272
641.926566	2538.120138
642.270955	2542.362269
642.615292	2545.775131
642.959576	2544.736653
643.303809	2542.465613
643.647990	2544.308155
643.992118	2545.011396
644.336195	2541.517876
644.680219	2543.932589
645.024192	2542.828576
645.368112	2546.604400
645.711981	2546.395193
646.055797	2551.176727
646.399562	2545.689431
646.743274	2552.250493
647.086935	2552.807540
647.430544	2550.770914
647.774101	2552.184958
648.117606	2551.711089
648.461059	2552.842828
648.804460	2553.490617
649.147810	2550.783517
649.491108	2551.045657
649.834354	2548.870399
650.177548	2542.175747
650.520690	2541.303627
650.863781	2541.333874
651.206820	2544.477033
651.549807	2537.366486
651.892742	2537.908410
652.235626	2535.672658
652.578458	2537.121990
652.921238	2533.825075
653.263967	2534.755168
653.606644	2532.443799
653.949269	2535.123173
654.291843	2529.930784
654.634365	2531.972451
654.976836	2531.647297
655.319255	2531.178470
655.661622	2531.105373
656.003938	2532.443799
656.346203	2529.792152
656.688416	2532.035466
657.030577	2530.167718
657.372687	2528.005063
657.714746	2530.374406
658.056753	2529.068747
658.398708	2523.384846
658.740612	2526.260824
659.082465	2524.256965
659.424266	2523.170597
659.766016	2519.546007
660.107715	2526.497758
660.449362	2526.611184
660.790958	2526.752337
661.132503	2526.157480
661.473996	2527.218643
661.815438	2524.367871
662.156829	2527.722759
662.498168	2527.929446
662.839456	2527.697553
663.180693	2527.589168
663.521879	2528.703263
663.863013	2528.965403
664.204097	2526.890968
664.545129	2530.540764
664.886110	2523.997346
665.227040	2525.257634
665.567918	2527.972296
665.908746	2528.080681
666.249522	2527.009435
666.590248	2529.658562
666.930922	2530.828109
667.271545	2529.393901
667.612118	2530.787780
667.952639	2525.766791
668.293109	2528.473891
668.633528	2527.571524
668.973896	2529.507327
669.314213	2526.742254
669.654480	2529.835002
669.994695	2526.893489
670.334859	2524.370391
670.674973	2523.856194
671.015035	2524.486338
671.355047	2523.669671
671.695008	2525.444157
672.034918	2524.703108
672.374777	2524.093128
672.714585	2523.989784
673.054342	2525.050947
673.394049	2525.547501
673.733705	2523.891482
674.073310	2524.249404
674.412864	2522.174969
674.752368	2521.423837
675.091820	2523.566327
675.431223	2522.437109
675.770574	2520.680267
676.109875	2517.950482
676.449125	2517.128774
676.788324	2516.239010
677.127473	2516.090296
677.466571	2511.933865
677.805619	2513.617610
678.144616	2513.715913
678.483562	2511.071827
678.822458	2516.841428
679.161303	2513.015192
679.500098	2516.322189
679.838842	2513.307579
680.177535	2514.151973
680.516179	2513.756242
680.854771	2516.052488
681.193314	2518.507529
681.531805	2522.487520
681.870247	2522.588343
682.208638	2525.146729
682.546978	2525.817203
682.885268	2526.424662
683.223508	2525.570186
683.561697	2524.695546
683.899836	2525.053468
684.237925	2519.588857
684.575963	2523.515916
684.913951	2519.677077
685.251889	2521.323014
685.589776	2520.284536
685.927614	2519.296470
686.265401	2520.130781
686.603137	2519.992149
686.940824	2524.597243
687.278460	2523.087418
687.616046	2523.518436
687.953582	2528.597399
688.291068	2526.729651
688.628504	2527.780732
688.965889	2528.088242
689.303224	2525.882738
689.640510	2524.307377
689.977745	2524.078004
690.314930	2518.378980
690.652065	2519.997190
690.989150	2517.257323
691.326185	2510.408916
691.663170	2509.700634
692.000105	2507.999244
692.336990	2504.180570
692.673825	2505.130828
693.010610	2502.040600
693.347345	2499.129334
693.684030	2493.730258
694.020665	2495.275372
694.357251	2491.063488
694.693786	2494.622543
695.030272	2492.323776
695.366707	2491.623056
695.703093	2491.436533
696.039429	2490.700525
696.375716	2492.487614
696.711952	2490.314877
697.048139	2489.659527
697.384276	2491.043323
697.720363	2491.184476
698.056400	2490.178765
698.392388	2487.713641
698.728326	2489.346975
699.064214	2486.223980
699.400053	2486.037458
699.735842	2488.956286
700.071581	2485.049391
700.407270	2484.951089
700.742910	2479.199132
701.078501	2483.925214
701.414042	2478.382465
701.749533	2481.124853
702.084974	2482.425471
702.420366	2477.154944
702.755709	2479.844400
703.091002	2477.076807
703.426246	2477.197794
703.761440	2477.775006
704.096584	2476.993628
704.431679	2476.197125
704.766725	2477.805253
705.101721	2476.287866
705.436668	2476.940695
705.771565	2475.032619
706.106413	2472.905252
706.441212	2477.013792
706.775961	2476.176961
707.110661	2476.358442
707.445311	2479.365490
707.779913	2478.158134
708.114465	2478.072434
708.448967	2479.768783
708.783421	2481.306335
709.117825	2481.618886
709.452180	2483.022847
709.786485	2484.222642
710.120742	2487.814464
710.454949	2488.943683
710.789107	2486.672643
711.123216	2488.926039
711.457275	2491.582727
711.791286	2489.369660
712.125247	2490.052737
712.459159	2495.285454
712.793023	2493.604229
713.126837	2491.030720
713.460602	2495.159425
713.794318	2493.836123
714.127985	2490.314877
714.461602	2491.192037
714.795171	2489.561224
715.128691	2484.477220
715.462162	2482.576705
715.795584	2480.363639
716.128957	2477.704430
716.462281	2478.384986
716.795556	2479.015130
717.128782	2475.864409
717.461960	2474.238637
717.795088	2474.226034
718.128167	2472.378451
718.461198	2469.638584
718.794180	2470.888790
719.127113	2472.504480
719.459997	2470.425004
719.792833	2469.441979
720.125619	2468.521968
720.458357	2468.143882
720.791046	2465.209930
721.123686	2465.088943
721.456278	2464.761268
721.788821	2463.919395
722.121315	2463.440485
722.453761	2468.017853
722.786158	2464.196658
723.118506	2464.985599
723.450805	2465.898048
723.783056	2465.958542
724.115259	2466.230764
724.447412	2464.216823
724.779518	2467.722946
725.111574	2464.423510
725.443582	2468.201855
725.775542	2465.298151
726.107453	2466.868470
726.439315	2464.882255
726.771129	2473.129583
727.102895	2466.737400
727.434612	2472.413739
727.766281	2470.404839
728.097901	2470.435086
728.429473	2466.006433
728.760996	2471.844089
729.092471	2467.206227
729.423897	2471.965077
729.755276	2471.778554
730.086606	2473.845427
730.417887	2474.588997
730.749120	2476.731488
731.080305	2476.918010
731.411442	2479.652836
731.742530	2475.461117
732.073570	2479.415902
732.404562	2479.428505
732.735506	2481.323979
733.066401	2478.654688
733.397249	2477.485140
733.728048	2474.523462
734.058798	2473.051445
734.389501	2467.816207
734.720156	2467.382668
735.050762	2467.561629
735.381320	2465.661114
735.711831	2460.879579
736.042293	2464.083232
736.372707	2461.582820
736.703073	2460.733386
737.033391	2460.894703
737.363661	2461.534929
737.693883	2463.563994
738.024056	2466.649180
738.354182	2462.238170
738.684260	2465.973665
739.014290	2463.117852
739.344272	2469.547843
739.674207	2469.189921
740.004093	2471.244192
740.333931	2466.974334
740.663722	2469.164716
740.993464	2468.219499
741.323159	2467.717904
741.652806	2467.528861
741.982405	2466.876032
742.311956	2462.654065
742.641460	2465.575414
742.970915	2462.699436
743.300323	2463.475773
743.629683	2462.023921
743.958996	2461.625670
744.288260	2457.106276
744.617477	2454.434464
744.946647	2454.157201
745.275768	2456.486214
745.604842	2454.590740
745.933869	2451.709720
746.262847	2451.233331
746.591778	2456.962603
746.920662	2452.934721
747.249498	2455.793055
747.578286	2456.324897
747.907027	2458.137192
748.235720	2455.193158
748.564365	2459.263889
748.892963	2459.505865
749.221514	2458.663992
749.550017	2455.719958
749.878473	2456.314814
750.206881	2455.714917
750.535242	2459.236163
750.863555	2454.177365
751.191821	2455.929166
751.520039	2457.232304
751.848210	2457.297839
752.176334	2454.741974
752.504411	2456.191306
752.832440	2452.148301
753.160421	2453.774073
753.488356	2453.287602
753.816243	2453.935390
754.144082	2451.155193
754.471875	2450.517488
754.799620	2453.053188
755.127318	2453.469083
755.454969	2452.541511
755.782572	2455.752726
756.110129	2449.070676
756.437638	2450.809874
756.765100	2448.664863
757.092515	2451.467745
757.419882	2452.450770
757.747203	2452.745677
758.074477	2454.704166
758.401703	2453.648044
758.728882	2454.540328
759.056014	2455.435133
759.383099	2455.966975
759.710138	2456.768518
760.037129	2454.691563
760.364073	2453.922787
760.690970	2453.746347
761.017820	2456.304732
761.344623	2456.692901
761.671379	2458.936214
761.998088	2456.937397
762.324751	2467.246557
762.651366	2479.186529
762.977935	2496.044148
763.304456	2501.967504
763.630931	2510.744153
763.957359	2504.541013
764.283740	2497.521206
764.610074	2488.265648
764.936362	2477.457414
765.262602	2473.351394
765.588796	2466.971814
765.914943	2461.449230
766.241044	2457.406224
766.567097	2451.351798
766.893104	2451.679473
767.219064	2448.833742
767.544978	2447.553289
767.870845	2443.812753
768.196665	2444.531117
768.522438	2445.904832
768.848165	2441.831579
769.173846	2443.086827
769.499479	2444.331992
769.825066	2440.447783
770.150607	2438.963163
770.476101	2441.554316
770.801548	2440.457865
771.126949	2438.524583
771.452303	2440.649429
771.777611	2435.719180
772.102872	2437.420570
772.428087	2438.030549
772.753256	2437.281938
773.078378	2436.407298
773.403453	2432.427307
773.728482	2437.037442
774.053465	2433.133068
774.378401	2431.829930
774.703291	2433.543923
775.028135	2432.641556
775.352932	2430.751123
775.677683	2433.022163
776.002388	2433.259097
776.327046	2431.532502
776.651658	2431.807245
776.976224	2432.989396
777.300743	2429.216092
777.625216	2430.637697
777.949643	2432.664241
778.274024	2432.432348
778.598359	2428.916143
778.922647	2425.566297
779.246889	2430.733479
779.571086	2426.864394
779.895236	2431.519899
780.219339	2430.153747
780.543397	2431.759354
780.867409	2430.559559
781.191374	2429.904209
781.515294	2430.615012
781.839167	2430.012594
782.162995	2432.757503
782.486776	2431.172060
782.810511	2429.505958
783.134201	2429.823551
783.457844	2431.792122
783.781441	2430.577203
784.104993	2427.600402
784.428498	2429.763057
784.751958	2428.343972
785.075372	2430.725917
785.398739	2428.076791
785.722061	2428.759867
786.045337	2429.992430
786.368568	2431.852615
786.691752	2428.328849
787.014891	2431.187183
787.337983	2431.953438
787.661030	2434.489139
787.984031	2437.748245
788.306987	2440.687238
788.629897	2438.779161
788.952760	2441.670263
789.275579	2440.074737
789.598351	2436.639191
789.921078	2436.049376
790.243759	2435.164653
790.566395	2433.748089
790.888984	2432.162646
791.211529	2431.590475
791.534027	2430.347831
791.856480	2427.754157
792.178888	2429.654672
792.501249	2429.848757
792.823566	2428.185176
793.145836	2427.499579
793.468062	2428.701894
793.790241	2428.991761
794.112375	2428.374219
794.434464	2429.422779
794.756507	2428.696853
795.078505	2431.950918
795.400457	2429.833633
795.722364	2430.380598
796.044226	2431.761875
796.366042	2429.072419
796.687812	2428.689291
797.009538	2433.304468
797.331218	2435.023501
797.652852	2434.970569
797.974442	2435.270518
798.295986	2432.906217
798.617484	2433.165836
798.938938	2431.955959
799.260346	2432.316402
799.581709	2432.442430
799.903026	2432.565939
800.224299	2429.102666
800.545526	2428.719538
800.866708	2425.772984
801.187845	2429.526123
801.508936	2429.543767
801.829983	2427.978489
802.150984	2427.560073
802.471940	2429.016966
802.792851	2425.863725
803.113717	2429.364806
803.434538	2425.319280
803.755314	2426.657706
804.076045	2427.683581
804.396731	2427.192069
804.717372	2429.049734
805.037967	2427.139137
805.358518	2426.151070
805.679024	2426.393046
805.999485	2425.120154
806.319901	2428.127203
806.640272	2425.195772
806.960598	2425.460432
807.280879	2425.987233
807.601115	2427.096287
807.921306	2427.076122
808.241453	2429.206010
808.561554	2426.249373
808.881611	2427.560073
809.201623	2428.071750
809.521590	2429.692481
809.841513	2426.032603
810.161390	2426.312387
810.481223	2426.572007
810.801011	2426.975299
811.120755	2426.052768
811.440453	2426.924888
811.760107	2424.580751
812.079716	2423.025555
812.399281	2422.937335
812.718801	2422.455905
813.038276	2419.796696
813.357707	2425.803231
813.677093	2422.992787
813.996434	2426.889599
814.315731	2423.799372
814.634983	2422.652510
814.954191	2427.857501
815.273354	2426.869435
815.592473	2426.876997
815.911547	2427.865063
816.230577	2425.939342
816.549562	2425.929260
816.868502	2428.212902
817.187399	2429.967224
817.506250	2431.978644
817.825058	2429.508479
818.143821	2432.626433
818.462539	2430.683068
818.781213	2433.808583
819.099843	2438.706064
819.418429	2443.921138
819.736970	2450.542693
820.055466	2456.985288
820.373919	2462.989302
820.692327	2474.185705
821.010691	2497.185969
821.329011	2545.820501
821.647286	2619.754063
821.965517	2700.047041
822.283704	2744.847775
822.601847	2757.788417
822.919945	2729.464694
823.237999	2689.231246
823.556010	2651.415030
823.873976	2614.518825
824.191897	2582.860379
824.509775	2554.060267
824.827609	2532.302647
825.145398	2518.910822
825.463144	2511.069307
825.780845	2513.610048
826.098502	2522.250586
826.416116	2540.055942
826.733685	2559.159394
827.051210	2563.547718
827.368692	2553.538507
827.686129	2532.282482
828.003522	2514.061232
828.320872	2491.827223
828.638177	2477.772486
828.955439	2468.501804
829.272656	2460.367902
829.589830	2449.836932
829.906960	2447.906170
830.224046	2442.058431
830.541088	2441.763524
830.858086	2439.431990
831.175041	2434.768923
831.491952	2437.584407
831.808819	2437.639860
832.125642	2439.477361
832.442421	2441.894594
832.759157	2455.077211
833.075849	2465.656072
833.392497	2484.078969
833.709101	2491.285299
834.025662	2491.786893
834.342179	2481.686942
834.658653	2472.607824
834.975083	2463.659776
835.291469	2462.263376
835.607811	2447.707044
835.924110	2443.565736
836.240366	2436.608944
836.556578	2434.320260
836.872746	2433.170877
837.188871	2429.185845
837.504952	2426.133426
837.820990	2421.145205
838.136984	2426.892120
838.452935	2422.667633
838.768842	2425.231060
839.084706	2427.003025
839.400526	2431.837492
839.716303	2442.418874
840.032037	2445.735953
840.347727	2448.478341
840.663373	2439.739501
840.978977	2436.205652
841.294537	2429.989909
841.610054	2425.843560
841.925527	2428.835485
842.240957	2422.592016
842.556344	2423.643096
842.871687	2420.454567
843.186987	2418.382652
843.502244	2417.598753
843.817458	2413.018865
844.132629	2415.214287
844.447756	2414.626993
844.762840	2409.381672
845.077881	2412.691190
845.392879	2410.158010
845.707833	2413.036509
846.022745	2408.895201
846.337613	2416.714030
846.652438	2412.935686
846.967221	2412.817218
847.281960	2413.618762
847.596656	2412.381159
847.911309	2410.465520
848.225919	2413.585994
848.540485	2413.495254
848.855009	2413.336457
849.169490	2409.926117
849.483928	2411.932496
849.798323	2409.457289
850.112675	2411.380490
850.426984	2410.654563
850.741251	2411.521642
851.055474	2411.332599
851.369654	2409.149779
851.683792	2412.053484
851.997887	2411.332599
852.311938	2411.256981
852.625947	2412.650860
852.939914	2409.293452
853.253837	2411.962743
853.567718	2409.711868
853.881555	2409.293452
854.195350	2410.836045
854.509103	2411.662794
854.822812	2410.959553
855.136479	2410.399985
855.450103	2410.765469
855.763685	2408.438976
856.077224	2412.171951
856.390720	2410.931827
856.704173	2409.870664
857.017584	2410.621796
857.330953	2410.929306
857.644278	2411.322516
857.957561	2415.068094
858.270802	2412.839904
858.584000	2410.546179
858.897155	2412.469379
859.210268	2411.516601
859.523339	2411.549368
859.836367	2408.736404
860.149352	2412.434091
860.462295	2413.724626
860.775195	2407.483678
861.088054	2405.469737
861.400869	2408.149110
861.713642	2405.696589
862.026373	2414.271591
862.339062	2409.016188
862.651708	2410.851168
862.964312	2410.132804
863.276873	2410.457958
863.589392	2410.518452
863.901869	2416.051119
864.214303	2413.928793
864.526696	2412.902918
864.839045	2413.250758
865.151353	2411.516601
865.463619	2415.171437
865.775842	2414.654719
866.088023	2415.143711
866.400162	2412.383679
866.712258	2411.831673
867.024313	2412.449214
867.336325	2411.700603
867.648296	2416.363670
867.960224	2410.591549
868.272110	2412.534914
868.583954	2412.073648
868.895755	2412.544996
869.207515	2411.965263
869.519233	2413.651529
869.830909	2415.383166
870.142542	2414.753022
870.454134	2412.489543
870.765684	2415.030285
871.077191	2416.630851
871.388657	2412.429050
871.700081	2416.993814
872.011463	2415.088258
872.322803	2415.504153
872.634101	2417.114802
872.945357	2416.736716
873.256571	2416.270409
873.567744	2417.324010
873.878874	2416.010789
874.189963	2416.081366
874.501010	2416.900553
874.812015	2416.293094
875.122979	2416.847621
875.433900	2416.567837
875.744780	2420.663774
876.055618	2417.777714
876.366415	2420.857859
876.677169	2417.364339
876.987882	2417.026582
877.298554	2412.330747
877.609183	2418.952303
877.919771	2414.004410
878.230317	2421.306522
878.540822	2423.491862
878.851285	2426.473704
879.161707	2429.826072
879.472087	2435.472164
879.782425	2445.131015
880.092722	2462.467543
880.402977	2489.107520
880.713191	2520.390400
881.023363	2553.326779
881.333494	2572.329408
881.643583	2580.848958
881.953631	2576.211097
882.263637	2564.117369
882.573602	2553.132695
882.883526	2538.934285
883.193408	2529.711494
883.503248	2513.657939
883.813048	2503.326095
884.122806	2491.653303
884.432522	2481.689462
884.742197	2470.177987
885.051831	2464.300002
885.361424	2453.698456
885.670975	2449.887343
885.980485	2442.867537
886.289954	2438.363266
886.599382	2435.194900
886.908768	2435.608275
887.218113	2430.176432
887.527417	2427.970927
887.836680	2425.357089
888.145901	2423.330545
888.455082	2422.632345
888.764221	2422.155956
889.073319	2420.903229
889.382376	2418.745615
889.691392	2419.484144
890.000366	2418.735533
890.309300	2423.416244
890.618193	2416.600604
890.927044	2416.711510
891.235855	2420.154618
891.544625	2419.811819
891.853353	2421.699732
892.162041	2419.569844
892.470687	2424.195103
892.779293	2422.957499
893.087858	2425.067222
893.396381	2425.987233
893.704864	2435.467123
894.013306	2445.317537
894.321707	2454.749536
894.630068	2465.585496
894.938387	2463.616926
895.246665	2459.241204
895.554903	2458.716924
895.863100	2451.621500
896.171256	2448.196036
896.479371	2445.120932
896.787446	2442.227310
897.095480	2439.618513
897.403473	2435.688933
897.711425	2434.204314
898.019336	2429.957142
898.327207	2429.836154
898.635038	2425.004208
898.942827	2427.880186
899.250576	2423.360792
899.558284	2421.687129
899.865952	2421.399783
900.173579	2421.243507
900.481165	2419.040523
900.788711	2416.698907
901.096216	2417.523136
901.403681	2418.319638
901.711105	2414.067425
902.018489	2417.560944
902.325832	2419.862231
902.633135	2416.474576
902.940397	2423.983374
903.247619	2429.085022
903.554800	2442.592794
903.861941	2457.015535
904.169041	2471.445838
904.476101	2476.721405
904.783121	2471.231589
905.090100	2466.994499
905.397039	2461.106431
905.703938	2452.092848
906.010796	2447.588577
906.317614	2442.005499
906.624391	2434.889911
906.931129	2432.447472
907.237826	2428.152408
907.544483	2425.054619
907.851099	2420.943558
908.157675	2421.361974
908.464211	2415.438618
908.770707	2412.492064
909.077163	2411.133473
909.383578	2408.081054
909.689954	2407.725653
909.996289	2407.652556
910.302584	2412.504667
910.608839	2410.042063
910.915054	2410.296642
911.221229	2411.163720
911.527363	2411.909811
911.833458	2410.901580
912.139513	2410.193298
912.445527	2414.211098
912.751502	2409.437125
913.057436	2414.374935
913.363331	2413.525501
913.669186	2414.684966
913.975000	2418.533887
914.280775	2423.312901
914.586510	2430.723397
914.892205	2436.268666
915.197859	2447.492795
915.503475	2456.087962
915.809050	2463.813531
916.114585	2469.910806
916.420081	2472.915334
916.725536	2472.375931
917.030952	2468.504324
917.336328	2461.391256
917.641665	2459.077367
917.946961	2455.490586
918.252218	2455.851028
918.557435	2446.315686
918.862612	2446.534976
919.167750	2437.692792
919.472848	2435.484767
919.777906	2430.418407
920.082925	2429.815989
920.387904	2426.907243
920.692843	2424.618560
920.997743	2422.881882
921.302603	2420.845256
921.607423	2415.771335
921.912204	2417.361819
922.216946	2418.304514
922.521647	2417.278640
922.826310	2416.406520
923.130932	2413.487692
923.435516	2408.731363
923.740059	2412.741601
924.044564	2410.221024
924.349028	2410.785633
924.653454	2406.558626
924.957840	2407.347567
925.262186	2405.741959
925.566493	2406.215828
925.870761	2403.682648
926.174989	2405.540313
926.479178	2406.808163
926.783328	2404.229613
927.087438	2406.281362
927.391509	2408.625499
927.695541	2405.681465
927.999533	2403.866650
928.303486	2403.854047
928.607400	2404.741290
928.911275	2405.532751
929.215110	2405.598286
929.518906	2403.206259
929.822663	2406.689696
930.126381	2404.895045
930.430060	2405.164747
930.733699	2403.985117
931.037299	2405.439490
931.340861	2407.440828
931.644383	2405.532751
931.947866	2404.295148
932.251309	2404.993348
932.554714	2406.858575
932.858080	2404.156516
933.161407	2405.545354
933.464694	2406.467885
933.767943	2403.687689
934.071153	2405.943605
934.374323	2404.176681
934.677455	2404.736249
934.980548	2400.695764
935.283602	2404.965621
935.586617	2403.992679
935.889593	2404.544685
936.192530	2402.525703
936.495428	2403.609551
936.798287	2406.533420
937.101108	2406.518297
937.403890	2405.187432
937.706632	2406.233472
938.009336	2406.064593
938.312002	2408.617937
938.614628	2407.488719
938.917216	2409.164903
939.219765	2409.686662
939.522275	2410.334450
939.824747	2409.250602
940.127179	2404.637946
940.429573	2405.084088
940.731929	2406.188101
941.034246	2403.312123
941.336524	2408.996024
941.638763	2405.502504
941.940964	2406.790519
942.243126	2408.499470
942.545250	2407.345046
942.847335	2406.611558
943.149381	2408.007958
943.451389	2406.689696
943.753359	2406.656928
944.055290	2405.265570
944.357182	2406.145251
944.659036	2405.764644
944.960851	2404.965621
945.262628	2405.240364
945.564367	2403.869170
945.866067	2402.135013
946.167729	2405.242885
946.469352	2404.751372
946.770937	2406.699778
947.072484	2404.053173
947.373992	2404.048131
947.675462	2406.878739
947.976893	2405.462175
948.278286	2405.482340
948.579641	2406.268760
948.880958	2402.581156
949.182236	2403.438152
949.483476	2405.807494
949.784678	2409.356466
950.085841	2405.159706
950.386967	2404.126269
950.688054	2405.033677
950.989103	2403.566701
951.290114	2406.505694
951.591087	2405.021074
951.892021	2404.542164
952.192917	2406.087278
952.493776	2408.988462
952.794596	2407.637433
953.095378	2406.082237
953.396122	2406.951836
953.696828	2405.245405
953.997496	2406.190622
954.298126	2407.118194
954.598718	2406.271280
954.899272	2408.897721
955.199788	2406.122566
955.500266	2404.839592
955.800706	2402.283728
956.101108	2397.660989
956.401472	2402.407236
956.701798	2398.800290
957.002087	2399.511093
957.302337	2402.384551
957.602550	2402.271125
957.902724	2402.029149
958.202861	2399.127965
958.502960	2400.978069
958.803022	2401.746845
959.103045	2400.184087
959.403031	2401.741803
959.702979	2400.733573
960.002889	2401.444375
960.302762	2402.077040
960.602596	2402.213151
960.902393	2398.949004
961.202153	2401.028480
961.501875	2399.705177
961.801559	2402.283728
962.101205	2399.130486
962.400814	2397.915568
962.700385	2399.077554
962.999918	2405.071486
963.299414	2397.809703
963.598873	2401.081412
963.898293	2399.823644
964.197677	2399.425393
964.497022	2399.642163
964.796331	2400.637791
965.095601	2400.317678
965.394835	2400.168963
965.694030	2399.294323
965.993189	2401.426731
966.292309	2397.502193
966.591393	2400.032852
966.890439	2398.770043
967.189447	2400.110990
967.488419	2398.843140
967.787353	2400.244581
968.086249	2398.739796
968.385108	2402.218193
968.683930	2397.817265
968.982714	2401.661145
969.281462	2398.722152
969.580172	2400.917575
969.878844	2396.967831
970.177480	2400.771381
970.476078	2399.332132
970.774639	2400.302554
971.073162	2399.072513
971.371649	2395.437841
971.670098	2395.919271
971.968510	2397.736607
972.266885	2397.529919
972.565223	2399.483367
972.863524	2400.088305
973.161788	2398.558315
973.460014	2399.291803
973.758204	2400.594941
974.056356	2400.405898
974.354471	2399.934550
974.652550	2400.783984
974.950591	2397.731566
975.248595	2401.915723
975.546563	2401.905641
975.844493	2399.884138
976.142386	2400.809190
976.440243	2397.875238
976.738062	2400.045455
977.035845	2396.965310
977.333590	2400.055538
977.631299	2399.705177
977.928971	2399.022101
978.226606	2398.417163
978.524204	2400.652914
978.821765	2399.145609
979.119290	2397.643345
979.416777	2397.030845
979.714228	2398.081926
980.011642	2401.877915
980.309020	2400.846999
980.606360	2400.151319
980.903664	2401.099056
981.200931	2401.542678
981.498162	2405.394119
981.795356	2400.249622
982.092513	2404.567370
982.389633	2401.494787
982.686717	2407.970149
982.983764	2407.047618
983.280775	2404.746331
983.577749	2405.192473
983.874686	2407.365211
984.171587	2405.434449
984.468451	2407.191291
984.765279	2405.381517
985.062070	2403.793553
985.358824	2406.044428
985.655543	2403.866650
985.952224	2400.216854
986.248869	2400.834396
986.545478	2396.146123
986.842050	2400.244581
987.138586	2395.246277
987.435086	2396.420866
987.731549	2395.359703
988.027975	2401.091495
988.324366	2398.074364
988.620719	2396.695608
988.917037	2398.104611
989.213318	2400.408418
989.509563	2394.356513
989.805772	2397.850033
990.101944	2395.667213
990.398080	2396.372975
990.694180	2395.720145
990.990244	2397.116545
991.286271	2396.274672
991.582262	2400.736093
991.878217	2397.781977
992.174136	2401.068809
992.470019	2398.044117
992.765865	2398.008829
993.061676	2396.688047
993.357450	2398.109652
993.653188	2397.807183
993.948890	2399.848850
994.244556	2398.686864
994.540186	2399.319529
994.835780	2398.611247
995.131337	2400.889848
995.426859	2398.896072
995.722345	2403.082750
996.017795	2403.062586
996.313208	2401.557801
996.608586	2402.147616
996.903928	2403.501166
997.199234	2403.276835
997.494504	2402.878584
997.789738	2402.505538
998.084936	2402.376989
998.380099	2401.807338
998.675225	2402.175343
998.970316	2399.538819
999.265371	2402.492935
999.560390	2401.898079
999.855373	2401.681310
1000.150320	2396.917419
1000.445232	2399.679972
1000.740108	2397.963459
1001.034948	2396.448592
1001.329752	2396.405742
1001.624521	2398.328942
1001.919254	2394.553118
1002.213951	2395.823489
1002.508613	2395.072357
1002.803239	2396.887172
1003.097829	2392.680329
1003.392384	2398.535630
1003.686903	2395.828530
1003.981386	2397.451782
1004.275834	2396.027656
1004.570246	2399.374982
1004.864623	2398.008829
1005.158964	2398.875908
1005.453270	2396.070505
1005.747540	2395.697460
1006.041775	2396.408263
1006.335974	2397.169477
1006.630138	2396.912378
1006.924266	2397.955897
1007.218359	2395.563869
1007.512416	2397.381205
1007.806438	2398.034035
1008.100425	2397.570249
1008.394376	2395.531102
1008.688292	2398.447409
1008.982172	2395.959600
1009.276017	2394.462377
1009.569827	2394.505227
1009.863602	2398.021432
1010.157341	2392.818961
1010.451045	2396.597306
1010.744714	2395.604199
1011.038347	2398.891031
1011.331945	2397.776936
1011.625508	2394.532953
1011.919036	2397.545043
1012.212528	2395.417676
1012.505986	2397.358520
1012.799408	2397.597975
1013.092795	2396.383057
1013.386147	2399.014539
1013.679464	2395.463046
1013.972745	2397.557646
1014.265992	2394.737120
1014.559204	2398.565877
1014.852380	2398.233160
1015.145521	2398.460012
1015.438628	2398.054199
1015.731699	2397.572769
1016.024736	2397.235012
1016.317737	2396.468757
1016.610703	2398.853222
1016.903635	2392.889537
1017.196531	2391.747716
1017.489393	2395.120248
1017.782219	2393.650752
1018.075011	2397.247615
1018.367768	2397.552605
1018.660490	2394.875752
1018.953177	2394.875752
1019.245829	2394.875752
