Dividing Wavelength (nm)	Counts (n)	Blue Motor Position (mm): 0.000000	Red Motor Position (mm): 21.000000	
326.493990	1983.396610
326.888308	1983.396610
327.282561	1983.396610
327.676750	1960.910544
328.070874	1961.586058
328.464933	1966.874229
328.858929	1975.618110
329.252859	1988.785604
329.646726	2003.717502
330.040528	2019.269461
330.434265	2039.252595
330.827938	2055.888403
331.221547	2076.090827
331.615091	2096.915833
332.008571	2119.795110
332.401986	2139.216155
332.795338	2159.113589
333.188625	2176.966836
333.581847	2196.191276
333.975006	2215.214070
334.368100	2233.727708
334.761129	2251.301170
335.154095	2264.433376
335.546996	2282.432815
335.939833	2299.958387
336.332606	2314.360963
336.725315	2324.735658
337.117960	2333.608089
337.510540	2340.050683
337.903056	2350.642148
338.295508	2353.414782
338.687896	2363.106400
339.080220	2371.262987
339.472480	2378.340767
339.864676	2377.813967
340.256807	2382.174565
340.648875	2383.361757
341.040879	2387.722355
341.432818	2387.082128
341.824694	2387.566079
342.216506	2387.500544
342.608253	2388.571789
342.999937	2387.054402
343.391557	2385.968033
343.783113	2382.189688
344.174605	2385.209339
344.566033	2379.429657
344.957397	2376.742722
345.348697	2376.256250
345.739934	2376.233565
346.131106	2375.084182
346.522215	2374.121322
346.913260	2369.846423
347.304241	2371.658718
347.695159	2369.853985
348.086012	2366.617564
348.476802	2364.626308
348.867528	2363.219826
349.258191	2362.955166
349.648789	2362.680423
350.039324	2360.250587
350.429796	2361.059692
350.820203	2358.523992
351.210548	2361.949456
351.600828	2358.203878
351.991045	2356.830164
352.381198	2359.466687
352.771288	2362.037676
353.161314	2358.055164
353.551276	2359.091121
353.941175	2357.823271
354.331010	2359.622963
354.720782	2357.218333
355.110490	2360.099352
355.500135	2360.913498
355.889717	2359.020545
356.279235	2356.464680
356.668689	2361.944414
357.058080	2360.963910
357.447408	2361.604137
357.836672	2360.593385
358.225873	2363.791997
358.615010	2358.342510
359.004084	2365.984899
359.393095	2363.345855
359.782043	2366.962883
360.170927	2365.493387
360.559748	2367.890455
360.948505	2367.363655
361.337199	2368.371886
361.725830	2369.493542
362.114398	2372.167874
362.502903	2368.586135
362.891344	2372.271218
363.279722	2371.956146
363.668037	2372.772813
364.056289	2374.015457
364.444478	2376.467979
364.832603	2378.043339
365.220665	2377.491333
365.608665	2375.999151
365.996601	2380.334544
366.384474	2380.266488
366.772284	2379.122146
367.160031	2380.684904
367.547715	2380.959647
367.935336	2380.818494
368.322893	2379.822867
368.710388	2382.713968
369.097820	2387.447612
369.485189	2387.472818
369.872495	2388.231511
370.259738	2390.328631
370.646918	2393.096225
371.034035	2393.764178
371.421090	2395.011863
371.808081	2398.424724
372.195010	2401.184756
372.581875	2410.241189
372.968678	2416.734195
373.355418	2422.337437
373.742096	2433.967379
374.128710	2443.779985
374.515262	2453.093517
374.901751	2468.166567
375.288177	2486.954948
375.674540	2504.382216
376.060841	2521.910308
376.447079	2547.721016
376.833254	2575.485171
377.219367	2596.758840
377.605417	2632.772843
377.991404	2658.278561
378.377329	2700.321784
378.763191	2731.334963
379.148991	2780.581994
379.534727	2826.264931
379.920402	2872.167157
380.306013	2922.135074
380.691563	2983.037253
381.077049	3038.308464
381.462474	3093.675457
381.847835	3163.742454
382.233134	3235.868763
382.618371	3291.616363
383.003545	3380.093654
383.388657	3459.154070
383.773706	3546.449210
384.158693	3619.563585
384.543618	3711.594890
384.928480	3791.688742
385.313280	3895.211357
385.698017	3996.624249
386.082692	4113.241261
386.467305	4172.031197
386.851856	4298.483500
387.236344	4453.907314
387.620770	4515.674052
388.005133	4634.730982
388.389435	4781.516779
388.773674	4861.282956
389.157851	4993.401516
389.541965	5126.046877
389.926018	5150.380527
390.310008	5323.130787
390.693936	5447.140651
391.077802	5559.298762
391.461606	5691.316499
391.845348	5804.613911
392.229027	5922.944915
392.612645	6146.472197
392.996200	6264.662049
393.379694	6426.813283
393.763125	6650.630432
394.146494	6744.547128
394.529801	6877.991511
394.913047	7118.578058
395.296230	7109.700586
395.679351	7168.672004
396.062410	7423.600633
396.445408	7319.480642
396.828343	7465.096891
397.211217	7600.419104
397.594028	7484.608677
397.976778	7687.873041
398.359466	7842.323913
398.742092	7819.769791
399.124656	7970.822924
399.507158	8148.142990
399.889598	8174.513266
400.271977	8379.436170
400.654294	8413.859689
401.036549	8600.485725
401.418742	8628.794324
401.800874	8926.986136
402.182944	9003.659566
402.564952	9369.329742
402.946898	9185.793933
403.328783	9247.651412
403.710606	9431.456922
404.092367	9689.483341
404.474067	10045.051045
404.855705	9842.411784
405.237282	9797.880751
405.618797	10220.536131
406.000250	10460.797523
406.381642	10816.468571
406.762972	10766.639286
407.144240	10569.978833
407.525447	10813.668210
407.906593	10753.060938
408.287677	11007.558549
408.668700	11156.121353
409.049661	11133.194185
409.430560	11294.170830
409.811399	11268.760894
410.192176	11420.403843
410.572891	11495.627941
410.953545	11961.589352
411.334138	11453.007505
411.714669	12039.696990
412.095139	11364.696572
412.475547	11856.292251
412.855894	11696.701923
413.236180	12023.333405
413.616405	11705.380270
413.996568	11976.236425
414.376670	11954.136006
414.756711	11831.343581
415.136691	12105.720982
415.516609	12271.731219
415.896466	12340.863083
416.276262	12628.279428
416.655997	13066.511973
417.035670	13101.104371
417.415283	13733.600300
417.794834	13813.711796
418.174324	13566.128128
418.553753	13465.531903
418.933121	13943.395479
419.312428	13749.215274
419.691674	13668.062779
420.070859	14108.820942
420.449983	13767.396195
420.829045	14301.957628
421.208047	14052.140729
421.586988	14482.176358
421.965867	14730.065016
422.344686	14719.229056
422.723444	15256.742084
423.102141	13978.166837
423.480777	15127.880110
423.859352	14633.226971
424.237866	15688.534555
424.616319	15394.552107
424.994712	16010.555901
425.373044	15797.892306
425.751314	16417.634116
426.129524	15564.920422
426.507673	16576.445585
426.885762	16267.032165
427.263789	16415.726039
427.641756	16539.609874
428.019662	16558.584777
428.397508	16561.642237
428.775292	16796.083617
429.153016	16723.357411
429.530679	16738.110348
429.908282	16694.214501
430.285824	16379.714556
430.663305	16969.368239
431.040726	16539.483845
431.418086	16311.374154
431.795385	16814.234292
432.172624	17103.964527
432.549802	16623.784540
432.926920	16702.471911
433.303977	16506.008063
433.680974	16635.520347
434.057910	16781.038293
434.434786	16697.019903
434.811601	16502.617887
435.188355	17283.311136
435.565050	16854.644181
435.941683	16696.417485
436.318257	17300.577088
436.694770	16999.128691
437.071222	17349.125920
437.447614	16435.010973
437.823946	16315.954042
438.200218	16289.876154
438.576429	15961.898684
438.952580	16016.285173
439.328670	15836.232801
439.704700	15981.912065
440.080670	15500.834754
440.456580	15768.968686
440.832429	15714.158740
441.208218	14830.615870
441.583947	14968.299864
441.959616	14870.743455
442.335224	14848.925341
442.710773	14757.425878
443.086261	14928.875521
443.461689	14327.112986
443.837057	14222.700608
444.212365	14426.096042
444.587612	14229.977513
444.962800	13779.409265
445.337927	13830.234178
445.712995	12889.222154
446.088002	13764.071554
446.462949	13669.958253
446.837837	13549.502402
447.212664	13308.704127
447.587431	14589.628552
447.962139	15914.166519
448.336786	16925.172444
448.711374	15867.172883
449.085901	13767.126493
449.460369	13445.460549
449.834776	13161.250377
450.209124	14048.017065
450.583412	13621.520326
450.957640	13612.418523
451.331808	12754.933377
451.705917	11918.686612
452.079965	11687.063237
452.453954	11596.720719
452.827883	11327.974287
453.201752	11028.489419
453.575562	10866.466735
453.949311	11035.292457
454.323001	10842.859011
454.696632	10536.714779
455.070202	10830.697228
455.443713	10657.831021
455.817164	10607.366551
456.190556	10539.797445
456.563888	10157.299897
456.937160	10045.653463
457.310373	9364.359164
457.683526	9262.479966
458.056619	9045.793529
458.429653	8821.033685
458.802628	8759.466073
459.175542	8589.803520
459.548398	8694.914098
459.921194	8854.330506
460.293930	8821.457142
460.666607	9060.085201
461.039224	9220.164520
461.411782	9068.161129
461.784280	8597.403059
462.156719	8267.126824
462.529099	7934.191380
462.901419	7495.903382
463.273680	7122.152236
463.645882	6951.466329
464.018024	6767.260047
464.390106	6718.123920
464.762130	6950.379960
465.134094	7387.994964
465.505999	7976.801733
465.877845	8404.520952
466.249631	8294.838047
466.621358	7803.176833
466.993026	7283.426309
467.364634	6824.575445
467.736184	6416.355410
468.107674	6122.516634
468.479105	5885.857146
468.850477	5664.013610
469.221790	5395.821704
469.593043	5121.494715
469.964238	4918.472326
470.335373	4797.734171
470.706449	4790.706802
471.077467	4852.909600
471.448425	5040.072519
471.819324	5114.656390
472.190164	4895.318307
472.560945	4580.518413
472.931667	4309.014470
473.302330	4155.471006
473.672934	4032.870145
474.043479	3968.043427
474.413965	3863.111810
474.784393	3774.314405
475.154761	3744.934561
475.525070	3680.087678
475.895321	3607.222840
476.265513	3565.373702
476.635645	3549.395765
477.005719	3492.566837
477.375734	3453.787761
477.745691	3425.199378
478.115588	3417.297369
478.485427	3425.217022
478.855207	3465.947024
479.224928	3487.326558
479.594591	3479.006133
479.964194	3414.539858
480.333739	3370.885986
480.703226	3336.767457
481.072653	3317.754745
481.442022	3293.761374
481.811333	3269.231119
482.180584	3216.631720
482.549777	3180.098478
482.918912	3148.407264
483.287988	3118.929117
483.657005	3085.952409
484.025964	3055.783624
484.394864	3036.836447
484.763706	3015.048580
485.132489	2990.220898
485.501213	2970.378916
485.869879	2959.774849
486.238487	2945.788168
486.607036	2933.964141
486.975527	2918.243303
487.343959	2907.845923
487.712333	2898.250087
488.080648	2886.844476
488.448905	2885.884137
488.817104	2874.780995
489.185244	2879.360883
489.553326	2882.476317
489.921350	2908.261818
490.289315	2925.903336
490.657222	2929.258224
491.025070	2921.976278
491.392861	2906.139493
491.760593	2885.548900
492.128267	2860.388501
492.495883	2844.428208
492.863440	2822.289981
493.230939	2807.310192
493.598380	2792.300157
493.965763	2778.585697
494.333088	2768.747886
494.700354	2761.193717
495.067563	2754.499064
495.434713	2745.188053
495.801805	2746.604617
496.168839	2741.008937
496.535815	2736.446692
496.902733	2728.133830
497.269593	2724.312635
497.636395	2720.020093
498.003139	2721.474466
498.369825	2716.236707
498.736453	2715.316696
499.103023	2709.310161
499.469535	2707.334029
499.835989	2707.893597
500.202385	2704.614327
500.568723	2699.227854
500.935003	2702.237422
501.301226	2700.702391
501.667390	2702.907896
502.033497	2703.628781
502.399546	2698.970755
502.765537	2693.899354
503.131470	2698.433872
503.497345	2698.960672
503.863163	2693.049920
504.228923	2694.526978
504.594625	2697.012267
504.960269	2692.722245
505.325856	2697.939839
505.691385	2694.146371
506.056856	2697.531505
506.422270	2701.962680
506.787625	2698.146526
507.152924	2703.888400
507.518164	2701.882021
507.883347	2698.597709
508.248472	2704.838658
508.613540	2706.822352
508.978550	2710.431818
509.343503	2710.310830
509.708398	2714.328630
510.073236	2719.147973
510.438016	2721.010679
510.802738	2717.076059
511.167403	2724.070660
511.532010	2724.829353
511.896561	2732.378481
512.261053	2744.595718
512.625488	2734.047103
512.989866	2731.024932
513.354186	2736.061044
513.718449	2733.643811
514.082655	2744.999010
514.446803	2745.004051
514.810894	2751.807088
515.174927	2751.602922
515.538904	2750.851790
515.902822	2756.611308
516.266684	2755.920670
516.630488	2756.069384
516.994235	2759.177255
517.357925	2765.377874
517.721558	2765.471136
518.085133	2766.948194
518.448651	2773.620161
518.812112	2771.051693
519.175516	2773.131169
519.538863	2773.599996
519.902152	2775.707199
520.265385	2779.004113
520.628560	2780.087961
520.991678	2778.802467
521.354739	2780.443363
521.717743	2783.442849
522.080690	2783.820936
522.443580	2787.259003
522.806413	2792.209416
523.169189	2791.801082
523.531908	2790.112296
523.894569	2791.070115
524.257174	2793.517595
524.619722	2796.060857
524.982213	2797.447175
525.344647	2797.754685
525.707025	2794.735034
526.069345	2799.456074
526.431608	2799.871970
526.793815	2802.936991
527.155964	2797.575724
527.518057	2798.757875
527.880093	2796.804427
528.242072	2800.421455
528.603995	2799.609830
528.965860	2798.581434
529.327669	2799.400622
529.689421	2797.802576
530.051117	2799.934984
530.412755	2798.747792
530.774337	2802.629481
531.135862	2797.053965
531.497331	2796.328038
531.858743	2797.416928
532.220098	2799.904737
532.581396	2795.849129
532.942638	2794.281330
533.303824	2795.513892
533.664953	2797.331228
534.026025	2794.425003
534.387040	2800.335756
534.747999	2798.263842
535.108902	2799.756023
535.469748	2795.304684
535.830537	2796.154119
536.191270	2799.577062
536.551947	2794.346865
536.912567	2798.341979
537.273131	2798.498255
537.633638	2793.310908
537.994089	2795.413069
538.354483	2793.179838
538.714821	2796.290230
539.075103	2798.195786
539.435328	2796.917853
539.795497	2795.622277
540.155609	2795.493727
540.515665	2793.701597
540.875665	2795.279478
541.235609	2795.818882
541.595496	2796.741413
541.955328	2798.926753
542.315102	2791.395269
542.674821	2793.570527
543.034483	2789.792182
543.394090	2791.105403
543.753640	2788.773869
544.113134	2797.333749
544.472571	2789.643468
544.831953	2796.887607
545.191278	2791.806123
545.550548	2788.436112
545.909761	2791.473407
546.268918	2791.554066
546.628019	2794.321659
546.987064	2786.134825
547.346053	2783.279012
547.704986	2786.646502
548.063863	2782.550565
548.422684	2781.542334
548.781449	2780.443363
549.140158	2785.421502
549.498811	2780.524021
549.857408	2775.646705
550.215949	2779.578805
550.574434	2775.649225
550.932864	2772.775768
551.291237	2774.416663
551.649555	2774.547733
552.007817	2774.363731
552.366022	2769.463730
552.724173	2768.321908
553.082267	2768.831065
553.440305	2769.546909
553.798288	2764.281423
554.156215	2765.244284
554.514086	2762.574993
554.871902	2759.346134
555.229661	2757.548962
555.587365	2752.608632
555.945014	2752.631317
556.302606	2748.933631
556.660143	2747.733836
557.017625	2745.540934
557.375050	2737.764954
557.732421	2738.503483
558.089735	2738.193452
558.446994	2732.990982
558.804197	2733.422000
559.161345	2729.492421
559.518437	2723.561503
559.875474	2723.377501
560.232455	2719.735267
560.589381	2719.526060
560.946251	2715.178064
561.303065	2710.968701
561.659825	2709.663042
562.016528	2703.941333
562.373177	2699.426979
562.729770	2699.749613
563.086307	2692.291226
563.442789	2689.994980
563.799216	2689.727799
564.155587	2686.224197
564.511904	2680.729340
564.868164	2676.366221
565.224370	2677.117353
565.580520	2673.601148
565.936615	2671.486384
566.292654	2664.910199
566.648638	2668.116373
567.004567	2663.039931
567.360441	2660.547080
567.716260	2655.505926
568.072023	2655.364774
568.427732	2648.539052
568.783385	2647.001500
569.138982	2643.933958
569.494525	2644.107877
569.850013	2637.173770
570.205445	2641.355407
570.560823	2639.530510
570.916145	2632.525827
571.271412	2630.983233
571.626625	2625.372429
571.981782	2624.220526
572.336884	2625.876545
572.691931	2619.930504
573.046923	2619.249948
573.401860	2613.671911
573.756743	2612.749380
574.111570	2615.206942
574.466342	2611.045470
574.821059	2611.723505
575.175722	2606.228647
575.530330	2606.112701
575.884882	2602.704881
576.239380	2599.299582
576.593823	2602.515838
576.948211	2597.220106
577.302544	2595.680033
577.656823	2593.252718
578.011047	2593.595516
578.365216	2589.928077
578.719330	2587.609146
579.073389	2586.467324
579.427394	2587.762901
579.781344	2583.296439
580.135239	2583.591346
580.489080	2581.421129
580.842866	2579.366859
581.196597	2580.143197
581.550273	2581.809298
581.903895	2579.306365
582.257463	2578.766962
582.610975	2573.667835
582.964434	2575.666652
583.317837	2575.396951
583.671186	2571.563153
584.024481	2573.526683
584.377721	2574.151786
584.730906	2568.977041
585.084037	2569.849161
585.437113	2567.230281
585.790135	2564.888665
586.143103	2566.365723
586.496016	2567.038717
586.848874	2563.769529
587.201679	2564.825651
587.554428	2559.925649
587.907124	2565.314643
588.259765	2560.104610
588.612352	2564.704663
588.964884	2560.921277
589.317362	2561.954714
589.669786	2561.637121
590.022155	2559.802141
590.374470	2563.643500
590.726731	2559.368602
591.078937	2558.221739
591.431090	2559.391287
591.783188	2556.341389
592.135232	2553.193188
592.487222	2556.611091
592.839157	2557.495813
593.191038	2554.977757
593.542866	2550.970040
593.894639	2554.579506
594.246358	2549.886192
594.598022	2548.605738
594.949633	2549.676984
595.301190	2548.978784
595.652692	2550.105482
596.004141	2551.355688
596.355535	2550.072714
596.706876	2542.528628
597.058162	2545.565923
597.409395	2544.015768
597.760573	2543.695655
598.111698	2541.190201
598.462768	2546.155738
598.813785	2543.914945
599.164748	2541.364121
599.515657	2541.404450
599.866511	2539.725746
600.217312	2542.483257
600.568060	2540.227341
600.918753	2543.962836
601.269392	2539.914789
601.619978	2540.003009
601.970510	2542.909235
602.320988	2540.802032
602.671412	2542.145500
603.021783	2539.587114
603.372100	2539.120808
603.722363	2537.177443
604.072572	2539.929913
604.422728	2538.256250
604.772830	2533.459592
605.122878	2532.184180
605.472872	2535.793646
605.822813	2533.820034
606.172701	2537.845396
606.522534	2534.230888
606.872314	2537.346321
607.222041	2534.941691
607.571714	2539.299768
607.921333	2534.858512
608.270899	2538.142824
608.620411	2535.304654
608.969870	2535.022349
609.319276	2535.793646
609.668627	2535.791125
610.017926	2536.880015
610.367171	2537.298430
610.716362	2534.742565
611.065500	2538.651980
611.414585	2533.903213
611.763616	2538.089892
612.112594	2535.163502
612.461518	2537.573173
612.810389	2535.602082
613.159207	2537.255581
613.507971	2536.297761
613.856682	2536.285158
614.205340	2536.920344
614.553945	2541.071734
614.902496	2538.624254
615.250994	2537.190046
615.599439	2536.822041
615.947830	2536.900179
616.296169	2538.359593
616.644454	2538.586445
616.992686	2531.995137
617.340864	2539.619882
617.688990	2536.993441
618.037063	2539.902186
618.385082	2538.946888
618.733048	2538.299099
619.080961	2539.065355
619.428821	2536.945550
619.776628	2537.353883
620.124382	2538.639377
620.472083	2539.272042
620.819731	2537.127031
621.167326	2536.648122
621.514868	2535.864222
621.862357	2534.125024
622.209793	2535.549150
622.557176	2530.553367
622.904506	2526.190248
623.251783	2525.476925
623.599007	2525.149250
623.946179	2520.385359
624.293297	2523.868797
624.640363	2525.865093
624.987376	2524.221677
625.334336	2525.507172
625.681243	2523.256296
626.028097	2522.248066
626.374899	2522.608508
626.721647	2520.425688
627.068343	2520.370236
627.414987	2517.761439
627.761577	2519.006604
628.108115	2519.833353
628.454600	2521.126409
628.801032	2518.837725
629.147412	2519.669515
629.493739	2517.045595
629.840014	2516.458300
630.186236	2516.596932
630.532405	2514.648526
630.878521	2514.532580
631.224585	2515.984432
631.570597	2512.669873
631.916556	2514.063752
632.262462	2512.959740
632.608316	2513.226921
632.954117	2511.981756
633.299866	2513.789009
633.645562	2512.130470
633.991206	2510.348422
634.336797	2509.478823
634.682336	2510.285407
635.027823	2507.180057
635.373257	2508.531086
635.718639	2506.650736
636.063968	2505.934892
636.409245	2501.372648
636.754470	2503.404233
637.099642	2503.076558
637.444762	2503.346259
637.789829	2501.816269
638.134845	2502.269973
638.479808	2500.422390
638.824719	2502.748883
639.169577	2498.741165
639.514383	2500.029180
639.859137	2497.528768
640.203839	2499.451968
640.548489	2500.462719
640.893086	2494.919971
641.237632	2491.043323
641.582125	2492.391832
641.926566	2492.497696
642.270955	2497.785867
642.615292	2498.332832
642.959576	2495.628253
643.303809	2494.317553
643.647990	2495.391318
643.992118	2495.366113
644.336195	2493.531133
644.680219	2496.631442
645.024192	2496.714621
645.368112	2494.584734
645.711981	2495.058602
646.055797	2498.597492
646.399562	2496.122286
646.743274	2498.390805
647.086935	2499.041114
647.430544	2498.514313
647.774101	2499.348624
648.117606	2501.022287
648.461059	2501.065137
648.804460	2500.371978
649.147810	2499.338542
649.491108	2496.160094
649.834354	2495.091370
650.177548	2493.422748
650.520690	2494.307470
650.863781	2492.255721
651.206820	2493.231184
651.549807	2489.599033
651.892742	2490.894609
652.235626	2488.600884
652.578458	2487.958137
652.921238	2487.063332
653.263967	2491.736482
653.606644	2485.543424
653.949269	2487.244814
654.291843	2484.557879
654.634365	2487.411172
654.976836	2485.397231
655.319255	2487.441419
655.661622	2487.648106
656.003938	2484.482262
656.346203	2483.736171
656.688416	2482.496047
657.030577	2482.188537
657.372687	2484.328506
657.714746	2484.983856
658.056753	2480.809781
658.398708	2478.168216
658.740612	2481.175265
659.082465	2478.700058
659.424266	2481.513022
659.766016	2478.586632
660.107715	2483.320276
660.449362	2483.514360
660.790958	2482.606952
661.132503	2484.215080
661.473996	2484.038640
661.815438	2481.276088
662.156829	2480.300624
662.498168	2483.955461
662.839456	2483.640389
663.180693	2483.660553
663.521879	2482.906901
663.863013	2480.414050
664.204097	2482.097796
664.545129	2482.243989
664.886110	2482.392703
665.227040	2482.564102
665.567918	2484.343630
665.908746	2486.407982
666.249522	2484.943527
666.590248	2484.288177
666.930922	2486.244145
667.271545	2484.530152
667.612118	2483.708444
667.952639	2483.645430
668.293109	2482.443115
668.633528	2484.147025
668.973896	2484.457056
669.314213	2480.252733
669.654480	2483.355564
669.994695	2479.488999
670.334859	2482.637199
670.674973	2479.947744
671.015035	2480.182157
671.355047	2479.390696
671.695008	2479.199132
672.034918	2481.399596
672.374777	2480.466983
672.714585	2480.824904
673.054342	2479.917497
673.394049	2479.378093
673.733705	2481.301293
674.073310	2478.745428
674.412864	2482.150728
674.752368	2477.611169
675.091820	2481.482775
675.431223	2479.272229
675.770574	2480.136787
676.109875	2474.193267
676.449125	2473.926085
676.788324	2469.457103
677.127473	2474.888946
677.466571	2472.648153
677.805619	2474.500777
678.144616	2475.735860
678.483562	2473.207721
678.822458	2476.340798
679.161303	2478.213587
679.500098	2472.436424
679.838842	2474.367186
680.177535	2473.313585
680.516179	2475.564460
680.854771	2476.799543
681.193314	2473.530355
681.531805	2477.906076
681.870247	2479.168885
682.208638	2482.909422
682.546978	2478.226190
682.885268	2484.154587
683.223508	2479.955305
683.561697	2478.755511
683.899836	2478.228710
684.237925	2476.938175
684.575963	2477.409523
684.913951	2477.331385
685.251889	2480.557723
685.589776	2476.981025
685.927614	2479.824235
686.265401	2476.824749
686.603137	2476.751652
686.940824	2476.789461
687.278460	2479.781386
687.616046	2483.317755
687.953582	2482.972436
688.291068	2480.023361
688.628504	2481.548310
688.965889	2480.512353
689.303224	2480.378762
689.640510	2478.843731
689.977745	2475.587146
690.314930	2476.557568
690.652065	2476.875160
690.989150	2475.125880
691.326185	2473.353914
691.663170	2472.960704
692.000105	2467.705302
692.336990	2466.243367
692.673825	2464.882255
693.010610	2464.181535
693.347345	2460.806482
693.684030	2460.584672
694.020665	2458.023766
694.357251	2455.470421
694.693786	2458.341358
695.030272	2459.989816
695.366707	2459.233643
695.703093	2459.518468
696.039429	2458.036368
696.375716	2458.878241
696.711952	2459.682305
697.048139	2456.768518
697.384276	2458.989147
697.720363	2459.105093
698.056400	2457.630556
698.392388	2456.183744
698.728326	2454.162242
699.064214	2456.082921
699.400053	2456.120730
699.735842	2454.772221
700.071581	2454.777262
700.407270	2452.959927
700.742910	2455.402366
701.078501	2450.376335
701.414042	2450.220059
701.749533	2451.747529
702.084974	2448.962292
702.420366	2450.872889
702.755709	2449.368104
703.091002	2451.031685
703.426246	2449.534462
703.761440	2449.640327
704.096584	2449.226952
704.431679	2449.610080
704.766725	2449.864658
705.101721	2447.916252
705.436668	2446.552620
705.771565	2446.353494
706.106413	2451.117385
706.441212	2447.742332
706.775961	2449.010182
707.110661	2446.144287
707.445311	2453.564865
707.779913	2449.763835
708.114465	2450.051181
708.448967	2447.792744
708.783421	2452.105451
709.117825	2449.990687
709.452180	2454.484876
709.786485	2452.594443
710.120742	2457.290278
710.454949	2455.704835
710.789107	2458.013683
711.123216	2453.721141
711.457275	2456.473611
711.791286	2456.977726
712.125247	2457.086111
712.459159	2459.992336
712.793023	2464.456278
713.126837	2459.319342
713.460602	2461.272789
713.794318	2459.765484
714.127985	2458.898406
714.461602	2454.126954
714.795171	2455.394804
715.128691	2453.451439
715.462162	2455.646862
715.795584	2450.711572
716.128957	2450.744339
716.462281	2448.054884
716.795556	2451.495471
717.128782	2447.686880
717.461960	2449.506736
717.795088	2447.162600
718.128167	2448.130501
718.461198	2443.376693
718.794180	2446.499688
719.127113	2443.520366
719.459997	2441.256888
719.792833	2441.486260
720.125619	2442.275201
720.458357	2441.042639
720.791046	2439.852927
721.123686	2442.607917
721.456278	2442.310489
721.788821	2440.586414
722.121315	2439.656322
722.453761	2440.152875
722.786158	2441.594645
723.118506	2438.683379
723.450805	2442.353339
723.783056	2440.493153
724.115259	2440.238575
724.447412	2437.607093
724.779518	2440.548606
725.111574	2440.888884
725.443582	2442.237392
725.775542	2443.205294
726.107453	2442.219748
726.439315	2443.233020
726.771129	2447.437343
727.102895	2443.424584
727.434612	2446.098916
727.766281	2445.632609
728.097901	2444.243772
728.429473	2441.486260
728.760996	2447.351643
729.092471	2439.356373
729.423897	2445.551951
729.755276	2444.460541
730.086606	2445.569595
730.417887	2449.854576
730.749120	2449.902467
731.080305	2448.979936
731.411442	2450.709051
731.742530	2448.959771
732.073570	2454.371450
732.404562	2450.167127
732.735506	2450.920780
733.066401	2448.715275
733.397249	2450.575461
733.728048	2446.177054
734.058798	2446.832404
734.389501	2442.796960
734.720156	2443.802671
735.050762	2440.059614
735.381320	2442.123966
735.711831	2440.321754
736.042293	2438.789243
736.372707	2437.561722
736.703073	2438.242278
737.033391	2437.395364
737.363661	2439.996599
737.693883	2440.006682
738.024056	2444.468103
738.354182	2439.840324
738.684260	2441.781168
739.014290	2441.329985
739.344272	2441.907197
739.674207	2443.006168
740.004093	2443.880808
740.333931	2441.566919
740.663722	2443.936261
740.993464	2441.768565
741.323159	2443.036415
741.652806	2442.025664
741.982405	2442.786878
742.311956	2442.960798
742.641460	2440.389809
742.970915	2441.791250
743.300323	2439.878132
743.629683	2439.484922
743.958996	2439.779830
744.288260	2437.758327
744.617477	2435.184818
744.946647	2431.832451
745.275768	2437.629778
745.604842	2433.622060
745.933869	2434.862184
746.262847	2428.860691
746.591778	2434.519386
746.920662	2433.218768
747.249498	2432.502924
747.578286	2433.891762
747.907027	2434.279931
748.235720	2435.250353
748.564365	2435.585590
748.892963	2434.584921
749.221514	2437.034922
749.550017	2435.981320
749.878473	2435.439396
750.206881	2436.170364
750.535242	2433.140630
750.863555	2433.453182
751.191821	2431.726587
751.520039	2435.378903
751.848210	2433.551484
752.176334	2433.508634
752.504411	2436.361928
752.832440	2432.699529
753.160421	2435.396547
753.488356	2436.301434
753.816243	2435.164653
754.144082	2433.672472
754.471875	2433.468305
754.799620	2433.306988
755.127318	2436.185487
755.454969	2433.430497
755.782572	2433.869077
756.110129	2434.889911
756.437638	2433.052410
756.765100	2435.136927
757.092515	2432.853284
757.419882	2430.146185
757.747203	2432.152564
758.074477	2432.956628
758.401703	2431.996288
758.728882	2430.904878
759.056014	2433.957297
759.383099	2436.094746
759.710138	2434.786567
760.037129	2434.998295
760.364073	2434.400919
760.690970	2433.657348
761.017820	2435.502411
761.344623	2435.240271
761.671379	2436.243460
761.998088	2431.986206
762.324751	2438.680858
762.651366	2450.577981
762.977935	2462.827985
763.304456	2464.110959
763.630931	2470.064562
763.957359	2468.630353
764.283740	2465.451906
764.610074	2459.883951
764.936362	2450.217539
765.262602	2448.445573
765.588796	2441.516507
765.914943	2441.634974
766.241044	2433.397729
766.567097	2434.559715
766.893104	2434.116093
767.219064	2430.247008
767.544978	2429.034610
767.870845	2426.816503
768.196665	2429.115269
768.522438	2427.454209
768.848165	2427.048396
769.173846	2423.219639
769.499479	2428.341452
769.825066	2423.950607
770.150607	2426.050247
770.476101	2426.178797
770.801548	2422.992787
771.126949	2424.694177
771.452303	2423.045720
771.777611	2421.535894
772.102872	2424.167376
772.428087	2423.108734
772.753256	2423.033117
773.078378	2421.162849
773.403453	2422.682757
773.728482	2418.054977
774.053465	2421.162849
774.378401	2422.037489
774.703291	2419.249731
775.028135	2419.113620
775.352932	2419.947931
775.677683	2420.739392
776.002388	2419.582447
776.327046	2420.210071
776.651658	2420.570513
776.976224	2418.738054
777.300743	2419.363157
777.625216	2418.337282
777.949643	2417.520615
778.274024	2419.612694
778.598359	2414.775707
778.922647	2412.126580
779.246889	2415.002559
779.571086	2412.713875
779.895236	2419.547159
780.219339	2418.569175
780.543397	2418.128074
780.867409	2418.909453
781.191374	2417.591191
781.515294	2418.100348
781.839167	2418.987591
782.162995	2417.790317
782.486776	2417.634041
782.810511	2416.207394
783.134201	2417.525656
783.457844	2418.276788
783.781441	2416.696386
784.104993	2417.331572
784.428498	2418.927097
784.751958	2417.813002
785.075372	2417.659247
785.398739	2417.876016
785.722061	2416.635893
786.045337	2415.544483
786.368568	2420.643610
786.691752	2416.441808
787.014891	2418.559093
787.337983	2419.595050
787.661030	2419.612694
787.984031	2423.406162
788.306987	2423.882551
788.629897	2421.167890
788.952760	2423.748961
789.275579	2423.754002
789.598351	2421.702252
789.921078	2421.278795
790.243759	2419.998342
790.566395	2419.549679
790.888984	2416.925759
791.211529	2420.794844
791.534027	2418.498599
791.856480	2416.308217
792.178888	2421.377098
792.501249	2415.995666
792.823566	2418.980029
793.145836	2417.150090
793.468062	2418.095307
793.790241	2417.185378
794.112375	2418.241500
794.434464	2418.906932
794.756507	2417.651685
795.078505	2418.511202
795.400457	2417.225707
795.722364	2415.819226
796.044226	2417.797878
796.366042	2419.287539
796.687812	2416.633372
797.009538	2420.767118
797.331218	2421.906419
797.652852	2417.742426
797.974442	2420.462128
798.295986	2420.086562
798.617484	2418.208732
798.938938	2418.556572
799.260346	2420.981367
799.581709	2419.418609
799.903026	2422.420617
800.224299	2413.641447
800.545526	2417.432395
800.866708	2416.300656
801.187845	2414.211097
801.508936	2417.056829
801.829983	2415.753691
802.150984	2415.597415
802.471940	2413.515418
802.792851	2415.491551
803.113717	2416.237641
803.434538	2410.901580
803.755314	2416.091448
804.076045	2415.494071
804.396731	2412.053484
804.717372	2412.640778
805.037967	2413.515418
805.358518	2413.477610
805.679024	2416.535069
805.999485	2414.768145
806.319901	2414.458114
806.640272	2415.252096
806.960598	2413.465007
807.280879	2414.178330
807.601115	2418.181006
807.921306	2413.457445
808.241453	2415.821746
808.561554	2415.320151
808.881611	2418.813671
809.201623	2416.320820
809.521590	2418.062539
809.841513	2415.907446
810.161390	2415.655388
810.481223	2415.925090
810.801011	2413.674215
811.120755	2414.059863
811.440453	2416.459452
811.760107	2415.410892
812.079716	2411.836714
812.399281	2413.263361
812.718801	2410.021899
813.038276	2407.617268
813.357707	2413.868299
813.677093	2415.804102
813.996434	2413.555748
814.315731	2413.928793
814.634983	2414.974832
814.954191	2416.414082
815.273354	2414.132960
815.592473	2414.160686
815.911547	2416.323341
816.230577	2417.031623
816.549562	2415.327713
816.868502	2418.158321
817.187399	2416.179668
817.506250	2420.671336
817.825058	2421.417427
818.143821	2419.811819
818.462539	2419.829463
818.781213	2423.068405
819.099843	2422.833991
819.418429	2425.798190
819.736970	2431.318253
820.055466	2437.871753
820.373919	2440.911569
820.692327	2448.483382
821.010691	2462.734724
821.329011	2498.360558
821.647286	2553.291491
821.965517	2606.584049
822.283704	2642.303144
822.601847	2651.694814
822.919945	2630.862246
823.237999	2599.738162
823.556010	2569.539130
823.873976	2544.466951
824.191897	2521.610360
824.509775	2504.853564
824.827609	2485.800523
825.145398	2479.055459
825.463144	2476.003041
825.780845	2476.076138
826.098502	2483.239617
826.416116	2495.295537
826.733685	2508.284069
827.051210	2509.506549
827.368692	2505.312309
827.686129	2490.597181
828.003522	2475.100674
828.320872	2460.269600
828.638177	2452.281891
828.955439	2442.489450
829.272656	2436.427463
829.589830	2434.221958
829.906960	2431.494693
830.224046	2427.721390
830.541088	2425.445309
830.858086	2424.522778
831.175041	2419.839546
831.491952	2420.709145
831.808819	2421.863569
832.125642	2423.723755
832.442421	2427.381112
832.759157	2432.664241
833.075849	2443.568257
833.392497	2455.651903
833.709101	2459.473097
834.025662	2461.784466
834.342179	2455.228446
834.658653	2448.909359
834.975083	2440.916610
835.291469	2443.306117
835.607811	2429.319436
835.924110	2426.529157
836.240366	2422.871800
836.556578	2422.584454
836.872746	2421.442633
837.188871	2415.851993
837.504952	2415.816705
837.820990	2412.297980
838.136984	2415.925090
838.452935	2416.469534
838.768842	2410.783113
839.084706	2413.787641
839.400526	2422.140833
839.716303	2424.898344
840.032037	2432.001329
840.347727	2428.681730
840.663373	2428.066709
840.978977	2420.502457
841.294537	2420.021027
841.610054	2416.857703
841.925527	2415.446180
842.240957	2414.203536
842.556344	2412.161868
842.871687	2410.911662
843.186987	2408.867474
843.502244	2407.100550
843.817458	2409.439645
844.132629	2410.773031
844.447756	2409.351425
844.762840	2403.879253
845.077881	2404.088461
845.392879	2405.812535
845.707833	2403.695251
846.022745	2404.211969
846.337613	2405.628533
846.652438	2403.788512
846.967221	2404.524520
847.281960	2403.841444
847.596656	2406.644326
847.911309	2407.892011
848.225919	2403.390261
848.540485	2402.313974
848.855009	2406.535941
849.169490	2404.423697
849.483928	2403.372617
849.798323	2406.462844
850.112675	2405.978893
850.426984	2403.304561
850.741251	2405.981414
851.055474	2404.282545
851.369654	2402.676938
851.683792	2404.917730
851.997887	2406.112484
852.311938	2405.452093
852.625947	2404.789181
852.939914	2402.036711
853.253837	2404.995868
853.567718	2405.323543
853.881555	2404.973183
854.195350	2402.031670
854.509103	2404.199366
854.822812	2404.262380
855.136479	2405.686506
855.450103	2408.113822
855.763685	2408.522155
856.077224	2405.119377
856.390720	2404.635426
856.704173	2406.150292
857.017584	2403.115518
857.330953	2404.083419
857.644278	2406.412433
857.957561	2405.999058
858.270802	2406.548544
858.584000	2406.762793
858.897155	2406.314130
859.210268	2401.270456
859.523339	2404.804304
859.836367	2405.651218
860.149352	2405.661301
860.462295	2405.396640
860.775195	2402.440003
861.088054	2398.374313
861.400869	2403.143244
861.713642	2399.397667
862.026373	2405.205076
862.339062	2400.625188
862.651708	2403.284397
862.964312	2404.592576
863.276873	2405.890673
863.589392	2405.661301
863.901869	2405.242885
864.214303	2406.140210
864.526696	2405.119377
864.839045	2405.573080
865.151353	2406.122566
865.463619	2404.758934
865.775842	2406.503173
866.088023	2404.181722
866.400162	2405.666342
866.712258	2405.076527
867.024313	2405.830179
867.336325	2406.291445
867.648296	2406.334295
867.960224	2404.390930
868.272110	2407.912176
868.583954	2407.092988
868.895755	2409.923596
869.207515	2407.380334
869.519233	2409.772362
869.830909	2406.019223
870.142542	2407.798750
870.454134	2404.925292
870.765684	2407.831517
871.077191	2408.983421
871.388657	2406.598955
871.700081	2409.815211
872.011463	2408.015519
872.322803	2407.466034
872.634101	2407.536610
872.945357	2407.856723
873.256571	2409.752197
873.567744	2409.374110
873.878874	2410.094995
874.189963	2410.296642
874.501010	2408.338153
874.812015	2409.290931
875.122979	2408.428894
875.433900	2410.878895
875.744780	2407.813873
876.055618	2410.062228
876.366415	2409.618606
876.677169	2412.214801
876.987882	2404.912689
877.298554	2406.795560
877.609183	2410.561302
877.919771	2404.595097
878.230317	2410.044584
878.540822	2416.353588
878.851285	2415.604977
879.161707	2415.166396
879.472087	2424.321132
879.782425	2425.281471
880.092722	2438.816969
880.402977	2461.451750
880.713191	2481.008907
881.023363	2506.199552
881.333494	2518.124402
881.643583	2522.732016
881.953631	2520.902077
882.263637	2513.398320
882.573602	2504.228461
882.883526	2495.915598
883.193408	2488.752119
883.503248	2477.117136
883.813048	2470.666979
884.122806	2463.274127
884.432522	2454.457149
884.742197	2448.070007
885.051831	2442.098761
885.361424	2434.509303
885.670975	2430.723397
885.980485	2427.426482
886.289954	2426.259455
886.599382	2420.381470
886.908768	2419.368198
887.218113	2418.395255
887.527417	2416.943403
887.836680	2415.239493
888.145901	2414.647157
888.455082	2412.693710
888.764221	2412.209759
889.073319	2411.388051
889.382376	2410.102557
889.691392	2410.233627
890.000366	2410.841086
890.309300	2408.764131
890.618193	2410.969636
890.927044	2411.960222
891.235855	2413.260840
891.544625	2411.115829
891.853353	2411.947619
892.162041	2412.388720
892.470687	2413.124729
892.779293	2414.720254
893.087858	2414.422826
893.396381	2416.469534
893.704864	2422.458425
894.013306	2427.507141
894.321707	2438.280087
894.630068	2438.663214
894.938387	2442.607917
895.246665	2437.680189
895.554903	2436.636670
895.863100	2433.145671
896.171256	2432.417225
896.479371	2431.993768
896.787446	2425.730134
897.095480	2422.927252
897.403473	2419.532035
897.711425	2420.026068
898.019336	2419.068249
898.327207	2414.475758
898.635038	2414.987435
898.942827	2412.721437
899.250576	2411.614903
899.558284	2411.778741
899.865952	2410.944430
900.173579	2411.015006
900.481165	2412.272774
900.788711	2408.086096
901.096216	2410.042063
901.403681	2407.617268
901.711105	2411.040212
902.018489	2405.583163
902.325832	2411.985428
902.633135	2408.098698
902.940397	2411.088103
903.247619	2415.186561
903.554800	2425.767943
903.861941	2434.779005
904.169041	2447.213011
904.476101	2451.732406
904.783121	2450.013372
905.090100	2441.723195
905.397039	2437.602051
905.703938	2430.753644
906.010796	2430.141144
906.317614	2426.642583
906.624391	2424.484969
906.931129	2418.301994
907.237826	2417.686973
907.544483	2413.528021
907.851099	2413.739750
908.157675	2411.549368
908.464211	2408.935530
908.770707	2403.357493
909.077163	2407.042577
909.383578	2400.852040
909.689954	2402.165260
909.996289	2399.226268
910.302584	2404.474109
910.608839	2404.542164
910.915054	2404.010323
911.221229	2403.029818
911.527363	2404.257339
911.833458	2403.551578
912.139513	2404.332957
912.445527	2405.010992
912.751502	2402.873543
913.057436	2405.487381
913.363331	2407.803791
913.669186	2406.407391
913.975000	2410.410068
914.280775	2412.708834
914.586510	2416.340985
914.892205	2421.480441
915.197859	2426.105700
915.503475	2435.797318
915.809050	2443.129677
916.114585	2446.902980
916.420081	2446.650922
916.725536	2446.061107
917.030952	2446.333330
917.336328	2443.364090
917.641665	2440.583894
917.946961	2436.482915
918.252218	2434.804211
918.557435	2428.606112
918.862612	2427.948242
919.167750	2426.405649
919.472848	2421.621594
919.777906	2418.181006
920.082925	2418.054977
920.387904	2415.423495
920.692843	2413.888464
920.997743	2412.393762
921.302603	2408.302865
921.607423	2408.854872
921.912204	2409.437125
922.216946	2407.496281
922.521647	2409.905952
922.826310	2407.259346
923.130932	2407.992834
923.435516	2404.274983
923.740059	2406.409912
924.044564	2406.687175
924.349028	2402.616444
924.653454	2398.248284
924.957840	2402.039232
925.262186	2398.434807
925.566493	2399.034704
925.870761	2397.290465
926.174989	2402.540826
926.479178	2400.282389
926.783328	2401.814900
927.087438	2399.319529
927.391509	2400.282389
927.695541	2402.185425
927.999533	2400.610064
928.303486	2398.991854
928.607400	2400.821793
928.911275	2399.831206
929.215110	2400.589900
929.518906	2397.396329
929.822663	2401.361196
930.126381	2398.016391
930.430060	2399.969838
930.733699	2398.349107
931.037299	2402.135013
931.340861	2399.634601
931.644383	2399.301885
931.947866	2398.220558
932.251309	2399.654766
932.554714	2398.933881
932.858080	2400.342883
933.161407	2398.225599
933.464694	2399.672410
933.767943	2400.794067
934.071153	2399.342214
934.374323	2397.328273
934.677455	2398.782646
934.980548	2400.678120
935.283602	2400.720970
935.586617	2398.674261
935.889593	2398.802811
936.192530	2399.168294
936.495428	2400.650394
936.798287	2401.593089
937.101108	2401.618295
937.403890	2399.294323
937.706632	2400.995713
938.009336	2399.506052
938.312002	2402.881104
938.614628	2401.819941
938.917216	2401.519993
939.219765	2402.755075
939.522275	2404.479150
939.824747	2403.584345
940.127179	2398.603685
940.429573	2398.517986
940.731929	2399.874056
941.034246	2399.276679
941.336524	2404.630385
941.638763	2403.198697
941.940964	2404.680796
942.243126	2401.663666
942.545250	2402.684499
942.847335	2400.027811
943.149381	2404.000240
943.451389	2399.758109
943.753359	2399.347255
944.055290	2400.002605
944.357182	2401.567884
944.659036	2400.622667
944.960851	2400.731052
945.262628	2401.386402
945.564367	2400.902451
945.866067	2400.456309
946.167729	2401.673748
946.469352	2398.951525
946.770937	2399.405229
947.072484	2402.011505
947.373992	2401.061248
947.675462	2399.168294
947.976893	2397.983623
948.278286	2401.139386
948.579641	2400.133675
948.880958	2398.255846
949.182236	2400.128634
949.483476	2400.486556
949.784678	2401.971176
950.085841	2401.280538
950.386967	2400.693243
950.688054	2402.084602
950.989103	2401.484705
951.290114	2399.659807
951.591087	2399.253994
951.892021	2399.009498
952.192917	2399.223747
952.493776	2400.090826
952.794596	2399.115362
953.095378	2401.847668
953.396122	2402.757596
953.696828	2400.506721
953.997496	2399.858933
954.298126	2399.085115
954.598718	2400.728532
954.899272	2400.514283
955.199788	2399.954714
955.500266	2399.165774
955.800706	2400.282389
956.101108	2395.067316
956.401472	2396.574621
956.701798	2394.782491
957.002087	2395.752913
957.302337	2396.183931
957.602550	2400.070661
957.902724	2399.932029
958.202861	2397.308109
958.502960	2396.841802
958.803022	2397.761812
959.103045	2396.413304
959.403031	2397.063613
959.702979	2395.916750
960.002889	2398.878428
960.302762	2396.559497
960.602596	2396.476318
960.902393	2394.888355
961.202153	2398.535630
961.501875	2395.581513
961.801559	2398.240722
962.101205	2397.194683
962.400814	2394.104455
962.700385	2398.296175
962.999918	2396.872049
963.299414	2398.727193
963.598873	2393.126472
963.898293	2394.701832
964.197677	2395.697460
964.497022	2395.944477
964.796331	2396.645197
965.095601	2394.943808
965.394835	2395.170659
965.694030	2396.259549
965.993189	2398.051679
966.292309	2393.554970
966.591393	2395.541184
966.890439	2394.648900
967.189447	2397.522358
967.488419	2397.015722
967.787353	2397.471946
968.086249	2395.705022
968.385108	2394.351472
968.683930	2397.436658
968.982714	2398.439848
969.281462	2394.129661
969.580172	2396.418345
969.878844	2396.599827
970.177480	2394.530433
970.476078	2396.955228
970.774639	2393.655793
971.073162	2398.873387
971.371649	2391.888868
971.670098	2388.869217
971.968510	2392.524054
972.266885	2392.372819
972.565223	2397.413973
972.863524	2396.098232
973.161788	2396.657800
973.460014	2395.768036
973.758204	2397.381205
974.056356	2395.876421
974.354471	2397.532440
974.652550	2397.212327
974.950591	2392.282078
975.248595	2393.423900
975.546563	2398.351628
975.844493	2395.344579
976.142386	2394.628735
976.440243	2395.863818
976.738062	2393.330638
977.035845	2394.021276
977.333590	2395.495814
977.631299	2395.679816
977.928971	2393.726369
978.226606	2394.555639
978.524204	2396.506565
978.821765	2395.722666
979.119290	2394.926163
979.416777	2397.386247
979.714228	2394.714435
980.011642	2395.584034
980.309020	2397.751730
980.606360	2396.262069
980.903664	2396.342728
981.200931	2398.366751
981.498162	2397.441699
981.795356	2397.547563
982.092513	2398.671741
982.389633	2399.990002
982.686717	2399.437996
982.983764	2402.419839
983.280775	2403.881773
983.577749	2400.589900
983.874686	2401.988820
984.171587	2402.891187
984.468451	2400.836916
984.765279	2399.309447
985.062070	2400.113511
985.358824	2397.340876
985.655543	2399.385064
985.952224	2398.699467
986.248869	2399.508572
986.545478	2394.152346
986.842050	2394.530433
987.138586	2393.207130
987.435086	2392.035062
987.731549	2390.943652
988.027975	2394.492624
988.324366	2394.603530
988.620719	2395.911709
988.917037	2396.733417
989.213318	2396.065464
989.509563	2395.221071
989.805772	2394.517830
990.101944	2396.022614
990.398080	2395.034548
990.694180	2395.573952
990.990244	2394.608571
991.286271	2391.959444
991.582262	2393.237377
991.878217	2396.042779
992.174136	2394.739641
992.470019	2393.204609
992.765865	2394.543036
993.061676	2394.185114
993.357450	2392.647562
993.653188	2394.109497
993.948890	2396.095711
994.244556	2395.382388
994.540186	2394.976575
994.835780	2394.651421
995.131337	2397.207286
995.426859	2396.803993
995.722345	2400.113511
996.017795	2396.705691
996.313208	2398.281051
996.608586	2397.892883
996.903928	2398.757440
997.199234	2396.375495
997.494504	2396.430948
997.789738	2398.228119
998.084936	2397.378685
998.380099	2396.259549
998.675225	2396.279713
998.970316	2394.948849
999.265371	2396.264590
999.560390	2396.821637
999.855373	2397.257697
1000.150320	2394.432130
1000.445232	2396.287275
1000.740108	2394.636297
1001.034948	2395.994888
1001.329752	2394.666544
1001.624521	2394.301060
1001.919254	2390.563045
1002.213951	2390.563045
1002.508613	2390.573127
1002.803239	2393.302912
1003.097829	2389.554814
1003.392384	2390.731923
1003.686903	2391.115051
1003.981386	2390.777294
1004.275834	2395.263921
1004.570246	2392.087994
1004.864623	2394.220402
1005.158964	2393.295350
1005.453270	2394.956410
1005.747540	2392.713097
1006.041775	2392.080432
1006.335974	2393.479352
1006.630138	2392.024979
1006.924266	2392.985319
1007.218359	2394.275855
1007.512416	2396.599827
1007.806438	2394.510268
1008.100425	2394.641338
1008.394376	2391.535988
1008.688292	2396.115876
1008.982172	2391.994733
1009.276017	2393.083622
1009.569827	2395.878942
1009.863602	2396.113355
1010.157341	2391.876265
1010.451045	2392.231667
1010.744714	2393.665875
1011.038347	2393.620505
1011.331945	2392.219064
1011.625508	2394.308622
1011.919036	2393.479352
1012.212528	2392.778632
1012.505986	2394.129661
1012.799408	2391.815772
1013.092795	2393.421379
1013.386147	2394.429610
1013.679464	2393.192007
1013.972745	2396.299878
1014.265992	2391.203271
1014.559204	2392.871893
1014.852380	2393.975906
1015.145521	2391.359547
1015.438628	2391.654455
1015.731699	2393.580175
1016.024736	2394.265772
1016.317737	2393.050854
1016.610703	2396.254507
1016.903635	2390.931049
1017.196531	2386.746891
1017.489393	2390.399207
1017.782219	2388.849053
1018.075011	2392.342572
1018.367768	2392.592109
1018.660490	2394.109497
1018.953177	2394.109497
1019.245829	2394.109497
