Dividing Wavelength (nm)	Counts (n)	Blue Motor Position (mm): 0.000000	Red Motor Position (mm): 48.800000	
326.493990	1999.346821
326.888308	1999.346821
327.282561	1999.346821
327.676750	1977.468213
328.070874	1977.095168
328.464933	1983.051291
328.858929	1994.051089
329.252859	2006.792605
329.646726	2017.890706
330.040528	2035.229754
330.434265	2051.852959
330.827938	2075.188460
331.221547	2091.703280
331.615091	2114.443925
332.008571	2134.663993
332.401986	2156.542601
332.795338	2174.937771
333.188625	2195.074660
333.581847	2212.010417
333.975006	2231.590258
334.368100	2250.038361
334.761129	2268.431011
335.154095	2281.326282
335.546996	2324.992757
335.939833	2413.802764
336.332606	2428.964034
336.725315	2438.000303
337.117960	2451.245934
337.510540	2455.619135
337.903056	2466.888635
338.295508	2472.544809
338.687896	2480.955974
339.080220	2487.953096
339.472480	2492.548108
339.864676	2495.121617
340.256807	2499.741834
340.648875	2500.563542
341.040879	2503.426918
341.432818	2504.959428
341.824694	2501.559170
342.216506	2506.764162
342.608253	2506.426404
342.999937	2505.524038
343.391557	2502.917761
343.783113	2502.257370
344.174605	2498.605054
344.566033	2499.247801
344.957397	2496.724704
345.348697	2495.890393
345.739934	2493.523571
346.131106	2491.073570
346.522215	2489.954434
346.913260	2489.321769
347.304241	2488.661378
347.695159	2487.438898
348.086012	2484.159628
348.476802	2482.894298
348.867528	2480.330871
349.258191	2479.173927
349.648789	2480.562764
350.039324	2474.611682
350.429796	2479.862044
350.820203	2475.967753
351.210548	2478.780717
351.600828	2476.010603
351.991045	2477.248206
352.381198	2474.893987
352.771288	2477.200315
353.161314	2474.107567
353.551276	2479.181488
353.941175	2472.416260
354.331010	2477.744759
354.720782	2475.020016
355.110490	2482.317086
355.500135	2478.642085
355.889717	2479.655357
356.279235	2476.683597
356.668689	2477.974132
357.058080	2479.310038
357.447408	2476.930613
357.836672	2475.261991
358.225873	2480.834987
358.615010	2477.497743
359.004084	2483.516881
359.393095	2482.533856
359.782043	2483.388331
360.170927	2486.246665
360.559748	2486.110554
360.948505	2484.739360
361.337199	2491.847387
361.725830	2493.279075
362.114398	2490.619866
362.502903	2491.237408
362.891344	2495.832419
363.279722	2489.425113
363.668037	2493.737820
364.056289	2491.555000
364.444478	2494.617501
364.832603	2498.771412
365.220665	2495.837461
365.608665	2498.710918
365.996601	2500.482884
366.384474	2497.508603
366.772284	2498.932729
367.160031	2500.707215
367.547715	2502.436331
367.935336	2501.163440
368.322893	2505.733246
368.710388	2504.377175
369.097820	2506.766682
369.485189	2510.358504
369.872495	2511.533093
370.259738	2510.282887
370.646918	2515.860924
371.034035	2518.318486
371.421090	2520.473579
371.808081	2524.423323
372.195010	2527.730320
372.581875	2531.513706
372.968678	2540.993596
373.355418	2549.102292
373.742096	2557.838612
374.128710	2572.647001
374.515262	2585.902715
374.901751	2600.885024
375.288177	2617.755246
375.674540	2636.233595
376.060841	2657.804692
376.447079	2678.690193
376.833254	2706.005685
377.219367	2730.803121
377.605417	2767.903492
377.991404	2795.287040
378.377329	2837.557115
378.763191	2868.056096
379.148991	2919.667429
379.534727	2970.227682
379.920402	3023.056453
380.306013	3070.130748
380.691563	3136.192548
381.077049	3192.804706
381.462474	3248.201946
381.847835	3324.824964
382.233134	3401.760533
382.618371	3463.439050
383.003545	3550.414078
383.388657	3634.082108
383.773706	3729.395204
384.158693	3805.617450
384.543618	3898.798138
384.928480	3982.428359
385.313280	4088.443825
385.698017	4195.729661
386.082692	4318.464113
386.467305	4385.861819
386.851856	4512.707332
387.236344	4674.142723
387.620770	4737.530191
388.005133	4863.758163
388.389435	5012.136965
388.773674	5098.839770
389.157851	5232.153083
389.541965	5370.116861
389.926018	5391.077979
390.310008	5576.920115
390.693936	5703.526173
391.077802	5820.929605
391.461606	5958.943795
391.845348	6077.080715
392.229027	6200.241144
392.612645	6429.714467
392.996200	6547.995060
393.379694	6727.351752
393.763125	6962.234233
394.146494	7051.089611
394.529801	7200.448917
394.913047	7452.534336
395.296230	7444.886905
395.679351	7502.955957
396.062410	7775.049715
396.445408	7667.867222
396.828343	7827.530647
397.211217	7965.169270
397.594028	7848.766507
397.976778	8059.360709
398.359466	8226.389260
398.742092	8200.392029
399.124656	8355.523457
399.507158	8545.630409
399.889598	8563.024911
400.271977	8785.617059
400.654294	8816.468920
401.036549	9018.868727
401.418742	9047.898211
401.800874	9358.642496
402.182944	9442.360938
402.564952	9819.202311
402.946898	9636.170618
403.328783	9700.190751
403.710606	9899.578468
404.092367	10165.489251
404.474067	10535.998936
404.855705	10314.593979
405.237282	10269.798286
405.618797	10708.154339
406.000250	10968.963475
406.381642	11336.372849
406.762972	11276.942687
407.144240	11080.400701
407.525447	11341.305618
407.906593	11277.918150
408.287677	11540.015300
408.668700	11708.147863
409.049661	11676.267606
409.430560	11839.953872
409.811399	11812.587968
410.192176	11980.511323
410.572891	12051.170656
410.953545	12561.111094
411.334138	12019.358455
411.714669	12649.606029
412.095139	11924.350349
412.475547	12444.630193
412.855894	12283.653548
413.236180	12625.537040
413.616405	12291.797532
413.996568	12588.653438
414.376670	12558.993809
414.756711	12426.068665
415.136691	12723.176628
415.516609	12907.922314
415.896466	12989.523471
416.276262	13271.757511
416.655997	13720.319380
417.035670	13748.000356
417.415283	14414.763528
417.794834	14510.810112
418.174324	14251.021810
418.553753	14155.978416
418.933121	14654.984591
419.312428	14457.537718
419.691674	14374.194842
420.070859	14836.715667
420.449983	14487.139374
420.829045	15058.763370
421.208047	14789.354026
421.586988	15259.423978
421.965867	15523.663619
422.344686	15517.468041
422.723444	16100.986640
423.102141	14751.953706
423.480777	15969.508306
423.859352	15471.543129
424.237866	16608.177128
424.616319	16298.244469
424.994712	16972.798745
425.373044	16759.008451
425.751314	17457.299000
426.129524	16563.893112
426.507673	17691.178291
426.885762	17367.594188
427.263789	17585.109894
427.641756	17746.459584
428.019662	17804.659705
428.397508	17847.663268
428.775292	18174.922373
429.153016	18128.226165
429.530679	18217.520123
429.908282	18242.715810
430.285824	17940.095345
430.663305	18670.145162
431.040726	18255.769878
431.418086	18082.437365
431.795385	18749.991998
432.172624	19169.133693
432.549802	18710.182006
432.926920	18906.552593
433.303977	18798.235840
433.680974	19047.712462
434.057910	19344.896043
434.434786	19367.162819
434.811601	19279.403893
435.188355	20343.987200
435.565050	19981.631582
435.941683	19930.816752
436.318257	20835.792087
436.694770	20634.748351
437.071222	21237.851833
437.447614	20294.752771
437.823946	20318.791513
438.200218	20477.166923
438.576429	20256.056874
438.952580	20536.828979
439.328670	20485.270578
439.704700	20926.787435
440.080670	20474.585852
440.456580	21078.901731
440.832429	21256.564596
441.208218	20228.983358
441.583947	20678.666883
441.959616	20791.180396
442.335224	21040.803211
442.710773	21168.679640
443.086261	21718.732539
443.461689	21076.005588
443.837057	21188.894667
444.212365	21855.993076
444.587612	21859.466431
444.962800	21408.454561
445.337927	21861.336699
445.712995	20564.830068
446.088002	22441.142488
446.462949	22646.400629
446.837837	22846.307585
447.212664	22802.119351
447.587431	25706.338164
447.962139	28695.664257
448.336786	31087.379205
448.711374	29482.074174
449.085901	25735.004685
449.460369	25680.577868
449.834776	25622.896985
450.209124	28161.685077
450.583412	27661.307707
450.957640	28195.695221
451.331808	26817.582391
451.705917	25442.426198
452.079965	25488.159546
452.453954	25849.973240
452.827883	25719.901388
453.201752	25520.087694
453.575562	25696.495311
453.949311	26849.263523
454.323001	26905.487511
454.696632	26655.453842
455.070202	28254.848120
455.443713	28385.058603
455.817164	28993.553599
456.190556	29522.211841
456.563888	28947.149778
456.937160	29392.061852
457.310373	27701.407566
457.683526	28173.025152
458.056619	28155.799529
458.429653	28086.662625
458.802628	28669.747685
459.175542	28800.711820
459.548398	30104.444946
459.921194	31716.588302
460.293930	32379.913407
460.666607	34448.190445
461.039224	36213.224436
461.411782	36623.607126
461.784280	35411.212147
462.156719	34939.871824
462.529099	34399.255965
462.901419	33075.801846
463.273680	32009.270132
463.645882	32082.782758
464.018024	32072.251788
464.390106	32921.857610
464.762130	35663.408471
465.134094	39777.415987
465.505999	45106.691940
465.877845	49708.534434
466.249631	50887.554455
466.621358	49195.854129
466.993026	47105.925335
467.364634	45031.641762
467.736184	43036.779047
468.107674	41781.584672
468.479105	40965.366411
468.850477	40270.027458
469.221790	38812.198863
469.593043	37040.775210
469.964238	36146.630793
470.335373	36051.642852
470.706449	37832.042279
471.077467	40476.966824
471.448425	45049.588270
471.819324	47867.058908
472.190164	45963.962837
472.560945	42385.903071
472.931667	39256.412737
473.302330	38139.986203
473.672934	37312.677404
474.043479	37838.489915
474.413965	37023.201748
474.784393	36635.789075
475.154761	37545.069556
475.525070	37569.040242
475.895321	37105.085210
476.265513	37703.414718
476.635645	38685.628093
477.005719	38521.276395
477.375734	38986.363167
477.745691	39689.773007
478.115588	41045.387167
478.485427	43049.976788
478.855207	46433.763087
479.224928	49051.112520
479.594591	50678.356652
479.964194	49696.365089
480.333739	49867.197190
480.703226	49908.239744
481.072653	50545.524769
481.442022	51003.415293
481.811333	51282.332253
482.180584	49986.228914
482.549777	49464.429162
482.918912	48934.235889
483.287988	48650.723917
483.657005	47807.689239
484.025964	47175.364709
484.394864	47196.151907
484.763706	46773.965354
485.132489	45883.533748
485.501213	45718.320013
485.869879	45877.098715
486.238487	45444.666017
486.607036	45652.764848
486.975527	45111.460872
487.343959	45320.714127
487.712333	45411.187715
488.080648	45302.896168
488.448905	45773.245904
488.817104	45592.195385
489.185244	46556.011068
489.553326	48275.054612
489.921350	50982.161789
490.289315	53808.192306
490.657222	54380.673298
491.025070	54649.099617
491.392861	53779.102328
491.760593	52563.758273
492.128267	50921.877151
492.495883	49407.358259
492.863440	48009.761370
493.230939	46657.633168
493.598380	45550.633592
493.965763	45232.156177
494.333088	44392.597374
494.700354	43923.638997
495.067563	43621.071463
495.434713	43496.305426
495.801805	43555.170980
496.168839	43176.048484
496.535815	42827.553519
496.902733	42886.577868
497.269593	42461.699340
497.636395	42383.006928
498.003139	42810.103565
498.369825	42246.545414
498.736453	42569.912748
499.103023	42086.145981
499.469535	41960.641415
499.835989	42050.545353
500.202385	41711.207643
500.568723	41743.400452
500.935003	41935.201232
501.301226	41724.458316
501.667390	42350.476363
502.033497	42628.531285
502.399546	42041.730895
502.765537	41353.565504
503.131470	41748.126534
503.497345	42106.842438
503.863163	40759.715061
504.228923	41377.195913
504.594625	41797.635706
504.960269	41105.185334
505.325856	41791.193111
505.691385	41130.464200
506.056856	41284.277365
506.422270	41744.960689
506.787625	41299.834366
507.152924	41493.654129
507.518164	41598.658843
507.883347	40791.829731
508.248472	41072.228791
508.613540	41543.178424
508.978550	41857.746424
509.343503	41604.902312
509.708398	41803.435553
510.073236	42330.165554
510.438016	42353.881662
510.802738	41782.940742
511.167403	42425.123248
511.532010	42660.340966
511.896561	42960.453457
512.261053	43821.608563
512.625488	43376.762024
512.989866	43230.026639
513.354186	43074.590222
513.718449	43064.061772
514.082655	43753.545425
514.446803	43419.886575
514.810894	43936.012509
515.174927	43877.761976
515.538904	43752.665743
515.902822	44451.697341
516.266684	43886.198347
516.630488	44323.561293
516.994235	44179.679200
517.357925	44760.026913
517.721558	44919.218990
518.085133	45229.113841
518.448651	45381.349125
518.812112	45145.839020
519.175516	45234.361682
519.538863	45574.483291
519.902152	45529.246497
520.265385	46000.407858
520.628560	46053.710499
520.991678	45828.663309
521.354739	46064.485965
521.717743	46387.873464
522.080690	46281.709284
522.443580	46849.315481
522.806413	46876.225160
523.169189	46819.083681
523.531908	47002.884151
523.894569	46853.250102
524.257174	47041.080973
524.619722	47347.580607
524.982213	47335.575099
525.344647	47237.365860
525.707025	47273.752908
526.069345	47666.985594
526.431608	47601.972353
526.793815	47932.157848
527.155964	47457.760065
527.518057	47597.578988
527.880093	47390.407729
528.242072	47909.122295
528.603995	47620.644787
528.965860	47615.727141
529.327669	47721.079695
529.689421	47601.392620
530.051117	47563.374759
530.412755	47707.466059
530.774337	47756.897093
531.135862	47574.505626
531.497331	47772.988456
531.858743	47671.709155
532.220098	48011.177934
532.581396	47722.897031
532.942638	47375.526243
533.303824	47686.313377
533.664953	47641.908374
534.026025	47356.347173
534.387040	47839.582098
534.747999	47788.817679
535.108902	47942.615721
535.469748	47460.162175
535.830537	47574.051922
536.191270	47755.614119
536.551947	47411.479752
536.912567	47732.528155
537.273131	47849.092235
537.633638	47325.213007
537.994089	47693.010550
538.354483	47261.989376
538.714821	47832.650512
539.075103	48182.677988
539.435328	47936.440308
539.795497	47820.256835
540.155609	47799.351170
540.515665	48282.011404
540.875665	47725.687310
541.235609	48049.644459
541.595496	48026.172846
541.955328	48721.862159
542.315102	48062.479236
542.674821	47843.539404
543.034483	47899.518897
543.394090	47862.441211
543.753640	47817.428748
544.113134	48826.438375
544.472571	47824.075509
544.831953	49080.918342
545.191278	48300.595618
545.550548	48002.534876
545.909761	48466.600814
546.268918	48692.605823
546.628019	48988.234208
546.987064	48551.322445
547.346053	47813.766350
547.704986	48712.677177
548.063863	48229.482581
548.422684	48451.416858
548.781449	48293.359041
549.140158	48694.576914
549.498811	48538.976660
549.857408	47974.072521
550.215949	48812.711313
550.574434	48741.225231
550.932864	48497.750103
551.291237	49228.324201
551.649555	48820.058795
552.007817	49072.378628
552.366022	48704.656701
552.724173	48881.245800
553.082267	49299.308688
553.440305	49590.745354
553.798288	48900.213141
554.156215	49198.052072
554.514086	49432.992527
554.871902	49171.016364
555.229661	49189.436740
555.587365	49004.801960
555.945014	49096.208162
556.302606	49022.665289
556.660143	49276.386562
557.017625	49337.306386
557.375050	49129.189911
557.732421	49474.433332
558.089735	49467.481581
558.446994	49381.295494
558.804197	49862.377847
559.161345	49807.840124
559.518437	49048.964988
559.875474	49350.887254
560.232455	49515.470845
560.589381	49708.027798
560.946251	49392.002905
561.303065	50100.378282
561.659825	49899.011912
562.016528	49558.615560
562.373177	49270.402712
562.729770	49763.314133
563.086307	49281.382345
563.442789	49739.159444
563.799216	49785.379263
564.155587	49569.322971
564.511904	49585.038768
564.868164	49683.086690
565.224370	49941.798705
565.580520	49675.247695
565.936615	49885.904912
566.292654	49599.269945
566.648638	49864.757271
567.004567	49821.199182
567.360441	49853.076918
567.716260	49716.746474
568.072023	49970.324074
568.427732	49980.824798
568.783385	49534.775943
569.138982	49937.622109
569.494525	49895.551160
569.850013	49668.575728
570.205445	49632.584410
570.560823	49585.978943
570.916145	49487.358850
571.271412	49518.447646
571.626625	49280.101892
571.981782	49337.813022
572.336884	49025.132934
572.691931	49348.956492
573.046923	48948.308270
573.401860	48792.624836
573.756743	48783.213002
574.111570	48909.539276
574.466342	48743.307228
574.821059	48860.836689
575.175722	48385.644924
575.530330	48392.367303
575.884882	48114.569479
576.239380	48085.645859
576.593823	48074.232687
576.948211	47984.091815
577.302544	47505.850152
577.656823	47520.787091
578.011047	47743.298581
578.365216	47479.205133
578.719330	47277.546377
579.073389	47137.021693
579.427394	47205.399903
579.781344	47173.832198
580.135239	46839.994387
580.489080	46924.428673
580.842866	46408.161587
581.196597	46846.116869
581.550273	46778.328473
581.903895	46660.715833
582.257463	47087.840196
582.610975	46452.009543
582.964434	46728.962974
583.317837	46378.806948
583.671186	46220.958339
584.024481	46470.545866
584.377721	45989.708009
584.730906	46285.538041
585.084037	46318.940726
585.437113	46035.174176
585.790135	46054.496919
586.143103	45664.588874
586.496016	45781.692358
586.848874	45827.604666
587.201679	45839.882397
587.554428	45322.138252
587.907124	45506.049627
588.259765	45253.744918
588.612352	45507.070461
588.964884	44887.696655
589.317362	45175.753227
589.669786	45136.780067
590.022155	44896.853911
590.374470	45331.129150
590.726731	44846.255850
591.078937	44361.629566
591.431090	44448.881857
591.783188	44130.001150
592.135232	43787.762256
592.487222	44043.227769
592.839157	44134.089526
593.191038	43784.745126
593.542866	43556.446392
593.894639	42941.244141
594.246358	43218.742016
594.598022	43198.534551
594.949633	42802.231803
595.301190	42733.581370
595.652692	42568.859147
596.004141	42898.573294
596.355535	41909.997984
596.706876	41869.641027
597.058162	41699.829759
597.409395	42177.874817
597.760573	42261.643670
598.111698	41824.757113
598.462768	41828.507732
598.813785	41877.747202
599.164748	41312.638897
599.515657	41713.740823
599.866511	41164.456700
600.217312	41791.273769
600.568060	40723.690975
600.918753	41494.047339
601.269392	41461.496608
601.619978	41089.494743
601.970510	41312.399442
602.320988	41506.657785
602.671412	41802.364308
603.021783	41536.128370
603.372100	41193.758407
603.722363	41301.976857
604.072572	41389.576987
604.422728	41401.655592
604.772830	41211.087373
605.122878	41308.933649
605.472872	41237.558472
605.822813	41521.062882
606.172701	41345.860101
606.522534	41591.598707
606.872314	41855.901362
607.222041	41588.349683
607.571714	41990.197700
607.921333	41400.538976
608.270899	41716.881462
608.620411	42071.609814
608.969870	41879.788869
609.319276	41845.536749
609.668627	41904.636717
610.017926	42391.458423
610.367171	42578.054212
610.716362	42647.579285
611.065500	42581.935900
611.414585	42769.045887
611.763616	43051.746233
612.112594	42995.925537
612.461518	43211.064339
612.810389	43496.602854
613.159207	43361.633522
613.507971	43437.601190
613.856682	43918.683542
614.205340	43789.221670
614.553945	44510.691444
614.902496	43947.231597
615.250994	44416.028657
615.599439	44494.176624
615.947830	44704.264190
616.296169	44737.092184
616.644454	44866.160846
616.992686	45031.926587
617.340864	45556.670373
617.688990	45256.779693
618.037063	45873.348096
618.385082	45827.715572
618.733048	46137.010525
619.080961	46150.661969
619.428821	46164.540266
619.776628	46279.067720
620.124382	46106.458612
620.472083	46240.644045
620.819731	46370.547018
621.167326	46034.811213
621.514868	46028.371139
621.862357	45585.357059
622.209793	45623.077493
622.557176	45291.409899
622.904506	45041.897990
623.251783	44707.452720
623.599007	44465.827696
623.946179	44251.538328
624.293297	44196.302405
624.640363	43570.720419
624.987376	43570.755707
625.334336	43319.476873
625.681243	42943.716827
626.028097	42894.227819
626.374899	42737.299221
626.721647	42708.539438
627.068343	42574.343923
627.414987	42332.648322
627.761577	42089.251332
628.108115	42429.907303
628.454600	41860.186343
628.801032	42058.470047
629.147412	42006.029444
629.493739	42008.151770
629.840014	41635.779379
630.186236	41969.138280
630.532405	41570.859400
630.878521	41791.382154
631.224585	41674.712210
631.570597	41367.963040
631.916556	41534.845397
632.262462	41451.431945
632.608316	41483.009732
632.954117	41374.511499
633.299866	41363.831814
633.645562	41294.480661
633.991206	40791.065997
634.336797	40350.466630
634.682336	40362.262930
635.027823	40117.126742
635.373257	39915.490670
635.718639	39679.443683
636.063968	39531.190910
636.409245	38949.754307
636.754470	39001.665589
637.099642	38742.066331
637.444762	38225.607681
637.789829	38389.596415
638.134845	38039.314361
638.479808	37983.115578
638.824719	37864.073771
639.169577	37455.848694
639.514383	37517.806996
639.859137	37199.034673
640.203839	37448.314690
640.548489	37064.332522
640.893086	37125.829558
641.237632	36862.358693
641.582125	36975.378842
641.926566	36907.696310
642.270955	36867.810701
642.615292	36877.923256
642.959576	36850.950562
643.303809	36841.775662
643.647990	36983.817733
643.992118	36936.405681
644.336195	36925.005112
644.680219	37015.723196
645.024192	37303.999058
645.368112	37830.081271
645.711981	37823.096752
646.055797	38709.384530
646.399562	38609.433573
646.743274	39588.501267
647.086935	40057.305890
647.430544	39934.266448
647.774101	40065.812837
648.117606	40306.215381
648.461059	40643.145940
648.804460	40273.251276
649.147810	39642.345831
649.491108	39393.378366
649.834354	39014.606231
650.177548	38164.619802
650.520690	37704.153247
650.863781	37723.506237
651.206820	37563.124448
651.549807	37123.039279
651.892742	36626.049565
652.235626	36402.479433
652.578458	36268.921624
652.921238	35636.317310
653.263967	35964.516590
653.606644	35633.529552
653.949269	35580.584834
654.291843	35178.197413
654.634365	35561.657822
654.976836	35154.085574
655.319255	35136.181917
655.661622	35139.945138
656.003938	34906.806896
656.346203	34767.209784
656.688416	34975.918595
657.030577	34786.058658
657.372687	34625.129904
657.714746	34906.075929
658.056753	35017.124986
658.398708	34452.177998
658.740612	34500.678939
659.082465	34776.183038
659.424266	34590.938278
659.766016	34706.947831
660.107715	34580.959314
660.449362	34723.329061
660.790958	34703.799631
661.132503	34723.553392
661.473996	34732.791306
661.815438	34868.078232
662.156829	35065.898150
662.498168	34827.020554
662.839456	34846.444120
663.180693	34993.169423
663.521879	35141.399511
663.863013	35104.891475
664.204097	35091.030822
664.545129	35555.447120
664.886110	35510.275861
665.227040	35564.072534
665.567918	35693.047935
665.908746	35753.123365
666.249522	35925.825734
666.590248	35932.059121
666.930922	36047.443571
667.271545	36011.870669
667.612118	36093.814625
667.952639	35853.553232
668.293109	35926.561743
668.633528	35835.526066
668.973896	35763.780365
669.314213	35789.028984
669.654480	35518.437489
669.994695	35564.564047
670.334859	35437.610149
670.674973	35335.221794
671.015035	35495.936299
671.355047	35435.497906
671.695008	35373.794183
672.034918	35277.518226
672.374777	35336.411506
672.714585	35167.351371
673.054342	35391.665073
673.394049	35140.325745
673.733705	35448.123475
674.073310	35094.002582
674.412864	35186.485070
674.752368	34765.064773
675.091820	35088.129638
675.431223	34654.315664
675.770574	34378.499014
676.109875	34236.895523
676.449125	33950.386585
676.788324	33862.594891
677.127473	33307.306754
677.466571	33249.036057
677.805619	32866.785525
678.144616	32876.494787
678.483562	32767.563014
678.822458	32433.886521
679.161303	32354.959696
679.500098	32256.266506
679.838842	32139.006747
680.177535	32282.770373
680.516179	32545.427091
680.854771	32793.860193
681.193314	33672.392157
681.531805	34785.909944
681.870247	35550.773971
682.208638	36291.793339
682.546978	36526.703547
682.885268	36640.789899
683.223508	36117.190455
683.561697	35791.496628
683.899836	35585.114311
684.237925	35081.613947
684.575963	34938.104900
684.913951	34438.687870
685.251889	34602.474959
685.589776	34565.175462
685.927614	34551.773554
686.265401	34669.935680
686.603137	34745.968882
686.940824	35245.088484
687.278460	35615.915761
687.616046	35739.320686
687.953582	36367.811418
688.291068	36237.868116
688.628504	36542.500002
688.965889	36491.503690
689.303224	36127.628164
689.640510	35805.211087
689.977745	35086.886994
690.314930	34290.682114
690.652065	33773.454688
690.989150	33027.537839
691.326185	32101.939143
691.663170	31384.230070
692.000105	30613.036875
692.336990	29912.031665
692.673825	29438.823595
693.010610	28898.842921
693.347345	28302.502147
693.684030	27598.749509
694.020665	27311.113873
694.357251	26607.446934
694.693786	26551.820322
695.030272	26300.170963
695.366707	25730.248356
695.703093	25424.383908
696.039429	25422.627066
696.375716	25143.775641
696.711952	25078.585960
697.048139	24912.016155
697.384276	24728.553443
697.720363	24843.985784
698.056400	24636.355780
698.392388	24415.086935
698.728326	24375.954978
699.064214	24172.579709
699.400053	24124.592965
699.735842	23771.334110
700.071581	23468.159117
700.407270	23173.357482
700.742910	22979.550322
701.078501	22699.239483
701.414042	22408.813569
701.749533	22104.292588
702.084974	21738.476218
702.420366	21952.621913
702.755709	21487.295687
703.091002	21181.484171
703.426246	21202.392357
703.761440	21084.605797
704.096584	20807.382665
704.431679	20755.476424
704.766725	20655.323821
705.101721	20583.121895
705.436668	20676.564722
705.771565	20333.637711
706.106413	20693.467711
706.441212	20659.102165
706.775961	20793.083432
707.110661	20862.053978
707.445311	21205.366637
707.779913	21028.568331
708.114465	21259.115420
708.448967	21552.432436
708.783421	22262.297473
709.117825	22533.567003
709.452180	22746.699426
709.786485	23136.090752
710.120742	23961.471309
710.454949	23963.397030
710.789107	24436.423619
711.123216	25159.025132
711.457275	25285.124554
711.791286	25852.007345
712.125247	25945.535873
712.459159	25650.550235
712.793023	26367.999688
713.126837	25251.991570
713.460602	25533.151844
713.794318	25173.899056
714.127985	24792.535768
714.461602	23898.930755
714.795171	23863.128480
715.128691	22823.675324
715.462162	22265.107917
715.795584	21829.065753
716.128957	21556.727499
716.462281	21151.852269
716.795556	20897.072353
717.128782	20369.467712
717.461960	19802.088368
717.795088	19720.096521
718.128167	19297.816707
718.461198	18822.587134
718.794180	18677.532973
719.127113	18287.130896
719.459997	18090.251153
719.792833	17717.046972
720.125619	17674.250097
720.458357	17335.814754
720.791046	17152.213410
721.123686	16994.674832
721.456278	16736.061119
721.788821	16681.954415
722.121315	16415.484063
722.453761	16487.539796
722.786158	16406.087353
723.118506	16408.116417
723.450805	16259.566216
723.783056	16418.349959
724.115259	16313.178887
724.447412	16230.178810
724.779518	16483.937892
725.111574	16502.239801
725.443582	16700.614246
725.775542	16681.702357
726.107453	17167.868713
726.439315	17032.773352
726.771129	17448.902958
727.102895	17833.454776
727.434612	18033.782668
727.766281	18169.243513
728.097901	18440.134956
728.429473	18490.828799
728.760996	18475.367581
729.092471	18587.182893
729.423897	18469.998752
729.755276	18350.291512
730.086606	18452.483263
730.417887	18978.711669
730.749120	19489.163784
731.080305	19666.738428
731.411442	20012.864051
731.742530	20097.777246
732.073570	20220.705783
732.404562	20544.736029
732.735506	20360.726352
733.066401	20087.974723
733.397249	19556.122910
733.728048	18907.379342
734.058798	18047.217343
734.389501	17342.610229
734.720156	16843.868714
735.050762	16295.181968
735.381320	15923.414516
735.711831	15669.650393
736.042293	15278.653460
736.372707	15274.355876
736.703073	15050.566454
737.033391	15236.348097
737.363661	15184.257854
737.693883	15282.388955
738.024056	15447.683348
738.354182	15619.750532
738.684260	15907.592855
739.014290	16119.013806
739.344272	16307.442054
739.674207	16605.283506
740.004093	16723.138121
740.333931	16733.724544
740.663722	16786.485260
740.993464	16806.972509
741.323159	16621.861340
741.652806	16356.394179
741.982405	16147.385420
742.311956	15803.596371
742.641460	15695.839187
742.970915	15380.996444
743.300323	15040.378282
743.629683	14825.393235
743.958996	14531.539336
744.288260	14252.445936
744.617477	13952.091469
744.946647	13873.124315
745.275768	13591.616202
745.604842	13402.847675
745.933869	13222.200448
746.262847	13165.951253
746.591778	13090.074326
746.920662	12972.965802
747.249498	12970.467910
747.578286	13092.599944
747.907027	13229.084143
748.235720	13451.280561
748.564365	13476.531700
748.892963	13372.028581
749.221514	13431.788939
749.550017	13277.355712
749.878473	13241.082089
750.206881	13018.903316
750.535242	12920.651227
750.863555	12826.449706
751.191821	12727.761558
751.520039	12746.839805
751.848210	12643.186120
752.176334	12680.019310
752.504411	12578.268661
752.832440	12407.479410
753.160421	12466.859161
753.488356	12339.277640
753.816243	12247.936973
754.144082	12092.876122
754.471875	12036.952082
754.799620	11972.574027
755.127318	11946.549070
755.454969	11893.979917
755.782572	11856.408198
756.110129	11863.581760
756.437638	11776.944490
756.765100	11769.198757
757.092515	11763.545103
757.419882	11782.204934
757.747203	11772.190682
758.074477	11854.553053
758.401703	11804.759056
758.728882	11968.911628
759.056014	12017.997343
759.383099	12131.650157
759.710138	12234.719068
760.037129	12323.350114
760.364073	12340.815192
760.690970	12321.653766
761.017820	12316.219402
761.344623	12524.328315
761.671379	12876.652037
761.998088	13531.414742
762.324751	15151.079500
762.651366	18120.815669
762.977935	21842.989420
763.304456	24128.520024
763.630931	24654.761033
763.957359	23501.629858
764.283740	21571.682082
764.610074	19654.690070
764.936362	17446.513451
765.262602	15876.176384
765.588796	14337.096991
765.914943	13283.984829
766.241044	12364.397709
766.567097	11698.751152
766.893104	11123.283276
767.219064	10742.028373
767.544978	10336.394449
767.870845	9997.666719
768.196665	9801.094487
768.522438	9590.790151
768.848165	9428.225542
769.173846	9253.300025
769.499479	9124.909398
769.825066	8959.826733
770.150607	8764.189634
770.476101	8700.913071
770.801548	8586.688087
771.126949	8438.170653
771.452303	8349.768980
771.777611	8174.258688
772.102872	8160.342583
772.428087	8036.642750
772.753256	7905.786999
773.078378	7814.547155
773.403453	7660.068557
773.728482	7550.874644
774.053465	7478.629869
774.378401	7388.678040
774.703291	7289.049717
775.028135	7191.374840
775.352932	7151.902606
775.677683	7069.298259
776.002388	6968.097095
776.327046	6971.388969
776.651658	6876.579988
776.976224	6791.961700
777.300743	6782.900226
777.625216	6701.039450
777.949643	6662.351114
778.274024	6663.813049
778.598359	6591.341421
778.922647	6594.073727
779.246889	6549.043620
779.571086	6558.258849
779.895236	6562.069962
780.219339	6549.167128
780.543397	6547.475821
780.867409	6600.297031
781.191374	6599.278718
781.515294	6570.327372
781.839167	6622.188242
782.162995	6592.155568
782.486776	6545.270316
782.810511	6503.796744
783.134201	6424.703560
783.457844	6419.949752
783.781441	6368.282967
784.104993	6320.419731
784.428498	6297.742101
784.751958	6276.702845
785.075372	6254.088229
785.398739	6208.906888
785.722061	6236.968471
786.045337	6235.352781
786.368568	6349.310584
786.691752	6368.502257
787.014891	6629.704602
787.337983	6906.126191
787.661030	7352.719490
787.984031	7786.465408
788.306987	8064.457316
788.629897	8156.390318
788.952760	8081.083041
789.275579	7902.250629
789.598351	7599.310051
789.921078	7328.930285
790.243759	7039.623507
790.566395	6832.565674
790.888984	6624.381144
791.211529	6486.792932
791.534027	6312.069060
791.856480	6166.125136
792.178888	6102.684735
792.501249	6033.373911
792.823566	5917.392084
793.145836	5913.452423
793.468062	5888.912086
793.790241	5847.017577
794.112375	5887.419904
794.434464	5988.053938
794.756507	6015.949163
795.078505	6135.192616
795.400457	6356.128745
795.722364	6600.811229
796.044226	6796.657535
796.366042	6956.477236
796.687812	6911.026193
797.009538	6947.645134
797.331218	6858.777153
797.652852	6796.014788
797.974442	6672.972826
798.295986	6599.140086
798.617484	6464.445497
798.938938	6354.394588
799.260346	6286.795235
799.581709	6138.441639
799.903026	6084.851653
800.224299	6010.918091
800.545526	5892.077930
800.866708	5817.204193
801.187845	5765.683600
801.508936	5683.217885
801.829983	5658.319626
802.150984	5542.148757
802.471940	5512.652965
802.792851	5496.654864
803.113717	5468.381552
803.434538	5445.053613
803.755314	5404.714300
804.076045	5396.378752
804.396731	5353.838975
804.717372	5366.507395
805.037967	5367.850862
805.358518	5390.437752
805.679024	5449.479746
805.999485	5456.769254
806.319901	5475.923118
806.640272	5487.868132
806.960598	5539.575247
807.280879	5526.289287
807.601115	5568.314866
807.921306	5534.423188
808.241453	5528.545203
808.561554	5544.563469
808.881611	5511.496021
809.201623	5512.627760
809.521590	5464.895594
809.841513	5453.177432
810.161390	5473.987315
810.481223	5379.972317
810.801011	5371.077201
811.120755	5350.902503
811.440453	5285.654849
811.760107	5255.901959
812.079716	5232.803392
812.399281	5180.768602
812.718801	5178.061502
813.038276	5142.004649
813.357707	5104.301860
813.677093	5132.181961
813.996434	5066.914142
814.315731	5089.362400
814.634983	5087.401392
814.954191	5091.081434
815.273354	5156.896218
815.592473	5197.598494
815.911547	5276.611019
816.230577	5335.821891
816.549562	5424.914203
816.868502	5482.862267
817.187399	5546.968100
817.506250	5633.428929
817.825058	5663.711140
818.143821	5833.925700
818.462539	6011.013873
818.781213	6251.600420
819.099843	6630.175950
819.418429	7286.755992
819.736970	7938.541896
820.055466	8685.789610
820.373919	9670.170680
820.692327	11241.737789
821.010691	14152.603363
821.329011	20745.167264
821.647286	30663.045121
821.965517	41298.090127
822.283704	46844.213833
822.601847	48407.717616
822.919945	43833.483001
823.237999	38694.661840
823.556010	33380.635378
823.873976	28487.850251
824.191897	24064.187339
824.509775	20806.598765
824.827609	17899.743429
825.145398	16213.323712
825.463144	15396.649227
825.780845	15717.062445
826.098502	17031.477775
826.416116	19525.979330
826.733685	21810.143782
827.051210	22274.083691
827.368692	20753.338975
827.686129	18135.707237
828.003522	15567.007460
828.320872	13289.928350
828.638177	11530.868127
828.955439	10220.720133
829.272656	9104.480122
829.589830	8213.574647
829.906960	7439.931451
830.224046	6877.043774
830.541088	6443.499502
830.858086	6162.435011
831.175041	5948.085149
831.491952	5884.939656
831.808819	5920.235295
832.125642	6184.066602
832.442421	6769.851200
832.759157	7949.675284
833.075849	9768.274055
833.392497	11651.835654
833.709101	12826.147237
834.025662	12544.339175
834.342179	11463.079731
834.658653	10118.730029
834.975083	8973.357190
835.291469	8038.223151
835.607811	7247.389621
835.924110	6700.361414
836.240366	6175.579820
836.556578	5703.553900
836.872746	5324.161703
837.188871	5038.736613
837.504952	4803.513854
837.820990	4623.123725
838.136984	4498.463552
838.452935	4447.719298
838.768842	4482.399916
839.084706	4785.012819
839.400526	5563.374535
839.716303	6503.484192
840.032037	7085.929025
840.347727	6932.756086
840.663373	6309.772814
840.978977	5711.443306
841.294537	5243.747737
841.610054	4893.221187
841.925527	4638.647958
842.240957	4419.340122
842.556344	4216.889904
842.871687	4050.708268
843.186987	3889.580388
843.502244	3763.440636
843.817458	3665.710307
844.132629	3589.556117
844.447756	3539.890669
844.762840	3492.193792
845.077881	3448.086216
845.392879	3413.042635
845.707833	3383.970301
846.022745	3354.731609
846.337613	3339.822396
846.652438	3316.761638
846.967221	3308.728559
847.281960	3282.716206
847.596656	3275.217489
847.911309	3258.712752
848.225919	3246.286307
848.540485	3236.655183
848.855009	3231.235942
849.169490	3216.435115
849.483928	3206.723332
849.798323	3203.048331
850.112675	3191.141125
850.426984	3192.439222
850.741251	3182.631658
851.055474	3174.500277
851.369654	3178.518076
851.683792	3178.139990
851.997887	3180.479085
852.311938	3179.165864
852.625947	3177.570339
852.939914	3169.154133
853.253837	3175.354752
853.567718	3177.489681
853.881555	3168.191272
854.195350	3177.610668
854.509103	3172.241840
854.822812	3169.673372
855.136479	3162.630880
855.450103	3170.873166
855.763685	3159.822957
856.077224	3165.584996
856.390720	3171.589010
856.704173	3183.954961
857.017584	3186.410002
857.330953	3191.930066
857.644278	3204.590924
857.957561	3203.663352
858.270802	3205.213506
858.584000	3200.124462
858.897155	3197.346786
859.210268	3185.134591
859.523339	3174.061696
859.836367	3171.362158
860.149352	3168.138340
860.462295	3161.690705
860.775195	3151.931031
861.088054	3149.130670
861.400869	3147.978766
861.713642	3146.925165
862.026373	3154.686021
862.339062	3156.152997
862.651708	3167.387208
862.964312	3183.150897
863.276873	3188.676001
863.589392	3225.330231
863.901869	3249.638675
864.214303	3270.887138
864.526696	3291.281126
864.839045	3309.842654
865.151353	3325.780262
865.463619	3326.521312
865.775842	3329.949297
866.088023	3331.380984
866.400162	3327.620283
866.712258	3329.891323
867.024313	3332.522806
867.336325	3330.559276
867.648296	3331.101200
867.960224	3325.807989
868.272110	3334.325018
868.583954	3330.009790
868.895755	3340.167715
869.207515	3335.532374
869.519233	3357.373173
869.830909	3364.387939
870.142542	3372.700802
870.454134	3381.923593
870.765684	3397.500758
871.077191	3416.889036
871.388657	3427.115016
871.700081	3447.743418
872.011463	3469.080102
872.322803	3489.474089
872.634101	3507.365144
872.945357	3531.766850
873.256571	3558.490006
873.567744	3574.074733
873.878874	3579.443562
874.189963	3595.240018
874.501010	3601.314608
874.812015	3599.348558
875.122979	3615.056793
875.433900	3614.066207
875.744780	3620.468472
876.055618	3628.156232
876.366415	3628.148670
876.677169	3634.896254
876.987882	3652.608348
877.298554	3680.526258
877.609183	3721.125191
877.919771	3774.052265
878.230317	3849.306610
878.540822	3964.728868
878.851285	4130.424033
879.161707	4373.266497
879.472087	4783.490391
879.782425	5465.230831
880.092722	6744.647951
880.402977	8798.209861
880.713191	11281.394026
881.023363	13746.767793
881.333494	15123.509429
881.643583	15629.369053
881.953631	15239.841616
882.263637	14386.800248
882.573602	13349.592926
882.883526	12331.688183
883.193408	11327.404637
883.503248	10357.015289
883.813048	9468.368251
884.122806	8652.676791
884.432522	7834.547933
884.742197	7118.938501
885.051831	6515.497262
885.361424	5977.109593
885.670975	5552.238626
885.980485	5196.731416
886.289954	4906.204678
886.599382	4666.772556
886.908768	4474.974296
887.218113	4295.481493
887.527417	4151.624606
887.836680	4017.076210
888.145901	3905.848191
888.455082	3823.574040
888.764221	3753.028133
889.073319	3682.643543
889.382376	3647.915034
889.691392	3620.332361
890.000366	3614.572843
890.309300	3603.399125
890.618193	3610.444138
890.927044	3602.022890
891.235855	3608.704940
891.544625	3626.530460
891.853353	3657.273936
892.162041	3724.752301
892.470687	3821.683607
892.779293	3950.666570
893.087858	4143.397443
893.396381	4446.884987
893.704864	4884.258015
894.013306	5486.355786
894.321707	6076.009469
894.630068	6439.897598
894.938387	6480.032744
895.246665	6299.433408
895.554903	5966.061904
895.863100	5617.874449
896.171256	5335.582437
896.479371	5079.806893
896.787446	4844.810986
897.095480	4632.641424
897.403473	4471.122854
897.711425	4312.628978
898.019336	4182.380686
898.327207	4051.635840
898.635038	3944.229016
898.942827	3828.216943
899.250576	3738.842326
899.558284	3648.083913
899.865952	3591.567537
900.173579	3524.147146
900.481165	3472.003971
900.788711	3427.283895
901.096216	3393.266189
901.403681	3363.120089
901.711105	3349.277080
902.018489	3345.460927
902.325832	3381.830331
902.633135	3446.389868
902.940397	3631.841315
903.247619	4077.905293
903.554800	4879.229464
903.861941	5899.619496
904.169041	6640.132229
904.476101	6868.761159
904.783121	6590.038283
905.090100	6169.754766
905.397039	5734.052881
905.703938	5351.424262
906.010796	5006.652189
906.317614	4734.084562
906.624391	4470.961537
906.931129	4259.147376
907.237826	4061.836615
907.544483	3872.939539
907.851099	3691.150490
908.157675	3513.538037
908.464211	3359.994573
908.770707	3252.411309
909.077163	3168.826458
909.383578	3103.117538
909.689954	3052.133829
909.996289	3020.107378
910.302584	2993.439674
910.608839	2981.787047
910.915054	2967.122331
911.221229	2964.712659
911.527363	2969.993268
911.833458	2975.891418
912.139513	2992.287771
912.445527	3004.494925
912.751502	3041.673434
913.057436	3090.791917
913.363331	3154.870023
913.669186	3246.863519
913.975000	3382.417626
914.280775	3589.553596
914.586510	3881.602762
914.892205	4283.723001
915.197859	4818.110515
915.503475	5430.499802
915.809050	5943.170024
916.114585	6241.376960
916.420081	6301.772503
916.725536	6236.446711
917.030952	5989.750286
917.336328	5778.994767
917.641665	5557.063010
917.946961	5319.130631
918.252218	5106.656079
918.557435	4865.683884
918.862612	4654.492305
919.167750	4470.006239
919.472848	4264.135598
919.777906	4084.095830
920.082925	3915.592742
920.387904	3746.817432
920.692843	3629.968527
920.997743	3523.262423
921.302603	3421.942793
921.607423	3352.566433
921.912204	3278.159002
922.216946	3226.194789
922.521647	3170.507683
922.826310	3125.296094
923.130932	3084.369487
923.435516	3042.006151
923.740059	3012.943899
924.044564	2977.895277
924.349028	2952.908798
924.653454	2919.417892
924.957840	2888.298849
925.262186	2869.651621
925.566493	2844.634895
925.870761	2818.874599
926.174989	2805.565953
926.479178	2788.126081
926.783328	2769.304933
927.087438	2756.659199
927.391509	2746.597056
927.695541	2734.006774
927.999533	2718.822819
928.303486	2711.170347
928.607400	2703.558205
928.911275	2697.526464
929.215110	2691.409024
929.518906	2685.014320
929.822663	2685.652026
930.126381	2683.338137
930.430060	2687.882737
930.733699	2691.003211
931.037299	2692.621422
931.340861	2690.678057
931.644383	2696.422452
931.947866	2693.294416
932.251309	2690.284847
932.554714	2691.151925
932.858080	2688.777542
933.161407	2685.778055
933.464694	2681.490554
933.767943	2680.303362
934.071153	2675.960408
934.374323	2667.541681
934.677455	2668.723832
934.980548	2663.415497
935.283602	2661.875424
935.586617	2657.900474
935.889593	2662.112358
936.192530	2662.896258
936.495428	2667.287103
936.798287	2678.475944
937.101108	2693.806093
937.403890	2714.663867
937.706632	2744.068917
938.009336	2772.495984
938.312002	2806.788433
938.614628	2830.202072
938.917216	2853.842563
939.219765	2864.184490
939.522275	2874.022302
939.824747	2874.264277
940.127179	2868.096425
940.429573	2866.153060
940.731929	2863.065354
941.034246	2856.342975
941.336524	2852.153776
941.638763	2846.031295
941.940964	2840.987620
942.243126	2824.432471
942.545250	2810.712971
942.847335	2797.298461
943.149381	2782.091820
943.451389	2769.695623
943.753359	2752.593508
944.055290	2745.397261
944.357182	2732.277658
944.659036	2732.262535
944.960851	2726.601319
945.262628	2721.315669
945.564367	2722.023951
945.866067	2719.261399
946.167729	2718.732078
946.469352	2715.886347
946.770937	2712.907025
947.072484	2707.296220
947.373992	2710.857796
947.675462	2703.981662
947.976893	2697.435723
948.278286	2696.049406
948.579641	2691.124199
948.880958	2689.193437
949.182236	2687.408868
949.483476	2682.728157
949.784678	2682.155986
950.085841	2683.670853
950.386967	2687.827284
950.688054	2695.736855
950.989103	2704.198431
951.290114	2712.856613
951.591087	2722.659137
951.892021	2735.438462
952.192917	2749.258785
952.493776	2754.047881
952.794596	2761.869231
953.095378	2763.996598
953.396122	2764.238574
953.696828	2759.787235
953.997496	2758.325300
954.298126	2745.162847
954.598718	2733.817731
954.899272	2725.835064
955.199788	2713.882488
955.500266	2701.362782
955.800706	2684.918538
956.101108	2670.231137
956.401472	2658.845691
956.701798	2642.716519
957.002087	2627.174642
957.302337	2620.129629
957.602550	2606.694954
957.902724	2591.732810
958.202861	2582.908270
958.502960	2573.730849
958.803022	2566.395970
959.103045	2555.832232
959.403031	2549.775286
959.702979	2544.172044
960.002889	2537.079140
960.302762	2535.120652
960.602596	2529.766947
960.902393	2523.949455
961.202153	2521.375946
961.501875	2521.156656
961.801559	2517.128774
962.101205	2512.112826
962.400814	2513.501664
962.700385	2506.053359
962.999918	2506.285252
963.299414	2506.171826
963.598873	2502.302740
963.898293	2499.449447
964.197677	2498.902482
964.497022	2499.704026
964.796331	2499.220075
965.095601	2497.548932
965.394835	2498.884838
965.694030	2495.230002
965.993189	2495.406442
966.292309	2493.447954
966.591393	2492.371667
966.890439	2493.636997
967.189447	2492.530464
967.488419	2490.861842
967.787353	2495.383757
968.086249	2493.299240
968.385108	2496.238232
968.683930	2494.209168
968.982714	2494.899806
969.281462	2498.400887
969.580172	2502.297699
969.878844	2500.906341
970.177480	2508.624347
970.476078	2506.885149
970.774639	2514.149452
971.073162	2513.199194
971.371649	2513.199194
971.670098	2517.156500
971.968510	2514.721623
972.266885	2515.175327
972.565223	2522.306039
972.863524	2522.605988
973.161788	2524.130937
973.460014	2524.110772
973.758204	2529.141843
974.056356	2527.460619
974.354471	2528.877183
974.652550	2528.700742
974.950591	2527.929446
975.248595	2527.105217
975.546563	2529.245187
975.844493	2521.736388
976.142386	2520.050122
976.440243	2518.235307
976.738062	2518.313445
977.035845	2516.705317
977.333590	2512.682476
977.631299	2509.146107
977.928971	2508.324399
978.226606	2505.224089
978.524204	2505.387927
978.821765	2504.898935
979.119290	2505.183760
979.416777	2503.326095
979.714228	2504.835920
980.011642	2507.147289
980.309020	2511.369256
980.606360	2514.419154
980.903664	2522.500123
981.200931	2537.734490
981.498162	2558.148643
981.795356	2595.319591
982.092513	2633.171094
982.389633	2681.180523
982.686717	2722.790207
982.983764	2757.904364
983.280775	2778.658794
983.577749	2778.550409
983.874686	2766.950714
984.171587	2751.489496
984.468451	2735.130951
984.765279	2715.788044
985.062070	2696.172914
985.358824	2677.651715
985.655543	2652.599701
985.952224	2630.877369
986.248869	2599.135744
986.545478	2569.992834
986.842050	2551.612787
987.138586	2528.143695
987.435086	2513.738598
987.731549	2499.656135
988.027975	2494.274703
988.324366	2488.792448
988.620719	2484.106696
988.917037	2479.297435
989.213318	2477.036477
989.509563	2474.294090
989.805772	2470.722432
990.101944	2470.598924
990.398080	2469.164716
990.694180	2470.601444
990.990244	2470.367031
991.286271	2472.917855
991.582262	2468.501804
991.878217	2470.130097
992.174136	2473.071610
992.470019	2473.984059
992.765865	2472.665797
993.061676	2478.374904
993.357450	2479.811633
993.653188	2481.329020
993.948890	2487.174238
994.244556	2497.410301
994.540186	2506.575118
994.835780	2518.689011
995.131337	2534.911444
995.426859	2550.591953
995.722345	2574.446693
996.017795	2592.068046
996.313208	2608.272835
996.608586	2619.504526
996.903928	2620.863117
997.199234	2621.379835
997.494504	2617.488065
997.789738	2614.193671
998.084936	2599.155909
998.380099	2584.085379
998.675225	2574.091292
998.970316	2561.039744
999.265371	2546.443083
999.560390	2530.825589
999.855373	2519.326717
1000.150320	2506.277690
1000.445232	2496.034066
1000.740108	2490.168683
1001.034948	2484.038640
1001.329752	2478.969760
1001.624521	2471.289562
1001.919254	2465.721607
1002.213951	2465.409056
1002.508613	2460.047789
1002.803239	2462.764971
1003.097829	2457.123920
1003.392384	2458.278344
1003.686903	2456.650051
1003.981386	2452.702828
1004.275834	2452.380194
1004.570246	2452.130657
1004.864623	2451.513115
1005.158964	2448.679987
1005.453270	2447.470110
1005.747540	2449.698300
1006.041775	2450.643516
1006.335974	2449.504216
1006.630138	2447.845676
1006.924266	2445.985490
1007.218359	2445.695624
1007.512416	2447.613783
1007.806438	2448.564040
1008.100425	2445.504060
1008.394376	2445.531786
1008.688292	2443.900973
1008.982172	2444.430294
1009.276017	2445.461210
1009.569827	2442.376024
1009.863602	2444.606735
1010.157341	2443.336364
1010.451045	2444.027002
1010.744714	2445.357867
1011.038347	2445.320058
1011.331945	2440.452824
1011.625508	2446.456838
1011.919036	2442.129008
1012.212528	2444.752928
1012.505986	2441.544234
1012.799408	2443.863164
1013.092795	2442.527259
1013.386147	2439.116918
1013.679464	2441.705551
1013.972745	2440.780499
1014.265992	2441.362752
1014.559204	2441.703030
1014.852380	2438.643050
1015.145521	2441.077927
1015.438628	2440.024326
1015.731699	2440.346960
1016.024736	2440.551126
1016.317737	2440.205807
1016.610703	2441.513987
1016.903635	2440.934254
1017.196531	2435.325970
1017.489393	2440.556167
1017.782219	2436.949222
1018.075011	2446.003134
1018.367768	2441.062803
1018.660490	2442.343257
1018.953177	2442.343257
1019.245829	2442.343257
